Data from 20250701_urea_2M_exp3_MAYP1162681_20-39-51-489.txt Node
Date: Tue Jul 01 20:39:51 BST 2025
User: adleo
Spectrometer: MAYP116268
Trigger mode: 0
Integration Time (sec): 4.000000E0
Scans to average: 1
Electric dark correction enabled: true
Nonlinearity correction enabled: true
Boxcar width: 10
XAxis mode: Wavelengths
Number of Pixels in Spectrum: 2068
>>>>>Begin Spectral Data<<<<<
179.565	3963.45
179.642	4172.96
179.718	4336.36
179.795	4475.49
179.871	4600.16
179.948	4664.92
180.024	4743.51
180.101	4827.86
180.177	4885.68
180.254	4974.35
180.33	5056.69
180.407	5344.36
180.483	5651.41
180.56	5963.22
180.636	6251.52
180.712	6208.97
180.789	6244.73
180.865	6286.94
180.942	6317.75
181.018	6357.25
181.095	6403.6
181.171	6420.26
181.248	6420.55
181.324	6471.75
181.4	6502.68
181.477	6542.4
181.553	6591.97
181.63	6667.09
181.706	6724.68
181.782	6747.96
181.859	6739.03
181.935	6756.85
182.011	6744.74
182.088	6803.45
182.164	6876.65
182.24	6922.79
182.317	6955.44
182.393	6949.87
182.469	7008.39
182.546	7059.55
182.622	7076.94
182.698	7059.45
182.775	7106.97
182.851	7155.4
182.927	7132.53
183.003	7114.61
183.08	7086.94
183.156	7118.17
183.232	7106.54
183.308	7062.96
183.385	7093.89
183.461	7158.04
183.537	7157.71
183.613	7203.74
183.69	7170.44
183.766	7122.84
183.842	7154.95
183.918	7175.23
183.995	7223.86
184.071	7225.3
184.147	7202.32
184.223	7163.95
184.299	7211.74
184.375	7169.31
184.452	7195.08
184.528	7329.07
184.604	7368.56
184.68	7413.39
184.756	7438.2
184.832	7452.18
184.908	7472.69
184.985	7470.96
185.061	7417.91
185.137	7455.16
185.213	7409.56
185.289	7413.54
185.365	7392.74
185.441	7385.15
185.517	7434.35
185.593	7418.15
185.669	7411.85
185.745	7449.3
185.822	7506.03
185.898	7476.51
185.974	7510.86
186.05	7489.94
186.126	7410.76
186.202	7389.76
186.278	7377.11
186.354	7342.36
186.43	7364.62
186.506	7357.61
186.582	7357.47
186.658	7373.8
186.734	7300.62
186.81	7312.97
186.886	7326.75
186.962	7370.44
187.038	7356.45
187.114	7325.32
187.19	7352.2
187.266	7320.15
187.341	7326.26
187.417	7297.52
187.493	7297.23
187.569	7307.42
187.645	7276.18
187.721	7233.35
187.797	7259.59
187.873	7275.74
187.949	7259.21
188.025	7239.49
188.101	7248.91
188.176	7265.63
188.252	7256.36
188.328	7284.12
188.404	7286.81
188.48	7270.13
188.556	7247.4
188.632	7242.16
188.707	7244.66
188.783	7230.09
188.859	7214.73
188.935	7169.39
189.011	7196.93
189.086	7172.09
189.162	7143.63
189.238	7139.79
189.314	7132.25
189.39	7109.08
189.465	7081.93
189.541	7138.6
189.617	7085.74
189.693	7068.11
189.768	7081.09
189.844	7166.39
189.92	7135.37
189.996	7170.7
190.071	7213.43
190.147	7208.05
190.223	7243.09
190.298	7217.32
190.374	7170.14
190.45	7212.32
190.526	7245.58
190.601	7233.61
190.677	7237.6
190.753	7333.22
190.828	7346.91
190.904	7398.21
190.98	7452.97
191.055	7491.95
191.131	7464.5
191.207	7533.08
191.282	7566.33
191.358	7535.14
191.433	7482.37
191.509	7536.4
191.585	7517.41
191.66	7517.7
191.736	7545.63
191.811	7515.48
191.887	7570.4
191.963	7661.6
192.038	7677.41
192.114	7675.83
192.189	7690.15
192.265	7681.94
192.34	7607.56
192.416	7601.84
192.491	7585.92
192.567	7589.82
192.642	7599.87
192.718	7597.23
192.793	7560.06
192.869	7546.32
192.944	7550.88
193.02	7580.7
193.095	7591.71
193.171	7614.93
193.246	7608.78
193.322	7600.41
193.397	7599.79
193.473	7551.84
193.548	7485.81
193.624	7504.61
193.699	7502.98
193.775	7551.9
193.85	7556.08
193.925	7584.69
194.001	7584.35
194.076	7557.77
194.152	7524.78
194.227	7497.99
194.302	7464.6
194.378	7475.08
194.453	7465.9
194.529	7512.54
194.604	7459.84
194.679	7441.48
194.755	7376.37
194.83	7422.6
194.905	7415.48
194.981	7450.34
195.056	7421.27
195.131	7444.1
195.207	7442.65
195.282	7408.87
195.357	7344.23
195.433	7403.84
195.508	7362.87
195.583	7386.57
195.659	7440.81
195.734	7462.06
195.809	7460.72
195.884	7495.21
195.96	7495.21
196.035	7549.15
196.11	7532.99
196.185	7573.03
196.261	7580.44
196.336	7686.92
196.411	7634.21
196.486	7653.39
196.561	7626.65
196.637	7661.4
196.712	7719.22
196.787	7726.05
196.862	7777.73
196.937	7811.86
197.013	7824.61
197.088	7858.99
197.163	7940.93
197.238	7996.77
197.313	7998.55
197.388	8044.38
197.464	8149.47
197.539	8188.76
197.614	8163.71
197.689	8207.44
197.764	8268.32
197.839	8341.82
197.914	8317.76
197.989	8398.4
198.065	8448.82
198.14	8626.99
198.215	8719.15
198.29	8760.22
198.365	8810.7
198.44	8855.94
198.515	8953.27
198.59	9008.38
198.665	9106.29
198.74	9128.98
198.815	9142.22
198.89	9224.05
198.965	9332.5
199.04	9318.97
199.115	9377.41
199.19	9532.18
199.265	9538.1
199.34	9573.69
199.415	9687.9
199.49	9767.14
199.565	9799.12
199.64	9883.06
199.715	9876.94
199.79	9902.71
199.865	9921.78
199.94	9911.77
200.015	10015.04
200.09	10033.35
200.165	10058.97
200.24	10077.76
200.315	10217.51
200.39	10264.92
200.464	10288.81
200.539	10292.81
200.614	10352.1
200.689	10434.1
200.764	10453.33
200.839	10523.78
200.914	10539.92
200.989	10507.58
201.063	10557.16
201.138	10498.47
201.213	10495.48
201.288	10421.68
201.363	10445.14
201.438	10446.87
201.512	10507.12
201.587	10449.3
201.662	10467.9
201.737	10511.07
201.812	10542.54
201.886	10422.82
201.961	10453.43
202.036	10405.17
202.111	10392.93
202.186	10286.08
202.26	10219.35
202.335	10144.72
202.41	10120.78
202.485	10062.74
202.559	9993.48
202.634	9897.1
202.709	9929.45
202.784	9860.19
202.858	9853.93
202.933	9780.34
203.008	9752.31
203.082	9683.25
203.157	9675.2
203.232	9521.83
203.306	9442.88
203.381	9327.14
203.456	9246.83
203.53	9169.59
203.605	9103.42
203.68	9018.13
203.754	8996.24
203.829	8945.2
203.904	8873.92
203.978	8831.88
204.053	8841.13
204.127	8794.54
204.202	8795.45
204.277	8726.01
204.351	8699.92
204.426	8681.92
204.5	8652.27
204.575	8531.23
204.65	8562.24
204.724	8534.07
204.799	8561.86
204.873	8546.94
204.948	8538.52
205.022	8496.29
205.097	8462.19
205.171	8507.52
205.246	8536.45
205.32	8530.15
205.395	8527.55
205.469	8493.22
205.544	8509.15
205.618	8451.5
205.693	8492.6
205.767	8451.74
205.842	8536.26
205.916	8520.48
205.991	8482.22
206.065	8505.61
206.14	8558.25
206.214	8546.55
206.289	8523.01
206.363	8562.33
206.438	8575.37
206.512	8604.44
206.586	8676.08
206.661	8704.2
206.735	8625.13
206.81	8630.24
206.884	8685.33
206.958	8641.74
207.033	8703.26
207.107	8729.07
207.181	8839.51
207.256	8815.4
207.33	8871.7
207.405	8913.85
207.479	8979.99
207.553	9007.9
207.628	8949.35
207.702	8995.98
207.776	8965.8
207.851	8976.24
207.925	9034.32
207.999	9015.98
208.073	9004.52
208.148	9016.61
208.222	8977.41
208.296	9098.23
208.371	9153.24
208.445	9195.42
208.519	9299.54
208.593	9335.35
208.668	9327.94
208.742	9335.12
208.816	9343.1
208.89	9400.95
208.965	9388.91
209.039	9422.14
209.113	9483.49
209.187	9553.16
209.261	9538.33
209.336	9608.2
209.41	9682.08
209.484	9678.56
209.558	9757.3
209.632	9804.25
209.707	9843.12
209.781	9921.72
209.855	9970.18
209.929	10029.41
210.003	10043.23
210.077	10035.91
210.151	10213.49
210.226	10332.89
210.3	10426.49
210.374	10511.49
210.448	10514.77
210.522	10552.2
210.596	10585.55
210.67	10622.16
210.744	10787.72
210.818	10902.89
210.892	10975.6
210.966	10953.05
211.041	11012.61
211.115	11004.18
211.189	11089.51
211.263	11151.53
211.337	11170.03
211.411	11221.74
211.485	11199.95
211.559	11243.94
211.633	11253.77
211.707	11142.91
211.781	11164.31
211.855	11036.42
211.929	10999.57
212.003	10936.32
212.077	10968.9
212.151	11008.09
212.225	11033.34
212.299	10995.4
212.373	10950.4
212.447	10931.46
212.52	11028.08
212.594	11039.26
212.668	11070.87
212.742	11019.25
212.816	10986.87
212.89	10967.84
212.964	10953.28
213.038	10958
213.112	11001.52
213.186	11048.74
213.26	10965.36
213.333	10796.25
213.407	10805.83
213.481	10807.32
213.555	10839.44
213.629	10791.35
213.703	10723.69
213.777	10714.29
213.85	10641
213.924	10746.49
213.998	10742.39
214.072	10708.08
214.146	10642.74
214.219	10628.04
214.293	10598.12
214.367	10593.3
214.441	10614.22
214.515	10561.21
214.588	10463.93
214.662	10326
214.736	10241.61
214.81	10258.8
214.883	10279.07
214.957	10232.21
215.031	10177.95
215.105	10082.59
215.178	10017.23
215.252	9976.62
215.326	9858.38
215.4	9763.1
215.473	9568.29
215.547	9475.6
215.621	9407.57
215.694	9403.28
215.768	9290.41
215.842	9222.28
215.915	9144.21
215.989	9021.17
216.063	8958.75
216.136	8934.34
216.21	8907.29
216.284	8914.17
216.357	8878.21
216.431	8831.42
216.504	8824.87
216.578	8884.77
216.652	8892.8
216.725	8863.77
216.799	8870.95
216.873	8861.85
216.946	8869.07
217.02	8833.58
217.093	8797.38
217.167	8689.91
217.24	8603.78
217.314	8573.19
217.387	8528.7
217.461	8478.31
217.535	8500.93
217.608	8436.17
217.682	8406.33
217.755	8413.6
217.829	8358.53
217.902	8344.82
217.976	8321
218.049	8270.29
218.123	8184.8
218.196	8183.3
218.27	8147.22
218.343	8067.47
218.417	8055.05
218.49	8033.45
218.563	8078.04
218.637	8084.83
218.71	8155.07
218.784	8180.1
218.857	8213.19
218.931	8232.86
219.004	8241.08
219.077	8261.3
219.151	8281.31
219.224	8271.78
219.298	8265.09
219.371	8305.43
219.444	8261.9
219.518	8275.18
219.591	8296.63
219.665	8403.8
219.738	8418.57
219.811	8398.09
219.885	8444.33
219.958	8482.35
220.031	8484.56
220.105	8508.48
220.178	8514.26
220.251	8489.71
220.325	8515.46
220.398	8535.1
220.471	8556.5
220.544	8602.03
220.618	8575.17
220.691	8608.71
220.764	8633.68
220.838	8665.31
220.911	8651.3
220.984	8740.84
221.057	8769.71
221.131	8789.06
221.204	8694.54
221.277	8764.63
221.35	8896.13
221.424	8885.98
221.497	8899.84
221.57	8921.59
221.643	8951.44
221.716	9002.05
221.79	9014.61
221.863	9018.12
221.936	9022.65
222.009	9037.32
222.082	9064.63
222.155	9072.04
222.229	9138.21
222.302	9162.66
222.375	9169.59
222.448	9210.09
222.521	9213.7
222.594	9224.1
222.667	9197.54
222.74	9251.6
222.814	9244.61
222.887	9227.7
222.96	9285.1
223.033	9325.31
223.106	9359.78
223.179	9391.9
223.252	9410.4
223.325	9435.63
223.398	9460.34
223.471	9498.04
223.544	9523.26
223.617	9538.14
223.69	9564.72
223.763	9522.77
223.837	9552.82
223.91	9582.24
223.983	9532.17
224.056	9495.15
224.129	9521.73
224.202	9583.87
224.275	9571.2
224.348	9543.85
224.42	9507.3
224.493	9452.84
224.566	9425.15
224.639	9444.5
224.712	9414.01
224.785	9390.89
224.858	9383.19
224.931	9361.66
225.004	9316.79
225.077	9313.95
225.15	9214.83
225.223	9212.71
225.296	9302.85
225.369	9240.89
225.442	9208.48
225.514	9226.43
225.587	9255.27
225.66	9252.47
225.733	9248.33
225.806	9263.55
225.879	9256.13
225.952	9229.8
226.025	9278.77
226.097	9332.63
226.17	9320.83
226.243	9250.31
226.316	9245.01
226.389	9253.34
226.461	9268.9
226.534	9288.1
226.607	9274.91
226.68	9363.96
226.753	9353.27
226.825	9257.31
226.898	9312.43
226.971	9316.52
227.044	9342.33
227.117	9345.75
227.189	9372.72
227.262	9411.01
227.335	9425.66
227.407	9418.96
227.48	9447.9
227.553	9454.64
227.626	9438.93
227.698	9442.78
227.771	9488.84
227.844	9469.29
227.916	9485.57
227.989	9451.43
228.062	9447.67
228.134	9535.38
228.207	9534.51
228.28	9534.9
228.352	9550.31
228.425	9559.75
228.498	9603.04
228.57	9572.09
228.643	9636.2
228.716	9630.76
228.788	9619.68
228.861	9615.01
228.934	9688.06
229.006	9695.19
229.079	9700.05
229.151	9685.26
229.224	9650.94
229.296	9674.39
229.369	9783.07
229.442	9840.21
229.514	9814.94
229.587	9869.89
229.659	9799.47
229.732	9810.98
229.804	9851.91
229.877	9938.92
229.949	9973.42
230.022	10030.18
230.094	10038.36
230.167	10019.72
230.239	9972.96
230.312	9959.28
230.384	10022.15
230.457	10014.97
230.529	10023.79
230.602	10030.87
230.674	10038.38
230.747	10089.71
230.819	10127.62
230.892	10002.18
230.964	9997.32
231.037	10032.6
231.109	10018.58
231.181	10057.55
231.254	10024.27
231.326	10010.68
231.399	9975.6
231.471	9945.54
231.544	9859.11
231.616	9906.35
231.688	9915.7
231.761	9908.67
231.833	9900.67
231.905	9817.48
231.978	9815.89
232.05	9802.6
232.122	9802.74
232.195	9777.93
232.267	9812.18
232.339	9785.59
232.412	9852.53
232.484	9828.1
232.556	9799.02
232.629	9869.85
232.701	9890.86
232.773	9912.38
232.846	9901.79
232.918	9920.15
232.99	9939.9
233.062	9989.71
233.135	9998.67
233.207	9956.09
233.279	9997.59
233.351	10025.38
233.424	10035.45
233.496	10008.14
233.568	10096.73
233.64	10056.61
233.713	10079.39
233.785	10073.61
233.857	10088.83
233.929	10039.76
234.001	10103.94
234.074	10176.99
234.146	10097.25
234.218	10095.52
234.29	10092.24
234.362	10083.67
234.434	10028.8
234.507	9987.66
234.579	9932.12
234.651	9919.26
234.723	9960.97
234.795	9981.01
234.867	9976.44
234.939	10039.88
235.012	10063.87
235.084	10066.57
235.156	10105
235.228	10081.83
235.3	10063.53
235.372	10075.14
235.444	10138.67
235.516	10057.33
235.588	10060.56
235.66	10081.22
235.732	10051.36
235.804	10252.09
235.876	10298.32
235.948	10363.75
236.02	10386.05
236.092	10403.01
236.164	10418.61
236.236	10415.92
236.308	10423.91
236.38	10461.4
236.452	10432.63
236.524	10453.88
236.596	10523.67
236.668	10556.67
236.74	10585.05
236.812	10617.9
236.884	10657.51
236.956	10664.16
237.028	10656.17
237.1	10644.41
237.172	10723.35
237.244	10806.7
237.316	10682.53
237.388	10667.45
237.46	10645.96
237.532	10710.24
237.604	10687.22
237.675	10756.9
237.747	10807.26
237.819	10795.41
237.891	10800.08
237.963	10794.64
238.035	10795.55
238.107	10671.12
238.178	10742.88
238.25	10748.23
238.322	10842.74
238.394	10794.08
238.466	10807.13
238.538	10859.98
238.609	10903.3
238.681	10841.52
238.753	10817.37
238.825	10841.33
238.897	10873.75
238.968	10962.58
239.04	10939.45
239.112	11072.77
239.184	11032.62
239.255	11022.16
239.327	11051.98
239.399	11071.5
239.471	11126.67
239.542	11161.22
239.614	11239.14
239.686	11152.3
239.758	11212.77
239.829	11179.56
239.901	11248.38
239.973	11254.98
240.044	11287.41
240.116	11302.16
240.188	11322.3
240.259	11339.31
240.331	11329.38
240.403	11371.41
240.474	11316.41
240.546	11305.62
240.618	11240.07
240.689	11237.28
240.761	11264.36
240.833	11337.91
240.904	11336.99
240.976	11336.13
241.048	11347.4
241.119	11395.51
241.191	11448.9
241.262	11519.47
241.334	11524.25
241.405	11531.14
241.477	11542.9
241.549	11550.22
241.62	11584.2
241.692	11630.95
241.763	11696.17
241.835	11725.04
241.906	11742.06
241.978	11711.98
242.049	11785.29
242.121	11848.28
242.192	11930.7
242.264	11898.21
242.335	11843.41
242.407	11894.12
242.478	11900.57
242.55	11922.89
242.621	11896.28
242.693	11889.34
242.764	11870.64
242.836	11871.46
242.907	11901.49
242.979	11932.24
243.05	11953.25
243.122	11976.1
243.193	11978.03
243.264	11898.79
243.336	11892.71
243.407	11931.37
243.479	12019.96
243.55	12044.74
243.622	12066
243.693	12059.3
243.764	12126.73
243.836	12107.02
243.907	12099.3
243.978	12105.43
244.05	12135.02
244.121	12086.1
244.192	12138.83
244.264	12091.45
244.335	12106.01
244.407	12059.2
244.478	12080.46
244.549	12077.28
244.62	12026.33
244.692	12025.47
244.763	12078.92
244.834	12068.7
244.906	12043.87
244.977	12065.71
245.048	12117.73
245.119	12093
245.191	12071.4
245.262	12000.21
245.333	12082
245.405	12097.62
245.476	12130.78
245.547	12151.32
245.618	12210.5
245.689	12218.7
245.761	12259.09
245.832	12264.35
245.903	12303.25
245.974	12329.37
246.045	12338.92
246.117	12431.32
246.188	12414.93
246.259	12397.97
246.33	12419.46
246.401	12431.85
246.473	12394.3
246.544	12378.06
246.615	12441.11
246.686	12444.24
246.757	12528.88
246.828	12512.44
246.899	12596.56
246.97	12560.41
247.042	12545.85
247.113	12592.52
247.184	12682.08
247.255	12683.05
247.326	12714.33
247.397	12728.7
247.468	12741.67
247.539	12768.32
247.61	12720.7
247.681	12764.56
247.752	12829.63
247.823	12814.45
247.894	12825.25
247.965	12802.06
248.037	12787.99
248.108	12729.51
248.179	12741.71
248.25	12735.88
248.321	12759.79
248.392	12701.41
248.463	12792.56
248.534	12794.97
248.605	12821.05
248.675	12798.06
248.746	12817.05
248.817	12837.78
248.888	12859.95
248.959	12806.69
249.03	12824.76
249.101	12835.08
249.172	12825.39
249.243	12739.54
249.314	12805.58
249.385	12817.3
249.456	12847.81
249.527	12847.28
249.598	12880.97
249.669	12878.32
249.739	12897.7
249.81	12916.07
249.881	12868.39
249.952	12861.4
250.023	12857.88
250.094	12799.6
250.165	12764.27
250.235	12759.93
250.306	12762
250.377	12727.58
250.448	12746.14
250.519	12680.58
250.59	12744.79
250.66	12746.48
250.731	12823.8
250.802	12815.02
250.873	12841.06
250.944	12868.68
251.014	12853.35
251.085	12943.93
251.156	12975.55
251.227	13027.08
251.297	13085.99
251.368	13148.7
251.439	13188.96
251.51	13245.31
251.58	13232.1
251.651	13227.43
251.722	13285.03
251.792	13229.6
251.863	13233.31
251.934	13304.03
252.005	13430.71
252.075	13435.58
252.146	13478.72
252.217	13530.26
252.287	13581.31
252.358	13583.23
252.429	13655.01
252.499	13650.48
252.57	13664.65
252.641	13714.6
252.711	13719.61
252.782	13667.02
252.852	13744.43
252.923	13747.9
252.994	13758.61
253.064	13811.87
253.135	13794.95
253.205	13773.98
253.276	13858.83
253.347	13932.05
253.417	13902.21
253.488	13874.88
253.558	13860.27
253.629	13868.27
253.699	13882.11
253.77	13901.1
253.841	13894.93
253.911	13905.15
253.982	13924.87
254.052	13953.84
254.123	13958.42
254.193	13967.38
254.264	14111.56
254.334	14070.83
254.405	14036.41
254.475	14006.42
254.546	14014.14
254.616	14082.11
254.687	14111.47
254.757	14132.39
254.827	14132.29
254.898	14163.19
254.968	14169.51
255.039	14150.8
255.109	14189.7
255.18	14157.12
255.25	14091.56
255.321	14128.63
255.391	14084.66
255.461	14179.1
255.532	14085.58
255.602	14087.66
255.673	14024.36
255.743	13986.86
255.813	13916.72
255.884	13967.96
255.954	14007.88
256.024	14072.43
256.095	14075.75
256.165	14039.6
256.235	14059.6
256.306	14034
256.376	14082.16
256.446	14131.04
256.517	14169.27
256.587	14212.36
256.657	14242.15
256.728	14269.25
256.798	14282.21
256.868	14275.8
256.938	14238.01
257.009	14295.66
257.079	14324.68
257.149	14426.83
257.219	14359.34
257.29	14404.51
257.36	14347.92
257.43	14385.66
257.5	14317.65
257.571	14307.33
257.641	14346.28
257.711	14313.65
257.781	14348.98
257.852	14363.88
257.922	14289.54
257.992	14299.91
258.062	14293.06
258.132	14327.38
258.202	14333.27
258.273	14340.74
258.343	14426.78
258.413	14418.01
258.483	14423.55
258.553	14386.34
258.623	14365.08
258.693	14405.04
258.764	14474.7
258.834	14548.02
258.904	14569.71
258.974	14562.82
259.044	14571.64
259.114	14602.44
259.184	14631.7
259.254	14647.27
259.324	14592.27
259.394	14651.47
259.464	14732.01
259.535	14726.42
259.605	14720.93
259.675	14706.71
259.745	14749.41
259.815	14720.78
259.885	14722.42
259.955	14840.41
260.025	14835.78
260.095	14842.1
260.165	14873.77
260.235	14938.07
260.305	14923.94
260.375	14888.8
260.445	14982.66
260.515	15052.55
260.585	15105.14
260.655	15116.08
260.725	15162.98
260.795	15206.03
260.865	15272.88
260.934	15238.71
261.004	15284.36
261.074	15286.33
261.144	15352.42
261.214	15391.22
261.284	15391.66
261.354	15434.94
261.424	15388.92
261.494	15470.58
261.564	15483.01
261.634	15510.73
261.703	15439.1
261.773	15462.34
261.843	15495.5
261.913	15479.26
261.983	15415.77
262.053	15433.41
262.123	15429.17
262.192	15385.02
262.262	15431.34
262.332	15378.46
262.402	15407
262.472	15412.3
262.541	15352.67
262.611	15408.92
262.681	15373.64
262.751	15418.75
262.821	15415.57
