Data from 20250701_urea_2M_exp3_MAYP1162681_02-39-49-729.txt Node
Date: Wed Jul 02 02:39:49 BST 2025
User: adleo
Spectrometer: MAYP116268
Trigger mode: 0
Integration Time (sec): 4.000000E0
Scans to average: 1
Electric dark correction enabled: true
Nonlinearity correction enabled: true
Boxcar width: 10
XAxis mode: Wavelengths
Number of Pixels in Spectrum: 2068
>>>>>Begin Spectral Data<<<<<
179.565	3682.62
179.642	3877.9
179.718	4028.41
179.795	4162.88
179.871	4280.37
179.948	4342.46
180.024	4415.36
180.101	4494.65
180.177	4546.51
180.254	4628.29
180.33	4706.46
180.407	4973.89
180.483	5264.44
180.56	5553.77
180.636	5816.22
180.712	5780.9
180.789	5818.65
180.865	5854.6
180.942	5884.38
181.018	5921.6
181.095	5976.9
181.171	5994.75
181.248	5993.98
181.324	6044.62
181.4	6067.85
181.477	6101.4
181.553	6149.41
181.63	6216.31
181.706	6269.31
181.782	6294.68
181.859	6292.23
181.935	6305.1
182.011	6292.95
182.088	6345.57
182.164	6416.28
182.24	6472.27
182.317	6500.49
182.393	6490.99
182.469	6542.55
182.546	6589.56
182.622	6606.36
182.698	6593.44
182.775	6634.21
182.851	6684.72
182.927	6661.86
183.003	6648.09
183.08	6629.17
183.156	6656.01
183.232	6646.31
183.308	6604.39
183.385	6636.99
183.461	6693.18
183.537	6701.92
183.613	6742.98
183.69	6710.37
183.766	6667.51
183.842	6685.47
183.918	6701.9
183.995	6748.28
184.071	6756.21
184.147	6740.12
184.223	6697.65
184.299	6733.3
184.375	6689.65
184.452	6715.27
184.528	6842.88
184.604	6879.13
184.68	6915.67
184.756	6939.8
184.832	6952.77
184.908	6975.13
184.985	6968.7
185.061	6915.63
185.137	6944.45
185.213	6903.11
185.289	6909.59
185.365	6888.94
185.441	6887.5
185.517	6932.92
185.593	6920.1
185.669	6911.06
185.745	6942.58
185.822	7002.77
185.898	6974.04
185.974	7013.27
186.05	6982.32
186.126	6905.15
186.202	6882.29
186.278	6875.27
186.354	6843.56
186.43	6868.75
186.506	6859.96
186.582	6859.15
186.658	6878.2
186.734	6809.63
186.81	6820.96
186.886	6832.87
186.962	6877.49
187.038	6862.55
187.114	6836.78
187.19	6860.32
187.266	6830.6
187.341	6834.3
187.417	6815.81
187.493	6820.75
187.569	6827.96
187.645	6805.39
187.721	6768.24
187.797	6791.05
187.873	6800.42
187.949	6782.71
188.025	6759.97
188.101	6771.88
188.176	6785.9
188.252	6776.06
188.328	6802.07
188.404	6801.88
188.48	6781.18
188.556	6753.75
188.632	6751.93
188.707	6752.6
188.783	6748.9
188.859	6734.89
188.935	6694.1
189.011	6712.4
189.086	6685.84
189.162	6651.21
189.238	6645.79
189.314	6635.56
189.39	6614.91
189.465	6596.9
189.541	6651.28
189.617	6600.91
189.693	6583.29
189.768	6592.99
189.844	6673.34
189.92	6651.22
189.996	6677.59
190.071	6717.31
190.147	6713.27
190.223	6746.18
190.298	6722.45
190.374	6677.21
190.45	6712.92
190.526	6744.34
190.601	6729.4
190.677	6735.88
190.753	6834.37
190.828	6846.71
190.904	6898.07
190.98	6952.75
191.055	6990.37
191.131	6964.37
191.207	7035.41
191.282	7069.02
191.358	7043.13
191.433	6995.25
191.509	7033.36
191.585	7029.57
191.66	7031.06
191.736	7061.61
191.811	7032.54
191.887	7085.99
191.963	7164.93
192.038	7184.15
192.114	7182.66
192.189	7194.86
192.265	7187.47
192.34	7116.01
192.416	7113.57
192.491	7102.12
192.567	7108.62
192.642	7110.39
192.718	7107.27
192.793	7062.87
192.869	7050.34
192.944	7059.13
193.02	7079.84
193.095	7096.75
193.171	7113.76
193.246	7111.89
193.322	7096.08
193.397	7095.02
193.473	7045.66
193.548	6983.32
193.624	6997.46
193.699	6994.19
193.775	7048.13
193.85	7050.24
193.925	7077.58
194.001	7077.58
194.076	7047.84
194.152	7016.36
194.227	6988.87
194.302	6959.29
194.378	6978.51
194.453	6967.51
194.529	7004.94
194.604	6959.97
194.679	6935.62
194.755	6871.17
194.83	6915.89
194.905	6914.11
194.981	6944.43
195.056	6922.63
195.131	6947.27
195.207	6941.98
195.282	6908.84
195.357	6841.74
195.433	6892.47
195.508	6854.46
195.583	6884.82
195.659	6933.36
195.734	6954.7
195.809	6954.75
195.884	6982.5
195.96	6980.24
196.035	7030.93
196.11	7021.02
196.185	7061.53
196.261	7076.46
196.336	7183.61
196.411	7132.02
196.486	7150.57
196.561	7125.72
196.637	7153.87
196.712	7203.01
196.787	7214.3
196.862	7266.81
196.937	7306.12
197.013	7323.47
197.088	7351
197.163	7414.92
197.238	7471.6
197.313	7470.73
197.388	7516.64
197.464	7622.92
197.539	7661.76
197.614	7638.74
197.689	7679.03
197.764	7729.1
197.839	7796.66
197.914	7775.83
197.989	7851.57
198.065	7894.26
198.14	8062.44
198.215	8153.34
198.29	8188.96
198.365	8230.56
198.44	8272.12
198.515	8359.35
198.59	8415.84
198.665	8508.7
198.74	8534.5
198.815	8541.24
198.89	8617.16
198.965	8715.4
199.04	8697.25
199.115	8754.27
199.19	8899.54
199.265	8908.2
199.34	8943.68
199.415	9058.15
199.49	9128.93
199.565	9158.97
199.64	9242.3
199.715	9230.83
199.79	9252.35
199.865	9271.85
199.94	9270.02
200.015	9374.23
200.09	9399.9
200.165	9419.83
200.24	9440.83
200.315	9571.25
200.39	9620.7
200.464	9637.8
200.539	9647.43
200.614	9702.51
200.689	9773.51
200.764	9796.15
200.839	9852.76
200.914	9874.48
200.989	9831.65
201.063	9881.45
201.138	9828.41
201.213	9825.28
201.288	9764.6
201.363	9781.94
201.438	9792.1
201.512	9845.25
201.587	9782
201.662	9786.19
201.737	9824.92
201.812	9856.81
201.886	9747.53
201.961	9777.93
202.036	9747.26
202.111	9730.69
202.186	9631.5
202.26	9573.65
202.335	9494.42
202.41	9474.29
202.485	9413.54
202.559	9350.32
202.634	9254.31
202.709	9286.02
202.784	9224.26
202.858	9225.51
202.933	9158.45
203.008	9131.87
203.082	9068.33
203.157	9060.53
203.232	8917.67
203.306	8842.94
203.381	8734.42
203.456	8658.56
203.53	8576.44
203.605	8505.25
203.68	8428.85
203.754	8408.28
203.829	8357.36
203.904	8291.21
203.978	8251.74
204.053	8262.57
204.127	8222.4
204.202	8220.14
204.277	8150.25
204.351	8126.68
204.426	8099.63
204.5	8076.69
204.575	7960.23
204.65	7991.03
204.724	7967.59
204.799	7996.76
204.873	7983.04
204.948	7973.86
205.022	7939.38
205.097	7918.78
205.171	7963.36
205.246	7988.77
205.32	7981.9
205.395	7979.88
205.469	7952.34
205.544	7966.92
205.618	7913.09
205.693	7953.21
205.767	7912.91
205.842	7994.4
205.916	7969.54
205.991	7931.59
206.065	7951.22
206.14	8002.25
206.214	7984.97
206.289	7962.21
206.363	8002.95
206.438	8014.79
206.512	8038.46
206.586	8102.08
206.661	8126.92
206.735	8053.32
206.81	8057.32
206.884	8108.53
206.958	8069.58
207.033	8122.94
207.107	8153.6
207.181	8254.99
207.256	8228.97
207.33	8290.53
207.405	8329.73
207.479	8394.48
207.553	8427.14
207.628	8375.16
207.702	8413.88
207.776	8394.2
207.851	8403.77
207.925	8450.27
207.999	8435.21
208.073	8430.88
208.148	8439.11
208.222	8394.64
208.296	8503.13
208.371	8555.66
208.445	8595.18
208.519	8695.25
208.593	8735.96
208.668	8717.67
208.742	8725.47
208.816	8736.06
208.89	8782.95
208.965	8774.18
209.039	8806.88
209.113	8860.74
209.187	8926.43
209.261	8912.96
209.336	8978.13
209.41	9047.12
209.484	9052.22
209.558	9128.77
209.632	9168.57
209.707	9203.48
209.781	9277.37
209.855	9325.86
209.929	9381.56
210.003	9407.37
210.077	9395.23
210.151	9559.72
210.226	9681.78
210.3	9775.79
210.374	9852.86
210.448	9864.13
210.522	9899.11
210.596	9936.05
210.67	9970.39
210.744	10131.23
210.818	10240
210.892	10311.06
210.966	10294.25
211.041	10345.36
211.115	10328.98
211.189	10411.4
211.263	10468.1
211.337	10497.77
211.411	10543.35
211.485	10527.98
211.559	10556.69
211.633	10567.33
211.707	10456.2
211.781	10472.01
211.855	10346.94
211.929	10313.23
212.003	10255.64
212.077	10289.08
212.151	10320.4
212.225	10347.58
212.299	10304.34
212.373	10261.81
212.447	10241.67
212.52	10332.92
212.594	10338.7
212.668	10380.03
212.742	10327.23
212.816	10304.92
212.89	10275.34
212.964	10266.19
213.038	10260.93
213.112	10305.79
213.186	10349.48
213.26	10272.21
213.333	10118.16
213.407	10131.07
213.481	10134.87
213.555	10163.47
213.629	10112.88
213.703	10052.32
213.777	10042.44
213.85	9968.54
213.924	10073.48
213.998	10063.55
214.072	10023.85
214.146	9962
214.219	9942.92
214.293	9923.8
214.367	9915.22
214.441	9934.93
214.515	9891.52
214.588	9803.91
214.662	9668.92
214.736	9584.17
214.81	9600.05
214.883	9617.04
214.957	9572.51
215.031	9524.24
215.105	9432.2
215.178	9371.86
215.252	9327.66
215.326	9222.07
215.4	9137.95
215.473	8956.97
215.547	8869.62
215.621	8808.06
215.694	8807.48
215.768	8702.3
215.842	8633
215.915	8558.95
215.989	8448.38
216.063	8381.89
216.136	8362.88
216.21	8338.59
216.284	8353.03
216.357	8328.34
216.431	8282.49
216.504	8275.47
216.578	8326.82
216.652	8338.69
216.725	8308.91
216.799	8319.45
216.873	8302.66
216.946	8306.94
217.02	8265.74
217.093	8235.53
217.167	8136.19
217.24	8053.09
217.314	8022.95
217.387	7977.19
217.461	7930.34
217.535	7949.44
217.608	7893.31
217.682	7869.35
217.755	7877.67
217.829	7819.03
217.902	7798.78
217.976	7784.55
218.049	7733.48
218.123	7655.14
218.196	7649.9
218.27	7615.61
218.343	7538.69
218.417	7537.78
218.49	7519.99
218.563	7563.59
218.637	7571.77
218.71	7644.58
218.784	7670.46
218.857	7701.66
218.931	7719.1
219.004	7733.96
219.077	7751.43
219.151	7770.46
219.224	7761.52
219.298	7759.88
219.371	7805.19
219.444	7761.89
219.518	7765.45
219.591	7788.43
219.665	7892.28
219.738	7909.74
219.811	7893.06
219.885	7943.22
219.958	7971.99
220.031	7976.89
220.105	7995.46
220.178	7997.24
220.251	7970.25
220.325	7998.11
220.398	8012.88
220.471	8032.88
220.544	8067.08
220.618	8046.78
220.691	8070.73
220.764	8084.1
220.838	8111.33
220.911	8095.4
220.984	8184.61
221.057	8220.1
221.131	8241.02
221.204	8145
221.277	8206.65
221.35	8333.67
221.424	8329.29
221.497	8338.48
221.57	8356.27
221.643	8393.43
221.716	8450.32
221.79	8455.37
221.863	8459.99
221.936	8472.74
222.009	8489.19
222.082	8518.69
222.155	8527.11
222.229	8597.59
222.302	8629.92
222.375	8634.44
222.448	8675.54
222.521	8678.29
222.594	8682.52
222.667	8653.71
222.74	8703.03
222.814	8704.52
222.887	8682.85
222.96	8733.54
223.033	8776.87
223.106	8806.5
223.179	8837.22
223.252	8839.34
223.325	8870.33
223.398	8887.91
223.471	8912.31
223.544	8940.07
223.617	8949.75
223.69	8974.15
223.763	8931.01
223.837	8954.31
223.91	8983.53
223.983	8929.29
224.056	8896.19
224.129	8915.24
224.202	8973.41
224.275	8967.05
224.348	8939.23
224.42	8908.61
224.493	8848.06
224.566	8822.88
224.639	8842.04
224.712	8805.87
224.785	8797.74
224.858	8787.53
224.931	8768.13
225.004	8733.96
225.077	8730.07
225.15	8639.75
225.223	8636.05
225.296	8718.59
225.369	8665.75
225.442	8632.63
225.514	8657.7
225.587	8678.92
225.66	8686.28
225.733	8685.75
225.806	8696.53
225.879	8681.71
225.952	8649
226.025	8698.81
226.097	8749.28
226.17	8740.52
226.243	8680.71
226.316	8676.08
226.389	8685.18
226.461	8711.76
226.534	8726.1
226.607	8713.39
226.68	8797.35
226.753	8792.92
226.825	8708.79
226.898	8760.38
226.971	8767.45
227.044	8781.79
227.117	8789.78
227.189	8805.96
227.262	8835.47
227.335	8854.97
227.407	8852.57
227.48	8881.67
227.553	8893.47
227.626	8872.13
227.698	8873.86
227.771	8914.37
227.844	8884.96
227.916	8891.99
227.989	8848.04
228.062	8849.73
228.134	8939.42
228.207	8940.72
228.28	8939.28
228.352	8949.05
228.425	8951.51
228.498	8993.25
228.57	8971.5
228.643	9030.77
228.716	9038.53
228.788	9030.29
228.861	9025.67
228.934	9092
229.006	9101.24
229.079	9098.74
229.151	9085.69
229.224	9056.82
229.296	9082.81
229.369	9190.2
229.442	9243.46
229.514	9225.18
229.587	9263.69
229.659	9184.68
229.732	9190.89
229.804	9224.49
229.877	9308.87
229.949	9344.8
230.022	9396.2
230.094	9399.57
230.167	9382.76
230.239	9331.87
230.312	9322.44
230.384	9391.9
230.457	9383.76
230.529	9392.61
230.602	9398.87
230.674	9411.01
230.747	9454.61
230.819	9484.18
230.892	9363.8
230.964	9362.11
231.037	9391.99
231.109	9389.73
231.181	9437.82
231.254	9412.31
231.326	9398.63
231.399	9367.32
231.471	9338.23
231.544	9258.56
231.616	9311.08
231.688	9325.15
231.761	9318.56
231.833	9308.4
231.905	9223.44
231.978	9221.85
232.05	9208.13
232.122	9208.71
232.195	9179.87
232.267	9217.23
232.339	9197.59
232.412	9266.28
232.484	9246.72
232.556	9220.78
232.629	9289.48
232.701	9305.56
232.773	9311.92
232.846	9299.83
232.918	9311.11
232.99	9326.95
233.062	9376.17
233.135	9381.13
233.207	9340.77
233.279	9380.86
233.351	9413.17
233.424	9413.6
233.496	9390.3
233.568	9478.96
233.64	9444.29
233.713	9462.83
233.785	9452.86
233.857	9461.14
233.929	9411.12
234.001	9475.44
234.074	9546.15
234.146	9472.55
234.218	9464.99
234.29	9469.41
234.362	9462.48
234.434	9411.67
234.507	9377.58
234.579	9319.36
234.651	9302.17
234.723	9336.65
234.795	9361.5
234.867	9349.36
234.939	9412.79
235.012	9435.9
235.084	9434.31
235.156	9473.26
235.228	9458.19
235.3	9444.56
235.372	9450.82
235.444	9510.81
235.516	9431.13
235.588	9434.7
235.66	9445.48
235.732	9422.61
235.804	9442.69
235.876	9486.16
235.948	9549.79
236.02	9563.08
236.092	9580.6
236.164	9594.33
236.236	9593.8
236.308	9587.53
236.38	9620.72
236.452	9590.23
236.524	9606.84
236.596	9673.64
236.668	9708.27
236.74	9734.51
236.812	9760.81
236.884	9800.21
236.956	9807.58
237.028	9799.93
237.1	9787.6
237.172	9864.87
237.244	9938.48
237.316	9994.98
237.388	9978.22
237.46	9953.32
237.532	10008.42
237.604	9997.58
237.675	10070.91
237.747	10116.53
237.819	10105.46
237.891	10108.83
237.963	10109.21
238.035	10103.29
238.107	9986.78
238.178	10052.03
238.25	10052.61
238.322	10147.35
238.394	10101.01
238.466	10103.66
238.538	10148.54
238.609	10186.4
238.681	10123.91
238.753	10099.34
238.825	10117.89
238.897	10150.78
238.968	10242.01
239.04	10237.19
239.112	10352.9
239.184	10310.06
239.255	10299.36
239.327	10335
239.399	10359.53
239.471	10398.35
239.542	10432.99
239.614	10503.51
239.686	10413.31
239.758	10471.7
239.829	10436.32
239.901	10502.95
239.973	10522.46
240.044	10556.62
240.116	10568.57
240.188	10590.34
240.259	10607.69
240.331	10601.66
240.403	10639.92
240.474	10582.66
240.546	10568.84
240.618	10505.86
240.689	10507.88
240.761	10535.06
240.833	10604.98
240.904	10610.57
240.976	10615.87
241.048	10637.74
241.119	10671.86
241.191	10726.21
241.262	10789.59
241.334	10788.33
241.405	10792.91
241.477	10797.2
241.549	10806.98
241.62	10833.77
241.692	10877.52
241.763	10942.15
241.835	10956.75
241.906	10968.8
241.978	10942.59
242.049	11004.12
242.121	11071.73
242.192	11139.14
242.264	11099.82
242.335	11047.87
242.407	11085.08
242.478	11089.89
242.55	11108.54
242.621	11094.09
242.693	11087.34
242.764	11078.95
242.836	11081.89
242.907	11112.45
242.979	11138.52
243.05	11160.35
243.122	11185.7
243.193	11189.17
243.264	11111.34
243.336	11112.83
243.407	11154.28
243.479	11236.49
243.55	11260.69
243.622	11271.1
243.693	11270.18
243.764	11341.89
243.836	11319.39
243.907	11307.01
243.978	11313.99
244.05	11342.28
244.121	11296.07
244.192	11336.55
244.264	11289.95
244.335	11305.61
244.407	11256.21
244.478	11276.21
244.549	11268.99
244.62	11224.41
244.692	11219.78
244.763	11268.21
244.834	11265.56
244.906	11245.03
244.977	11264.45
245.048	11312.27
245.119	11292.37
245.191	11267.26
245.262	11204.17
245.333	11282.38
245.405	11301.18
245.476	11327.44
245.547	11346
245.618	11404.11
245.689	11418.43
245.761	11445.75
245.832	11453.22
245.903	11502.19
245.974	11528.07
246.045	11538.14
246.117	11620.27
246.188	11602.58
246.259	11588.08
246.33	11598.68
246.401	11607.45
246.473	11571.64
246.544	11557.18
246.615	11610.73
246.686	11617.57
246.757	11687.84
246.828	11664.46
246.899	11733.82
246.97	11702.12
247.042	11683.8
247.113	11718.12
247.184	11804.26
247.255	11804.07
247.326	11830.96
247.397	11832.41
247.468	11844.22
247.539	11859.55
247.61	11814.05
247.681	11860.6
247.752	11915.93
247.823	11891.5
247.894	11905.43
247.965	11878.15
248.037	11861.33
248.108	11807.34
248.179	11816.93
248.25	11807.34
248.321	11834.48
248.392	11786.46
248.463	11877.65
248.534	11880.83
248.605	11909.28
248.675	11884.55
248.746	11911.39
248.817	11929.85
248.888	11947.88
248.959	11889.32
249.03	11913.42
249.101	11930
249.172	11918.29
249.243	11844.02
249.314	11915.4
249.385	11928.95
249.456	11965.24
249.527	11960.42
249.598	11988.42
249.669	11987.79
249.739	12001.92
249.81	12023.51
249.881	11976.04
249.952	11962.39
250.023	11961.82
250.094	11902.86
250.165	11864.69
250.235	11855.82
250.306	11857.74
250.377	11828.63
250.448	11859.43
250.519	11794.12
250.59	11842.56
250.66	11846.42
250.731	11916.93
250.802	11910.08
250.873	11923.82
250.944	11941.13
251.014	11937.66
251.085	12027.22
251.156	12055.32
251.227	12115.29
251.297	12168.99
251.368	12230.68
251.439	12270.98
251.51	12318.89
251.58	12309.79
251.651	12307.23
251.722	12361.65
251.792	12310.13
251.863	12317.31
251.934	12381.03
252.005	12496.38
252.075	12503.95
252.146	12544.68
252.217	12593.56
252.287	12642.34
252.358	12645.23
252.429	12718.84
252.499	12716.48
252.57	12719.37
252.641	12768.78
252.711	12770.52
252.782	12725.59
252.852	12801.03
252.923	12803.54
252.994	12817.28
253.064	12877.19
253.135	12855.93
253.205	12831.25
253.276	12904.96
253.347	12965.59
253.417	12937.83
253.488	12917.68
253.558	12906.78
253.629	12906.59
253.699	12915.94
253.77	12937.73
253.841	12932.19
253.911	12940.24
253.982	12956.15
254.052	12990.95
254.123	12992.64
254.193	13002.09
254.264	13141.5
254.334	13100.71
254.405	13063.79
254.475	13028.45
254.546	13025.22
254.616	13105.77
254.687	13133.93
254.757	13152.44
254.827	13155.19
254.898	13179.05
254.968	13187.29
255.039	13170.47
255.109	13208.45
255.18	13179.67
255.25	13112.67
255.321	13149.16
255.391	13105.24
255.461	13184.25
255.532	13097.87
255.602	13086.01
255.673	13026.23
255.743	12982.9
255.813	12919.7
255.884	12974.9
255.954	13020.84
256.024	13086.54
256.095	13072.18
256.165	13036.99
256.235	13067.7
256.306	13055.6
256.376	13105.63
256.446	13148.01
256.517	13184.79
256.587	13228.75
256.657	13252.23
256.728	13276.09
256.798	13284.48
256.868	13280.57
256.938	13249.48
257.009	13297.3
257.079	13331.72
257.149	13432.62
257.219	13369.42
257.29	13411.5
257.36	13347.43
257.43	13377.9
257.5	13305.3
257.571	13302.55
257.641	13345.07
257.711	13306.07
257.781	13335.38
257.852	13352.69
257.922	13286.93
257.992	13289.78
258.062	13275.99
258.132	13322.9
258.202	13322.99
258.273	13332.49
258.343	13412.8
258.413	13400.41
258.483	13412.03
258.553	13388.02
258.623	13364.11
258.693	13393.37
258.764	13457.44
258.834	13536.45
258.904	13551.63
258.974	13545.99
259.044	13555.25
259.114	13587.64
259.184	13614.11
259.254	13621.58
259.324	13561.28
259.394	13615.22
259.464	13687.05
259.535	13697.84
259.605	13685.31
259.675	13682.76
259.745	13716.89
259.815	13687.14
259.885	13687.34
259.955	13802.64
260.025	13794.78
260.095	13795.4
260.165	13827.8
260.235	13883.57
260.305	13864.68
260.375	13836.52
260.445	13929.22
260.515	13995.7
260.585	14041.59
260.655	14057.11
260.725	14106.33
260.795	14156.95
260.865	14222.07
260.934	14198.5
261.004	14222.75
261.074	14226.12
261.144	14282.33
261.214	14321.76
261.284	14333.57
261.354	14374.98
261.424	14319.36
261.494	14396.3
261.564	14410.47
261.634	14437.46
261.703	14372
261.773	14395.96
261.843	14430.57
261.913	14419.73
261.983	14360.96
262.053	14382.99
262.123	14372.05
262.192	14325.19
262.262	14362.26
262.332	14311.69
262.402	14338.35
262.472	14357.78
262.541	14301.67
262.611	14352.91
262.681	14331.07
262.751	14364.53
262.821	14376.63
262.89	14340.95
262.96	14362.07
263.03	14432.16
263.1	14453.22
263.169	14481.52
263.239	14517.91
