Data from 20250701_urea_2M_exp3_MAYP1162681_18-19-52-156.txt Node
Date: Tue Jul 01 18:19:52 BST 2025
User: adleo
Spectrometer: MAYP116268
Trigger mode: 0
Integration Time (sec): 4.000000E0
Scans to average: 1
Electric dark correction enabled: true
Nonlinearity correction enabled: true
Boxcar width: 10
XAxis mode: Wavelengths
Number of Pixels in Spectrum: 2068
>>>>>Begin Spectral Data<<<<<
179.565	4062.56
179.642	4268.3
179.718	4433.7
179.795	4585.48
179.871	4719.71
179.948	4789.48
180.024	4861.77
180.101	4942.93
180.177	4998.53
180.254	5086.37
180.33	5174.15
180.407	5469.74
180.483	5783.8
180.56	6104.88
180.636	6396.97
180.712	6354.26
180.789	6388.02
180.865	6440.6
180.942	6473.29
181.018	6518.95
181.095	6568.63
181.171	6583.9
181.248	6588.7
181.324	6644.29
181.4	6669.5
181.477	6703.33
181.553	6749.26
181.63	6827.36
181.706	6890.88
181.782	6927.07
181.859	6921.26
181.935	6937.69
182.011	6926.64
182.088	6988.77
182.164	7062.14
182.24	7113.28
182.317	7141.28
182.393	7140.08
182.469	7185.49
182.546	7237.3
182.622	7248.15
182.698	7232.39
182.775	7280.4
182.851	7337.11
182.927	7311.2
183.003	7292.7
183.08	7269.54
183.156	7309.58
183.232	7300.25
183.308	7255.17
183.385	7277.99
183.461	7342.59
183.537	7347.16
183.613	7395.03
183.69	7359.75
183.766	7317.76
183.842	7342.91
183.918	7364.01
183.995	7408.61
184.071	7420.44
184.147	7399.53
184.223	7358.89
184.299	7399.9
184.375	7360.3
184.452	7379.3
184.528	7507.72
184.604	7544.81
184.68	7590.42
184.756	7611.92
184.832	7623.41
184.908	7644.36
184.985	7645.27
185.061	7587.73
185.137	7614.66
185.213	7574.66
185.289	7579.42
185.365	7552.61
185.441	7548.52
185.517	7598.64
185.593	7583.16
185.669	7572.05
185.745	7601.67
185.822	7665.28
185.898	7638.93
185.974	7675.45
186.05	7643.13
186.126	7568.28
186.202	7546.8
186.278	7535.11
186.354	7497.51
186.43	7525.55
186.506	7519.5
186.582	7515.56
186.658	7540.25
186.734	7471.39
186.81	7472.64
186.886	7484.08
186.962	7527.33
187.038	7513.97
187.114	7484.57
187.19	7514.58
187.266	7481.66
187.341	7491.04
187.417	7459.84
187.493	7460.51
187.569	7473.07
187.645	7456.72
187.721	7417.53
187.797	7449.4
187.873	7461.9
187.949	7443.07
188.025	7418.49
188.101	7428.1
188.176	7451.46
188.252	7437.14
188.328	7463.07
188.404	7466.82
188.48	7449.43
188.556	7429.62
188.632	7428.99
188.707	7432.41
188.783	7418.6
188.859	7401.75
188.935	7361.07
189.011	7386.73
189.086	7362.9
189.162	7324.1
189.238	7316.75
189.314	7308.29
189.39	7281.56
189.465	7256.85
189.541	7314.97
189.617	7260.86
189.693	7241.74
189.768	7249.72
189.844	7333.88
189.92	7309.63
189.996	7338.47
190.071	7381.25
190.147	7371.78
190.223	7405.25
190.298	7375.58
190.374	7329.39
190.45	7371.58
190.526	7399.41
190.601	7387.35
190.677	7390.37
190.753	7499.43
190.828	7514.09
190.904	7568.62
190.98	7625.46
191.055	7661.57
191.131	7633.39
191.207	7705.49
191.282	7741
191.358	7704.32
191.433	7654.67
191.509	7704.74
191.585	7693.34
191.66	7690.41
191.736	7721.61
191.811	7688.96
191.887	7751.69
191.963	7842.71
192.038	7865.99
192.114	7872.72
192.189	7883.68
192.265	7876.52
192.34	7792.55
192.416	7780.92
192.491	7761.92
192.567	7768.94
192.642	7782.46
192.718	7781.17
192.793	7744.28
192.869	7730.77
192.944	7742.21
193.02	7767.37
193.095	7779.97
193.171	7804.2
193.246	7802.81
193.322	7794.25
193.397	7793.72
193.473	7738.69
193.548	7668.56
193.624	7682.17
193.699	7672.99
193.775	7728.93
193.85	7732.78
193.925	7762.31
194.001	7767.21
194.076	7743.12
194.152	7709.59
194.227	7680.06
194.302	7647.81
194.378	7661.42
194.453	7645.22
194.529	7690.38
194.604	7641.62
194.679	7621.71
194.755	7552.94
194.83	7597.92
194.905	7589.27
194.981	7626.63
195.056	7601.35
195.131	7625
195.207	7613.75
195.282	7581.25
195.357	7509.39
195.433	7563.43
195.508	7527.31
195.583	7548.9
195.659	7597.33
195.734	7616.47
195.809	7607.63
195.884	7642.08
195.96	7642.08
196.035	7700.59
196.11	7686.5
196.185	7729.29
196.261	7736.84
196.336	7851.28
196.411	7802.5
196.486	7825.44
196.561	7795.09
196.637	7826.72
196.712	7883.83
196.787	7905.58
196.862	7961.69
196.937	8006.41
197.013	8026.86
197.088	8054.36
197.163	8134.73
197.238	8195.38
197.313	8196.92
197.388	8247.53
197.464	8352.44
197.539	8393.91
197.614	8373.47
197.689	8418.31
197.764	8480.74
197.839	8554.31
197.914	8528.12
197.989	8612.44
198.065	8656.32
198.14	8845.02
198.215	8940.55
198.29	8984.09
198.365	9029.48
198.44	9074.1
198.515	9172.89
198.59	9230.48
198.665	9335.53
198.74	9360.14
198.815	9363.56
198.89	9442.07
198.965	9548.17
199.04	9531.51
199.115	9585.19
199.19	9732.76
199.265	9744.17
199.34	9774.65
199.415	9894.23
199.49	9967.99
199.565	10003.05
199.64	10093.6
199.715	10079.19
199.79	10102.27
199.865	10120.57
199.94	10114.75
200.015	10214.95
200.09	10232.68
200.165	10253.68
200.24	10270.21
200.315	10415.65
200.39	10470.58
200.464	10495.63
200.539	10505.84
200.614	10567.41
200.689	10649.27
200.764	10679.53
200.839	10744.94
200.914	10761.66
200.989	10727.1
201.063	10789.11
201.138	10723.57
201.213	10720.68
201.288	10650.43
201.363	10670.09
201.438	10672.02
201.512	10726.25
201.587	10670.12
201.662	10683.27
201.737	10717.96
201.812	10745.72
201.886	10629.52
201.961	10662.15
202.036	10619.56
202.111	10605.4
202.186	10500.51
202.26	10438.25
202.335	10357.07
202.41	10325.75
202.485	10264.25
202.559	10189.96
202.634	10083.36
202.709	10110.13
202.784	10036.38
202.858	10035.8
202.933	9965.62
203.008	9941.06
203.082	9870.74
203.157	9869.3
203.232	9713.84
203.306	9643.98
203.381	9525.64
203.456	9443.72
203.53	9361.9
203.605	9289.95
203.68	9204.84
203.754	9183.09
203.829	9127.76
203.904	9052.71
203.978	9020.93
204.053	9035.08
204.127	8986.27
204.202	8983.43
204.277	8920.77
204.351	8900.31
204.426	8877.29
204.5	8848.99
204.575	8728.21
204.65	8769.24
204.724	8739.23
204.799	8765.44
204.873	8754.89
204.948	8748.54
205.022	8704.71
205.097	8669.36
205.171	8721.62
205.246	8752.49
205.32	8746.48
205.395	8746.52
205.469	8713.44
205.544	8727.45
205.618	8667.67
205.693	8713.97
205.767	8670.61
205.842	8753.75
205.916	8731.08
205.991	8689.11
206.065	8708.75
206.14	8758.86
206.214	8732.51
206.289	8703.24
206.363	8752.72
206.438	8761.14
206.512	8794.41
206.586	8862.21
206.661	8897.99
206.735	8816.5
206.81	8817.94
206.884	8871.6
206.958	8828.53
207.033	8894.2
207.107	8920.54
207.181	9033.07
207.256	9006.26
207.33	9075.81
207.405	9121.38
207.479	9191.96
207.553	9226.85
207.628	9170.6
207.702	9217.68
207.776	9200.63
207.851	9215.22
207.925	9263.09
207.999	9244.94
208.073	9233.15
208.148	9244.65
208.222	9199.39
208.296	9315.85
208.371	9374.96
208.445	9414.3
208.519	9510.53
208.593	9544.09
208.668	9527.04
208.742	9532.15
208.816	9545.96
208.89	9595.92
208.965	9578.62
209.039	9607.04
209.113	9665.8
209.187	9746.65
209.261	9730.57
209.336	9802.86
209.41	9871.3
209.484	9877.18
209.558	9958.25
209.632	10010.11
209.707	10045.95
209.781	10128.41
209.855	10178.61
209.929	10238.56
210.003	10260.29
210.077	10265.25
210.151	10445.88
210.226	10571.55
210.3	10672.04
210.374	10756.48
210.448	10763.8
210.522	10809.53
210.596	10849.77
210.67	10879.21
210.744	11038.91
210.818	11155.72
210.892	11230.42
210.966	11212.06
211.041	11270.04
211.115	11262.86
211.189	11347.14
211.263	11403.18
211.337	11421.59
211.411	11477.69
211.485	11452.86
211.559	11494.88
211.633	11499.36
211.707	11383.01
211.781	11408.7
211.855	11280.41
211.929	11245.81
212.003	11180.98
212.077	11218.91
212.151	11260.79
212.225	11290.82
212.299	11254.47
212.373	11210.86
212.447	11185.65
212.52	11291.68
212.594	11292.5
212.668	11325.75
212.742	11267.43
212.816	11246.61
212.89	11221.75
212.964	11205.41
213.038	11214.42
213.112	11250.52
213.186	11301.17
213.26	11218.84
213.333	11047.11
213.407	11059.63
213.481	11057.42
213.555	11093.92
213.629	11034.54
213.703	10963.36
213.777	10951.65
213.85	10867.7
213.924	10980.38
213.998	10971.81
214.072	10930.4
214.146	10876.19
214.219	10853.1
214.293	10833.16
214.367	10834.36
214.441	10860.14
214.515	10813.2
214.588	10712.59
214.662	10575.52
214.736	10488.61
214.81	10501.37
214.883	10521.89
214.957	10468.18
215.031	10407.22
215.105	10308.34
215.178	10244.17
215.252	10198.65
215.326	10086.94
215.4	10000.12
215.473	9798.54
215.547	9705.46
215.621	9635.2
215.694	9626.92
215.768	9516.68
215.842	9441.46
215.915	9353.5
215.989	9233.62
216.063	9169.46
216.136	9148.65
216.21	9124.11
216.284	9131.28
216.357	9108.36
216.431	9056.12
216.504	9048.33
216.578	9112.8
216.652	9119.49
216.725	9085.35
216.799	9089.78
216.873	9072.79
216.946	9072.22
217.02	9033.44
217.093	9001.23
217.167	8891.1
217.24	8801.64
217.314	8768.06
217.387	8715.33
217.461	8665.33
217.535	8686.56
217.608	8617.54
217.682	8585.24
217.755	8595.01
217.829	8532.1
217.902	8507.98
217.976	8492.78
218.049	8439.6
218.123	8356.07
218.196	8353.95
218.27	8320.94
218.343	8250.03
218.417	8244.35
218.49	8221.98
218.563	8266.39
218.637	8272.6
218.71	8348.92
218.784	8378.67
218.857	8415.76
218.931	8442.06
219.004	8460.59
219.077	8476.24
219.151	8498.03
219.224	8485.95
219.298	8480.95
219.371	8532.21
219.444	8495.6
219.518	8502.24
219.591	8526.05
219.665	8635.94
219.738	8652.21
219.811	8635.37
219.885	8677.82
219.958	8714.26
220.031	8722.29
220.105	8742.17
220.178	8748.43
220.251	8725.27
220.325	8751.18
220.398	8770.14
220.471	8792.61
220.544	8824.04
220.618	8798.58
220.691	8822.83
220.764	8851.27
220.838	8877.32
220.911	8857
220.984	8946.56
221.057	8981.8
221.131	9008.94
221.204	8914.31
221.277	8990.62
221.35	9116.23
221.424	9110.11
221.497	9120.9
221.57	9144
221.643	9179.97
221.716	9235.49
221.79	9237.37
221.863	9246.23
221.936	9250.81
222.009	9266.79
222.082	9304.16
222.155	9317.06
222.229	9396.77
222.302	9424.26
222.375	9436.88
222.448	9479.78
222.521	9487.58
222.594	9492.88
222.667	9461.21
222.74	9512.49
222.814	9501.07
222.887	9492.88
222.96	9554.33
223.033	9601.01
223.106	9634.56
223.179	9666.17
223.252	9678.21
223.325	9712.98
223.398	9726.27
223.471	9760.36
223.544	9784.49
223.617	9792.19
223.69	9816.17
223.763	9770.75
223.837	9795.6
223.91	9823.97
223.983	9772.98
224.056	9732.43
224.129	9753.62
224.202	9816.64
224.275	9803.49
224.348	9782.83
224.42	9740.63
224.493	9675.86
224.566	9650.57
224.639	9666.17
224.712	9638.28
224.785	9622.48
224.858	9613.18
224.931	9595.6
225.004	9549.76
225.077	9548.7
225.15	9458.86
225.223	9456.07
225.296	9546.21
225.369	9483.91
225.442	9451.78
225.514	9476.14
225.587	9501.51
225.66	9513.27
225.733	9507.25
225.806	9514.76
225.879	9505.18
225.952	9474.41
226.025	9526.86
226.097	9577.49
226.17	9569.88
226.243	9498.82
226.316	9492.31
226.389	9498.48
226.461	9526.18
226.534	9556.31
226.607	9548.27
226.68	9632.28
226.753	9631.56
226.825	9536.6
226.898	9594.96
226.971	9599.68
227.044	9615.23
227.117	9620.72
227.189	9644.9
227.262	9688.98
227.335	9715.76
227.407	9707.24
227.48	9747.11
227.553	9761.12
227.626	9738.96
227.698	9747.53
227.771	9791.24
227.844	9767.93
227.916	9787.34
227.989	9745.15
228.062	9737.2
228.134	9830.13
228.207	9834.27
228.28	9830.37
228.352	9849.59
228.425	9863.37
228.498	9912.5
228.57	9893.53
228.643	9956.93
228.716	9951.1
228.788	9937.37
228.861	9932.65
228.934	10011.69
229.006	10013.32
229.079	10020.26
229.151	10012.46
229.224	9974.32
229.296	10005.48
229.369	10113.26
229.442	10166.6
229.514	10148.5
229.587	10202.97
229.659	10122.32
229.732	10138.42
229.804	10179.5
229.877	10268.02
229.949	10307.58
230.022	10366.86
230.094	10368.01
230.167	10358.37
230.239	10313.1
230.312	10298.07
230.384	10372.13
230.457	10361.24
230.529	10373.81
230.602	10371.16
230.674	10380.08
230.747	10431.8
230.819	10464.51
230.892	10347.05
230.964	10343.78
231.037	10378.01
231.109	10364.72
231.181	10408.21
231.254	10369.96
231.326	10354.07
231.399	10322.79
231.471	10285.69
231.544	10195.43
231.616	10247.21
231.688	10257.14
231.761	10248.47
231.833	10241.68
231.905	10156.05
231.978	10154.9
232.05	10137.85
232.122	10141.99
232.195	10117.66
232.267	10153.36
232.339	10131.2
232.412	10202
232.484	10177.67
232.556	10154.36
232.629	10231.13
232.701	10254.06
232.773	10270.15
232.846	10260.04
232.918	10267.89
232.99	10285.14
233.062	10339.05
233.135	10353.12
233.207	10310.63
233.279	10353.73
233.351	10388.9
233.424	10386.92
233.496	10362.88
233.568	10457.99
233.64	10422.05
233.713	10440.89
233.785	10437.95
233.857	10448.45
233.929	10391.66
234.001	10465.78
234.074	10531.53
234.146	10454.09
234.218	10449.75
234.29	10450.24
234.362	10438.1
234.434	10392.61
234.507	10360.38
234.579	10300.06
234.651	10282.38
234.723	10316.39
234.795	10342.27
234.867	10340.96
234.939	10412.66
235.012	10430.58
235.084	10435.26
235.156	10474.56
235.228	10456.31
235.3	10441.76
235.372	10459.54
235.444	10527.03
235.516	10438.5
235.588	10445.92
235.66	10462.4
235.732	10435.27
235.804	10648.98
235.876	10704.86
235.948	10775.46
236.02	10793.57
236.092	10810.62
236.164	10829.32
236.236	10838.13
236.308	10833.8
236.38	10864.64
236.452	10837.94
236.524	10865.5
236.596	10927.3
236.668	10967.05
236.74	10991.33
236.812	11027.76
236.884	11073.36
236.956	11087.28
237.028	11083.28
237.1	11060.93
237.172	11145.89
237.244	11229.6
237.316	11103.01
237.388	11085.62
237.46	11058.29
237.532	11119.4
237.604	11112.94
237.675	11192.9
237.747	11238.11
237.819	11228.04
237.891	11230.11
237.963	11220.33
238.035	11213.68
238.107	11105.91
238.178	11171.65
238.25	11181.68
238.322	11279.96
238.394	11221.93
238.466	11226.37
238.538	11272.19
238.609	11331.08
238.681	11268.66
238.753	11244.08
238.825	11268.32
238.897	11306.82
238.968	11399.61
239.04	11389.59
239.112	11511.27
239.184	11461.1
239.255	11460.37
239.327	11503.36
239.399	11530.97
239.471	11590.39
239.542	11632.9
239.614	11709.34
239.686	11623.11
239.758	11688.94
239.829	11652.89
239.901	11734.29
239.973	11755.73
240.044	11796.85
240.116	11803.06
240.188	11823.5
240.259	11848.66
240.331	11841.14
240.403	11879.65
240.474	11821.13
240.546	11810.86
240.618	11747.86
240.689	11761.31
240.761	11791.53
240.833	11869.57
240.904	11873.14
240.976	11870.87
241.048	11891.21
241.119	11929.73
241.191	11987.61
241.262	12058.33
241.334	12061.8
241.405	12061.51
241.477	12063.06
241.549	12075.44
241.62	12110.87
241.692	12159.51
241.763	12224.53
241.835	12241.12
241.906	12261.89
241.978	12244.68
242.049	12325.13
242.121	12393.38
242.192	12466.99
242.264	12425.63
242.335	12367.69
242.407	12420.57
242.478	12429.15
242.55	12457.25
242.621	12440.19
242.693	12442.02
242.764	12429.78
242.836	12433.68
242.907	12469.06
242.979	12502.9
243.05	12533.75
243.122	12563.25
243.193	12563.11
243.264	12489.93
243.336	12499.33
243.407	12543.64
243.479	12629.82
243.55	12647.8
243.622	12670.51
243.693	12664.82
243.764	12741.08
243.836	12723.49
243.907	12715.63
243.978	12725.17
244.05	12757.13
244.121	12706.62
244.192	12756.22
244.264	12712.74
244.335	12731.35
244.407	12685.65
244.478	12712.07
244.549	12700.98
244.62	12659.72
244.692	12666.66
244.763	12713.94
244.834	12705.36
244.906	12674.99
244.977	12698.52
245.048	12757.86
245.119	12732.26
245.191	12705.17
245.262	12644.43
245.333	12734.33
245.405	12749.71
245.476	12776.17
245.547	12791.94
245.618	12860.63
245.689	12873.55
245.761	12906.08
245.832	12917.75
245.903	12962.58
245.974	12991.5
246.045	13009.58
246.117	13093.12
246.188	13077.12
246.259	13064.49
246.33	13090.23
246.401	13106.91
246.473	13066.42
246.544	13050.12
246.615	13117.13
246.686	13135.5
246.757	13212.09
246.828	13188.28
246.899	13268.69
246.97	13244.73
247.042	13233.74
247.113	13278.43
247.184	13368.71
247.255	13371.9
247.326	13395.08
247.397	13406.51
247.468	13420.87
247.539	13438.56
247.61	13394.07
247.681	13444.78
247.752	13507.26
247.823	13481.76
247.894	13502.97
247.965	13477.61
248.037	13464.11
248.108	13410.36
248.179	13416.77
248.25	13415.38
248.321	13442.76
248.392	13394.99
248.463	13482.82
248.534	13482.96
248.605	13502.39
248.675	13477.81
248.746	13502.82
248.817	13526.59
248.888	13546.55
248.959	13488.46
249.03	13517.19
249.101	13532.37
249.172	13521.43
249.243	13436.93
249.314	13509.62
249.385	13524.13
249.456	13565.2
249.527	13558.36
249.598	13578.22
249.669	13581.84
249.739	13597.65
249.81	13615.97
249.881	13566.51
249.952	13562.07
250.023	13557.59
250.094	13502.92
250.165	13477.33
250.235	13473.71
250.306	13479.3
250.377	13453.22
250.448	13483.45
250.519	13409.31
250.59	13471.83
250.66	13471.54
250.731	13555.18
250.802	13548.81
250.873	13566.41
250.944	13580.49
251.014	13574.51
251.085	13685.09
251.156	13708.28
251.227	13754.46
251.297	13811.48
251.368	13875.45
251.439	13921.3
251.51	13985.51
251.58	13974.47
251.651	13956.01
251.722	14014.91
251.792	13954.32
251.863	13960.2
251.934	14031.11
252.005	14156.59
252.075	14162.95
252.146	14219.55
252.217	14276.38
252.287	14328.63
252.358	14333.74
252.429	14422.15
252.499	14418.78
252.57	14421.04
252.641	14479.66
252.711	14488.63
252.782	14440.81
252.852	14518.41
252.923	14526.32
252.994	14535.09
253.064	14596.41
253.135	14588.07
253.205	14563.39
253.276	14655.75
253.347	14720.88
253.417	14688.53
253.488	14670.26
253.558	14654.31
253.629	14645.82
253.699	14655.9
253.77	14684.48
253.841	14682.12
253.911	14686.8
253.982	14710.85
254.052	14746.81
254.123	14751.1
254.193	14760.93
254.264	14909.54
254.334	14870.93
254.405	14826.58
254.475	14792.5
254.546	14798.81
254.616	14869.58
254.687	14901.01
254.757	14925.25
254.827	14930.31
254.898	14960.49
254.968	14969.07
255.039	14953.06
255.109	14999.34
255.18	14970.27
255.25	14889.2
255.321	14927.04
255.391	14882.02
255.461	14970.47
255.532	14878.16
255.602	14875.7
255.673	14818.73
255.743	14785.81
255.813	14718.56
255.884	14774.82
255.954	14810.78
256.024	14884.53
256.095	14882.65
256.165	14846.49
256.235	14867.65
256.306	14856.81
256.376	14910.12
256.446	14951.43
256.517	15000.69
256.587	15044.36
256.657	15068.56
256.728	15106.06
256.798	15121.92
256.868	15120.77
256.938	15084.04
257.009	15138.41
257.079	15173.69
257.149	15275.45
257.219	15200.16
257.29	15243.5
257.36	15181.7
257.43	15238.29
257.5	15165.36
257.571	15151.57
257.641	15198.14
257.711	15165.17
257.781	15205.42
257.852	15221.9
257.922	15164.64
257.992	15167.82
258.062	15166.08
258.132	15216.5
258.202	15216.79
258.273	15227.78
258.343	15310.01
258.413	15297.77
258.483	15312.47
258.553	15277.52
258.623	15257.76
258.693	15293.67
258.764	15364.63
258.834	15449.51
258.904	15463.44
258.974	15456.4
259.044	15478.09
259.114	15510.24
259.184	15539.5
259.254	15538.3
259.324	15485.13
259.394	15536.76
259.464	15619.13
259.535	15621.1
259.605	15613.06
259.675	15613.78
259.745	15650.07
259.815	15627.52
259.885	15638.31
259.955	15747.96
260.025	15753.31
260.095	15765.26
260.165	15806.86
260.235	15878.04
260.305	15856.54
260.375	15828.3
260.445	15927.69
260.515	15993.19
260.585	16041.58
260.655	16047.46
260.725	16100.39
260.795	16144.44
260.865	16217.41
260.934	16181.75
261.004	16214.42
261.074	16220.64
261.144	16290.29
261.214	16326.87
261.284	16330.63
261.354	16373.53
261.424	16324.52
261.494	16395.57
261.564	16405.11
261.634	16431.72
261.703	16357.78
261.773	16387.33
261.843	16416.2
261.913	16399.23
261.983	16341.25
262.053	16367.13
262.123	16367.23
262.192	16315.32
262.262	16361.44
262.332	16305.25
262.402	16346.94
