Data from 20250701_urea_2M_exp3_MAYP1162681_15-09-49-025.txt Node
Date: Tue Jul 01 15:09:49 BST 2025
User: adleo
Spectrometer: MAYP116268
Trigger mode: 0
Integration Time (sec): 4.000000E0
Scans to average: 1
Electric dark correction enabled: true
Nonlinearity correction enabled: true
Boxcar width: 10
XAxis mode: Wavelengths
Number of Pixels in Spectrum: 2068
>>>>>Begin Spectral Data<<<<<
179.565	4194.5
179.642	4414.81
179.718	4588.26
179.795	4735.57
179.871	4859.2
179.948	4931.79
180.024	5014.62
180.101	5106.18
180.177	5166.66
180.254	5256.04
180.33	5345.6
180.407	5653.92
180.483	5978.35
180.56	6312.3
180.636	6612.13
180.712	6577.05
180.789	6615.23
180.865	6661.26
180.942	6694.77
181.018	6734.63
181.095	6785.77
181.171	6803.54
181.248	6803.83
181.324	6856.84
181.4	6887.49
181.477	6931.55
181.553	6985.57
181.63	7065
181.706	7120.51
181.782	7149.22
181.859	7148.17
181.935	7163.21
182.011	7149.37
182.088	7211.61
182.164	7281.34
182.24	7337.06
182.317	7364.35
182.393	7363.29
182.469	7417.32
182.546	7470.53
182.622	7486.92
182.698	7471.25
182.775	7516
182.851	7571.18
182.927	7548.06
183.003	7535.71
183.08	7511.29
183.156	7544.37
183.232	7532.3
183.308	7491.06
183.385	7522
183.461	7584.26
183.537	7588.64
183.613	7642.78
183.69	7614.41
183.766	7570.25
183.842	7599.01
183.918	7620.26
183.995	7665.93
184.071	7671.89
184.147	7650.98
184.223	7608.74
184.299	7650.68
184.375	7608.52
184.452	7627.14
184.528	7760.93
184.604	7799.43
184.68	7848.04
184.756	7868.72
184.832	7886.13
184.908	7905.07
184.985	7905.16
185.061	7848.57
185.137	7881.23
185.213	7834.1
185.289	7836.46
185.365	7816.17
185.441	7803.67
185.517	7856.35
185.593	7843.13
185.669	7840.15
185.745	7875.54
185.822	7941.82
185.898	7911.81
185.974	7945.45
186.05	7918.76
186.126	7840.27
186.202	7810.95
186.278	7794.02
186.354	7762.51
186.43	7787.2
186.506	7782.25
186.582	7776.29
186.658	7795.08
186.734	7722.64
186.81	7728.88
186.886	7739.65
186.962	7784.32
187.038	7777.01
187.114	7744.19
187.19	7772.38
187.266	7735.07
187.341	7740.02
187.417	7706.41
187.493	7706.17
187.569	7719.35
187.645	7699.11
187.721	7655.96
187.797	7689.62
187.873	7710.2
187.949	7688.72
188.025	7660.28
188.101	7671.62
188.176	7689.13
188.252	7681.72
188.328	7712.67
188.404	7709.35
188.48	7690.46
188.556	7664.68
188.632	7663.05
188.707	7668.87
188.783	7652.94
188.859	7632.52
188.935	7590.87
189.011	7619.43
189.086	7595.44
189.162	7565.49
189.238	7553.57
189.314	7544.34
189.39	7518.61
189.465	7490.39
189.541	7547.56
189.617	7489.11
189.693	7471.04
189.768	7487.73
189.844	7579.09
189.92	7549.58
189.996	7585.55
190.071	7626.81
190.147	7617.53
190.223	7650.52
190.298	7621.66
190.374	7579.11
190.45	7627.27
190.526	7657.62
190.601	7641.32
190.677	7650.06
190.753	7755.59
190.828	7774.86
190.904	7837.35
190.98	7894.01
191.055	7934.12
191.131	7907.52
191.207	7991.37
191.282	8025.21
191.358	7989.01
191.433	7928.03
191.509	7976.28
191.585	7964.65
191.66	7966.09
191.736	8000.76
191.811	7963.73
191.887	8019.1
191.963	8101.78
192.038	8117.75
192.114	8117.94
192.189	8135.2
192.265	8125.02
192.34	8040.55
192.416	8031.46
192.491	8011.93
192.567	8025.93
192.642	8034.21
192.718	8036.85
192.793	7990.19
192.869	7972.98
192.944	7982.69
193.02	8009.78
193.095	8025.36
193.171	8052.59
193.246	8050.18
193.322	8038.11
193.397	8043.59
193.473	7991.82
193.548	7928.51
193.624	7952.09
193.699	7945.78
193.775	8005.46
193.85	8005.94
193.925	8038.03
194.001	8040.14
194.076	8010.46
194.152	7968.22
194.227	7931.61
194.302	7893.2
194.378	7907.34
194.453	7897.15
194.529	7944
194.604	7893.16
194.679	7870.22
194.755	7792.1
194.83	7837.19
194.905	7828.34
194.981	7865.19
195.056	7840.38
195.131	7863.8
195.207	7852.83
195.282	7821.43
195.357	7742.42
195.433	7807.73
195.508	7766.12
195.583	7792.14
195.659	7845.15
195.734	7868.82
195.809	7869.98
195.884	7902.62
195.96	7903.29
196.035	7962.83
196.11	7947.62
196.185	7990.57
196.261	7999.95
196.336	8117.73
196.411	8065.95
196.486	8086.97
196.561	8059.02
196.637	8098.4
196.712	8152.2
196.787	8164.76
196.862	8223.3
196.937	8267.11
197.013	8284.1
197.088	8319.6
197.163	8402.01
197.238	8465.81
197.313	8468.7
197.388	8520.66
197.464	8631.76
197.539	8672.41
197.614	8643.93
197.689	8689.22
197.764	8753.92
197.839	8827.65
197.914	8806.66
197.989	8889.79
198.065	8942
198.14	9129.29
198.215	9219.8
198.29	9267.04
198.365	9317.45
198.44	9357.31
198.515	9456.27
198.59	9513.38
198.665	9608.53
198.74	9635.36
198.815	9639.27
198.89	9720.35
198.965	9835.34
199.04	9818.29
199.115	9874.67
199.19	10035.51
199.265	10046.49
199.34	10083.24
199.415	10209.91
199.49	10287.64
199.565	10324.06
199.64	10413.66
199.715	10401.51
199.79	10425.55
199.865	10448.49
199.94	10443.62
200.015	10559.5
200.09	10582.29
200.165	10604.69
200.24	10633.03
200.315	10774.73
200.39	10829.85
200.464	10857.65
200.539	10857.31
200.614	10923.37
200.689	11008.85
200.764	11033.53
200.839	11101.02
200.914	11111.52
200.989	11073.97
201.063	11124.14
201.138	11058.92
201.213	11053.48
201.288	10984.24
201.363	11004.33
201.438	11004.86
201.512	11060.07
201.587	10993.13
201.662	11000.65
201.737	11044.21
201.812	11071.49
201.886	10953.69
201.961	10990.03
202.036	10939.49
202.111	10928.31
202.186	10815.07
202.26	10750.64
202.335	10671.37
202.41	10643.52
202.485	10583.6
202.559	10508.05
202.634	10410.68
202.709	10440.73
202.784	10373.62
202.858	10373.53
202.933	10306.27
203.008	10278.33
203.082	10206.85
203.157	10196.49
203.232	10041.53
203.306	9955.91
203.381	9829.07
203.456	9748.3
203.53	9660.3
203.605	9589.53
203.68	9502.39
203.754	9477.99
203.829	9422.26
203.904	9343.01
203.978	9290.37
204.053	9303.47
204.127	9260.95
204.202	9260.47
204.277	9197.94
204.351	9173.48
204.426	9143.71
204.5	9112.13
204.575	8984.83
204.65	9022.4
204.724	8997.98
204.799	9030.45
204.873	9021.35
204.948	9019.09
205.022	8973.51
205.097	8936.13
205.171	8985.9
205.246	9015.43
205.32	9011.96
205.395	9009.99
205.469	8977.37
205.544	9009.11
205.618	8949.17
205.693	8988.94
205.767	8940.13
205.842	9027.81
205.916	8999.32
205.991	8957.53
206.065	8975.15
206.14	9034.45
206.214	9014.85
206.289	8991.11
206.363	9036.07
206.438	9045.61
206.512	9078.59
206.586	9151.61
206.661	9182.78
206.735	9098.62
206.81	9108.15
206.884	9164.18
206.958	9118.65
207.033	9182.84
207.107	9206.92
207.181	9320.58
207.256	9295.83
207.33	9362.65
207.405	9399.22
207.479	9480.88
207.553	9514.43
207.628	9453.32
207.702	9502.14
207.776	9477.38
207.851	9482.87
207.925	9535.57
207.999	9516.46
208.073	9504.95
208.148	9510.24
208.222	9467.53
208.296	9589.4
208.371	9649.19
208.445	9688.59
208.519	9793.36
208.593	9833.05
208.668	9817.68
208.742	9827.17
208.816	9837.38
208.89	9891.1
208.965	9887.14
209.039	9910.27
209.113	9974.24
209.187	10053.61
209.261	10034.01
209.336	10104.23
209.41	10182.9
209.484	10179.38
209.558	10266.63
209.632	10320.09
209.707	10359.4
209.781	10440.38
209.855	10493.81
209.929	10547.36
210.003	10571.21
210.077	10570.3
210.151	10747.71
210.226	10882.79
210.3	10984.88
210.374	11068.99
210.448	11079.83
210.522	11110.87
210.596	11146.48
210.67	11179.35
210.744	11357.61
210.818	11477.62
210.892	11554.93
210.966	11531.75
211.041	11594.02
211.115	11580.38
211.189	11662.89
211.263	11727.08
211.337	11757.54
211.411	11815.33
211.485	11795.71
211.559	11840.24
211.633	11852.28
211.707	11739.97
211.781	11758.72
211.855	11624.69
211.929	11592.84
212.003	11521.29
212.077	11559.85
212.151	11606.17
212.225	11637.41
212.299	11593.83
212.373	11548.38
212.447	11531.27
212.52	11642.36
212.594	11645.4
212.668	11681.54
212.742	11630.7
212.816	11603.71
212.89	11579.17
212.964	11557.68
213.038	11565.34
213.112	11599.37
213.186	11644.04
213.26	11560.6
213.333	11386.53
213.407	11405.61
213.481	11410.43
213.555	11445.01
213.629	11396.57
213.703	11317.77
213.777	11305.19
213.85	11221.96
213.924	11335.42
213.998	11326.45
214.072	11282.97
214.146	11225.14
214.219	11202.68
214.293	11172.37
214.367	11164.76
214.441	11184.47
214.515	11141.48
214.588	11037.34
214.662	10898.42
214.736	10806.78
214.81	10820.41
214.883	10836.4
214.957	10772.77
215.031	10712.27
215.105	10616.69
215.178	10545.28
215.252	10504.24
215.326	10388.22
215.4	10292.77
215.473	10092.99
215.547	9993.83
215.621	9916.92
215.694	9910.99
215.768	9809.98
215.842	9737.26
215.915	9659.79
215.989	9537.96
216.063	9463.57
216.136	9440.55
216.21	9410.51
216.284	9424.67
216.357	9390.82
216.431	9341.56
216.504	9337.9
216.578	9396.9
216.652	9405.9
216.725	9377.15
216.799	9389.57
216.873	9374.17
216.946	9379.13
217.02	9337.64
217.093	9306.83
217.167	9200.91
217.24	9113.35
217.314	9074.27
217.387	9024.81
217.461	8973.35
217.535	8995.93
217.608	8931.33
217.682	8901.19
217.755	8919.96
217.829	8857.99
217.902	8840.76
217.976	8823
218.049	8770.49
218.123	8687.7
218.196	8683.33
218.27	8640.1
218.343	8559.45
218.417	8550.79
218.49	8526.82
218.563	8573.17
218.637	8581.59
218.71	8663.47
218.784	8693.66
218.857	8728.74
218.931	8752.8
219.004	8770.75
219.077	8784.62
219.151	8805.45
219.224	8794.67
219.298	8785.04
219.371	8832.47
219.444	8790.08
219.518	8800.13
219.591	8822.9
219.665	8936.13
219.738	8957.84
219.811	8945.86
219.885	8992.41
219.958	9025.67
220.031	9032.75
220.105	9056.63
220.178	9069.1
220.251	9041.94
220.325	9064.38
220.398	9082.39
220.471	9110.69
220.544	9142.23
220.618	9117.52
220.691	9146.94
220.764	9172.21
220.838	9207.55
220.911	9191.9
220.984	9289.28
221.057	9328.95
221.131	9355.14
221.204	9250.57
221.277	9327.24
221.35	9459.13
221.424	9464
221.497	9480.18
221.57	9510.02
221.643	9544.94
221.716	9593.45
221.79	9593.4
221.863	9611.32
221.936	9623.16
222.009	9633.37
222.082	9671.62
222.155	9686.98
222.229	9768
222.302	9802.92
222.375	9810.19
222.448	9856.33
222.521	9866.74
222.594	9874.64
222.667	9843.06
222.74	9901.81
222.814	9896.99
222.887	9886.97
222.96	9938.32
223.033	9991.31
223.106	10019.24
223.179	10053.07
223.252	10069.45
223.325	10112.99
223.398	10124.45
223.471	10159.76
223.544	10195.35
223.617	10213.37
223.69	10241.06
223.763	10195.77
223.837	10219.72
223.91	10252.09
223.983	10197.67
224.056	10160.29
224.129	10181.92
224.202	10252.27
224.275	10245.52
224.348	10210.74
224.42	10167.58
224.493	10110.02
224.566	10079.37
224.639	10105.09
224.712	10078.06
224.785	10066.88
224.858	10055.08
224.931	10037.06
225.004	9992.51
225.077	9983.65
225.15	9883.19
225.223	9885.35
225.296	9977.2
225.369	9919.55
225.442	9883.22
225.514	9904.8
225.587	9928.35
225.66	9936.87
225.733	9931.58
225.806	9945.16
225.879	9946.27
225.952	9914.77
226.025	9976.53
226.097	10037.39
226.17	10031.9
226.243	9963.51
226.316	9956.23
226.389	9965.96
226.461	9989.71
226.534	10014.95
226.607	10008.11
226.68	10101.68
226.753	10090.65
226.825	9999.09
226.898	10063.01
226.971	10072.69
227.044	10103.57
227.117	10114.98
227.189	10140.86
227.262	10184.8
227.335	10206.24
227.407	10199.26
227.48	10240.34
227.553	10256.09
227.626	10234.21
227.698	10236.43
227.771	10278.9
227.844	10257.37
227.916	10280.35
227.989	10246.58
228.062	10243.21
228.134	10346.41
228.207	10345.79
228.28	10342.8
228.352	10364.67
228.425	10378.45
228.498	10435.31
228.57	10413.05
228.643	10483.6
228.716	10486.64
228.788	10478.06
228.861	10480.52
228.934	10558.76
229.006	10571.76
229.079	10574.37
229.151	10574.94
229.224	10543.88
229.296	10579.19
229.369	10700.58
229.442	10752.82
229.514	10738.33
229.587	10796.77
229.659	10716.63
229.732	10738.22
229.804	10789.14
229.877	10877.15
229.949	10907.17
230.022	10969.88
230.094	10975.9
230.167	10960.23
230.239	10910.85
230.312	10898.8
230.384	10972.45
230.457	10964.26
230.529	10975.72
230.602	10972.25
230.674	10980.88
230.747	11035.31
230.819	11069.33
230.892	10936.43
230.964	10939.37
231.037	10970.39
231.109	10959.79
231.181	11004.02
231.254	10966.25
231.326	10954.15
231.399	10929.81
231.471	10907.98
231.544	10817.42
231.616	10865.98
231.688	10879.38
231.761	10874.56
231.833	10868.88
231.905	10783.09
231.978	10786.03
232.05	10776.4
232.122	10783.19
232.195	10751.43
232.267	10790.61
232.339	10771.67
232.412	10847.75
232.484	10819.22
232.556	10798.94
232.629	10878.51
232.701	10903.43
232.773	10918.8
232.846	10914.75
232.918	10925.31
232.99	10938.99
233.062	10990.17
233.135	11012.1
233.207	10969.31
233.279	11026.45
233.351	11066.83
233.424	11069.28
233.496	11046.25
233.568	11148.18
233.64	11113.68
233.713	11140.9
233.785	11139.26
233.857	11153.67
233.929	11104.67
234.001	11187.96
234.074	11262.59
234.146	11189.62
234.218	11190.01
234.29	11197.04
234.362	11184.37
234.434	11135.4
234.507	11108.9
234.579	11056.03
234.651	11038.2
234.723	11080.51
234.795	11098.73
234.867	11091.02
234.939	11160.27
235.012	11189.19
235.084	11188.22
235.156	11234.82
235.228	11219.88
235.3	11204.03
235.372	11227.02
235.444	11294.29
235.516	11210.71
235.588	11220.35
235.66	11234.03
235.732	11201.84
235.804	11420.15
235.876	11470.41
235.948	11550.32
236.02	11575.38
236.092	11595.95
236.164	11611.76
236.236	11611.57
236.308	11615.57
236.38	11657.07
236.452	11639.57
236.524	11664.1
236.596	11735.73
236.668	11776.03
236.74	11804.37
236.812	11842.01
236.884	11886.69
236.956	11895.03
237.028	11890.6
237.1	11874.21
237.172	11967.48
237.244	12064.07
237.316	11941.29
237.388	11929.73
237.46	11901.91
237.532	11971.71
237.604	11969.54
237.675	12055
237.747	12113.37
237.819	12105.37
237.891	12110.77
237.963	12111.16
238.035	12110.48
238.107	11993.44
238.178	12069.95
238.25	12091.25
238.322	12192.34
238.394	12138.11
238.466	12152.23
238.538	12206.07
238.609	12262.41
238.681	12199.27
238.753	12177.67
238.825	12208.28
238.897	12252.72
238.968	12352.22
239.04	12332.84
239.112	12462.16
239.184	12425.09
239.255	12428.03
239.327	12475.75
239.399	12507.28
239.471	12563.67
239.542	12606.04
239.614	12682.88
239.686	12584.64
239.758	12637.47
239.829	12606.9
239.901	12684.8
239.973	12714.16
240.044	12759.76
240.116	12780.29
240.188	12802.42
240.259	12825.22
240.331	12825.75
240.403	12873.14
240.474	12820.59
240.546	12814.95
240.618	12751.66
240.689	12753.49
240.761	12784.1
240.833	12863.2
240.904	12870.97
240.976	12871.01
241.048	12899.31
241.119	12951.28
241.191	13018.28
241.262	13102.35
241.334	13121.35
241.405	13132.19
241.477	13137.74
241.549	13151.04
241.62	13180.93
241.692	13233.52
241.763	13306.22
241.835	13327.57
241.906	13349.6
241.978	13325.55
242.049	13403.5
242.121	13472.82
242.192	13557.47
242.264	13519.53
242.335	13472.67
242.407	13527.63
242.478	13536.69
242.55	13564.55
242.621	13550.62
242.693	13559.44
242.764	13549.13
242.836	13555.83
242.907	13593.09
242.979	13637.39
243.05	13669.98
243.122	13707.1
243.193	13719.05
243.264	13645.44
243.336	13652.19
243.407	13697.46
243.479	13790.74
243.55	13819.37
243.622	13842.41
243.693	13844.39
243.764	13928.9
243.836	13906.72
243.907	13897.37
243.978	13915.21
244.05	13945
244.121	13899.63
244.192	13940.13
244.264	13893.8
244.335	13907.83
244.407	13865.31
244.478	13887.82
244.549	13884.88
244.62	13837.3
244.692	13848.92
244.763	13899.97
244.834	13898.57
244.906	13873.94
244.977	13904.89
245.048	13967.65
245.119	13958.63
245.191	13943.59
245.262	13881.74
245.333	13976.86
245.405	14003.61
245.476	14042.13
245.547	14068.59
245.618	14141.77
245.689	14168.57
245.761	14212.73
245.832	14231.43
245.903	14284.41
245.974	14317.77
246.045	14337.05
246.117	14436.74
246.188	14418.8
246.259	14413.55
246.33	14441.8
246.401	14468.65
246.473	14444.45
246.544	14444.64
246.615	14513.82
246.686	14529.29
246.757	14621.7
246.828	14602.8
246.899	14689.33
246.97	14664.36
247.042	14661.99
247.113	14711.84
247.184	14819.22
247.255	14833.98
247.326	14873.45
247.397	14894.23
247.468	14907.15
247.539	14933.03
247.61	14889.31
247.681	14941.52
247.752	15009.15
247.823	14980.85
247.894	14996.62
247.965	14968.51
248.037	14952.22
248.108	14891.39
248.179	14896.02
248.25	14883.87
248.321	14919.25
248.392	14874.91
248.463	14966.64
248.534	14970.35
248.605	14996.14
248.675	14977.2
248.746	14990.31
248.817	15009.4
248.888	15026.41
248.959	14975.51
249.03	14999.08
249.101	15014.51
249.172	15010.36
249.243	14935.16
249.314	15013.2
249.385	15032.73
249.456	15068.54
249.527	15062.23
249.598	15098.28
249.669	15106
249.739	15127.11
249.81	15139.74
249.881	15095.39
249.952	15097.27
250.023	15102.53
250.094	15051.34
250.165	15014.18
250.235	15016.54
250.306	15016.97
250.377	14993.26
250.448	15026.81
250.519	14955.08
250.59	15029.98
250.66	15026.75
250.731	15108.36
250.802	15115.06
250.873	15141.72
250.944	15166.4
251.014	15163.94
251.085	15270.22
251.156	15306.18
251.227	15368.31
251.297	15440.51
251.368	15504.19
251.439	15545.15
251.51	15611
251.58	15600.54
251.651	15603.38
251.722	15668.93
251.792	15624.68
251.863	15626.9
251.934	15702.14
252.005	15844.24
252.075	15847.32
252.146	15909.02
252.217	15962.47
252.287	16016.02
252.358	16023.4
252.429	16109.67
252.499	16108.66
252.57	16117.24
252.641	16173.05
252.711	16192.67
252.782	16137.62
252.852	16224.71
252.923	16226.59
252.994	16239.37
253.064	16292.53
253.135	16260.58
253.205	16238.4
253.276	16322.8
253.347	16401.13
253.417	16374.96
253.488	16354.33
253.558	16348.35
253.629	16353.12
253.699	16378.91
253.77	16403.05
253.841	16395.97
253.911	16408.07
253.982	16428.65
254.052	16463.44
254.123	16469.95
254.193	16461.23
254.264	16623.83
254.334	16591.78
254.405	16568.84
254.475	16532.6
254.546	16548.55
254.616	16628.56
254.687	16671.94
254.757	16704.85
254.827	16711.41
254.898	16746.64
254.968	16756.09
255.039	16743.94
255.109	16787.9
255.18	16755.32
255.25	16676.37
255.321	16724.76
255.391	16689.58
255.461	16785.73
255.532	16697.78
255.602	16703.61
255.673	16653.39
255.743	16618.98
255.813	16540.99
255.884	16593.87
255.954	16639.03
256.024	16717.87
256.095	16724.04
256.165	16692.04
256.235	16713.92
256.306	16705.53
256.376	16760.23
256.446	16802.06
256.517	16840.52
256.587	16895.99
256.657	16918.36
256.728	16963.95
256.798	16977.88
256.868	16974.7
256.938	16947.13
257.009	17008.92
257.079	17046.27
257.149	17170.47
257.219	17103.77
257.29	17158.77
257.36	17096.83
257.43	17154.42
257.5	17082.28
257.571	17081.26
257.641	17121.84
257.711	17082.04
257.781	17116.11
257.852	17146.86
257.922	17096.3
257.992	17108.93
258.062	17099.39
258.132	17156.59
258.202	17159.63
258.273	17176.45
258.343	17259.82
258.413	17257.56
258.483	17266.76
258.553	17239.77
258.623	17214.62
258.693	17259.1
258.764	17331.2
258.834	17415.35
258.904	17424.36
258.974	17418.29
259.044	17431.68
259.114	17468.31
259.184	17511.73
259.254	17530.19
259.324	17464.94
259.394	17514.1
259.464	17607.01
259.535	17627.25
259.605	17618.48
259.675	17613.22
259.745	17659.25
259.815	17648.26
259.885	17649.37
259.955	17775.53
260.025	17766.57
260.095	17779.43
260.165	17812.64
260.235	17890.61
260.305	17878.9
260.375	17851.04
260.445	17953.89
260.515	18024.83
260.585	18080
260.655	18099.71
260.725	18150.8
260.795	18198.12
260.865	18285.73
260.934	18244.05
261.004	18275.32
261.074	18288.53
261.144	18360.24
261.214	18399.08
261.284	18398.26
261.354	18444.14
261.424	18397.88
261.494	18480.72
261.564	18482.79
261.634	18512.86
261.703	18438.17
261.773	18474.45
261.843	18511.47
261.913	18515.61
261.983	18462.02
262.053	18476.91
262.123	18468.67
