Data from 20250701_urea_2M_exp3_MAYP1162681_15-59-48-820.txt Node
Date: Tue Jul 01 15:59:48 BST 2025
User: adleo
Spectrometer: MAYP116268
Trigger mode: 0
Integration Time (sec): 4.000000E0
Scans to average: 1
Electric dark correction enabled: true
Nonlinearity correction enabled: true
Boxcar width: 10
XAxis mode: Wavelengths
Number of Pixels in Spectrum: 2068
>>>>>Begin Spectral Data<<<<<
179.565	4160.62
179.642	4383.47
179.718	4554.58
179.795	4709.53
179.871	4837.03
179.948	4902.54
180.024	4984.47
180.101	5073.37
180.177	5131
180.254	5222.9
180.33	5308.73
180.407	5614.32
180.483	5943.21
180.56	6270.97
180.636	6573.96
180.712	6531.68
180.789	6571.92
180.865	6612.71
180.942	6646.75
181.018	6692.66
181.095	6746.19
181.171	6761.28
181.248	6759.88
181.324	6819.28
181.4	6845.56
181.477	6886.5
181.553	6938.78
181.63	7015.47
181.706	7074.67
181.782	7107.08
181.859	7097.47
181.935	7116.22
182.011	7102.76
182.088	7160.05
182.164	7235.16
182.24	7287.76
182.317	7316.93
182.393	7311.02
182.469	7364.84
182.546	7413.53
182.622	7429.48
182.698	7413.67
182.775	7464.57
182.851	7520.71
182.927	7486.34
183.003	7470.68
183.08	7444.48
183.156	7482.84
183.232	7474.19
183.308	7429.77
183.385	7459.52
183.461	7529.99
183.537	7539.22
183.613	7587.83
183.69	7552.3
183.766	7509.92
183.842	7538.49
183.918	7564.01
183.995	7610.69
184.071	7620.6
184.147	7601.94
184.223	7564.85
184.299	7601.73
184.375	7559.86
184.452	7582.38
184.528	7733.3
184.604	7770.36
184.68	7819.29
184.756	7843.39
184.832	7856.47
184.908	7875.65
184.985	7867.09
185.061	7804.06
185.137	7832.39
185.213	7794.11
185.289	7801.76
185.365	7779.12
185.441	7772.34
185.517	7820.54
185.593	7804.19
185.669	7801.45
185.745	7842.57
185.822	7899.67
185.898	7872.3
185.974	7906.53
186.05	7880.02
186.126	7792.67
186.202	7768.4
186.278	7753.63
186.354	7715.49
186.43	7740.99
186.506	7735.51
186.582	7736.81
186.658	7770.17
186.734	7695.71
186.81	7704.26
186.886	7716.18
186.962	7760.37
187.038	7737.58
187.114	7705.72
187.19	7740.26
187.266	7702.57
187.341	7699.44
187.417	7670.35
187.493	7672.8
187.569	7683.1
187.645	7655.45
187.721	7615.62
187.797	7645.91
187.873	7658.36
187.949	7639.48
188.025	7610.8
188.101	7623.63
188.176	7646.9
188.252	7627.53
188.328	7657.17
188.404	7654.15
188.48	7635.78
188.556	7608.61
188.632	7609.91
188.707	7617.32
188.783	7599.86
188.859	7581.36
188.935	7541.93
189.011	7572.84
189.086	7552.12
189.162	7520.1
189.238	7517.6
189.314	7503.47
189.39	7482.12
189.465	7459.57
189.541	7515.73
189.617	7462.04
189.693	7440.51
189.768	7452.44
189.844	7535.66
189.92	7508.08
189.996	7539.91
190.071	7584.19
190.147	7582.75
190.223	7622.09
190.298	7588.38
190.374	7545.25
190.45	7591.73
190.526	7627.99
190.601	7610.48
190.677	7613.03
190.753	7711.18
190.828	7725.51
190.904	7779.76
190.98	7839.45
191.055	7876.91
191.131	7852.72
191.207	7935.56
191.282	7973.97
191.358	7933.92
191.433	7884.84
191.509	7934.19
191.585	7920.72
191.66	7915.29
191.736	7943.95
191.811	7909.22
191.887	7970.71
191.963	8054.83
192.038	8073.49
192.114	8066.37
192.189	8082.04
192.265	8070.17
192.34	7994.09
192.416	7989.76
192.491	7977.49
192.567	7977.01
192.642	7985.77
192.718	7985.48
192.793	7931.42
192.869	7914.88
192.944	7928.77
193.02	7958.84
193.095	7971.39
193.171	7992.46
193.246	7993.18
193.322	7980.24
193.397	7979.86
193.473	7931.45
193.548	7863.34
193.624	7883.45
193.699	7888.16
193.775	7941.09
193.85	7947.53
193.925	7980.97
194.001	7977.6
194.076	7949.08
194.152	7917.09
194.227	7887.69
194.302	7848.9
194.378	7868.91
194.453	7860.21
194.529	7907.54
194.604	7849.39
194.679	7827.75
194.755	7759.49
194.83	7806.31
194.905	7795.88
194.981	7829.83
195.056	7804.74
195.131	7832.96
195.207	7827.67
195.282	7787.95
195.357	7720.88
195.433	7777
195.508	7733.13
195.583	7762.13
195.659	7809.65
195.734	7826.83
195.809	7828.13
195.884	7864.85
195.96	7866
196.035	7927.18
196.11	7909.62
196.185	7957.61
196.261	7971.08
196.336	8086.7
196.411	8031.84
196.486	8055.84
196.561	8029
196.637	8057.12
196.712	8111.55
196.787	8123.97
196.862	8180.14
196.937	8213.14
197.013	8232.87
197.088	8267.98
197.163	8339.21
197.238	8412.36
197.313	8414.33
197.388	8463.65
197.464	8577.77
197.539	8616.02
197.614	8586
197.689	8632.49
197.764	8690.74
197.839	8762.88
197.914	8737.56
197.989	8820.15
198.065	8868.37
198.14	9059.07
198.215	9161.22
198.29	9206.34
198.365	9247.7
198.44	9285.44
198.515	9392.72
198.59	9449.83
198.665	9544.4
198.74	9580.28
198.815	9579.94
198.89	9659.53
198.965	9768.92
199.04	9747.2
199.115	9809.36
199.19	9959.6
199.265	9968.89
199.34	10008.34
199.415	10132.84
199.49	10211.48
199.565	10245.2
199.64	10338.31
199.715	10326.26
199.79	10347.03
199.865	10368.95
199.94	10366.11
200.015	10486.89
200.09	10500.09
200.165	10525.82
200.24	10549.38
200.315	10685.68
200.39	10735.74
200.464	10759.69
200.539	10760.7
200.614	10823.62
200.689	10908
200.764	10938.94
200.839	11005.6
200.914	11017.55
200.989	10973.6
201.063	11026.03
201.138	10964.62
201.213	10957.54
201.288	10887.23
201.363	10908.05
201.438	10910.94
201.512	10971.25
201.587	10904.65
201.662	10924.41
201.737	10965.18
201.812	10996.55
201.886	10880.59
201.961	10919.43
202.036	10880.51
202.111	10872.08
202.186	10767.51
202.26	10706.74
202.335	10621.21
202.41	10598.76
202.485	10537.63
202.559	10469.75
202.634	10371.95
202.709	10397.13
202.784	10323.86
202.858	10316.44
202.933	10242.74
203.008	10213.64
203.082	10138.88
203.157	10133.92
203.232	9969.04
203.306	9890.22
203.381	9776.53
203.456	9689.21
203.53	9599.04
203.605	9520.53
203.68	9435.37
203.754	9406.54
203.829	9350.33
203.904	9279.07
203.978	9231.2
204.053	9245.17
204.127	9197.31
204.202	9192.93
204.277	9127.46
204.351	9109.51
204.426	9087.98
204.5	9060.54
204.575	8933.1
204.65	8971.97
204.724	8943.54
204.799	8975.68
204.873	8962.58
204.948	8952.09
205.022	8909.26
205.097	8878.39
205.171	8935.52
205.246	8962.05
205.32	8959.45
205.395	8949.44
205.469	8919.47
205.544	8938.78
205.618	8874.22
205.693	8919.33
205.767	8875.82
205.842	8960.7
205.916	8939.13
205.991	8903.51
206.065	8923.01
206.14	8986.54
206.214	8968.53
206.289	8939.93
206.363	8985.8
206.438	8991
206.512	9012.47
206.586	9086.31
206.661	9119.11
206.735	9040.53
206.81	9044.04
206.884	9100.89
206.958	9060.7
207.033	9121.91
207.107	9150.91
207.181	9274.67
207.256	9252.42
207.33	9320.21
207.405	9364.68
207.479	9434.45
207.553	9457.5
207.628	9397.06
207.702	9433.65
207.776	9405.14
207.851	9411.64
207.925	9465.49
207.999	9458.27
208.073	9458.8
208.148	9467.04
208.222	9429.42
208.296	9544.46
208.371	9605.16
208.445	9643.65
208.519	9747.31
208.593	9784.73
208.668	9773.89
208.742	9777.55
208.816	9784.34
208.89	9836.76
208.965	9830.49
209.039	9855.06
209.113	9923.55
209.187	10002.35
209.261	9989.78
209.336	10065.4
209.41	10145.99
209.484	10146.42
209.558	10229.43
209.632	10275.86
209.707	10314.59
209.781	10392.78
209.855	10447.99
209.929	10507.23
210.003	10526.94
210.077	10524.48
210.151	10702.17
210.226	10825.4
210.3	10926.24
210.374	11012.56
210.448	11021.77
210.522	11062.59
210.596	11104.61
210.67	11135.69
210.744	11304.41
210.818	11427.55
210.892	11506.49
210.966	11485.24
211.041	11545.63
211.115	11528.04
211.189	11617.92
211.263	11680.76
211.337	11701.1
211.411	11754.31
211.485	11736.81
211.559	11779.36
211.633	11784.61
211.707	11672.06
211.781	11695.2
211.855	11562.42
211.929	11531.92
212.003	11461.43
212.077	11491.9
212.151	11538.89
212.225	11574.32
212.299	11540.19
212.373	11486.6
212.447	11458.54
212.52	11560.14
212.594	11569.3
212.668	11610.02
212.742	11548.62
212.816	11526.3
212.89	11499.8
212.964	11489.53
213.038	11487.7
213.112	11529.06
213.186	11579.94
213.26	11493.03
213.333	11316.56
213.407	11326.01
213.481	11325.43
213.555	11365.31
213.629	11314.71
213.703	11241.73
213.777	11221.88
213.85	11133.92
213.924	11249.84
213.998	11247.33
214.072	11206.17
214.146	11140.72
214.219	11115.8
214.293	11096.05
214.367	11081.11
214.441	11104.33
214.515	11051.41
214.588	10956.1
214.662	10810.44
214.736	10725.83
214.81	10741.05
214.883	10762.05
214.957	10703.28
215.031	10645.73
215.105	10541.87
215.178	10471
215.252	10421.85
215.326	10312.35
215.4	10220.17
215.473	10025.51
215.547	9933.28
215.621	9860.23
215.694	9852.18
215.768	9742.79
215.842	9666.6
215.915	9598.63
215.989	9471.17
216.063	9400.74
216.136	9380.03
216.21	9354.32
216.284	9360.92
216.357	9332.03
216.431	9284.94
216.504	9284.89
216.578	9343.84
216.652	9354.38
216.725	9331.41
216.799	9343.35
216.873	9326.31
216.946	9330.83
217.02	9286.56
217.093	9245.39
217.167	9137.99
217.24	9051.07
217.314	9011.85
217.387	8958.45
217.461	8904.87
217.535	8936.98
217.608	8870.26
217.682	8836.03
217.755	8856.73
217.829	8793.32
217.902	8775.17
217.976	8760.06
218.049	8705.67
218.123	8622.46
218.196	8622.6
218.27	8582.27
218.343	8501.76
218.417	8493
218.49	8472.26
218.563	8514.03
218.637	8522.55
218.71	8601.82
218.784	8631.77
218.857	8674.4
218.931	8704.22
219.004	8708.89
219.077	8721.46
219.151	8747.59
219.224	8736.33
219.298	8726.41
219.371	8776.67
219.444	8738.37
219.518	8741.21
219.591	8767.39
219.665	8874.16
219.738	8887.16
219.811	8868.35
219.885	8915.9
219.958	8952.54
220.031	8953.36
220.105	8984.61
220.178	8999.24
220.251	8973.77
220.325	8995.73
220.398	9013.02
220.471	9037.22
220.544	9076.75
220.618	9053.92
220.691	9082.85
220.764	9106.44
220.838	9134.65
220.911	9118.33
220.984	9209.4
221.057	9254.42
221.131	9278.29
221.204	9174.11
221.277	9251.07
221.35	9384.35
221.424	9377.08
221.497	9383.39
221.57	9408.94
221.643	9441.51
221.716	9488.03
221.79	9496.99
221.863	9509.51
221.936	9518.08
222.009	9532
222.082	9568.6
222.155	9578.71
222.229	9650.49
222.302	9686.65
222.375	9690.94
222.448	9736.55
222.521	9747
222.594	9751.48
222.667	9721.3
222.74	9785.63
222.814	9779.66
222.887	9764.24
222.96	9829.12
223.033	9880.33
223.106	9911.19
223.179	9944.63
223.252	9962.99
223.325	9992.41
223.398	10007.06
223.471	10045.44
223.544	10069.19
223.617	10083.78
223.69	10110.42
223.763	10066.09
223.837	10091.58
223.91	10129.44
223.983	10076.99
224.056	10039.42
224.129	10062.78
224.202	10127.06
224.275	10115.79
224.348	10085.44
224.42	10047.53
224.493	9984.53
224.566	9961.55
224.639	9983.56
224.712	9946.99
224.785	9930.46
224.858	9926.8
224.931	9914.42
225.004	9869.82
225.077	9873.91
225.15	9777.03
225.223	9776.83
225.296	9869.16
225.369	9809.24
225.442	9773.45
225.514	9793.48
225.587	9818.09
225.66	9823.68
225.733	9820.98
225.806	9835.92
225.879	9833.03
225.952	9801.58
226.025	9853.89
226.097	9912.29
226.17	9910.22
226.243	9844.83
226.316	9846.75
226.389	9856.63
226.461	9874.21
226.534	9894.68
226.607	9880.71
226.68	9977.31
226.753	9972.59
226.825	9887.06
226.898	9949.86
226.971	9955.26
227.044	9981.46
227.117	9984.54
227.189	10007.52
227.262	10053.58
227.335	10071.84
227.407	10065.05
227.48	10104.3
227.553	10122.36
227.626	10098.89
227.698	10103.37
227.771	10149.55
227.844	10121.37
227.916	10137.08
227.989	10098.35
228.062	10098.11
228.134	10202.75
228.207	10204.34
228.28	10199.19
228.352	10212.34
228.425	10224.39
228.498	10285.96
228.57	10262.89
228.643	10335.16
228.716	10334.92
228.788	10326.44
228.861	10323.12
228.934	10395.18
229.006	10405.06
229.079	10404.1
229.151	10391.23
229.224	10361.75
229.296	10392.54
229.369	10505.68
229.442	10563.27
229.514	10548.87
229.587	10600.51
229.659	10514.7
229.732	10530.07
229.804	10583.93
229.877	10674.87
229.949	10706.53
230.022	10754.34
230.094	10759.88
230.167	10741.71
230.239	10693.15
230.312	10680.86
230.384	10763.61
230.457	10761.35
230.529	10771.42
230.602	10777.53
230.674	10793
230.747	10841.46
230.819	10872.83
230.892	10742.88
230.964	10741.91
231.037	10778.95
231.109	10772.64
231.181	10817.06
231.254	10785.26
231.326	10765.36
231.399	10729.59
231.471	10702.65
231.544	10617.88
231.616	10672.32
231.688	10687.99
231.761	10684.95
231.833	10674.69
231.905	10580.43
231.978	10578.6
232.05	10567.37
232.122	10568.38
232.195	10544.58
232.267	10583.37
232.339	10559.86
232.412	10642.04
232.484	10617.22
232.556	10588.37
232.629	10664.43
232.701	10688.86
232.773	10698.64
232.846	10690.3
232.918	10709.39
232.99	10728.47
233.062	10779.36
233.135	10792.47
233.207	10753.58
233.279	10802.81
233.351	10841.94
233.424	10844.1
233.496	10820.16
233.568	10912.97
233.64	10878.47
233.713	10901.41
233.785	10898.85
233.857	10917.36
233.929	10865.08
234.001	10939.88
234.074	11015.37
234.146	10935.56
234.218	10934.31
234.29	10936.24
234.362	10924.05
234.434	10871.61
234.507	10833.55
234.579	10785.55
234.651	10763.48
234.723	10798.85
234.795	10818.61
234.867	10810.95
234.939	10879.76
235.012	10906.65
235.084	10908.24
235.156	10956.09
235.228	10939.99
235.3	10929.34
235.372	10951.94
235.444	11013.67
235.516	10931.68
235.588	10941.95
235.66	10967.54
235.732	10943.1
235.804	11158.66
235.876	11213.87
235.948	11287.61
236.02	11311.95
236.092	11322.21
236.164	11338.02
236.236	11336.62
236.308	11343.03
236.38	11379.27
236.452	11357.15
236.524	11382.64
236.596	11458.56
236.668	11491.34
236.74	11520.49
236.812	11552.73
236.884	11587.29
236.956	11609.41
237.028	11605.61
237.1	11593.08
237.172	11675.4
237.244	11762.59
237.316	11636.58
237.388	11619.48
237.46	11592.73
237.532	11657.98
237.604	11659.43
237.675	11752.6
237.747	11811.89
237.819	11801.81
237.891	11808.03
237.963	11802.01
238.035	11805.14
238.107	11684.2
238.178	11756.94
238.25	11767.54
238.322	11866.89
238.394	11822.79
238.466	11822.94
238.538	11875.47
238.609	11924.53
238.681	11868.04
238.753	11847.94
238.825	11878.69
238.897	11916.62
238.968	12014.33
239.04	11999.05
239.112	12122.34
239.184	12075.05
239.255	12070.19
239.327	12108.21
239.399	12140.41
239.471	12201.09
239.542	12240.04
239.614	12327.04
239.686	12243.21
239.758	12300.62
239.829	12268.56
239.901	12341.83
239.973	12360.87
240.044	12397.36
240.116	12417.03
240.188	12441.71
240.259	12458.19
240.331	12455.97
240.403	12504.8
240.474	12453.85
240.546	12448.69
240.618	12383.04
240.689	12389.93
240.761	12422.42
240.833	12504.22
240.904	12504.42
240.976	12505.19
241.048	12527.8
241.119	12568.34
241.191	12623.09
241.262	12699.55
241.334	12711.41
241.405	12724.38
241.477	12732.23
241.549	12746.69
241.62	12782.95
241.692	12821.99
241.763	12896.76
241.835	12922.36
241.906	12948.48
241.978	12927.56
242.049	13009.61
242.121	13083.22
242.192	13164.78
242.264	13127.61
242.335	13073.62
242.407	13130.94
242.478	13145.11
242.55	13171.14
242.621	13157.5
242.693	13161.65
242.764	13156.97
242.836	13155.52
242.907	13191.1
242.979	13231.02
243.05	13258.88
243.122	13284.77
243.193	13291.76
243.264	13211.01
243.336	13216.6
243.407	13261
243.479	13347.34
243.55	13368.16
243.622	13391.4
243.693	13386.19
243.764	13461.25
243.836	13443.37
243.907	13436.23
243.978	13446.16
244.05	13477.88
244.121	13427.41
244.192	13481.98
244.264	13432.23
244.335	13453.63
244.407	13406.97
244.478	13431.56
244.549	13427.55
244.62	13382.29
244.692	13386.87
244.763	13438.11
244.834	13430.16
244.906	13402.44
244.977	13429.67
245.048	13496.68
245.119	13478.36
245.191	13456.86
245.262	13394.72
245.333	13483.23
245.405	13512.01
245.476	13547.68
245.547	13572.65
245.618	13643.37
245.689	13650.55
245.761	13693.26
245.832	13704.01
245.903	13754.15
245.974	13786.4
246.045	13807.37
246.117	13902.72
246.188	13885.8
246.259	13884.83
246.33	13898.62
246.401	13917.28
246.473	13888.5
246.544	13870.52
246.615	13942.3
246.686	13957.34
246.757	14049.51
246.828	14034.27
246.899	14106.43
246.97	14076.59
247.042	14071.1
247.113	14123.64
247.184	14234.31
247.255	14243.04
247.326	14284.69
247.397	14298.81
247.468	14313.61
247.539	14337.04
247.61	14292.79
247.681	14348.75
247.752	14409.88
247.823	14392.14
247.894	14415.18
247.965	14385.44
248.037	14378.06
248.108	14318.43
248.179	14325.76
248.25	14315.49
248.321	14345.67
248.392	14302.38
248.463	14399.09
248.534	14399.76
248.605	14424.63
248.675	14395.23
248.746	14417.45
248.817	14437.99
248.888	14467.54
248.959	14413.07
249.03	14440.3
249.101	14459.25
249.172	14455.2
249.243	14378.36
249.314	14460.21
249.385	14465.51
249.456	14496.12
249.527	14479.44
249.598	14515.5
249.669	14525.29
249.739	14547.7
249.81	14573.06
249.881	14526.49
249.952	14522.35
250.023	14512.37
250.094	14452.6
250.165	14422.33
250.235	14416.64
250.306	14411.05
250.377	14370.65
250.448	14397.89
250.519	14330.45
250.59	14389.21
250.66	14390.22
250.731	14475.06
250.802	14467.11
250.873	14495.55
250.944	14526.3
251.014	14530.64
251.085	14629.45
251.156	14663.44
251.227	14724.41
251.297	14777.82
251.368	14829.74
251.439	14872.45
251.51	14943.55
251.58	14930.39
251.651	14932.12
251.722	14993.29
251.792	14949.28
251.863	14961.72
251.934	15033.44
252.005	15166
252.075	15176.85
252.146	15228.81
252.217	15278.27
252.287	15334.37
252.358	15341.46
252.429	15429.43
252.499	15430.44
252.57	15439.59
252.641	15493.77
252.711	15501.29
252.782	15459.02
252.852	15559.66
252.923	15565.64
252.994	15584.29
253.064	15645.51
253.135	15618.03
253.205	15595.91
253.276	15680.41
253.347	15748.38
253.417	15729.67
253.488	15703.55
253.558	15693.86
253.629	15700.23
253.699	15713.87
253.77	15747.27
253.841	15745.39
253.911	15754.5
253.982	15770.93
254.052	15807.37
254.123	15811.03
254.193	15814.65
254.264	15966.85
254.334	15921.16
254.405	15886.07
254.475	15841.82
254.546	15849.97
254.616	15930.22
254.687	15967.38
254.757	15996.16
254.827	16006.33
254.898	16033.56
254.968	16049.28
255.039	16036.98
255.109	16080.94
255.18	16056.22
255.25	15982.42
255.321	16023.73
255.391	15982.04
255.461	16071.6
255.532	15980.7
255.602	15979.88
255.673	15925.41
255.743	15886.47
255.813	15817.78
255.884	15874.47
255.954	15929.27
256.024	16013.04
256.095	16017.76
256.165	15980.79
256.235	16005.42
256.306	15983.01
256.376	16044.99
256.446	16080.22
256.517	16120.32
256.587	16174.69
256.657	16202.45
256.728	16226.21
256.798	16235.37
256.868	16238.12
256.938	16219.27
257.009	16273.59
257.079	16311.23
257.149	16419.92
257.219	16360.4
257.29	16407.01
257.36	16351.29
257.43	16393.37
257.5	16322.76
257.571	16306.27
257.641	16358.14
257.711	16323.2
257.781	16368.84
257.852	16388.79
257.922	16336.3
257.992	16345.56
258.062	16337.46
258.132	16385.99
258.202	16397.56
258.273	16420.12
258.343	16499.54
258.413	16484.12
258.483	16496.32
258.553	16469.9
258.623	16445.61
258.693	16479.3
258.764	16548.23
258.834	16618.84
258.904	16641.49
258.974	16631.9
259.044	16646.98
259.114	16671.66
259.184	16709.93
259.254	16731.04
259.324	16671.23
259.394	16714.94
259.464	16801.69
259.535	16812.29
259.605	16803.18
259.675	16802.89
259.745	16840.34
259.815	16818.51
259.885	16821.79
259.955	16949.11
260.025	16943.03
260.095	16955.71
260.165	16985.45
260.235	17063.47
260.305	17053.15
260.375	17024.72
260.445	17125.45
260.515	17205.93
260.585	17270.17
260.655	17278.8
260.725	17316.83
260.795	17359.38
260.865	17443.09
260.934	17405.21
261.004	17441.12
261.074	17451.91
261.144	17507.96
261.214	17544.83
261.284	17548.93
261.354	17599.63
261.424	17547.49
261.494	17631.25
261.564	17644.41
261.634	17676.21
261.703	17596.55
261.773	17621.76
261.843	17657.52
261.913	17644.22
261.983	17577.71
262.053	17594.43
262.123	17591.25
262.192	17554.05
