Data from 20250701_urea_2M_exp3_MAYP1162681_22-29-50-970.txt Node
Date: Tue Jul 01 22:29:50 BST 2025
User: adleo
Spectrometer: MAYP116268
Trigger mode: 0
Integration Time (sec): 4.000000E0
Scans to average: 1
Electric dark correction enabled: true
Nonlinearity correction enabled: true
Boxcar width: 10
XAxis mode: Wavelengths
Number of Pixels in Spectrum: 2068
>>>>>Begin Spectral Data<<<<<
179.565	3827.74
179.642	4025.36
179.718	4182.35
179.795	4320.37
179.871	4435.75
179.948	4498.7
180.024	4572.89
180.101	4653.5
180.177	4705.75
180.254	4786.27
180.33	4867.76
180.407	5142.84
180.483	5437.94
180.56	5739.57
180.636	6018.95
180.712	5973.25
180.789	6011.64
180.865	6056.76
180.942	6093.84
181.018	6131.46
181.095	6175.88
181.171	6193.01
181.248	6194.69
181.324	6250.68
181.4	6273.44
181.477	6314.78
181.553	6361.64
181.63	6432.6
181.706	6486.58
181.782	6509.41
181.859	6503.36
181.935	6518.73
182.011	6509.8
182.088	6567.71
182.164	6638.39
182.24	6683.18
182.317	6716.25
182.393	6704.3
182.469	6750.07
182.546	6799.39
182.622	6811.64
182.698	6795.88
182.775	6836.81
182.851	6890.07
182.927	6860.86
183.003	6846.37
183.08	6818.75
183.156	6852.86
183.232	6843.63
183.308	6803.77
183.385	6839.92
183.461	6903.52
183.537	6907.22
183.613	6952.9
183.69	6924.08
183.766	6881.15
183.842	6906.28
183.918	6927.42
183.995	6974.78
184.071	6983.09
184.147	6962.91
184.223	6924.08
184.299	6965.07
184.375	6924.91
184.452	6944.67
184.528	7074.92
184.604	7116.89
184.68	7161.22
184.756	7181.08
184.832	7199.1
184.908	7219.89
184.985	7217.15
185.061	7160.99
185.137	7192.23
185.213	7149.52
185.289	7153.55
185.365	7130.88
185.441	7125.98
185.517	7169.88
185.593	7157.24
185.669	7146.67
185.745	7176.61
185.822	7239.18
185.898	7208.9
185.974	7241.37
186.05	7217.14
186.126	7139.03
186.202	7107.67
186.278	7097.86
186.354	7067.83
186.43	7083.79
186.506	7079.18
186.582	7074.81
186.658	7097.33
186.734	7028.78
186.81	7034.93
186.886	7045.93
186.962	7090.51
187.038	7080.47
187.114	7053.68
187.19	7083.72
187.266	7057.69
187.341	7062.83
187.417	7034.63
187.493	7039.77
187.569	7052.7
187.645	7033.48
187.721	6997.58
187.797	7030.96
187.873	7045.23
187.949	7024.2
188.025	7007.37
188.101	7016.16
188.176	7034.56
188.252	7027.36
188.328	7054.53
188.404	7057.84
188.48	7040.5
188.556	7016.91
188.632	7014.89
188.707	7019.31
188.783	7002.05
188.859	6983.28
188.935	6941
189.011	6967.52
189.086	6945.08
189.162	6913.47
189.238	6900.21
189.314	6889.26
189.39	6863.56
189.465	6836.55
189.541	6897.92
189.617	6843.64
189.693	6821.17
189.768	6834.48
189.844	6913.8
189.92	6883.84
189.996	6909.45
190.071	6948.95
190.147	6942.99
190.223	6975.19
190.298	6945.1
190.374	6903.89
190.45	6947.64
190.526	6980.46
190.601	6962.29
190.677	6967.05
190.753	7065.38
190.828	7077.15
190.904	7126.26
190.98	7182.54
191.055	7222.62
191.131	7192.82
191.207	7263.44
191.282	7302.3
191.358	7265.78
191.433	7216.25
191.509	7269.55
191.585	7262.63
191.66	7260.23
191.736	7292.57
191.811	7255.56
191.887	7312.63
191.963	7395.63
192.038	7414.04
192.114	7412.98
192.189	7424.66
192.265	7412.56
192.34	7335.12
192.416	7329.5
192.491	7316.47
192.567	7325.03
192.642	7332.78
192.718	7328.02
192.793	7286.54
192.869	7266.5
192.944	7275.53
193.02	7299.09
193.095	7307.36
193.171	7326.82
193.246	7329.13
193.322	7316.3
193.397	7321.73
193.473	7272.3
193.548	7211.15
193.624	7231.06
193.699	7230.53
193.775	7284.67
193.85	7290.67
193.925	7319.56
194.001	7318.6
194.076	7293.7
194.152	7257.79
194.227	7231.87
194.302	7201.04
194.378	7215.12
194.453	7207.87
194.529	7256.94
194.604	7206.72
194.679	7191.44
194.755	7124.24
194.83	7166.7
194.905	7154.07
194.981	7182.42
195.056	7158.55
195.131	7175.7
195.207	7165.36
195.282	7133.89
195.357	7067.36
195.433	7123.87
195.508	7086.09
195.583	7116.6
195.659	7166.69
195.734	7188.56
195.809	7183.57
195.884	7216.75
195.96	7215.65
196.035	7272.84
196.11	7252.5
196.185	7295.75
196.261	7306.8
196.336	7415.8
196.411	7365.54
196.486	7388.56
196.561	7368.23
196.637	7398.98
196.712	7454.76
196.787	7463.56
196.862	7512.77
196.937	7549.97
197.013	7563.44
197.088	7597.27
197.163	7669.48
197.238	7727.95
197.313	7729.34
197.388	7774.64
197.464	7878.45
197.539	7922.39
197.614	7896.1
197.689	7945.35
197.764	8000.1
197.839	8060.02
197.914	8038.61
197.989	8118.61
198.065	8167.91
198.14	8342.3
198.215	8437.22
198.29	8484.87
198.365	8531.93
198.44	8573.83
198.515	8671.1
198.59	8727.45
198.665	8819.08
198.74	8843.01
198.815	8852.49
198.89	8933.97
198.965	9038.64
199.04	9030.07
199.115	9081.52
199.19	9229.23
199.265	9234.28
199.34	9276.22
199.415	9391.47
199.49	9468.24
199.565	9496.11
199.64	9575.51
199.715	9558.21
199.79	9577.48
199.865	9594.77
199.94	9586.49
200.015	9689.21
200.09	9707.37
200.165	9729.33
200.24	9747.49
200.315	9891.42
200.39	9932.46
200.464	9944.16
200.539	9946.38
200.614	9990.39
200.689	10067.22
200.764	10088.28
200.839	10151.64
200.914	10161.61
200.989	10127.45
201.063	10173.21
201.138	10118.53
201.213	10117.52
201.288	10055.34
201.363	10070.7
201.438	10068.39
201.512	10125.69
201.587	10066.72
201.662	10074.53
201.737	10114.8
201.812	10148.57
201.886	10029.73
201.961	10068.86
202.036	10031.4
202.111	10024.37
202.186	9931.98
202.26	9875.43
202.335	9799.41
202.41	9775.29
202.485	9719.67
202.559	9648.74
202.634	9558.83
202.709	9590.55
202.784	9526.11
202.858	9523.18
202.933	9460.44
203.008	9435.4
203.082	9365.92
203.157	9364.19
203.232	9219.14
203.306	9144.49
203.381	9027.81
203.456	8950.06
203.53	8865.66
203.605	8801.48
203.68	8716.59
203.754	8690.38
203.829	8637.67
203.904	8568.33
203.978	8525.15
204.053	8538.24
204.127	8496.96
204.202	8490.03
204.277	8423.39
204.351	8397.98
204.426	8378.87
204.5	8350.24
204.575	8236.25
204.65	8277.84
204.724	8246.88
204.799	8267.65
204.873	8253.45
204.948	8252.53
205.022	8213.77
205.097	8176.66
205.171	8222.69
205.246	8253.35
205.32	8247.15
205.395	8244.65
205.469	8216
205.544	8235.63
205.618	8177.03
205.693	8217.83
205.767	8173.72
205.842	8249.7
205.916	8229.98
205.991	8194.32
206.065	8213.67
206.14	8268.13
206.214	8248
206.289	8223.12
206.363	8268.29
206.438	8276.81
206.512	8300.58
206.586	8365.57
206.661	8401.19
206.735	8326.32
206.81	8328.58
206.884	8384.76
206.958	8339.41
207.033	8397.98
207.107	8419.31
207.181	8527.46
207.256	8502.06
207.33	8569.27
207.405	8612.42
207.479	8676.61
207.553	8698.65
207.628	8639.16
207.702	8674.57
207.776	8649.35
207.851	8660.18
207.925	8721.33
207.999	8709.73
208.073	8701.64
208.148	8711.65
208.222	8672.61
208.296	8778.68
208.371	8833.49
208.445	8870.55
208.519	8970.31
208.593	9012.57
208.668	9005.73
208.742	9008.62
208.816	9019.69
208.89	9064.09
208.965	9057.2
209.039	9085.66
209.113	9148.82
209.187	9226.36
209.261	9208.55
209.336	9278.84
209.41	9355.84
209.484	9355.69
209.558	9433.12
209.632	9482.71
209.707	9517.86
209.781	9589.46
209.855	9646.63
209.929	9702.39
210.003	9721.65
210.077	9719.63
210.151	9876.71
210.226	9990.17
210.3	10086.64
210.374	10169.99
210.448	10190.47
210.522	10224.82
210.596	10259.69
210.67	10288.21
210.744	10447.49
210.818	10561.66
210.892	10636.11
210.966	10608.65
211.041	10663.09
211.115	10646.67
211.189	10724.86
211.263	10783.93
211.337	10812.5
211.411	10859.91
211.485	10841.74
211.559	10879.42
211.633	10891.26
211.707	10784.85
211.781	10809.77
211.855	10679.77
211.929	10645.53
212.003	10569.73
212.077	10605.34
212.151	10649.48
212.225	10680.41
212.299	10637.08
212.373	10596.71
212.447	10570.16
212.52	10669.61
212.594	10674.52
212.668	10708.25
212.742	10657.27
212.816	10629.22
212.89	10597.81
212.964	10586
213.038	10587.55
213.112	10628.46
213.186	10664.54
213.26	10588.6
213.333	10424.23
213.407	10440.6
213.481	10440.07
213.555	10477.96
213.629	10422.3
213.703	10354.22
213.777	10342.8
213.85	10267.83
213.924	10373.27
213.998	10363.97
214.072	10333.02
214.146	10274.44
214.219	10258.39
214.293	10231.52
214.367	10226.02
214.441	10252.62
214.515	10201.35
214.588	10107.51
214.662	9974.38
214.736	9897.46
214.81	9912.04
214.883	9930.82
214.957	9883.68
215.031	9831.26
215.105	9734.01
215.178	9671.45
215.252	9629.98
215.326	9520.91
215.4	9436.24
215.473	9245.55
215.547	9162.23
215.621	9085.97
215.694	9080.33
215.768	8970.9
215.842	8902.36
215.915	8829.35
215.989	8707.98
216.063	8643.26
216.136	8623.86
216.21	8591.82
216.284	8593.89
216.357	8564.09
216.431	8512.7
216.504	8502.88
216.578	8558.05
216.652	8574.83
216.725	8543.83
216.799	8548.55
216.873	8526.9
216.946	8534.6
217.02	8501.18
217.093	8462.68
217.167	8366.26
217.24	8279.62
217.314	8254.37
217.387	8203.41
217.461	8160.15
217.535	8186.57
217.608	8125.76
217.682	8093.19
217.755	8109.26
217.829	8053.49
217.902	8039.06
217.976	8026.65
218.049	7975.47
218.123	7899.77
218.196	7892.89
218.27	7858.69
218.343	7781.9
218.417	7779.3
218.49	7754.53
218.563	7794.59
218.637	7807.29
218.71	7871.94
218.784	7897.92
218.857	7925.86
218.931	7950.13
219.004	7957.54
219.077	7975.44
219.151	7994.15
219.224	7987.61
219.298	7983.52
219.371	8033.17
219.444	7989.46
219.518	7997.88
219.591	8021.3
219.665	8125.56
219.738	8137.15
219.811	8118.41
219.885	8168.58
219.958	8201.1
220.031	8203.46
220.105	8225.79
220.178	8228.29
220.251	8211.21
220.325	8238.35
220.398	8256.78
220.471	8277.84
220.544	8307.96
220.618	8280.96
220.691	8311.17
220.764	8334.5
220.838	8359.62
220.911	8345.14
220.984	8428.78
221.057	8468.81
221.131	8490.13
221.204	8396.87
221.277	8473.02
221.35	8605.16
221.424	8597.99
221.497	8609.88
221.57	8636.96
221.643	8672.92
221.716	8723.51
221.79	8724.38
221.863	8733.82
221.936	8742.72
222.009	8760.28
222.082	8799.47
222.155	8811.01
222.229	8880.63
222.302	8909.9
222.375	8914.13
222.448	8947.73
222.521	8958.71
222.594	8956.21
222.667	8930.28
222.74	8983.03
222.814	8978.74
222.887	8962.51
222.96	9016.43
223.033	9064.92
223.106	9096.34
223.179	9123.36
223.252	9129.82
223.325	9165.15
223.398	9177.76
223.471	9205.49
223.544	9225.12
223.617	9229.84
223.69	9255.36
223.763	9210.67
223.837	9234.16
223.91	9267.29
223.983	9216.17
224.056	9181.28
224.129	9207.75
224.202	9272.48
224.275	9260.73
224.348	9227.56
224.42	9187.55
224.493	9124.63
224.566	9092.31
224.639	9111.04
224.712	9080.22
224.785	9071.31
224.858	9062.16
224.931	9042.28
225.004	9005.5
225.077	9003.53
225.15	8913.97
225.223	8908.34
225.296	8997.01
225.369	8939.25
225.442	8908.44
225.514	8929.8
225.587	8948.81
225.66	8953.24
225.733	8942.12
225.806	8953.43
225.879	8946.02
225.952	8917.72
226.025	8973.85
226.097	9032.13
226.17	9019.9
226.243	8951.32
226.316	8949.78
226.389	8951.42
226.461	8970.25
226.534	8993.54
226.607	8981.36
226.68	9067.12
226.753	9066.49
226.825	8975.89
226.898	9034.52
226.971	9037.7
227.044	9061.24
227.117	9071.06
227.189	9090.42
227.262	9131.78
227.335	9147.72
227.407	9141.56
227.48	9175.58
227.553	9184.64
227.626	9159.44
227.698	9164.21
227.771	9203.95
227.844	9184.21
227.916	9201.64
227.989	9171.79
228.062	9164.14
228.134	9263.24
228.207	9267.43
228.28	9255.16
228.352	9271.05
228.425	9270.95
228.498	9316.36
228.57	9293.59
228.643	9347
228.716	9346.09
228.788	9334.04
228.861	9326.73
228.934	9392.93
229.006	9398.8
229.079	9398.41
229.151	9386.37
229.224	9352.44
229.296	9381.04
229.369	9481.71
229.442	9531.9
229.514	9508.08
229.587	9559.31
229.659	9481.38
229.732	9488.9
229.804	9532.56
229.877	9616.05
229.949	9649.96
230.022	9704.02
230.094	9710.22
230.167	9703.96
230.239	9657.45
230.312	9647.15
230.384	9721
230.457	9711.22
230.529	9716.8
230.602	9716.8
230.674	9727.4
230.747	9772.5
230.819	9808.53
230.892	9687.11
230.964	9683.21
231.037	9713.48
231.109	9702.84
231.181	9744.2
231.254	9710.21
231.326	9696.38
231.399	9658.32
231.471	9626.38
231.544	9544.78
231.616	9587.15
231.688	9592.54
231.761	9586.67
231.833	9577.91
231.905	9496.93
231.978	9497.56
232.05	9484.46
232.122	9485.62
232.195	9463.61
232.267	9503.63
232.339	9473.72
232.412	9541.8
232.484	9520.37
232.556	9494.66
232.629	9565.2
232.701	9576.8
232.773	9589.37
232.846	9579.79
232.918	9592.75
232.99	9616.78
233.062	9661.72
233.135	9681.9
233.207	9646.16
233.279	9688.29
233.351	9719.98
233.424	9715.07
233.496	9692.24
233.568	9784.58
233.64	9753.37
233.713	9771.34
233.785	9760.3
233.857	9778.94
233.929	9725.49
234.001	9789.58
234.074	9864.01
234.146	9785.39
234.218	9791.75
234.29	9792.38
234.362	9779.95
234.434	9735.2
234.507	9696.58
234.579	9641.67
234.651	9615.62
234.723	9651.88
234.795	9671.97
234.867	9661.13
234.939	9721.96
235.012	9743.44
235.084	9746.72
235.156	9784.52
235.228	9766.17
235.3	9754.95
235.372	9767.95
235.444	9830.03
235.516	9749.81
235.588	9754.82
235.66	9776.44
235.732	9740.61
235.804	9945.75
235.876	9996.27
235.948	10064.87
236.02	10084.09
236.092	10096.6
236.164	10114.71
236.236	10106.09
236.308	10107.87
236.38	10139.47
236.452	10117.26
236.524	10140.14
236.596	10202.65
236.668	10243.89
236.74	10265.42
236.812	10300.06
236.884	10331.81
236.956	10343.8
237.028	10337.88
237.1	10323.29
237.172	10394.26
237.244	10473.75
237.316	10346.59
237.388	10328.63
237.46	10306.32
237.532	10373.19
237.604	10368.85
237.675	10440.65
237.747	10488.49
237.819	10471.06
237.891	10472.89
237.963	10470.91
238.035	10467.16
238.107	10348.47
238.178	10407.36
238.25	10421.72
238.322	10509.14
238.394	10463.66
238.466	10467.61
238.538	10523.78
238.609	10561.21
238.681	10508.59
238.753	10488.01
238.825	10513.32
238.897	10545.06
238.968	10632.29
239.04	10617.02
239.112	10735.78
239.184	10690.82
239.255	10687.54
239.327	10724.63
239.399	10747.95
239.471	10792.47
239.542	10824.99
239.614	10902.37
239.686	10815.77
239.758	10865.98
239.829	10831.66
239.901	10901.38
239.973	10915.21
240.044	10938.73
240.116	10955.98
240.188	10970.53
240.259	10985.08
240.331	10970.48
240.403	11010.09
240.474	10951.72
240.546	10930.71
240.618	10864.21
240.689	10861.7
240.761	10882.57
240.833	10958.28
240.904	10958.33
240.976	10958.91
241.048	10978.18
241.119	11013.95
241.191	11065.69
241.262	11132.31
241.334	11138.53
241.405	11144.94
241.477	11150.52
241.549	11162.28
241.62	11184.98
241.692	11230.47
241.763	11299.16
241.835	11322.72
241.906	11331.74
241.978	11303.21
242.049	11372.41
242.121	11435.01
242.192	11517.71
242.264	11486.14
242.335	11436.31
242.407	11478.67
242.478	11483.25
242.55	11502.67
242.621	11490.38
242.693	11488.02
242.764	11481.61
242.836	11478.62
242.907	11510.72
242.979	11540.99
243.05	11567.49
243.122	11589.28
243.193	11586.63
243.264	11511.3
243.336	11513.9
243.407	11562.63
243.479	11647.79
243.55	11664.27
243.622	11683.84
243.693	11674.16
243.764	11741.82
243.836	11720.62
243.907	11718.35
243.978	11720.28
244.05	11747.51
244.121	11695.13
244.192	11733.2
244.264	11674.54
244.335	11687.7
244.407	11637.53
244.478	11654.4
244.549	11640.08
244.62	11598.49
244.692	11601.72
244.763	11642.4
244.834	11633.57
244.906	11605.76
244.977	11624.9
245.048	11681.64
245.119	11657.39
245.191	11635.22
245.262	11570.11
245.333	11646.21
245.405	11662.79
245.476	11697.29
245.547	11713.68
245.618	11770.79
245.689	11791.86
245.761	11831.67
245.832	11840.93
245.903	11890.95
245.974	11918.24
246.045	11934
246.117	12020.71
246.188	12005.91
246.259	11994.15
246.33	12015.41
246.401	12027.85
246.473	11995.4
246.544	11982.97
246.615	12046.02
246.686	12051.56
246.757	12129.78
246.828	12105.25
246.899	12177.07
246.97	12152.16
247.042	12146.56
247.113	12191.59
247.184	12278.79
247.255	12275.56
247.326	12306.03
247.397	12307.91
247.468	12322.03
247.539	12334.71
247.61	12288.91
247.681	12331.04
247.752	12388.59
247.823	12355.34
247.894	12370.71
247.965	12339.29
248.037	12329.5
248.108	12274.74
248.179	12287.37
248.25	12279.9
248.321	12309.73
248.392	12262.59
248.463	12344.72
248.534	12345.45
248.605	12371.19
248.675	12346.6
248.746	12373.02
248.817	12390.08
248.888	12411.54
248.959	12348.97
249.03	12382.28
249.101	12386.23
249.172	12378.28
249.243	12307.09
249.314	12380.11
249.385	12381.89
249.456	12415.2
249.527	12407.44
249.598	12431.78
249.669	12434.24
249.739	12446.96
249.81	12463.84
249.881	12420.12
249.952	12409.13
250.023	12405.32
250.094	12343.28
250.165	12313.87
250.235	12303.65
250.306	12305.1
250.377	12272.75
250.448	12297.53
250.519	12228.02
250.59	12291.46
250.66	12278.83
250.731	12347.13
250.802	12342.98
250.873	12375.28
250.944	12396.59
251.014	12385.26
251.085	12478.63
251.156	12500.81
251.227	12560.25
251.297	12612.65
251.368	12674.63
251.439	12713.2
251.51	12768.97
251.58	12756.39
251.651	12747.76
251.722	12803.06
251.792	12751.14
251.863	12759.14
251.934	12833.14
252.005	12942.12
252.075	12950.8
252.146	13008.5
252.217	13062.68
252.287	13111.13
252.358	13107.66
252.429	13185.56
252.499	13180.02
252.57	13182.52
252.641	13236.76
252.711	13236.47
252.782	13187.44
252.852	13258.11
252.923	13268.43
252.994	13279.56
253.064	13334.42
253.135	13315.04
253.205	13292.67
253.276	13370.14
253.347	13429.91
253.417	13403.98
253.488	13392.79
253.558	13383.11
253.629	13384.79
253.699	13390.19
253.77	13413.23
253.841	13407.88
253.911	13415.79
253.982	13437.1
254.052	13473.01
254.123	13477.15
254.193	13483.52
254.264	13622.49
254.334	13587.59
254.405	13545.02
254.475	13508.19
254.546	13510.32
254.616	13573.8
254.687	13608.22
254.757	13631.89
254.827	13626.93
254.898	13649.25
254.968	13650.5
255.039	13633.19
255.109	13673.16
255.18	13641.63
255.25	13569.22
255.321	13610.54
255.391	13564.16
255.461	13646.69
255.532	13559.39
255.602	13546.66
255.673	13484.19
255.743	13454.69
255.813	13386.82
255.884	13447.7
255.954	13488.19
256.024	13553.9
256.095	13560.94
256.165	13529.36
256.235	13552.55
256.306	13549.37
256.376	13607.5
256.446	13655.66
256.517	13689.02
256.587	13728.69
256.657	13762.05
256.728	13795.07
256.798	13802.11
256.868	13804.09
256.938	13771.69
257.009	13820.43
257.079	13858.66
257.149	13964.09
257.219	13889.7
257.29	13921.18
257.36	13857.16
257.43	13895.05
257.5	13828.19
257.571	13814.07
257.641	13846.75
257.711	13807.8
257.781	13841.21
257.852	13850.13
257.922	13781.53
257.992	13785.05
258.062	13779.46
258.132	13820.53
258.202	13820.86
258.273	13827.9
258.343	13901.95
258.413	13893.7
258.483	13903.63
258.553	13874.13
258.623	13852.29
258.693	13890.67
258.764	13963.65
258.834	14030.75
258.904	14052.16
258.974	14043.43
259.044	14057.46
259.114	14081.47
259.184	14108.61
259.254	14119.21
259.324	14068.55
259.394	14115.6
259.464	14189.45
259.535	14199.04
259.605	14188.87
259.675	14182.79
259.745	14220.1
259.815	14198.75
259.885	14202.17
259.955	14313.85
260.025	14301.13
260.095	14304.89
260.165	14338.25
260.235	14399.8
260.305	14387.85
260.375	14348.65
260.445	14447.38
260.515	14509.71
260.585	14566.25
260.655	14578.78
260.725	14620.96
260.795	14651.77
260.865	14726.44
260.934	14703.63
261.004	14732.12
261.074	14735.98
261.144	14796.62
261.214	14834.7
261.284	14832.87
261.354	14871.05
261.424	14823.05
261.494	14905.67
261.564	14922.88
261.634	14950.98
261.703	14884.41
261.773	14915.07
261.843	14953.44
261.913	14941.25
261.983	14886.58
262.053	14913.96
262.123	14908.75
262.192	14865.61
262.262	14912.08
262.332	14867.35
262.402	14895.16
262.472	14898.63
262.541	14840.98
262.611	14885.28
262.681	14861.32
262.751	14899.06
262.821	14903.02
262.89	14872.6
262.96	14892.61
