Data from 20250701_urea_2M_exp3_MAYP1162681_00-19-50-436.txt Node
Date: Wed Jul 02 00:19:50 BST 2025
User: adleo
Spectrometer: MAYP116268
Trigger mode: 0
Integration Time (sec): 4.000000E0
Scans to average: 1
Electric dark correction enabled: true
Nonlinearity correction enabled: true
Boxcar width: 10
XAxis mode: Wavelengths
Number of Pixels in Spectrum: 2068
>>>>>Begin Spectral Data<<<<<
179.565	3702.14
179.642	3896.26
179.718	4048.59
179.795	4182.32
179.871	4304.87
179.948	4370.43
180.024	4438.83
180.101	4519.14
180.177	4574.89
180.254	4653.02
180.33	4729.04
180.407	5001.76
180.483	5295.99
180.56	5589.37
180.636	5860.21
180.712	5826.08
180.789	5858.66
180.865	5894.61
180.942	5927.27
181.018	5971.97
181.095	6020.08
181.171	6042.72
181.248	6044.74
181.324	6099.66
181.4	6125.19
181.477	6157.83
181.553	6203.25
181.63	6275.01
181.706	6330.79
181.782	6354.58
181.859	6356.74
181.935	6374.55
182.011	6360.82
182.088	6413.4
182.164	6481.86
182.24	6526.58
182.317	6552.88
182.393	6549.9
182.469	6607.13
182.546	6649.15
182.622	6660.96
182.698	6644.05
182.775	6686.6
182.851	6735.86
182.927	6707.82
183.003	6694.47
183.08	6673.35
183.156	6702.83
183.232	6698.94
183.308	6657.64
183.385	6689.13
183.461	6743.89
183.537	6753.16
183.613	6797.11
183.69	6763.72
183.766	6723.69
183.842	6749.87
183.918	6768.99
183.995	6811.59
184.071	6815.29
184.147	6799.96
184.223	6764.93
184.299	6805.67
184.375	6767.64
184.452	6791.38
184.528	6917.22
184.604	6950.39
184.68	6987.75
184.756	7009.38
184.832	7020.24
184.908	7038.24
184.985	7035.93
185.061	6985.12
185.137	7011.88
185.213	6968.65
185.289	6972.49
185.365	6949.16
185.441	6945.51
185.517	6991.36
185.593	6976.71
185.669	6975.41
185.745	7010.05
185.822	7064.98
185.898	7039.03
185.974	7070.53
186.05	7039.19
186.126	6966.25
186.202	6944.45
186.278	6935.61
186.354	6907.17
186.43	6928.27
186.506	6920.39
186.582	6919.24
186.658	6939.89
186.734	6869.97
186.81	6878.13
186.886	6890.13
186.962	6931.39
187.038	6917.41
187.114	6893.32
187.19	6920.62
187.266	6887.48
187.341	6885.07
187.417	6861.92
187.493	6862.07
187.569	6867.93
187.645	6852.75
187.721	6812.91
187.797	6841.01
187.873	6857.92
187.949	6839.63
188.025	6813.19
188.101	6822.36
188.176	6832.3
188.252	6819.29
188.328	6848.9
188.404	6847.61
188.48	6828.97
188.556	6806.4
188.632	6797.8
188.707	6797.37
188.783	6784.49
188.859	6766.78
188.935	6734.1
189.011	6756.2
189.086	6731.95
189.162	6707.07
189.238	6699.72
189.314	6690.93
189.39	6668.5
189.465	6643.95
189.541	6695.02
189.617	6651.22
189.693	6637.49
189.768	6649.41
189.844	6732.22
189.92	6704.57
189.996	6733.54
190.071	6773.02
190.147	6774.51
190.223	6812.61
190.298	6785.6
190.374	6739.35
190.45	6778.63
190.526	6803.85
190.601	6791.26
190.677	6798.7
190.753	6893.65
190.828	6903.31
190.904	6959
190.98	7017.91
191.055	7051.59
191.131	7022.23
191.207	7089.38
191.282	7119.3
191.358	7087.74
191.433	7038.32
191.509	7084.55
191.585	7076.57
191.66	7079.79
191.736	7097.66
191.811	7063.98
191.887	7118.82
191.963	7204.35
192.038	7223.28
192.114	7223.57
192.189	7233.66
192.265	7228.18
192.34	7149.04
192.416	7148.27
192.491	7133.46
192.567	7135.19
192.642	7141.97
192.718	7147.35
192.793	7105.98
192.869	7096.99
192.944	7109.43
193.02	7129.86
193.095	7142.93
193.171	7166.19
193.246	7164.17
193.322	7153.89
193.397	7157.78
193.473	7112.01
193.548	7049.34
193.624	7066.26
193.699	7062.46
193.775	7121.31
193.85	7122.27
193.925	7156.01
194.001	7155.43
194.076	7124.54
194.152	7093.14
194.227	7070.94
194.302	7035.02
194.378	7052.07
194.453	7039.35
194.529	7085.05
194.604	7043.49
194.679	7023.11
194.755	6958.28
194.83	6999.24
194.905	6995.74
194.981	7028.08
195.056	7002.96
195.131	7025.35
195.207	7019.05
195.282	6989.99
195.357	6923.65
195.433	6974.86
195.508	6931.32
195.583	6954.19
195.659	7004.75
195.734	7024.7
195.809	7020.33
195.884	7055.23
195.96	7056.82
196.035	7105.58
196.11	7087.56
196.185	7127.01
196.261	7140.99
196.336	7243.28
196.411	7195.78
196.486	7218.89
196.561	7191.45
196.637	7219.07
196.712	7275.09
196.787	7286.53
196.862	7340.21
196.937	7372.64
197.013	7389.13
197.088	7424.84
197.163	7496.3
197.238	7553.8
197.313	7555.72
197.388	7599.56
197.464	7701.68
197.539	7740.42
197.614	7720
197.689	7758.66
197.764	7811.57
197.839	7874.18
197.914	7852.63
197.989	7925.25
198.065	7972.04
198.14	8149.81
198.215	8245.68
198.29	8277.15
198.365	8313.57
198.44	8350.51
198.515	8447.52
198.59	8500.74
198.665	8588.3
198.74	8615.7
198.815	8623.4
198.89	8697.69
198.965	8804.32
199.04	8791.61
199.115	8840.02
199.19	8987.08
199.265	8997.13
199.34	9028.09
199.415	9141.3
199.49	9214.88
199.565	9248.77
199.64	9326.91
199.715	9312.93
199.79	9333.4
199.865	9356.22
199.94	9358.72
200.015	9461.87
200.09	9475.21
200.165	9496.25
200.24	9521.2
200.315	9651.57
200.39	9696.6
200.464	9717.94
200.539	9719.09
200.614	9767.77
200.689	9843.68
200.764	9861.84
200.839	9921.1
200.914	9936.46
200.989	9901.68
201.063	9951.48
201.138	9891.99
201.213	9893.53
201.288	9830.06
201.363	9841.37
201.438	9844.74
201.512	9900.3
201.587	9843.22
201.662	9858.59
201.737	9902.95
201.812	9934.55
201.886	9820.26
201.961	9851.43
202.036	9812.1
202.111	9802.7
202.186	9708.07
202.26	9647.43
202.335	9574.08
202.41	9553.8
202.485	9499.21
202.559	9429.54
202.634	9335.69
202.709	9366.39
202.784	9293.07
202.858	9286.28
202.933	9228.22
203.008	9204.67
203.082	9137.37
203.157	9128.03
203.232	8978.04
203.306	8900.56
203.381	8784.86
203.456	8711.27
203.53	8635.55
203.605	8567.77
203.68	8486.02
203.754	8462.08
203.829	8421.16
203.904	8355.92
203.978	8317.9
204.053	8333.49
204.127	8294.53
204.202	8296.88
204.277	8237.62
204.351	8225.83
204.426	8205.23
204.5	8174.44
204.575	8056.2
204.65	8092.68
204.724	8077.71
204.799	8103.61
204.873	8092.98
204.948	8092.11
205.022	8053.89
205.097	8020.15
205.171	8059.77
205.246	8087.35
205.32	8083.5
205.395	8078.79
205.469	8050.38
205.544	8068.91
205.618	8005.8
205.693	8043.94
205.767	7996.62
205.842	8071.81
205.916	8045.99
205.991	8008.52
206.065	8027.52
206.14	8082.39
206.214	8061.65
206.289	8024.88
206.363	8070.82
206.438	8073.51
206.512	8095.02
206.586	8156.81
206.661	8186.51
206.735	8115.37
206.81	8112.05
206.884	8166.82
206.958	8124.94
207.033	8180.18
207.107	8205.26
207.181	8320.81
207.256	8300.94
207.33	8366.74
207.405	8408.01
207.479	8473.88
207.553	8502.79
207.628	8445.52
207.702	8483.43
207.776	8458.02
207.851	8472.75
207.925	8521.37
207.999	8512.7
208.073	8506.3
208.148	8514.25
208.222	8478
208.296	8591.07
208.371	8654.82
208.445	8687.99
208.519	8780.22
208.593	8821.18
208.668	8804.57
208.742	8807.8
208.816	8813.95
208.89	8854.01
208.965	8846.4
209.039	8873.8
209.113	8930.98
209.187	9006.25
209.261	8984.31
209.336	9057.14
209.41	9121.84
209.484	9127.67
209.558	9205.86
209.632	9251.06
209.707	9292.51
209.781	9364.67
209.855	9413.17
209.929	9466.8
210.003	9485.68
210.077	9487.94
210.151	9653.4
210.226	9766.74
210.3	9856.85
210.374	9935.62
210.448	9949.15
210.522	9981.67
210.596	10014.71
210.67	10045.44
210.744	10200.8
210.818	10317.55
210.892	10382.98
210.966	10366.94
211.041	10417.18
211.115	10401.1
211.189	10481.5
211.263	10535.74
211.337	10559.59
211.411	10607.05
211.485	10586.71
211.559	10626.26
211.633	10627.22
211.707	10512.04
211.781	10535.03
211.855	10411.3
211.929	10378.46
212.003	10316.63
212.077	10355.38
212.151	10390.6
212.225	10424.33
212.299	10390.44
212.373	10348.92
212.447	10334.08
212.52	10432.85
212.594	10439.5
212.668	10474.42
212.742	10417.71
212.816	10398.1
212.89	10370.65
212.964	10364.04
213.038	10369.25
213.112	10403.17
213.186	10449.22
213.26	10371.84
213.333	10216.78
213.407	10234.65
213.481	10240.19
213.555	10276.15
213.629	10227.43
213.703	10165.91
213.777	10143.21
213.85	10063.82
213.924	10166.4
213.998	10154.35
214.072	10115.22
214.146	10053.17
214.219	10029.42
214.293	10012.71
214.367	9999.32
214.441	10020.42
214.515	9969.64
214.588	9875.86
214.662	9748.38
214.736	9669.49
214.81	9685.52
214.883	9708.29
214.957	9652.92
215.031	9598.29
215.105	9499.57
215.178	9431.62
215.252	9396.8
215.326	9300.65
215.4	9219.26
215.473	9039.28
215.547	8955.25
215.621	8888.87
215.694	8887.67
215.768	8790
215.842	8717.62
215.915	8650.26
215.989	8537.56
216.063	8474.63
216.136	8446.43
216.21	8422.66
216.284	8427.77
216.357	8397.59
216.431	8344.61
216.504	8344.76
216.578	8396.98
216.652	8412.17
216.725	8390.47
216.799	8392.06
216.873	8373.68
216.946	8381.13
217.02	8338.2
217.093	8302.26
217.167	8204.02
217.24	8120.81
217.314	8092.3
217.387	8045
217.461	7998.54
217.535	8020.52
217.608	7959.63
217.682	7932.89
217.755	7946.07
217.829	7894.2
217.902	7874.72
217.976	7858.23
218.049	7802.1
218.123	7727.52
218.196	7726.51
218.27	7690.05
218.343	7616.92
218.417	7611.39
218.49	7585.09
218.563	7633.94
218.637	7641.73
218.71	7709.69
218.784	7732.73
218.857	7759.22
218.931	7786.9
219.004	7796.08
219.077	7816.01
219.151	7837.93
219.224	7834.42
219.298	7824.51
219.371	7865.83
219.444	7829.3
219.518	7837.48
219.591	7859.01
219.665	7964.71
219.738	7977.12
219.811	7958.13
219.885	8006.42
219.958	8042.02
220.031	8049.86
220.105	8066.22
220.178	8074.88
220.251	8054.43
220.325	8083.88
220.398	8102.25
220.471	8117.4
220.544	8155.35
220.618	8130.38
220.691	8155.97
220.764	8174.25
220.838	8204.89
220.911	8197.43
220.984	8286.12
221.057	8323.64
221.131	8350.58
221.204	8250.41
221.277	8325.58
221.35	8446.36
221.424	8436.2
221.497	8441.88
221.57	8462.32
221.643	8495
221.716	8541.59
221.79	8542.17
221.863	8544.19
221.936	8553.82
222.009	8568.39
222.082	8597.9
222.155	8606.66
222.229	8676.6
222.302	8707.93
222.375	8716.26
222.448	8753.46
222.521	8758.76
222.594	8762.13
222.667	8731.83
222.74	8786.58
222.814	8774.59
222.887	8757.45
222.96	8811.02
223.033	8860.71
223.106	8882.22
223.179	8912.99
223.252	8922.96
223.325	8955.92
223.398	8970.99
223.471	9000.88
223.544	9023.06
223.617	9031.49
223.69	9052.62
223.763	9010.05
223.837	9029.31
223.91	9055.88
223.983	9001.35
224.056	8965.16
224.129	8983.12
224.202	9039.02
224.275	9029.97
224.348	9001.91
224.42	8972.2
224.493	8913.86
224.566	8882.9
224.639	8915.3
224.712	8882.45
224.785	8869.89
224.858	8851.74
224.931	8837.78
225.004	8803.22
225.077	8808.42
225.15	8722.19
225.223	8723.54
225.296	8802.04
225.369	8747.52
225.442	8714.35
225.514	8737.63
225.587	8759.58
225.66	8765.5
225.733	8767.62
225.806	8773.83
225.879	8761.75
225.952	8725.47
226.025	8776.49
226.097	8832.64
226.17	8816.28
226.243	8758.58
226.316	8751.12
226.389	8764.26
226.461	8789.72
226.534	8804.31
226.607	8790.59
226.68	8870.32
226.753	8864.06
226.825	8781.03
226.898	8837.15
226.971	8839.51
227.044	8852.07
227.117	8857.36
227.189	8878.41
227.262	8912.83
227.335	8934.35
227.407	8935.6
227.48	8969.57
227.553	8979.97
227.626	8954.54
227.698	8964.5
227.771	8997.8
227.844	8985.47
227.916	9002.56
227.989	8958.56
228.062	8959.05
228.134	9046.58
228.207	9050.92
228.28	9043.02
228.352	9052.84
228.425	9059.01
228.498	9108.45
228.57	9090.5
228.643	9144.63
228.716	9145.3
228.788	9128.98
228.861	9123.25
228.934	9185.4
229.006	9193
229.079	9195.31
229.151	9180.82
229.224	9145.78
229.296	9168.45
229.369	9260.1
229.442	9310.29
229.514	9298.36
229.587	9339.71
229.659	9268.3
229.732	9281.44
229.804	9321.59
229.877	9405.21
229.949	9440.37
230.022	9491.39
230.094	9496
230.167	9488.2
230.239	9441.46
230.312	9431.3
230.384	9503.17
230.457	9499.51
230.529	9508.56
230.602	9509.76
230.674	9526.38
230.747	9567.48
230.819	9601.57
230.892	9487.54
230.964	9486.34
231.037	9514.11
231.109	9509.15
231.181	9545.35
231.254	9504.47
231.326	9491.62
231.399	9459.77
231.471	9429.67
231.544	9353.03
231.616	9393.08
231.688	9398.82
231.761	9391.31
231.833	9385.2
231.905	9299.6
231.978	9292.48
232.05	9283.67
232.122	9283.19
232.195	9256.6
232.267	9291.47
232.339	9272.01
232.412	9339.07
232.484	9313.64
232.556	9288.13
232.629	9355.81
232.701	9378.21
232.773	9392.94
232.846	9385.14
232.918	9400.56
232.99	9416.26
233.062	9451.13
233.135	9468.32
233.207	9431.72
233.279	9483.85
233.351	9513.27
233.424	9515.87
233.496	9496.95
233.568	9574.34
233.64	9539.72
233.713	9557.78
233.785	9554.51
233.857	9566.59
233.929	9514.93
234.001	9579.11
234.074	9642.41
234.146	9569.09
234.218	9564.47
234.29	9569.77
234.362	9560.04
234.434	9511.3
234.507	9472.73
234.579	9424.76
234.651	9400.88
234.723	9431.6
234.795	9441.23
234.867	9431.94
234.939	9485.16
235.012	9503.21
235.084	9508.95
235.156	9546.6
235.228	9523.87
235.3	9504.56
235.372	9519.2
235.444	9582.42
235.516	9505.34
235.588	9517.86
235.66	9532.45
235.732	9501.63
235.804	9697.42
235.876	9744.36
235.948	9808.82
236.02	9828.65
236.092	9842.9
236.164	9859.61
236.236	9857.3
236.308	9862.17
236.38	9895.98
236.452	9877.77
236.524	9897.23
236.596	9962.14
236.668	9998.37
236.74	10025.91
236.812	10057.46
236.884	10087.66
236.956	10092.58
237.028	10087.04
237.1	10065.32
237.172	10138.5
237.244	10213.26
237.316	10090.64
237.388	10066.66
237.46	10038.76
237.532	10102.88
237.604	10095.13
237.675	10166.19
237.747	10209.79
237.819	10191.44
237.891	10197.07
237.963	10189.27
238.035	10188.02
238.107	10072.28
238.178	10131.36
238.25	10135.55
238.322	10230.44
238.394	10182.7
238.466	10187.28
238.538	10229.13
238.609	10267.66
238.681	10206.86
238.753	10191.63
238.825	10216.93
238.897	10256.14
238.968	10339.6
239.04	10318.98
239.112	10433.63
239.184	10396.15
239.255	10401.16
239.327	10439.3
239.399	10457.71
239.471	10505.25
239.542	10540.13
239.614	10614.28
239.686	10527.21
239.758	10576.4
239.829	10539.19
239.901	10606.39
239.973	10620.51
240.044	10651.63
240.116	10667.15
240.188	10692.78
240.259	10704.92
240.331	10692.92
240.403	10726.21
240.474	10680.62
240.546	10672.28
240.618	10607.86
240.689	10605.93
240.761	10624.34
240.833	10686.26
240.904	10691.56
240.976	10689.15
241.048	10705.49
241.119	10740.48
241.191	10789.23
241.262	10858.54
241.334	10863.41
241.405	10870.01
241.477	10871.94
241.549	10885.33
241.62	10915.88
241.692	10956.07
241.763	11021.23
241.835	11043.16
241.906	11059.64
241.978	11032.61
242.049	11100.26
242.121	11170.81
242.192	11242.56
242.264	11211.53
242.335	11172.93
242.407	11214.33
242.478	11223.19
242.55	11245.36
242.621	11229.99
242.693	11235.43
242.764	11225.84
242.836	11230.08
242.907	11257.7
242.979	11293.16
243.05	11312.01
243.122	11336.25
243.193	11328.78
243.264	11251.33
243.336	11251.86
243.407	11295.63
243.479	11373.84
243.55	11386.47
243.622	11399.34
243.693	11396.74
243.764	11468.45
243.836	11444.45
243.907	11436.11
243.978	11444.02
244.05	11472.21
244.121	11426.96
244.192	11466.24
244.264	11420.26
244.335	11429.66
244.407	11390
244.478	11411.59
244.549	11406.24
244.62	11358.48
244.692	11366.33
244.763	11415.2
244.834	11408.69
244.906	11374.81
244.977	11395.3
245.048	11450.83
245.119	11425.23
245.191	11400.65
245.262	11335.88
245.333	11408.21
245.405	11424.31
245.476	11460.26
245.547	11472.55
245.618	11522.19
245.689	11535.01
245.761	11572.41
245.832	11580.99
245.903	11624.08
245.974	11650.64
246.045	11666.35
246.117	11751.8
246.188	11734.6
246.259	11722.36
246.33	11742.98
246.401	11758.79
246.473	11722.35
246.544	11705.48
246.615	11760.48
246.686	11768.72
246.757	11842.31
246.828	11819.18
246.899	11894.76
246.97	11856.01
247.042	11842.85
247.113	11892.6
247.184	11983.03
247.255	11979.71
247.326	12008.1
247.397	12014.31
247.468	12023.43
247.539	12032.87
247.61	11987.23
247.681	12035.61
247.752	12091.53
247.823	12068.54
247.894	12090.51
247.965	12063.96
248.037	12053.02
248.108	12002.98
248.179	12010.21
248.25	12004.53
248.321	12033.49
248.392	11981.38
248.463	12064.67
248.534	12068.43
248.605	12090.94
248.675	12069.1
248.746	12087.08
248.817	12101.98
248.888	12124.3
248.959	12064.34
249.03	12093.5
249.101	12103.67
249.172	12087.09
249.243	12006.26
249.314	12062.27
249.385	12069.31
249.456	12102.85
249.527	12101.94
249.598	12128.45
249.669	12129.84
249.739	12143.82
249.81	12156.64
249.881	12118.71
249.952	12113.31
250.023	12113.17
250.094	12055.95
250.165	12017.87
250.235	12013.72
250.306	12010.78
250.377	11972.12
250.448	12006
250.519	11946.14
250.59	12004.95
250.66	12002.83
250.731	12080.13
250.802	12075.31
250.873	12088.14
250.944	12112.38
251.014	12099.56
251.085	12191.87
251.156	12210.09
251.227	12259.65
251.297	12318.8
251.368	12369.36
251.439	12412.26
251.51	12464.8
251.58	12450.73
251.651	12442.44
251.722	12501.97
251.792	12451.79
251.863	12458.73
251.934	12525.83
252.005	12635.88
252.075	12643.93
252.146	12691.27
252.217	12744.29
252.287	12793.32
252.358	12800.36
252.429	12875.89
252.499	12876.81
252.57	12885.82
252.641	12943.67
252.711	12950.56
252.782	12904.29
252.852	12984.07
252.923	12987.1
252.994	12996.07
253.064	13047.89
253.135	13031.5
253.205	13007.49
253.276	13086.55
253.347	13151.72
253.417	13125.69
253.488	13107.75
253.558	13094.54
253.629	13094.69
253.699	13101.1
253.77	13127.08
253.841	13117.44
253.911	13121.4
253.982	13135.95
254.052	13163.19
254.123	13165.6
254.193	13167.62
254.264	13308.58
254.334	13272.86
254.405	13230.63
254.475	13197.17
254.546	13204.89
254.616	13270.83
254.687	13301.34
254.757	13325.74
254.827	13324.82
254.898	13347.14
254.968	13344.59
255.039	13329.35
255.109	13369.99
255.18	13340.15
255.25	13265.19
255.321	13303.75
255.391	13266.88
255.461	13348.78
255.532	13265
255.602	13266.49
255.673	13210.23
255.743	13172.49
255.813	13099.12
255.884	13157.26
255.954	13197.75
256.024	13264.91
256.095	13268.14
256.165	13227.64
256.235	13249.43
256.306	13235.55
256.376	13280.38
256.446	13329.02
256.517	13368.16
256.587	13413.91
256.657	13432.95
256.728	13466.79
256.798	13476.43
256.868	13475.62
256.938	13445.58
257.009	13493.74
257.079	13515.19
257.149	13616.09
257.219	13547.25
257.29	13588.37
257.36	13527.1
257.43	13568.02
257.5	13494.27
257.571	13484.53
257.641	13526.86
257.711	13491.38
257.781	13527.68
257.852	13547.25
257.922	13486.89
257.992	13484.29
258.062	13476.53
258.132	13519.05
258.202	13523.29
258.273	13533.8
258.343	13602.11
258.413	13596.61
258.483	13595.4
258.553	13572.12
258.623	13541.75
258.693	13578.2
258.764	13645.06
258.834	13716.06
258.904	13726.43
258.974	13717.8
259.044	13729.9
259.114	13762.54
259.184	13790.74
259.254	13795.32
259.324	13741.81
259.394	13780.32
259.464	13864.06
259.535	13870.04
259.605	13862.08
259.675	13853.84
259.745	13893.61
259.815	13867.29
259.885	13865.36
259.955	13980.47
260.025	13973.19
260.095	13988.9
260.165	14019.85
260.235	14085.31
260.305	14063.72
260.375	14036.33
260.445	14132.02
260.515	14195.27
260.585	14235.38
260.655	14242.17
260.725	14288.06
260.795	14328.17
260.865	14408.38
260.934	14371.89
261.004	14402.84
261.074	14413.78
261.144	14468.4
261.214	14498.87
261.284	14500.31
261.354	14536.13
261.424	14493.86
261.494	14571.28
261.564	14577.21
261.634	14606.23
261.703	14534.98
261.773	14571.04
261.843	14605.07
261.913	14599.82
261.983	14543.71
262.053	14572.1
262.123	14564.43
262.192	14525.77
262.262	14563.56
262.332	14510.3
262.402	14545.44
262.472	14555.56
262.541	14493.28
262.611	14542.69
262.681	14519.75
262.751	14568.67
262.821	14574.75
262.89	14541.78
262.96	14562.84
263.03	14643.29
263.1	14660.5
263.169	14674.62
