Data from 20250701_urea_2M_exp3_MAYP1162681_20-29-51-517.txt Node
Date: Tue Jul 01 20:29:51 BST 2025
User: adleo
Spectrometer: MAYP116268
Trigger mode: 0
Integration Time (sec): 4.000000E0
Scans to average: 1
Electric dark correction enabled: true
Nonlinearity correction enabled: true
Boxcar width: 10
XAxis mode: Wavelengths
Number of Pixels in Spectrum: 2068
>>>>>Begin Spectral Data<<<<<
179.565	3967.27
179.642	4178.44
179.718	4341
179.795	4475.5
179.871	4600.21
179.948	4668.46
180.024	4741.65
180.101	4826.75
180.177	4881.37
180.254	4964.38
180.33	5045.44
180.407	5332.91
180.483	5643.42
180.56	5955.08
180.636	6242.61
180.712	6203.85
180.789	6242.59
180.865	6290.13
180.942	6318.92
181.018	6356.36
181.095	6404.25
181.171	6420.43
181.248	6417.45
181.324	6470.77
181.4	6502.17
181.477	6542.38
181.553	6592.09
181.63	6672.49
181.706	6729.8
181.782	6757.54
181.859	6755.71
181.935	6779.25
182.011	6771.28
182.088	6828.11
182.164	6904.39
182.24	6953.61
182.317	6984.06
182.393	6976.71
182.469	7026.91
182.546	7078.75
182.622	7099.17
182.698	7089.08
182.775	7130.68
182.851	7183.96
182.927	7162.82
183.003	7151.05
183.08	7125.35
183.156	7157.69
183.232	7143.89
183.308	7106.41
183.385	7140.76
183.461	7205.49
183.537	7205.68
183.613	7253.31
183.69	7218.13
183.766	7176.15
183.842	7199.7
183.918	7216.42
183.995	7264.43
184.071	7268.7
184.147	7248.18
184.223	7206.3
184.299	7244.28
184.375	7208.77
184.452	7227.1
184.528	7355.74
184.604	7391.34
184.68	7437.28
184.756	7455.84
184.832	7469.83
184.908	7483.66
184.985	7479.63
185.061	7423.25
185.137	7456.04
185.213	7410.29
185.289	7420.85
185.365	7394.33
185.441	7391.45
185.517	7441.32
185.593	7425.7
185.669	7418.97
185.745	7457.33
185.822	7515.02
185.898	7481.8
185.974	7512.16
186.05	7487.79
186.126	7409.47
186.202	7380.98
186.278	7363.82
186.354	7333.82
186.43	7357.34
186.506	7353.06
186.582	7351.72
186.658	7373.04
186.734	7297.27
186.81	7306.35
186.886	7318.41
186.962	7358.68
187.038	7346.52
187.114	7316.17
187.19	7345.98
187.266	7315.66
187.341	7314.22
187.417	7293.17
187.493	7293.79
187.569	7308.12
187.645	7293.36
187.721	7251.53
187.797	7281.37
187.873	7299.83
187.949	7280.86
188.025	7255.9
188.101	7266.18
188.176	7282.76
188.252	7271.32
188.328	7303.3
188.404	7305.56
188.48	7280.82
188.556	7257.41
188.632	7255.2
188.707	7262.65
188.783	7250.87
188.859	7235.94
188.935	7201.13
189.011	7224.15
189.086	7208.73
189.162	7176.48
189.238	7160.72
189.314	7150.82
189.39	7132.22
189.465	7108.14
189.541	7167.17
189.617	7119.21
189.693	7102.45
189.768	7117.83
189.844	7205.35
189.92	7175.92
189.996	7204.47
190.071	7247.53
190.147	7245.99
190.223	7279.4
190.298	7245.56
190.374	7204.52
190.45	7246.89
190.526	7271.35
190.601	7256.65
190.677	7254.92
190.753	7352.99
190.828	7368.31
190.904	7425.23
190.98	7480.48
191.055	7514.9
191.131	7486.05
191.207	7559.92
191.282	7592.07
191.358	7554.38
191.433	7498.49
191.509	7548.63
191.585	7539.36
191.66	7544.5
191.736	7571.27
191.811	7535.41
191.887	7600.58
191.963	7682.55
192.038	7695.68
192.114	7703.08
192.189	7709.86
192.265	7705.15
192.34	7630.05
192.416	7627.84
192.491	7610.77
192.567	7614.81
192.642	7623.56
192.718	7629.38
192.793	7577.94
192.869	7563.37
192.944	7574.04
193.02	7602.03
193.095	7616.16
193.171	7638.52
193.246	7629.67
193.322	7617.9
193.397	7622.99
193.473	7569.79
193.548	7502.18
193.624	7525.89
193.699	7519.21
193.775	7578.08
193.85	7582.45
193.925	7608.7
194.001	7606.59
194.076	7579.09
194.152	7545.67
194.227	7524.12
194.302	7482.37
194.378	7503.99
194.453	7494.58
194.529	7536.21
194.604	7483.76
194.679	7461.45
194.755	7386.83
194.83	7434.5
194.905	7428.35
194.981	7465.71
195.056	7439.61
195.131	7464.46
195.207	7453.16
195.282	7418.03
195.357	7350.65
195.433	7402.32
195.508	7364.87
195.583	7389.52
195.659	7441.03
195.734	7459.01
195.809	7450.98
195.884	7485.86
195.96	7486.2
196.035	7536.48
196.11	7522.77
196.185	7565.46
196.261	7579.16
196.336	7695.31
196.411	7640.43
196.486	7660.66
196.561	7629.41
196.637	7660.74
196.712	7716.74
196.787	7732.13
196.862	7785.74
196.937	7819.53
197.013	7841.33
197.088	7878.11
197.163	7955.33
197.238	8017.14
197.313	8025.17
197.388	8074.38
197.464	8181.1
197.539	8221.07
197.614	8201.74
197.689	8244.75
197.764	8305.34
197.839	8371.1
197.914	8344.39
197.989	8426.52
198.065	8477.61
198.14	8657.38
198.215	8752.23
198.29	8796.72
198.365	8838.44
198.44	8881.22
198.515	8980.24
198.59	9032.52
198.665	9121.67
198.74	9148.35
198.815	9156.44
198.89	9230.91
198.965	9337.48
199.04	9323.66
199.115	9379.64
199.19	9529.6
199.265	9544.76
199.34	9575.97
199.415	9701.51
199.49	9776.03
199.565	9809.83
199.64	9889.97
199.715	9878.36
199.79	9900.27
199.865	9911.35
199.94	9911.3
200.015	10020.55
200.09	10039.97
200.165	10066.36
200.24	10096.81
200.315	10233.91
200.39	10281.55
200.464	10302.89
200.539	10313.16
200.614	10370.96
200.689	10454.07
200.764	10473.39
200.839	10527.95
200.914	10547.37
200.989	10503.03
201.063	10562.29
201.138	10505.14
201.213	10502.01
201.288	10435.91
201.363	10453.4
201.438	10457.93
201.512	10513.46
201.587	10450.96
201.662	10466.14
201.737	10503.05
201.812	10524.83
201.886	10411.91
201.961	10449.4
202.036	10409.23
202.111	10392.23
202.186	10282.78
202.26	10219.7
202.335	10143.68
202.41	10128.51
202.485	10063.44
202.559	9992.98
202.634	9894.47
202.709	9929.23
202.784	9863.06
202.858	9858.68
202.933	9791.54
203.008	9770.92
203.082	9703.31
203.157	9694.45
203.232	9537.86
203.306	9466.75
203.381	9350.44
203.456	9270.66
203.53	9179.21
203.605	9112.84
203.68	9027.74
203.754	9006.29
203.829	8952.99
203.904	8885.89
203.978	8842.31
204.053	8861.37
204.127	8819.5
204.202	8810.36
204.277	8739.85
204.351	8720.26
204.426	8697.87
204.5	8667.79
204.575	8542.37
204.65	8574.29
204.724	8546.7
204.799	8576.22
204.873	8558.17
204.948	8552.54
205.022	8510.3
205.097	8485.31
205.171	8528.08
205.246	8558.13
205.32	8549.33
205.395	8543.26
205.469	8506.48
205.544	8525.83
205.618	8462.83
205.693	8505.43
205.767	8461.45
205.842	8536.77
205.916	8521.52
205.991	8487.59
206.065	8510.69
206.14	8566.75
206.214	8552.25
206.289	8530.4
206.363	8574.14
206.438	8580.59
206.512	8608.07
206.586	8672.74
206.661	8698.69
206.735	8623.32
206.81	8625.15
206.884	8686.59
206.958	8645.31
207.033	8709.43
207.107	8731.97
207.181	8842.07
207.256	8820.22
207.33	8891.39
207.405	8938.07
207.479	9000.02
207.553	9026.3
207.628	8961.5
207.702	9006.16
207.776	8977.28
207.851	8988.59
207.925	9043.1
207.999	9033.23
208.073	9030.97
208.148	9045.51
208.222	9006.17
208.296	9122.47
208.371	9183.26
208.445	9217.64
208.519	9324.7
208.593	9363.7
208.668	9350.4
208.742	9358.11
208.816	9361.82
208.89	9412.83
208.965	9407.67
209.039	9431.95
209.113	9491.8
209.187	9571.23
209.261	9546.78
209.336	9614.96
209.41	9687.4
209.484	9690
209.558	9766.1
209.632	9811.22
209.707	9849.65
209.781	9927.09
209.855	9981.96
209.929	10038.21
210.003	10063.78
210.077	10055.16
210.151	10226.82
210.226	10347.71
210.3	10445.4
210.374	10531.22
210.448	10542.98
210.522	10573.96
210.596	10614.48
210.67	10647.44
210.744	10807.89
210.818	10930.42
210.892	11004.48
210.966	10980.1
211.041	11032.43
211.115	11018.84
211.189	11102.45
211.263	11161.38
211.337	11184.46
211.411	11233.04
211.485	11210.48
211.559	11250.04
211.633	11255.87
211.707	11144.96
211.781	11173.5
211.855	11045.02
211.929	11011.88
212.003	10940.93
212.077	10981.6
212.151	11019.39
212.225	11047.72
212.299	11011.57
212.373	10961.46
212.447	10940.83
212.52	11042.51
212.594	11056.15
212.668	11094.7
212.742	11043.04
212.816	11015.71
212.89	10992.49
212.964	10978.41
213.038	10982.85
213.112	11021.5
213.186	11067.27
213.26	10983.94
213.333	10811.11
213.407	10823.45
213.481	10826.87
213.555	10866.31
213.629	10811.75
213.703	10746.74
213.777	10737.59
213.85	10662.27
213.924	10773.5
213.998	10768.63
214.072	10727.85
214.146	10665.06
214.219	10645.45
214.293	10613.7
214.367	10606.81
214.441	10629.36
214.515	10576.31
214.588	10479.32
214.662	10342.55
214.736	10258.01
214.81	10270.05
214.883	10294.65
214.957	10239.37
215.031	10175.14
215.105	10072.42
215.178	10002.76
215.252	9961.58
215.326	9848.67
215.4	9759.17
215.473	9569.94
215.547	9476.54
215.621	9411.59
215.694	9404.6
215.768	9299.29
215.842	9225.34
215.915	9153.28
215.989	9032.21
216.063	8970.32
216.136	8946.39
216.21	8916.98
216.284	8925.51
216.357	8892.53
216.431	8838.28
216.504	8832.65
216.578	8896.54
216.652	8915.25
216.725	8888.34
216.799	8889.25
216.873	8872.6
216.946	8877.27
217.02	8833.64
217.093	8803.37
217.167	8693.68
217.24	8601.2
217.314	8567.63
217.387	8524.25
217.461	8475.69
217.535	8495.42
217.608	8429.26
217.682	8400.48
217.755	8414.67
217.829	8352.34
217.902	8341.03
217.976	8322.08
218.049	8271.42
218.123	8184.63
218.196	8176.98
218.27	8141.9
218.343	8066.48
218.417	8058.93
218.49	8036.37
218.563	8086.15
218.637	8089.23
218.71	8170.26
218.784	8202.5
218.857	8233.43
218.931	8252.47
219.004	8257.38
219.077	8283.95
219.151	8303.1
219.224	8294.63
219.298	8285.15
219.371	8340.54
219.444	8295.48
219.518	8308.23
219.591	8330.64
219.665	8443.01
219.738	8453.16
219.811	8434.51
219.885	8486.28
219.958	8525.17
220.031	8529.4
220.105	8546.3
220.178	8552.79
220.251	8524.06
220.325	8544.85
220.398	8562.75
220.471	8591.62
220.544	8631.71
220.618	8596.76
220.691	8625.73
220.764	8645.55
220.838	8681.51
220.911	8660.85
220.984	8752.22
221.057	8786.92
221.131	8807.13
221.204	8706.54
221.277	8788.44
221.35	8913.92
221.424	8909.54
221.497	8916.81
221.57	8937.11
221.643	8974.96
221.716	9024.79
221.79	9028.74
221.863	9044.73
221.936	9055.27
222.009	9064.22
222.082	9095.86
222.155	9104.43
222.229	9177.72
222.302	9212.48
222.375	9216.14
222.448	9261.16
222.521	9265.97
222.594	9269.92
222.667	9244.51
222.74	9301.41
222.814	9287.83
222.887	9272.85
222.96	9324.13
223.033	9365.45
223.106	9395.1
223.179	9424.92
223.252	9440.14
223.325	9474.9
223.398	9486.61
223.471	9518.72
223.544	9540.91
223.617	9549.29
223.69	9580.54
223.763	9537.96
223.837	9561.17
223.91	9592.77
223.983	9537.59
224.056	9501.15
224.129	9528.79
224.202	9584.57
224.275	9574.17
224.348	9544.17
224.42	9508.67
224.493	9449.21
224.566	9419.73
224.639	9444.24
224.712	9412.73
224.785	9397.42
224.858	9385.72
224.931	9368.67
225.004	9326.39
225.077	9329.43
225.15	9236.04
225.223	9232.19
225.296	9310.47
225.369	9251.4
225.442	9215.08
225.514	9234.43
225.587	9263.94
225.66	9267.94
225.733	9271.31
225.806	9273.24
225.879	9265.39
225.952	9228.95
226.025	9278.26
226.097	9338.14
226.17	9328.17
226.243	9259.81
226.316	9250.66
226.389	9257.64
226.461	9275.8
226.534	9299.2
226.607	9291.3
226.68	9378.23
226.753	9371.44
226.825	9287
226.898	9345.49
226.971	9352.96
227.044	9374.58
227.117	9378.81
227.189	9392.4
227.262	9431.02
227.335	9457.85
227.407	9454.33
227.48	9498.23
227.553	9512.15
227.626	9493.22
227.698	9498.23
227.771	9542.99
227.844	9525.08
227.916	9541.26
227.989	9506.97
228.062	9498.11
228.134	9586.21
228.207	9593.92
228.28	9586.69
228.352	9600.08
228.425	9605.67
228.498	9647.09
228.57	9623.06
228.643	9687.13
228.716	9686.31
228.788	9673.64
228.861	9661.51
228.934	9725.8
229.006	9725.89
229.079	9722.04
229.151	9703.15
229.224	9658.86
229.296	9685.59
229.369	9795.82
229.442	9848.72
229.514	9828.98
229.587	9874.05
229.659	9792.36
229.732	9802.57
229.804	9844.61
229.877	9932.64
229.949	9965.73
230.022	10020.67
230.094	10023.12
230.167	10005.73
230.239	9960.56
230.312	9946.59
230.384	10030.38
230.457	10029.56
230.529	10038.56
230.602	10047.62
230.674	10067.42
230.747	10119.32
230.819	10154.92
230.892	10031.64
230.964	10026.63
231.037	10054.22
231.109	10051.42
231.181	10093.08
231.254	10055.27
231.326	10044.63
231.399	10017.25
231.471	9981.36
231.544	9900.56
231.616	9945.2
231.688	9952.34
231.761	9944.34
231.833	9935.48
231.905	9841.92
231.978	9837.44
232.05	9827.71
232.122	9831.52
232.195	9799.49
232.267	9839.85
232.339	9807.62
232.412	9876.35
232.484	9852.16
232.556	9821.78
232.629	9887.31
232.701	9907.5
232.773	9919.3
232.846	9909.04
232.918	9910.15
232.99	9933.7
233.062	9978.22
233.135	9997.77
233.207	9963.52
233.279	10011.63
233.351	10045.92
233.424	10049.63
233.496	10025.21
233.568	10114.48
233.64	10078.54
233.713	10100.12
233.785	10094.87
233.857	10115.68
233.929	10061.45
234.001	10129.01
234.074	10206.15
234.146	10134.22
234.218	10133.93
234.29	10135.61
234.362	10125.41
234.434	10082.33
234.507	10042.69
234.579	9988.98
234.651	9967.4
234.723	9999.92
234.795	10021.69
234.867	10014.37
234.939	10073.38
235.012	10094.91
235.084	10099.44
235.156	10129.16
235.228	10103.63
235.3	10089.85
235.372	10094.38
235.444	10155.6
235.516	10078.69
235.588	10081.01
235.66	10101.43
235.732	10073.97
235.804	10277.79
235.876	10320.22
235.948	10385.41
236.02	10405.01
236.092	10421.77
236.164	10432.08
236.236	10432.13
236.308	10429.48
236.38	10461.08
236.452	10444.07
236.524	10466.19
236.596	10531.21
236.668	10574.14
236.74	10603.09
236.812	10633.1
236.884	10675.36
236.956	10686.93
237.028	10674.26
237.1	10659.95
237.172	10736.33
237.244	10819.5
237.316	10704
237.388	10689.65
237.46	10669.6
237.532	10733.39
237.604	10722.03
237.675	10811.56
237.747	10859.8
237.819	10849.97
237.891	10853.93
237.963	10844.43
238.035	10842.65
238.107	10728.05
238.178	10795.33
238.25	10807.91
238.322	10902.57
238.394	10854.24
238.466	10855.39
238.538	10905.98
238.609	10951.12
238.681	10887.75
238.753	10862.74
238.825	10880.23
238.897	10908.7
238.968	10994.74
239.04	10978.26
239.112	11096.07
239.184	11045.8
239.255	11038.09
239.327	11074.9
239.399	11094.56
239.471	11148.24
239.542	11187.9
239.614	11257.34
239.686	11157.53
239.758	11210.1
239.829	11172.46
239.901	11248.41
239.973	11268.89
240.044	11304.55
240.116	11321.08
240.188	11337.65
240.259	11352.98
240.331	11343.87
240.403	11393.41
240.474	11341.06
240.546	11333.4
240.618	11266.22
240.689	11261.93
240.761	11284.15
240.833	11352.59
240.904	11352.78
240.976	11350.08
241.048	11365.79
241.119	11404.69
241.191	11465.99
241.262	11540.51
241.334	11546.49
241.405	11548.56
241.477	11548.27
241.549	11556.61
241.62	11585.72
241.692	11636.52
241.763	11707.42
241.835	11723.52
241.906	11732.49
241.978	11704.15
242.049	11769.26
242.121	11845.65
242.192	11918.38
242.264	11880.64
242.335	11834.95
242.407	11893.37
242.478	11898.04
242.55	11919.06
242.621	11903.87
242.693	11900.26
242.764	11885.22
242.836	11888.49
242.907	11918.57
242.979	11955.44
243.05	11976.32
243.122	12007.21
243.193	12007.45
243.264	11930.14
243.336	11937.95
243.407	11987.07
243.479	12074.26
243.55	12100.92
243.622	12118.27
243.693	12118.56
243.764	12192.11
243.836	12157.61
243.907	12139.58
243.978	12147.24
244.05	12174.86
244.121	12122.71
244.192	12170.48
244.264	12120.64
244.335	12137.32
244.407	12083.14
244.478	12103.77
244.549	12099.14
244.62	12044.82
244.692	12051.18
244.763	12100.88
244.834	12095.53
244.906	12066.8
244.977	12086.61
245.048	12137.76
245.119	12110.38
245.191	12088.73
245.262	12029.16
245.333	12119.77
245.405	12143.58
245.476	12181.22
245.547	12192.41
245.618	12254.92
245.689	12267.21
245.761	12306.31
245.832	12312.81
245.903	12366.03
245.974	12394.47
246.045	12409.99
246.117	12506.35
246.188	12481.43
246.259	12462.05
246.33	12477.24
246.401	12488.32
246.473	12447.78
246.544	12432.4
246.615	12498.59
246.686	12501.58
246.757	12577.88
246.828	12554.65
246.899	12637.03
246.97	12599.53
247.042	12601.75
247.113	12646.68
247.184	12737.69
247.255	12735.9
247.326	12761.07
247.397	12772.54
247.468	12785.27
247.539	12801.61
247.61	12745.11
247.681	12795.53
247.752	12856.61
247.823	12826.14
247.894	12846.48
247.965	12818.43
248.037	12805.95
248.108	12745.35
248.179	12755.09
248.25	12744.72
248.321	12774.32
248.392	12712.47
248.463	12803.24
248.534	12797.41
248.605	12820.93
248.675	12800.88
248.746	12818.71
248.817	12846.58
248.888	12866.68
248.959	12803.15
249.03	12827.44
249.101	12848.27
249.172	12831.49
249.243	12750.9
249.314	12828.89
249.385	12835.25
249.456	12877.43
249.527	12876.42
249.598	12903.12
249.669	12907.75
249.739	12924.38
249.81	12932.53
249.881	12888.33
249.952	12883.75
250.023	12878.73
250.094	12825.08
250.165	12786.61
250.235	12788.83
250.306	12777.84
250.377	12738.69
250.448	12772.82
250.519	12712.86
250.59	12764
250.66	12773.4
250.731	12850.38
250.802	12845.8
250.873	12868.41
250.944	12891.6
251.014	12873.71
251.085	12972.68
251.156	13003.05
251.227	13055.4
251.297	13123.37
251.368	13183.72
251.439	13225.71
251.51	13286.5
251.58	13274.69
251.651	13271.56
251.722	13318.32
251.792	13279.9
251.863	13290.6
251.934	13359.34
252.005	13474.36
252.075	13481.98
252.146	13530.52
252.217	13581.43
252.287	13626.31
252.358	13620.86
252.429	13691.62
252.499	13688.59
252.57	13692.49
252.641	13744.6
252.711	13760.99
252.782	13710.67
252.852	13799.61
252.923	13807.46
252.994	13818.5
253.064	13866.9
253.135	13845.74
253.205	13833.78
253.276	13904.4
253.347	13969.97
253.417	13938.87
253.488	13923.78
253.558	13917.66
253.629	13914.77
253.699	13932.46
253.77	13962.3
253.841	13967.31
253.911	13979.27
253.982	14000.38
254.052	14033.98
254.123	14034.99
254.193	14032.63
254.264	14169.24
254.334	14122.38
254.405	14075.53
254.475	14037.59
254.546	14042.84
254.616	14110.04
254.687	14137.47
254.757	14168.32
254.827	14169.48
254.898	14196.28
254.968	14198.07
255.039	14173.1
255.109	14207.13
255.18	14175.56
255.25	14100.55
255.321	14134.39
255.391	14092.64
255.461	14185.25
255.532	14094.48
255.602	14095.15
255.673	14034.22
255.743	13999.76
255.813	13928.41
255.884	13982.59
255.954	14025.59
256.024	14096.07
256.095	14104.17
256.165	14069.36
256.235	14090.04
256.306	14076.06
256.376	14128.75
256.446	14172.57
256.517	14216.73
256.587	14266.86
256.657	14289.85
256.728	14317.23
256.798	14333
256.868	14332.61
256.938	14301.66
257.009	14359.27
257.079	14390.85
257.149	14503.02
257.219	14442.76
257.29	14484.56
257.36	14422.9
257.43	14462.81
257.5	14395.47
257.571	14379.85
257.641	14421.89
257.711	14380.96
257.781	14416.54
257.852	14434.91
257.922	14363.46
257.992	14367.18
258.062	14357.1
258.132	14402.27
258.202	14404.15
258.273	14415.14
258.343	14482.14
258.413	14462.52
258.483	14465.18
258.553	14433.79
258.623	14405.35
258.693	14437.12
258.764	14500.42
258.834	14576.68
258.904	14588.01
258.974	14586.08
259.044	14605.21
259.114	14634.76
259.184	14661.71
259.254	14670.29
259.324	14614.71
259.394	14668.08
259.464	14752
259.535	14765.35
259.605	14753.44
259.675	14743.27
259.745	14776.43
259.815	14763.03
259.885	14766.65
259.955	14884.64
260.025	14876.78
260.095	14886.23
260.165	14915.87
260.235	14987.98
260.305	14970.39
260.375	14943.88
260.445	15028.19
260.515	15093.35
260.585	15142.33
260.655	15158.38
260.725	15202.77
260.795	15239.6
260.865	15312.72
260.934	15270.26
261.004	15299.66
261.074	15311.04
261.144	15383.49
261.214	15419.74
261.284	15424.36
261.354	15472.95
261.424	15425.1
261.494	15503.33
261.564	15513.31
261.634	15542.33
261.703	15469.69
261.773	15500.83
261.843	15534.13
261.913	15529.31
261.983	15464
262.053	15482.7
262.123	15481.26
262.192	15438.69
262.262	15482.07
262.332	15434.26
262.402	15481.69
262.472	15494.36
262.541	15428.18
262.611	15469.01
