Data from 20250701_urea_2M_exp3_MAYP1162681_05-19-48-977.txt Node
Date: Wed Jul 02 05:19:48 BST 2025
User: adleo
Spectrometer: MAYP116268
Trigger mode: 0
Integration Time (sec): 4.000000E0
Scans to average: 1
Electric dark correction enabled: true
Nonlinearity correction enabled: true
Boxcar width: 10
XAxis mode: Wavelengths
Number of Pixels in Spectrum: 2068
>>>>>Begin Spectral Data<<<<<
179.565	3588.5
179.642	3773.58
179.718	3919.65
179.795	4046.23
179.871	4155.92
179.948	4217.81
180.024	4285.27
180.101	4365.25
180.177	4416.57
180.254	4488.93
180.33	4566.16
180.407	4825.92
180.483	5101.45
180.56	5381.1
180.636	5639.2
180.712	5603.3
180.789	5636.64
180.865	5677.75
180.942	5706.47
181.018	5745.5
181.095	5788.26
181.171	5802.99
181.248	5802.41
181.324	5852.22
181.4	5875.78
181.477	5906.29
181.553	5947.19
181.63	6022.33
181.706	6073.35
181.782	6100.49
181.859	6103.61
181.935	6119.49
182.011	6108.02
182.088	6163.5
182.164	6231.35
182.24	6282.63
182.317	6309.6
182.393	6305.38
182.469	6352.46
182.546	6395.47
182.622	6407.42
182.698	6395.85
182.775	6437.94
182.851	6489.21
182.927	6470.05
183.003	6460.07
183.08	6448.41
183.156	6479.94
183.232	6463.33
183.308	6426.79
183.385	6450.21
183.461	6501.58
183.537	6504.89
183.613	6545.71
183.69	6522.08
183.766	6482.16
183.842	6500.55
183.918	6516.69
183.995	6557.4
184.071	6565.23
184.147	6549.72
184.223	6512.58
184.299	6550.67
184.375	6513.8
184.452	6535.24
184.528	6650.8
184.604	6684.55
184.68	6723.87
184.756	6747.31
184.832	6760.52
184.908	6776.4
184.985	6774.53
185.061	6728.34
185.137	6755
185.213	6716.16
185.289	6718.75
185.365	6702.76
185.441	6694.31
185.517	6744.62
185.593	6729.35
185.669	6726.08
185.745	6756.63
185.822	6817.2
185.898	6791.59
185.974	6824.38
186.05	6800.98
186.126	6731.96
186.202	6711.5
186.278	6702.91
186.354	6670.58
186.43	6693.79
186.506	6685.15
186.582	6684.72
186.658	6707.9
186.734	6643.62
186.81	6651.97
186.886	6661.29
186.962	6699.99
187.038	6688.99
187.114	6655.87
187.19	6684.7
187.266	6651.91
187.341	6658.25
187.417	6632.65
187.493	6633.42
187.569	6645.05
187.645	6623.63
187.721	6585.34
187.797	6606.23
187.873	6618.62
187.949	6603.5
188.025	6582.26
188.101	6598.29
188.176	6614.96
188.252	6602.09
188.328	6629.72
188.404	6628.96
188.48	6611.87
188.556	6587.81
188.632	6591.6
188.707	6598.85
188.783	6585.31
188.859	6565.4
188.935	6524.62
189.011	6548.72
189.086	6528.94
189.162	6499.31
189.238	6487.32
189.314	6481.89
189.39	6461.1
189.465	6434.21
189.541	6486.84
189.617	6441.43
189.693	6421.27
189.768	6433.28
189.844	6509.1
189.92	6483.28
189.996	6516.13
190.071	6551.09
190.147	6549.12
190.223	6582.12
190.298	6556.61
190.374	6520.55
190.45	6563.7
190.526	6594.29
190.601	6574.46
190.677	6576.18
190.753	6670.24
190.828	6684.88
190.904	6733.88
190.98	6792.48
191.055	6829.27
191.131	6803.62
191.207	6870.32
191.282	6899.27
191.358	6869.4
191.433	6821.43
191.509	6864.91
191.585	6853.48
191.66	6857.13
191.736	6882.87
191.811	6849.2
191.887	6901.48
191.963	6975.36
192.038	6992.08
192.114	6990.35
192.189	7002.64
192.265	6993.67
192.34	6916.75
192.416	6914.11
192.491	6897.72
192.567	6901.42
192.642	6906.13
192.718	6902.53
192.793	6860.11
192.869	6850.27
192.944	6856.08
193.02	6881.79
193.095	6895.91
193.171	6912.24
193.246	6908.21
193.322	6897.25
193.397	6898.55
193.473	6852.03
193.548	6793.07
193.624	6815.09
193.699	6806.01
193.775	6862.29
193.85	6866.65
193.925	6894.42
194.001	6895.96
194.076	6871.13
194.152	6835.56
194.227	6809.95
194.302	6779.33
194.378	6793.93
194.453	6785.96
194.529	6833.18
194.604	6784.28
194.679	6762.38
194.755	6702.8
194.83	6748.66
194.905	6741.65
194.981	6766.96
195.056	6744.97
195.131	6763.37
195.207	6756.54
195.282	6732.24
195.357	6666.89
195.433	6716.36
195.508	6681.1
195.583	6700.35
195.659	6748.3
195.734	6769.49
195.809	6767.09
195.884	6796.03
195.96	6795.55
196.035	6844.12
196.11	6818.02
196.185	6859.47
196.261	6875.85
196.336	6975.28
196.411	6927.26
196.486	6944.36
196.561	6925.92
196.637	6948.63
196.712	7002.46
196.787	7008.04
196.862	7060.83
196.937	7097.14
197.013	7115.03
197.088	7143.65
197.163	7215.14
197.238	7267.29
197.313	7267.29
197.388	7314.77
197.464	7414.82
197.539	7453.12
197.614	7428.91
197.689	7476.2
197.764	7533.43
197.839	7595.21
197.914	7575.25
197.989	7645.06
198.065	7690.78
198.14	7854.6
198.215	7949.81
198.29	7988.83
198.365	8035.92
198.44	8067.41
198.515	8155.25
198.59	8206.63
198.665	8293.64
198.74	8319.73
198.815	8328.15
198.89	8400.68
198.965	8499.11
199.04	8486.84
199.115	8538.55
199.19	8679.41
199.265	8688.75
199.34	8715.55
199.415	8828.51
199.49	8901.59
199.565	8932.83
199.64	9014.07
199.715	9004.49
199.79	9021.14
199.865	9041.99
199.94	9032.56
200.015	9133.9
200.09	9151.96
200.165	9173.62
200.24	9193.6
200.315	9321.93
200.39	9369.79
200.464	9393.33
200.539	9396.51
200.614	9450.96
200.689	9527.24
200.764	9547.76
200.839	9603.64
200.914	9620.29
200.989	9580.94
201.063	9626.83
201.138	9570.73
201.213	9565.96
201.288	9503.75
201.363	9525.32
201.438	9522.58
201.512	9575.47
201.587	9520.76
201.662	9535.6
201.737	9570.85
201.812	9602.54
201.886	9503.43
201.961	9534.41
202.036	9496.57
202.111	9481.31
202.186	9383.81
202.26	9325.34
202.335	9254.5
202.41	9237.7
202.485	9181.34
202.559	9113.51
202.634	9025.32
202.709	9059.91
202.784	8994.01
202.858	8993.58
202.933	8926.57
203.008	8908.28
203.082	8847.88
203.157	8846.19
203.232	8701.49
203.306	8629.8
203.381	8522.12
203.456	8440.84
203.53	8363.01
203.605	8290.31
203.68	8218.3
203.754	8197.44
203.829	8149.32
203.904	8083.66
203.978	8040.69
204.053	8053.34
204.127	8015.21
204.202	8010.44
204.277	7944.03
204.351	7925.27
204.426	7907.03
204.5	7879.04
204.575	7760.35
204.65	7788.6
204.724	7762.22
204.799	7787.21
204.873	7775.61
204.948	7772
205.022	7733.45
205.097	7702.66
205.171	7757.94
205.246	7780.36
205.32	7777.77
205.395	7777.58
205.469	7745.86
205.544	7766.02
205.618	7707.59
205.693	7743.47
205.767	7699.05
205.842	7777.11
205.916	7758.74
205.991	7717.87
206.065	7738.35
206.14	7785.37
206.214	7771.8
206.289	7746.26
206.363	7786.51
206.438	7798.44
206.512	7817.68
206.586	7882.44
206.661	7914.1
206.735	7843.16
206.81	7846.24
206.884	7889.17
206.958	7847.39
207.033	7904.92
207.107	7928.84
207.181	8034.35
207.256	8009.48
207.33	8077.38
207.405	8113.98
207.479	8173.57
207.553	8198.91
207.628	8141.52
207.702	8187.01
207.776	8163.34
207.851	8172.86
207.925	8222.24
207.999	8213.92
208.073	8209.16
208.148	8209.11
208.222	8166.57
208.296	8267.3
208.371	8318.38
208.445	8357.94
208.519	8451.98
208.593	8489.17
208.668	8472.08
208.742	8478.05
208.816	8494.55
208.89	8536.67
208.965	8532
209.039	8558.09
209.113	8620.6
209.187	8695.46
209.261	8679.01
209.336	8744.79
209.41	8818.1
209.484	8818.78
209.558	8890.12
209.632	8932.8
209.707	8975.88
209.781	9046.92
209.855	9103.98
209.929	9160.58
210.003	9180.85
210.077	9177.82
210.151	9336.89
210.226	9450.84
210.3	9542.14
210.374	9612.17
210.448	9621.76
210.522	9651.86
210.596	9690.87
210.67	9712.68
210.744	9868.6
210.818	9977.39
210.892	10043.87
210.966	10016.8
211.041	10070.75
211.115	10055.82
211.189	10132.44
211.263	10181.18
211.337	10205.56
211.411	10247.47
211.485	10230.56
211.559	10270.63
211.633	10277.18
211.707	10170.97
211.781	10198.39
211.855	10078.16
211.929	10052.35
212.003	9990.97
212.077	10025.27
212.151	10060.83
212.225	10090.5
212.299	10044.14
212.373	10002
212.447	9988.6
212.52	10088.8
212.594	10097.09
212.668	10133.5
212.742	10084.32
212.816	10065.34
212.89	10042.32
212.964	10029.79
213.038	10033.84
213.112	10067.18
213.186	10114.13
213.26	10037.83
213.333	9883.03
213.407	9896.32
213.481	9898.87
213.555	9934.73
213.629	9879.86
213.703	9816.32
213.777	9808.61
213.85	9742.33
213.924	9841.96
213.998	9833.1
214.072	9794.36
214.146	9736.7
214.219	9718.88
214.293	9697.98
214.367	9695.67
214.441	9717.58
214.515	9666.86
214.588	9578.25
214.662	9455.07
214.736	9373.6
214.81	9388.42
214.883	9401.89
214.957	9354.77
215.031	9299.82
215.105	9208.9
215.178	9150.36
215.252	9112.28
215.326	9008.64
215.4	8925.88
215.473	8749.74
215.547	8664.8
215.621	8596.65
215.694	8590.11
215.768	8490.86
215.842	8424.76
215.915	8352.93
215.989	8240.83
216.063	8183.21
216.136	8158.34
216.21	8122.32
216.284	8128.04
216.357	8106.06
216.431	8062.91
216.504	8059.25
216.578	8113.05
216.652	8119.63
216.725	8095.39
216.799	8101.69
216.873	8087.79
216.946	8098.8
217.02	8062.23
217.093	8023.46
217.167	7931.88
217.24	7847.88
217.314	7814.19
217.387	7766.57
217.461	7715.69
217.535	7738.63
217.608	7671.42
217.682	7648.96
217.755	7670.64
217.829	7616.29
217.902	7594.56
217.976	7578.93
218.049	7528.21
218.123	7454.94
218.196	7454.07
218.27	7420.47
218.343	7344.19
218.417	7334.04
218.49	7302.65
218.563	7344.23
218.637	7354.91
218.71	7421.31
218.784	7450.3
218.857	7482.03
218.931	7505.66
219.004	7521.24
219.077	7535.81
219.151	7557.48
219.224	7545.8
219.298	7541.62
219.371	7582.64
219.444	7542.76
219.518	7549.58
219.591	7570.2
219.665	7666.49
219.738	7683.17
219.811	7666.45
219.885	7717.17
219.958	7753.63
220.031	7760.11
220.105	7784.41
220.178	7790.99
220.251	7768.34
220.325	7795.18
220.398	7811.92
220.471	7833.93
220.544	7864.71
220.618	7844.84
220.691	7876.96
220.764	7896.15
220.838	7918.42
220.911	7902.64
220.984	7987.55
221.057	8026.5
221.131	8047.09
221.204	7955.27
221.277	8022.58
221.35	8144.86
221.424	8138.8
221.497	8148.57
221.57	8169.29
221.643	8194.84
221.716	8240.26
221.79	8241.18
221.863	8248.2
221.936	8251.57
222.009	8266.19
222.082	8296.22
222.155	8299.25
222.229	8362.83
222.302	8389.72
222.375	8401.41
222.448	8440.96
222.521	8447.12
222.594	8447.65
222.667	8424.52
222.74	8478.78
222.814	8467.95
222.887	8452.06
222.96	8506.4
223.033	8547.65
223.106	8577.86
223.179	8612.52
223.252	8625.23
223.325	8660.98
223.398	8677.93
223.471	8711.85
223.544	8734.99
223.617	8744.86
223.69	8772.72
223.763	8733.67
223.837	8755
223.91	8780.12
223.983	8726.86
224.056	8697.22
224.129	8716.23
224.202	8772.08
224.275	8760.43
224.348	8735.36
224.42	8697.62
224.493	8632.03
224.566	8606.28
224.639	8629.38
224.712	8595.72
224.785	8582.19
224.858	8570.88
224.931	8549.13
225.004	8510.44
225.077	8507.07
225.15	8415.83
225.223	8414.04
225.296	8499.42
225.369	8451.21
225.442	8421.9
225.514	8451.72
225.587	8469.76
225.66	8471.83
225.733	8467.16
225.806	8483.38
225.879	8476.21
225.952	8451.44
226.025	8501.53
226.097	8555.65
226.17	8540.88
226.243	8477.13
226.316	8470.78
226.389	8477.56
226.461	8499.51
226.534	8524.96
226.607	8514.09
226.68	8610.01
226.753	8603.85
226.825	8514.77
226.898	8568.47
226.971	8569.48
227.044	8586.75
227.117	8592.38
227.189	8614.38
227.262	8650.82
227.335	8660.55
227.407	8661.65
227.48	8686.57
227.553	8698.22
227.626	8674.62
227.698	8687.91
227.771	8728.02
227.844	8703.91
227.916	8718.73
227.989	8681
228.062	8671.57
228.134	8764.19
228.207	8756.15
228.28	8752.26
228.352	8766.98
228.425	8772.62
228.498	8818.54
228.57	8794.53
228.643	8856.25
228.716	8854.95
228.788	8839.83
228.861	8835.94
228.934	8888.25
229.006	8901.1
229.079	8903.17
229.151	8889.3
229.224	8847.88
229.296	8872.95
229.369	8976.91
229.442	9019.43
229.514	9001.63
229.587	9041.96
229.659	8965.89
229.732	8982.5
229.804	9022.06
229.877	9101.67
229.949	9129.31
230.022	9178.1
230.094	9184.41
230.167	9166.73
230.239	9126.93
230.312	9121.29
230.384	9194.26
230.457	9192.38
230.529	9200.51
230.602	9204.99
230.674	9215.1
230.747	9256.77
230.819	9293.36
230.892	9177.48
230.964	9182.92
231.037	9217.42
231.109	9217.08
231.181	9258.38
231.254	9220.26
231.326	9207.21
231.399	9180.33
231.471	9155.14
231.544	9077.66
231.616	9115.68
231.688	9126.9
231.761	9111.36
231.833	9096.05
231.905	9011.87
231.978	9009.03
232.05	8995.7
232.122	8991.8
232.195	8965.32
232.267	9002.35
232.339	8975.67
232.412	9049.79
232.484	9021.52
232.556	8991.69
232.629	9056.28
232.701	9065.91
232.773	9076.5
232.846	9065.91
232.918	9075.88
232.99	9095.19
233.062	9138.09
233.135	9157.35
233.207	9118.3
233.279	9160.02
233.351	9190.35
233.424	9191.79
233.496	9171.09
233.568	9253.48
233.64	9224.36
233.713	9245.68
233.785	9245.01
233.857	9256.66
233.929	9200.77
234.001	9268.84
234.074	9333.23
234.146	9261.42
234.218	9258.34
234.29	9255.84
234.362	9241.35
234.434	9194.4
234.507	9150.97
234.579	9097.87
234.651	9074.9
234.723	9112.36
234.795	9135.42
234.867	9130.94
234.939	9190.17
235.012	9209.86
235.084	9213.66
235.156	9246.25
235.228	9228.39
235.3	9207.11
235.372	9219.05
235.444	9274.27
235.516	9193.2
235.588	9198.55
235.66	9210.15
235.732	9190.27
235.804	9388.62
235.876	9436.57
235.948	9497.83
236.02	9522.72
236.092	9537.98
236.164	9548.18
236.236	9541.97
236.308	9546.21
236.38	9578.52
236.452	9556.46
236.524	9577.89
236.596	9642.03
236.668	9675.74
236.74	9701.35
236.812	9728.99
236.884	9761.75
236.956	9770.13
237.028	9764.25
237.1	9748.56
237.172	9816.86
237.244	9888.58
237.316	9769.77
237.388	9751.28
237.46	9727.25
237.532	9780.51
237.604	9773.25
237.675	9850.61
237.747	9894.73
237.819	9882.5
237.891	9883.85
237.963	9874.51
238.035	9867.91
238.107	9756.95
238.178	9818.44
238.25	9822.19
238.322	9917.84
238.394	9874.92
238.466	9887.49
238.538	9932.85
238.609	9974.08
238.681	9925.47
238.753	9902.54
238.825	9921.28
238.897	9952.29
238.968	10037.34
239.04	10021.15
239.112	10138.05
239.184	10097.34
239.255	10093.24
239.327	10121.46
239.399	10145.89
239.471	10196.46
239.542	10232.54
239.614	10297.47
239.686	10214.56
239.758	10274.72
239.829	10236.36
239.901	10303.13
239.973	10311.51
240.044	10339.5
240.116	10352.65
240.188	10368.35
240.259	10389.26
240.331	10379.05
240.403	10414.89
240.474	10360.58
240.546	10349.5
240.618	10287.34
240.689	10290.28
240.761	10309.07
240.833	10377.49
240.904	10371.85
240.976	10371.81
241.048	10383.37
241.119	10417.68
241.191	10467.92
241.262	10530.57
241.334	10534.14
241.405	10533.18
241.477	10530.82
241.549	10550.48
241.62	10578.71
241.692	10619.09
241.763	10677.88
241.835	10699.85
241.906	10715.03
241.978	10694.31
242.049	10766
242.121	10827.05
242.192	10889.74
242.264	10859.43
242.335	10810.62
242.407	10857.55
242.478	10859.53
242.55	10885.55
242.621	10872.49
242.693	10867.04
242.764	10850.13
242.836	10852.54
242.907	10885.6
242.979	10922.89
243.05	10933.44
243.122	10958.4
243.193	10960
243.264	10881.88
243.336	10886.27
243.407	10929.06
243.479	11007.08
243.55	11019.66
243.622	11028.81
243.693	11033.68
243.764	11096.04
243.836	11069.16
243.907	11058.02
243.978	11063.61
244.05	11083.66
244.121	11037.5
244.192	11086.7
244.264	11043.28
244.335	11049.21
244.407	11001.21
244.478	11023.19
244.549	11017.6
244.62	10971.63
244.692	10969.65
244.763	11019.13
244.834	11010.94
244.906	10982.07
244.977	10999.23
245.048	11048.11
245.119	11031.39
245.191	11003.1
245.262	10941.71
245.333	11026.84
245.405	11043.57
245.476	11073.39
245.547	11090.79
245.618	11147.51
245.689	11155.75
245.761	11191.46
245.832	11204.76
245.903	11246.73
245.974	11278.26
246.045	11291.8
246.117	11374.88
246.188	11361.73
246.259	11344.77
246.33	11359.99
246.401	11370.02
246.473	11330.35
246.544	11315.46
246.615	11366.69
246.686	11371.17
246.757	11449.91
246.828	11425.82
246.899	11500.24
246.97	11462.03
247.042	11446.6
247.113	11487.04
247.184	11570.53
247.255	11564.55
247.326	11592.56
247.397	11603.88
247.468	11607.31
247.539	11619.5
247.61	11568.94
247.681	11614.34
247.752	11664.36
247.823	11641.33
247.894	11655.35
247.965	11629.52
248.037	11619.3
248.108	11567.3
248.179	11567.25
248.25	11556.84
248.321	11583.68
248.392	11537.02
248.463	11626.71
248.534	11635
248.605	11657.8
248.675	11637.75
248.746	11656.16
248.817	11671.63
248.888	11683.44
248.959	11624.01
249.03	11651.2
249.101	11671.78
249.172	11654.43
249.243	11585.66
249.314	11654.43
249.385	11663.16
249.456	11695.4
249.527	11691.01
249.598	11718.96
249.669	11727.2
249.739	11741.37
249.81	11759.35
249.881	11715.3
249.952	11708.65
250.023	11697.61
250.094	11645.7
250.165	11605.88
250.235	11598.56
250.306	11600.39
250.377	11568.14
250.448	11588.1
250.519	11529.73
250.59	11583.23
250.66	11582.8
250.731	11654.7
250.802	11652.44
250.873	11674.08
250.944	11697.89
251.014	11683.24
251.085	11765.95
251.156	11787.16
251.227	11836.91
251.297	11882.51
251.368	11935.19
251.439	11970.47
251.51	12030.43
251.58	12010.09
251.651	12007.88
251.722	12071.51
251.792	12020.37
251.863	12033.96
251.934	12107.08
252.005	12219.53
252.075	12226.33
252.146	12278.09
252.217	12326.73
252.287	12364.62
252.358	12368.04
252.429	12436.88
252.499	12441.98
252.57	12451.87
252.641	12504.74
252.711	12509.37
252.782	12464.74
252.852	12544.03
252.923	12551.26
252.994	12559.99
253.064	12608.67
253.135	12595.66
253.205	12568.52
253.276	12642.41
253.347	12705.22
253.417	12678.32
253.488	12648.96
253.558	12636.38
253.629	12633.63
253.699	12650.5
253.77	12682.9
253.841	12680.2
253.911	12690.51
253.982	12704.49
254.052	12734.53
254.123	12736.65
254.193	12741.03
254.264	12877.31
254.334	12839.9
254.405	12801.77
254.475	12766.05
254.546	12775.93
254.616	12837.63
254.687	12863.23
254.757	12882.71
254.827	12874.51
254.898	12899.14
254.968	12910.57
255.039	12887.24
255.109	12919.05
255.18	12887.72
255.25	12808.71
255.321	12834.93
255.391	12796.13
255.461	12876.1
255.532	12797.91
255.602	12795.89
255.673	12742.09
255.743	12706.37
255.813	12632.48
255.884	12680.58
255.954	12726.81
256.024	12788.28
256.095	12790.54
256.165	12763.11
256.235	12787.46
256.306	12778.44
256.376	12817.15
256.446	12855.67
256.517	12891.15
256.587	12935.5
256.657	12951.89
256.728	12980.37
256.798	13000.48
256.868	12999.13
256.938	12969.34
257.009	13012.05
257.079	13039.96
257.149	13138.01
257.219	13075.87
257.29	13116.65
257.36	13058.7
257.43	13091.97
257.5	13028.96
257.571	13022.45
257.641	13050.99
257.711	13017.34
257.781	13047.37
257.852	13070.37
257.922	13010.59
257.992	13016.86
258.062	13015.99
258.132	13055.91
258.202	13053.5
258.273	13058.03
258.343	13121.37
258.413	13114.82
258.483	13121.85
258.553	13095.29
258.623	13075.87
258.693	13102.72
258.764	13165.38
258.834	13233.59
258.904	13246.42
258.974	13241.02
259.044	13241.36
259.114	13275.92
259.184	13303.2
259.254	13310.53
259.324	13254.61
259.394	13298.82
259.464	13380.33
259.535	13381.06
259.605	13375.18
259.675	13378.26
259.745	13410.27
259.815	13385.93
259.885	13379.61
259.955	13488.6
260.025	13480.26
260.095	13484.84
260.165	13520.85
260.235	13584.38
260.305	13572.19
260.375	13541.82
260.445	13627.58
260.515	13697.19
260.585	13738.84
260.655	13748.77
260.725	13791.43
260.795	13835.44
260.865	13901.15
260.934	13862.58
261.004	13886.06
261.074	13895.56
261.144	13948.58
261.214	13987.19
261.284	14002.52
261.354	14047.6
261.424	14002.82
261.494	14075.03
261.564	14079.71
261.634	14102.46
261.703	14038.44
261.773	14064.76
261.843	14099.81
261.913	14094.27
261.983	14034.01
262.053	14055.07
262.123	14052.95
262.192	14012.31
262.262	14048.95
262.332	14010.82
262.402	14044.9
262.472	14058.88
262.541	14001.37
262.611	14047.12
262.681	14023.55
262.751	14054.83
262.821	14060.13
262.89	14031.16
262.96	14052.71
263.03	14129.07
263.1	14148.88
263.169	14169.95
263.239	14206.24
263.309	14265.44
