Data from 20250701_urea_2M_exp3_MAYP1162681_21-59-51-166.txt Node
Date: Tue Jul 01 21:59:51 BST 2025
User: adleo
Spectrometer: MAYP116268
Trigger mode: 0
Integration Time (sec): 4.000000E0
Scans to average: 1
Electric dark correction enabled: true
Nonlinearity correction enabled: true
Boxcar width: 10
XAxis mode: Wavelengths
Number of Pixels in Spectrum: 2068
>>>>>Begin Spectral Data<<<<<
179.565	3844.01
179.642	4044.52
179.718	4198.06
179.795	4336.07
179.871	4458.57
179.948	4522.51
180.024	4599.06
180.101	4683.29
180.177	4741.2
180.254	4827.94
180.33	4911.51
180.407	5193.06
180.483	5492.72
180.56	5799.39
180.636	6077.67
180.712	6033.83
180.789	6071.26
180.865	6116.96
180.942	6146.08
181.018	6181.4
181.095	6228.12
181.171	6246.88
181.248	6246.31
181.324	6304.85
181.4	6331.44
181.477	6369.66
181.553	6419.37
181.63	6490.24
181.706	6548.4
181.782	6571.95
181.859	6565.33
181.935	6579.35
182.011	6569.03
182.088	6625.32
182.164	6693.8
182.24	6746.74
182.317	6780.88
182.393	6773.15
182.469	6823.77
182.546	6873.96
182.622	6894.42
182.698	6882.75
182.775	6930.3
182.851	6982.03
182.927	6956.9
183.003	6940.72
183.08	6913.54
183.156	6942.31
183.232	6935.06
183.308	6892.54
183.385	6923.52
183.461	6985.44
183.537	6988.09
183.613	7028.54
183.69	6996.97
183.766	6958.13
183.842	6988.89
183.918	7006.57
183.995	7050.86
184.071	7058.36
184.147	7037.26
184.223	6997.27
184.299	7039.18
184.375	6997.19
184.452	7024.69
184.528	7147.82
184.604	7187.83
184.68	7234.72
184.756	7262.26
184.832	7276.68
184.908	7292.38
184.985	7287.58
185.061	7228.29
185.137	7255.01
185.213	7214.27
185.289	7221.24
185.365	7194.91
185.441	7178.67
185.517	7225.07
185.593	7216.61
185.669	7209.49
185.745	7247.32
185.822	7305.62
185.898	7276.63
185.974	7310.69
186.05	7277.66
186.126	7203.89
186.202	7176.89
186.278	7162.91
186.354	7129.88
186.43	7153.35
186.506	7151.62
186.582	7151.38
186.658	7176.88
186.734	7111.37
186.81	7116.17
186.886	7124.43
186.962	7169.54
187.038	7160.8
187.114	7129.78
187.19	7154.87
187.266	7126.53
187.341	7122.87
187.417	7098.42
187.493	7104.18
187.569	7115.19
187.645	7093.76
187.721	7056.32
187.797	7083.27
187.873	7096.92
187.949	7074.82
188.025	7055.73
188.101	7062.6
188.176	7082.2
188.252	7067.7
188.328	7095.35
188.404	7103.08
188.48	7082.86
188.556	7058.11
188.632	7054.8
188.707	7058.98
188.783	7048.4
188.859	7030.21
188.935	6996.08
189.011	7024.43
189.086	6994.94
189.162	6964.33
189.238	6954.96
189.314	6939.98
189.39	6920.23
189.465	6892.17
189.541	6953.49
189.617	6898.14
189.693	6879.36
189.768	6893.16
189.844	6982.39
189.92	6952.96
189.996	6981.36
190.071	7021.91
190.147	7017.1
190.223	7047.72
190.298	7020.61
190.374	6974.59
190.45	7015.94
190.526	7042.66
190.601	7024.49
190.677	7028.29
190.753	7126.77
190.828	7141.52
190.904	7197.55
190.98	7255.38
191.055	7300.36
191.131	7269.59
191.207	7339.17
191.282	7376.5
191.358	7340.65
191.433	7281.88
191.509	7331.53
191.585	7321.53
191.66	7323.36
191.736	7352.67
191.811	7319.03
191.887	7378.84
191.963	7457.91
192.038	7474.88
192.114	7472.71
192.189	7481.51
192.265	7467.49
192.34	7386.44
192.416	7386.34
192.491	7375.04
192.567	7380.43
192.642	7385.72
192.718	7382.07
192.793	7339.19
192.869	7324.01
192.944	7335.49
193.02	7364.53
193.095	7379.57
193.171	7402.74
193.246	7405.96
193.322	7396.06
193.397	7405.09
193.473	7353.93
193.548	7294.7
193.624	7319.03
193.699	7317.97
193.775	7376.45
193.85	7390.37
193.925	7421.67
194.001	7420.81
194.076	7391.1
194.152	7354.7
194.227	7327.2
194.302	7297.95
194.378	7310.92
194.453	7298.19
194.529	7338.72
194.604	7290.46
194.679	7268.69
194.755	7204.26
194.83	7248.75
194.905	7238.99
194.981	7268.32
195.056	7242.62
195.131	7261.88
195.207	7255.2
195.282	7228.58
195.357	7161.41
195.433	7208.07
195.508	7170.14
195.583	7191.86
195.659	7243.11
195.734	7268.69
195.809	7266.91
195.884	7297.27
195.96	7300.63
196.035	7348.83
196.11	7334.36
196.185	7377.76
196.261	7393.52
196.336	7503.17
196.411	7455.31
196.486	7476.61
196.561	7449.83
196.637	7484.04
196.712	7532.47
196.787	7536.7
196.862	7586.54
196.937	7621.01
197.013	7643.9
197.088	7678.03
197.163	7756.05
197.238	7814.24
197.313	7808.71
197.388	7852.27
197.464	7953.92
197.539	7990.37
197.614	7973.83
197.689	8019.05
197.764	8069.28
197.839	8136.23
197.914	8105.2
197.989	8176.01
198.065	8221.32
198.14	8399.18
198.215	8493.2
198.29	8545.19
198.365	8590.32
198.44	8625.63
198.515	8721.99
198.59	8775.61
198.665	8867.1
198.74	8894.49
198.815	8905.38
198.89	8990.56
198.965	9093.84
199.04	9082.76
199.115	9137.05
199.19	9286.31
199.265	9293.19
199.34	9332.05
199.415	9448.03
199.49	9526.3
199.565	9561.74
199.64	9645.18
199.715	9632.75
199.79	9652.88
199.865	9670.8
199.94	9664.15
200.015	9778.64
200.09	9796.75
200.165	9819.1
200.24	9837.98
200.315	9974.64
200.39	10020.16
200.464	10034.8
200.539	10035.23
200.614	10091.29
200.689	10174.96
200.764	10190.29
200.839	10252.35
200.914	10265.31
200.989	10229.99
201.063	10277.05
201.138	10219.52
201.213	10220.97
201.288	10155.8
201.363	10176.32
201.438	10177.47
201.512	10239.21
201.587	10175.08
201.662	10192.91
201.737	10233.61
201.812	10263.34
201.886	10150.04
201.961	10183.92
202.036	10144.91
202.111	10141.59
202.186	10040.58
202.26	9978.29
202.335	9905.94
202.41	9886.05
202.485	9831.2
202.559	9763.05
202.634	9668.37
202.709	9696.14
202.784	9624.63
202.858	9620.68
202.933	9549.22
203.008	9524.66
203.082	9459.84
203.157	9453.15
203.232	9299.56
203.306	9226.88
203.381	9117.37
203.456	9035.62
203.53	8956.8
203.605	8889.3
203.68	8811.72
203.754	8788.35
203.829	8736.07
203.904	8664.99
203.978	8621.08
204.053	8632.88
204.127	8583.17
204.202	8580.04
204.277	8517.39
204.351	8494.87
204.426	8477.83
204.5	8449.54
204.575	8328.76
204.65	8357.55
204.724	8336.75
204.799	8366.41
204.873	8350.96
204.948	8341.1
205.022	8300.84
205.097	8268.34
205.171	8313.32
205.246	8333.2
205.32	8329.31
205.395	8332
205.469	8305.41
205.544	8325.68
205.618	8266.69
205.693	8312.35
205.767	8266.99
205.842	8341.48
205.916	8322.91
205.991	8282.11
206.065	8304.77
206.14	8365.19
206.214	8347.09
206.289	8319.08
206.363	8358.1
206.438	8366.96
206.512	8398.04
206.586	8461.54
206.661	8487.78
206.735	8416.37
206.81	8424.84
206.884	8478.38
206.958	8432.49
207.033	8490.92
207.107	8518.7
207.181	8624.55
207.256	8597.36
207.33	8665.87
207.405	8705.41
207.479	8771.44
207.553	8797.13
207.628	8739.22
207.702	8770.21
207.776	8744.89
207.851	8748.31
207.925	8802.91
207.999	8787.75
208.073	8778.61
208.148	8792.52
208.222	8749.96
208.296	8861.67
208.371	8913.4
208.445	8954.8
208.519	9047.39
208.593	9082.53
208.668	9064.47
208.742	9074.35
208.816	9085.32
208.89	9130.59
208.965	9127.75
209.039	9153.56
209.113	9212.49
209.187	9285.99
209.261	9274.78
209.336	9340.21
209.41	9414.22
209.484	9413.69
209.558	9497.72
209.632	9545.09
209.707	9582.56
209.781	9658.35
209.855	9709.89
209.929	9767.67
210.003	9785.2
210.077	9788.47
210.151	9959.63
210.226	10077.09
210.3	10174.15
210.374	10257.69
210.448	10274.89
210.522	10315.56
210.596	10348.03
210.67	10380.06
210.744	10538.57
210.818	10645.91
210.892	10719.73
210.966	10697.86
211.041	10751.29
211.115	10735.3
211.189	10817.3
211.263	10872.51
211.337	10900.31
211.411	10947.83
211.485	10931.87
211.559	10967.28
211.633	10973.83
211.707	10866.21
211.781	10889.64
211.855	10762.81
211.929	10731.88
212.003	10664.27
212.077	10691.25
212.151	10735.44
212.225	10768.21
212.299	10728.45
212.373	10695.83
212.447	10681.61
212.52	10783.57
212.594	10792.78
212.668	10830.55
212.742	10776.34
212.816	10755.67
212.89	10729.84
212.964	10715.43
213.038	10719.87
213.112	10758.23
213.186	10800.62
213.26	10717.59
213.333	10550.95
213.407	10566.75
213.481	10564.49
213.555	10601.32
213.629	10554
213.703	10486.3
213.777	10471.51
213.85	10399.33
213.924	10508
213.998	10489.11
214.072	10452.29
214.146	10396.68
214.219	10370.38
214.293	10344.7
214.367	10330.78
214.441	10353.86
214.515	10307.45
214.588	10208.94
214.662	10079.75
214.736	9994.69
214.81	10005.09
214.883	10030.65
214.957	9977.34
215.031	9915
215.105	9814.8
215.178	9745.16
215.252	9710.05
215.326	9598.37
215.4	9512.73
215.473	9315.52
215.547	9234.27
215.621	9163.74
215.694	9157.82
215.768	9057.91
215.842	8990.47
215.915	8918.33
215.989	8799.35
216.063	8738.09
216.136	8716.33
216.21	8689.34
216.284	8696.27
216.357	8669.07
216.431	8617.48
216.504	8612.33
216.578	8670
216.652	8683.46
216.725	8660.12
216.799	8661.9
216.873	8649.39
216.946	8654.39
217.02	8620.2
217.093	8582.76
217.167	8481.71
217.24	8393.95
217.314	8359.66
217.387	8309.8
217.461	8264.57
217.535	8286.61
217.608	8215.32
217.682	8184.57
217.755	8198.04
217.829	8140.83
217.902	8122.74
217.976	8105.9
218.049	8050.82
218.123	7975.6
218.196	7971.12
218.27	7934.23
218.343	7858.63
218.417	7856.32
218.49	7832.61
218.563	7879.07
218.637	7888.88
218.71	7960.56
218.784	7983.32
218.857	8018.72
218.931	8042.46
219.004	8057.76
219.077	8073.02
219.151	8102.97
219.224	8095.28
219.298	8087.34
219.371	8135.94
219.444	8096.94
219.518	8107.76
219.591	8127.77
219.665	8236.95
219.738	8247.24
219.811	8228.11
219.885	8276.03
219.958	8303.94
220.031	8311.92
220.105	8328.09
220.178	8337.42
220.251	8311.92
220.325	8337.52
220.398	8353.26
220.471	8372.11
220.544	8409.31
220.618	8389.43
220.691	8412.57
220.764	8432.68
220.838	8462.33
220.911	8448.56
220.984	8537.65
221.057	8572.73
221.131	8597.8
221.204	8501.5
221.277	8581.79
221.35	8709.52
221.424	8704.18
221.497	8717.85
221.57	8732.66
221.643	8766.37
221.716	8820.77
221.79	8825.29
221.863	8841.66
221.936	8845.37
222.009	8865.05
222.082	8890.66
222.155	8897.88
222.229	8965.58
222.302	8994.55
222.375	8996.86
222.448	9038.26
222.521	9043.56
222.594	9048.08
222.667	9020.47
222.74	9064.89
222.814	9050.93
222.887	9036.48
222.96	9090.16
223.033	9137.16
223.106	9161.89
223.179	9190.36
223.252	9192.62
223.325	9228
223.398	9238.17
223.471	9268.11
223.544	9292.8
223.617	9304.17
223.69	9329.2
223.763	9288.46
223.837	9319.95
223.91	9349.85
223.983	9297.19
224.056	9261.9
224.129	9285.2
224.202	9345.69
224.275	9335.82
224.348	9308.33
224.42	9266.73
224.493	9203.52
224.566	9174
224.639	9198.26
224.712	9172.3
224.785	9162.09
224.858	9148.37
224.931	9128.72
225.004	9091.27
225.077	9086.79
225.15	8988.56
225.223	8981.92
225.296	9069.2
225.369	9006.48
225.442	8970.75
225.514	8988.94
225.587	9014.84
225.66	9017.73
225.733	9016.28
225.806	9028.46
225.879	9023.41
225.952	8992.03
226.025	9044.99
226.097	9101.06
226.17	9092.58
226.243	9019.81
226.316	9007.82
226.389	9016.34
226.461	9040.66
226.534	9061.74
226.607	9044.6
226.68	9138.3
226.753	9135.27
226.825	9046.98
226.898	9108.11
226.971	9116.44
227.044	9140.85
227.117	9146.19
227.189	9168.68
227.262	9198.54
227.335	9218.86
227.407	9210.87
227.48	9249.03
227.553	9259.77
227.626	9235.44
227.698	9241.61
227.771	9284.24
227.844	9265.37
227.916	9279.53
227.989	9237.73
228.062	9235.52
228.134	9330.15
228.207	9328.94
228.28	9325.28
228.352	9338.14
228.425	9337.47
228.498	9383.45
228.57	9358.37
228.643	9417.81
228.716	9408.95
228.788	9400.28
228.861	9394.02
228.934	9461.62
229.006	9469.03
229.079	9468.65
229.151	9450.68
229.224	9417.42
229.296	9443.52
229.369	9548.86
229.442	9601.51
229.514	9583.36
229.587	9631.28
229.659	9552.39
229.732	9564.14
229.804	9609.35
229.877	9693.03
229.949	9733.59
230.022	9786.64
230.094	9791.45
230.167	9777.63
230.239	9734.68
230.312	9727.98
230.384	9799.81
230.457	9791.82
230.529	9802.51
230.602	9807.71
230.674	9827.55
230.747	9872.23
230.819	9902.86
230.892	9782.6
230.964	9777.83
231.037	9809.11
231.109	9792.01
231.181	9836.94
231.254	9802.94
231.326	9781.75
231.399	9749.42
231.471	9714.35
231.544	9627.69
231.616	9674.44
231.688	9680.17
231.761	9671.99
231.833	9656.25
231.905	9573.73
231.978	9573.24
232.05	9561.45
232.122	9566.17
232.195	9533.51
232.267	9569.88
232.339	9551.09
232.412	9620.33
232.484	9598.94
232.556	9573.67
232.629	9648.54
232.701	9670.36
232.773	9680.37
232.846	9671.51
232.918	9678.26
232.99	9698.97
233.062	9747.91
233.135	9759.47
233.207	9721.13
233.279	9762.58
233.351	9802.74
233.424	9807.99
233.496	9785.31
233.568	9867.1
233.64	9828.52
233.713	9848.08
233.785	9847.31
233.857	9863.01
233.929	9814.03
234.001	9880.91
234.074	9946.25
234.146	9871
234.218	9858.72
234.29	9856.36
234.362	9845.57
234.434	9802.7
234.507	9762.19
234.579	9711.09
234.651	9692.21
234.723	9726.98
234.795	9750.73
234.867	9733.49
234.939	9792.06
235.012	9807.47
235.084	9804.15
235.156	9835.4
235.228	9811.85
235.3	9791.19
235.372	9801.11
235.444	9857.31
235.516	9778.29
235.588	9790.14
235.66	9803.68
235.732	9783.98
235.804	9994.66
235.876	10043.69
235.948	10112.44
236.02	10133
236.092	10142.39
236.164	10156.41
236.236	10157.8
236.308	10159.39
236.38	10195.33
236.452	10170.52
236.524	10192.82
236.596	10264.39
236.668	10308.28
236.74	10336.36
236.812	10366.85
236.884	10401.06
236.956	10407.47
237.028	10396
237.1	10369.8
237.172	10447.76
237.244	10525.09
237.316	10396.2
237.388	10383.19
237.46	10350.43
237.532	10410.36
237.604	10407.9
237.675	10483.41
237.747	10527.74
237.819	10509.72
237.891	10509.24
237.963	10495.56
238.035	10494.21
238.107	10378.32
238.178	10442.27
238.25	10448.58
238.322	10547.86
238.394	10496.41
238.466	10503.59
238.538	10550.55
238.609	10599.01
238.681	10541.77
238.753	10513.96
238.825	10539.22
238.897	10566.1
238.968	10653.18
239.04	10635.45
239.112	10748.72
239.184	10701.93
239.255	10695.95
239.327	10733.62
239.399	10765.28
239.471	10825.55
239.542	10861.21
239.614	10931.26
239.686	10835.8
239.758	10896.37
239.829	10858
239.901	10935
239.973	10954.7
240.044	10987.04
240.116	11001.06
240.188	11024.72
240.259	11041.25
240.331	11028.81
240.403	11066.25
240.474	11018.25
240.546	11011.84
240.618	10946.68
240.689	10949.09
240.761	10966.92
240.833	11041.86
240.904	11038.3
240.976	11033.29
241.048	11049.09
241.119	11086.59
241.191	11139.21
241.262	11208.09
241.334	11211.03
241.405	11209.1
241.477	11209.82
241.549	11219.17
241.62	11249.1
241.692	11286.3
241.763	11354.5
241.835	11374.31
241.906	11387.33
241.978	11358.12
242.049	11426.89
242.121	11498.41
242.192	11568.72
242.264	11541.79
242.335	11487.47
242.407	11533.35
242.478	11537.93
242.55	11561.69
242.621	11549.88
242.693	11555.37
242.764	11543.61
242.836	11542.74
242.907	11575.71
242.979	11613.98
243.05	11642.61
243.122	11669.65
243.193	11669.17
243.264	11592.63
243.336	11595.62
243.407	11641.46
243.479	11724.98
243.55	11735.49
243.622	11753.18
243.693	11750.82
243.764	11822.92
243.836	11795.21
243.907	11781.91
243.978	11786.15
244.05	11811.02
244.121	11764.8
244.192	11809.82
244.264	11759.4
244.335	11773.43
244.407	11719.54
244.478	11735.06
244.549	11728.22
244.62	11673.32
244.692	11678.67
244.763	11722.82
244.834	11718.72
244.906	11696.74
244.977	11718.82
245.048	11778.74
245.119	11751.07
245.191	11728.47
245.262	11658.82
245.333	11745.91
245.405	11769.91
245.476	11800.9
245.547	11816.95
245.618	11867.99
245.689	11881.39
245.761	11916.43
245.832	11926.41
245.903	11983.52
245.974	12011.29
246.045	12018.47
246.117	12109.67
246.188	12089.86
246.259	12078.48
246.33	12087.16
246.401	12094.53
246.473	12062.72
246.544	12049.8
246.615	12108.32
246.686	12116.46
246.757	12194.83
246.828	12177.48
246.899	12246.94
246.97	12218.84
247.042	12211.81
247.113	12258.37
247.184	12344.03
247.255	12343.17
247.326	12370.16
247.397	12373.2
247.468	12384.96
247.539	12402.31
247.61	12356.95
247.681	12407.37
247.752	12469.6
247.823	12450.13
247.894	12468.2
247.965	12440.34
248.037	12421.2
248.108	12364.71
248.179	12375.03
248.25	12372.61
248.321	12394.21
248.392	12345.38
248.463	12433.49
248.534	12432.81
248.605	12460.48
248.675	12435.27
248.746	12456.87
248.817	12479.19
248.888	12493.02
248.959	12438.17
249.03	12463.43
249.101	12468.78
249.172	12453.21
249.243	12367.41
249.314	12436.87
249.385	12439.62
249.456	12466.37
249.527	12466.51
249.598	12495.82
249.669	12497.17
249.739	12499.15
249.81	12517.17
249.881	12471.58
249.952	12462.13
250.023	12463.24
250.094	12399.75
250.165	12364.41
250.235	12354.53
250.306	12355.3
250.377	12330.86
250.448	12351.45
250.519	12287.19
250.59	12355.07
250.66	12351.93
250.731	12429.39
250.802	12430.45
250.873	12453.73
250.944	12476.77
251.014	12466.17
251.085	12565.38
251.156	12599.41
251.227	12662.32
251.297	12713.95
251.368	12773.04
251.439	12823.32
251.51	12871.05
251.58	12860.01
251.651	12855.43
251.722	12923.64
251.792	12865.31
251.863	12870.37
251.934	12940.75
252.005	13058.37
252.075	13059.14
252.146	13114.58
252.217	13163.89
252.287	13207.18
252.358	13216.97
252.429	13292.12
252.499	13288.36
252.57	13291.45
252.641	13328.81
252.711	13333.1
252.782	13290.05
252.852	13368.09
252.923	13365.06
252.994	13379.23
253.064	13432.93
253.135	13414.61
253.205	13387.04
253.276	13470.09
253.347	13530.4
253.417	13500.37
253.488	13480.31
253.558	13469.76
253.629	13470
253.699	13483.16
253.77	13509.91
253.841	13494.82
253.911	13502.97
253.982	13522.25
254.052	13554.16
254.123	13563.42
254.193	13572.96
254.264	13707.17
254.334	13672.65
254.405	13633.46
254.475	13603.67
254.546	13609.21
254.616	13676.41
254.687	13707.41
254.757	13728.52
254.827	13727.85
254.898	13757.98
254.968	13766.41
255.039	13750.94
255.109	13781.55
255.18	13751.71
255.25	13675.3
255.321	13715.51
255.391	13680.03
255.461	13758.46
255.532	13668.7
255.602	13668.8
255.673	13607.14
255.743	13571.18
255.813	13500.41
255.884	13550.45
255.954	13582.46
256.024	13650
256.095	13653.57
256.165	13611.29
256.235	13637.46
256.306	13628.55
256.376	13682.83
256.446	13720.19
256.517	13754.32
256.587	13802.86
256.657	13827.64
256.728	13855.55
256.798	13872.66
256.868	13864.47
256.938	13838.53
257.009	13881.63
257.079	13912.62
257.149	14018.92
257.219	13954.52
257.29	13997.66
257.36	13939.23
257.43	13987.39
257.5	13916.91
257.571	13905.78
257.641	13954.85
257.711	13911.27
257.781	13940.39
257.852	13952.63
257.922	13887.94
257.992	13891.99
258.062	13882.35
258.132	13921.83
258.202	13931.42
258.273	13932.44
258.343	14008.6
258.413	13989.94
258.483	14000.6
258.553	13962.8
258.623	13935.86
258.693	13973.6
258.764	14036.56
258.834	14107.62
258.904	14117.5
258.974	14107.66
259.044	14117.93
259.114	14132.78
259.184	14162.48
259.254	14175.44
259.324	14115.52
259.394	14173.03
259.464	14254.35
259.535	14266.98
259.605	14260.38
259.675	14249.97
259.745	14288.19
259.815	14257.34
259.885	14261.63
259.955	14382.76
260.025	14375.39
260.095	14382.13
260.165	14413.95
260.235	14478.3
260.305	14460.61
260.375	14428.99
260.445	14525.25
260.515	14589.61
260.585	14644.85
260.655	14652.75
260.725	14697.58
260.795	14738.94
260.865	14807.83
260.934	14771.38
261.004	14792.35
261.074	14799.82
261.144	14863.07
261.214	14896.14
261.284	14904.72
261.354	14954.9
261.424	14906.65
261.494	14980.75
261.564	14985.86
261.634	15013.81
261.703	14941.41
261.773	14968.79
261.843	15002.54
261.913	14992.41
261.983	14930.57
262.053	14945.99
262.123	14944.79
262.192	14891.95
262.262	14936.83
262.332	14880.77
262.402	14922.71
262.472	14939.43
262.541	14878.7
262.611	14926.61
262.681	14908.92
262.751	14954.81
262.821	14956.64
262.89	14925.41
262.96	14953.56
