Data from 20250701_urea_2M_exp3_MAYP1162681_04-29-49-200.txt Node
Date: Wed Jul 02 04:29:49 BST 2025
User: adleo
Spectrometer: MAYP116268
Trigger mode: 0
Integration Time (sec): 4.000000E0
Scans to average: 1
Electric dark correction enabled: true
Nonlinearity correction enabled: true
Boxcar width: 10
XAxis mode: Wavelengths
Number of Pixels in Spectrum: 2068
>>>>>Begin Spectral Data<<<<<
179.565	3602.85
179.642	3801.89
179.718	3953.18
179.795	4081.72
179.871	4194.59
179.948	4250.44
180.024	4322.34
180.101	4399.95
180.177	4450.8
180.254	4525.31
180.33	4600.92
180.407	4863.27
180.483	5144.75
180.56	5428.09
180.636	5689.82
180.712	5654.12
180.789	5689.75
180.865	5733.12
180.942	5765.49
181.018	5808.46
181.095	5851.51
181.171	5866.57
181.248	5861.39
181.324	5908.04
181.4	5935.2
181.477	5968.88
181.553	6020.62
181.63	6090.68
181.706	6142.28
181.782	6168.12
181.859	6167.59
181.935	6185.5
182.011	6170.81
182.088	6223.32
182.164	6293.15
182.24	6338.67
182.317	6367.03
182.393	6355.9
182.469	6403.8
182.546	6450.27
182.622	6463.28
182.698	6449.16
182.775	6494.58
182.851	6542.05
182.927	6523.66
183.003	6503.89
183.08	6488.25
183.156	6515.71
183.232	6501.54
183.308	6464.57
183.385	6490.78
183.461	6548.01
183.537	6553.15
183.613	6599.96
183.69	6571.92
183.766	6534.4
183.842	6557.3
183.918	6576.08
183.995	6619.62
184.071	6626.68
184.147	6610.69
184.223	6570
184.299	6611.41
184.375	6572.28
184.452	6591.55
184.528	6716.89
184.604	6753.99
184.68	6793.41
184.756	6813.78
184.832	6829.44
184.908	6845.09
184.985	6842.06
185.061	6794.28
185.137	6819.07
185.213	6779.74
185.289	6785.79
185.365	6765.19
185.441	6758.8
185.517	6800.28
185.593	6788.84
185.669	6781.83
185.745	6810.51
185.822	6865.51
185.898	6831.45
185.974	6861.98
186.05	6843.14
186.126	6765.83
186.202	6747.92
186.278	6736.64
186.354	6704.21
186.43	6724.4
186.506	6720.46
186.582	6724.49
186.658	6737.98
186.734	6676.05
186.81	6684.64
186.886	6694.87
186.962	6736.17
187.038	6726.03
187.114	6703.87
187.19	6734.57
187.266	6707.01
187.341	6712.97
187.417	6692.47
187.493	6696.6
187.569	6706.21
187.645	6682.05
187.721	6641.36
187.797	6663.93
187.873	6674.3
187.949	6655.68
188.025	6636.65
188.101	6644.76
188.176	6656.48
188.252	6649.33
188.328	6674.47
188.404	6675.81
188.48	6660.5
188.556	6633.41
188.632	6634.99
188.707	6636.29
188.783	6622.98
188.859	6606.95
188.935	6563.72
189.011	6587.78
189.086	6566.41
189.162	6539.09
189.238	6533.67
189.314	6525.31
189.39	6503.51
189.465	6478.35
189.541	6538.53
189.617	6487.35
189.693	6470.74
189.768	6486.88
189.844	6559.82
189.92	6532.99
189.996	6554.94
190.071	6592.74
190.147	6588.9
190.223	6621.66
190.298	6598.94
190.374	6556.3
190.45	6593.74
190.526	6626.4
190.601	6609.59
190.677	6613.91
190.753	6704.17
190.828	6722.75
190.904	6773.66
190.98	6826.65
191.055	6866.33
191.131	6834.28
191.207	6910.59
191.282	6942.23
191.358	6906.16
191.433	6866.08
191.509	6908.89
191.585	6905.33
191.66	6903.79
191.736	6927.37
191.811	6890.38
191.887	6942.43
191.963	7018.72
192.038	7035.48
192.114	7035.48
192.189	7046.33
192.265	7036.3
192.34	6968.08
192.416	6953.06
192.491	6941.57
192.567	6950.37
192.642	6952
192.718	6955.03
192.793	6903.24
192.869	6896.27
192.944	6905.49
193.02	6929.86
193.095	6943.5
193.171	6958.15
193.246	6959.54
193.322	6950.27
193.397	6954.45
193.473	6903.89
193.548	6849.06
193.624	6866.94
193.699	6862.71
193.775	6920.15
193.85	6922.84
193.925	6950.47
194.001	6955.32
194.076	6929.23
194.152	6893.62
194.227	6876.7
194.302	6844.35
194.378	6861.06
194.453	6853.38
194.529	6899.11
194.604	6848.77
194.679	6828.83
194.755	6767.14
194.83	6806.32
194.905	6803.49
194.981	6834.14
195.056	6816.52
195.131	6828.19
195.207	6821.12
195.282	6786.64
195.357	6718.54
195.433	6771.28
195.508	6734.19
195.583	6755.8
195.659	6798.08
195.734	6821.29
195.809	6812.69
195.884	6841.59
195.96	6839.09
196.035	6884.2
196.11	6865.17
196.185	6905.37
196.261	6917.72
196.336	7021.96
196.411	6974.37
196.486	6989.55
196.561	6966.25
196.637	6989.49
196.712	7047.94
196.787	7055.44
196.862	7105.92
196.937	7137.24
197.013	7155.94
197.088	7186.4
197.163	7257.75
197.238	7322.69
197.313	7330.19
197.388	7375.99
197.464	7481.26
197.539	7524.12
197.614	7500.29
197.689	7541.97
197.764	7591.06
197.839	7657.36
197.914	7634.03
197.989	7705.1
198.065	7748.99
198.14	7910.6
198.215	8000.96
198.29	8040.51
198.365	8085.96
198.44	8125.83
198.515	8224.88
198.59	8281.75
198.665	8369.16
198.74	8396.83
198.815	8399.09
198.89	8464.04
198.965	8561.26
199.04	8544.75
199.115	8598.68
199.19	8742.25
199.265	8754.04
199.34	8790.86
199.415	8902.47
199.49	8979.16
199.565	9012.28
199.64	9095.11
199.715	9091.45
199.79	9111.96
199.865	9127.99
199.94	9123.8
200.015	9224.09
200.09	9236.37
200.165	9247.93
200.24	9267.14
200.315	9396.49
200.39	9440.55
200.464	9462.98
200.539	9469.34
200.614	9519.03
200.689	9596.08
200.764	9613.23
200.839	9671.47
200.914	9686.88
200.989	9653.73
201.063	9698.09
201.138	9643.66
201.213	9642.31
201.288	9574.61
201.363	9593.83
201.438	9595.37
201.512	9650.43
201.587	9598.9
201.662	9611.85
201.737	9657.61
201.812	9688.62
201.886	9579.64
201.961	9611.05
202.036	9569.84
202.111	9558.57
202.186	9463.34
202.26	9401.11
202.335	9330.46
202.41	9312.02
202.485	9254.55
202.559	9183.64
202.634	9087.4
202.709	9112.27
202.784	9047.1
202.858	9046.04
202.933	8981.05
203.008	8959.15
203.082	8889.94
203.157	8880.89
203.232	8739.93
203.306	8666.11
203.381	8556.17
203.456	8478.25
203.53	8401.58
203.605	8336.71
203.68	8257
203.754	8239.4
203.829	8194.94
203.904	8125.91
203.978	8083.9
204.053	8100.45
204.127	8062.74
204.202	8064.66
204.277	8008.49
204.351	7987.52
204.426	7967.31
204.5	7939.56
204.575	7829.27
204.65	7867.28
204.724	7837.01
204.799	7862.91
204.873	7844.77
204.948	7838.61
205.022	7802.08
205.097	7769.02
205.171	7818.79
205.246	7844.96
205.32	7839.05
205.395	7830.25
205.469	7801.8
205.544	7816.28
205.618	7763.14
205.693	7800.6
205.767	7763.24
205.842	7835.39
205.916	7817.65
205.991	7781.49
206.065	7798.65
206.14	7847.61
206.214	7829.61
206.289	7812
206.363	7852.01
206.438	7860.38
206.512	7884.96
206.586	7949.78
206.661	7981.49
206.735	7905.69
206.81	7905.93
206.884	7954.68
206.958	7915.36
207.033	7975.83
207.107	8004.8
207.181	8102.19
207.256	8082.13
207.33	8138.21
207.405	8178.51
207.479	8237.82
207.553	8261.81
207.628	8210.28
207.702	8242.35
207.776	8219.65
207.851	8227.01
207.925	8274.13
207.999	8267.34
208.073	8266.04
208.148	8268.45
208.222	8233.22
208.296	8341.99
208.371	8398.85
208.445	8434.41
208.519	8528.5
208.593	8565.02
208.668	8546.44
208.742	8552.22
208.816	8557.94
208.89	8603.39
208.965	8596.07
209.039	8620.86
209.113	8677.79
209.187	8749.53
209.261	8740.97
209.336	8806.42
209.41	8879.78
209.484	8881.17
209.558	8951.21
209.632	8989.57
209.707	9035.11
209.781	9104.08
209.855	9157.34
209.929	9215.3
210.003	9241.3
210.077	9237.98
210.151	9395.27
210.226	9515.83
210.3	9612.58
210.374	9688.39
210.448	9704.57
210.522	9742.53
210.596	9781.3
210.67	9813.76
210.744	9971.32
210.818	10079.25
210.892	10149.05
210.966	10125.26
211.041	10181.95
211.115	10170.63
211.189	10250.44
211.263	10298.95
211.337	10320.72
211.411	10355.55
211.485	10332.23
211.559	10364.74
211.633	10369.99
211.707	10263.21
211.781	10280.36
211.855	10153.76
211.929	10121.64
212.003	10055.54
212.077	10088.31
212.151	10121.94
212.225	10151.47
212.299	10106.17
212.373	10067.63
212.447	10044.8
212.52	10142.06
212.594	10153.09
212.668	10190.23
212.742	10140.13
212.816	10118.4
212.89	10088.83
212.964	10085.7
213.038	10092.97
213.112	10127.66
213.186	10170.72
213.26	10095.9
213.333	9942.6
213.407	9955.02
213.481	9958.39
213.555	9993.43
213.629	9936.77
213.703	9871.45
213.777	9858.97
213.85	9786.91
213.924	9883.46
213.998	9877.1
214.072	9839.9
214.146	9780.36
214.219	9761.62
214.293	9737.74
214.367	9732.78
214.441	9760.52
214.515	9712.15
214.588	9624.45
214.662	9487.85
214.736	9411.63
214.81	9429.67
214.883	9443.96
214.957	9396.08
215.031	9343.29
215.105	9250.64
215.178	9189.88
215.252	9157.09
215.326	9055.99
215.4	8977.9
215.473	8802.56
215.547	8717.68
215.621	8652.27
215.694	8644.09
215.768	8541.28
215.842	8477.67
215.915	8405.99
215.989	8292.3
216.063	8233.91
216.136	8206.14
216.21	8191.28
216.284	8200.38
216.357	8166.12
216.431	8124.6
216.504	8124.65
216.578	8178.3
216.652	8186.19
216.725	8164.34
216.799	8165.31
216.873	8150.97
216.946	8152.22
217.02	8112.95
217.093	8077.55
217.167	7979.72
217.24	7894.41
217.314	7859.47
217.387	7810.26
217.461	7762.7
217.535	7785.44
217.608	7722.55
217.682	7695.42
217.755	7708.41
217.829	7648.38
217.902	7631.59
217.976	7612.89
218.049	7558.61
218.123	7484.81
218.196	7484.23
218.27	7445.57
218.343	7377.27
218.417	7370.45
218.49	7345.88
218.563	7390.3
218.637	7405.45
218.71	7475.32
218.784	7506.53
218.857	7542.52
218.931	7565.92
219.004	7578.04
219.077	7595.07
219.151	7613.28
219.224	7607.66
219.298	7600.06
219.371	7644.3
219.444	7607.16
219.518	7612.88
219.591	7634.46
219.665	7738.55
219.738	7750.66
219.811	7736.73
219.885	7783.76
219.958	7815.26
220.031	7817.09
220.105	7836.28
220.178	7841.38
220.251	7810.3
220.325	7828.92
220.398	7846.57
220.471	7867.29
220.544	7904.81
220.618	7884.84
220.691	7912.59
220.764	7928.31
220.838	7951.54
220.911	7940.43
220.984	8024.48
221.057	8062.42
221.131	8082.28
221.204	7982.61
221.277	8053.77
221.35	8171.49
221.424	8163.41
221.497	8169.56
221.57	8204.37
221.643	8230.02
221.716	8273.76
221.79	8284.01
221.863	8299.6
221.936	8305.09
222.009	8321.29
222.082	8349.64
222.155	8350.03
222.229	8416.88
222.302	8446.9
222.375	8459.51
222.448	8499.45
222.521	8508.4
222.594	8508.78
222.667	8485.66
222.74	8542.18
222.814	8541.03
222.887	8530.53
222.96	8586.5
223.033	8631.61
223.106	8650.08
223.179	8689.27
223.252	8698.85
223.325	8727.82
223.398	8740.29
223.471	8770.94
223.544	8793.21
223.617	8805.59
223.69	8833.16
223.763	8794.79
223.837	8818.76
223.91	8847.11
223.983	8795.38
224.056	8758.81
224.129	8782.73
224.202	8839.2
224.275	8825.15
224.348	8790.78
224.42	8751.6
224.493	8690.15
224.566	8670.21
224.639	8691.15
224.712	8655.85
224.785	8651.28
224.858	8646.37
224.931	8628.7
225.004	8591.08
225.077	8587.42
225.15	8496.97
225.223	8492.16
225.296	8564.87
225.369	8508.86
225.442	8474.6
225.514	8492.87
225.587	8517.17
225.66	8519.77
225.733	8520.68
225.806	8533.82
225.879	8524.34
225.952	8496.92
226.025	8541.48
226.097	8585.88
226.17	8580.39
226.243	8520.01
226.316	8508.12
226.389	8513.51
226.461	8535.75
226.534	8556.44
226.607	8546.05
226.68	8628.94
226.753	8625.23
226.825	8549.39
226.898	8610.74
226.971	8618.15
227.044	8639.18
227.117	8640.43
227.189	8655.5
227.262	8685.3
227.335	8702.63
227.407	8699.79
227.48	8730.72
227.553	8747.14
227.626	8731.15
227.698	8733.8
227.771	8774.3
227.844	8756.15
227.916	8770.93
227.989	8728.34
228.062	8725.45
228.134	8806.76
228.207	8806.23
228.28	8802.72
228.352	8812.92
228.425	8815.52
228.498	8852.93
228.57	8832.72
228.643	8892.13
228.716	8895.98
228.788	8888.32
228.861	8884.09
228.934	8949.93
229.006	8960.04
229.079	8957.82
229.151	8944.15
229.224	8910.95
229.296	8938.48
229.369	9038.79
229.442	9081.89
229.514	9069.43
229.587	9112.31
229.659	9036.58
229.732	9049.54
229.804	9092.66
229.877	9172.08
229.949	9202.71
230.022	9260.85
230.094	9266.28
230.167	9254.72
230.239	9210.35
230.312	9200.04
230.384	9266.8
230.457	9259.33
230.529	9262.7
230.602	9265.54
230.674	9274.98
230.747	9315.5
230.819	9339.81
230.892	9222.76
230.964	9221.8
231.037	9247.97
231.109	9237.33
231.181	9284.6
231.254	9254.27
231.326	9238.14
231.399	9212.8
231.471	9183.96
231.544	9101.6
231.616	9141.65
231.688	9148.05
231.761	9139.25
231.833	9125.38
231.905	9041.3
231.978	9035.76
232.05	9026.48
232.122	9028.98
232.195	9006.49
232.267	9039.91
232.339	9019.78
232.412	9085.77
232.484	9060.68
232.556	9035.66
232.629	9109.59
232.701	9122.26
232.773	9130.49
232.846	9121.73
232.918	9127.7
232.99	9146.67
233.062	9191.84
233.135	9206.14
233.207	9170.7
233.279	9216.52
233.351	9253.25
233.424	9259.8
233.496	9242.18
233.568	9327.02
233.64	9291.35
233.713	9307.05
233.785	9306.57
233.857	9319.28
233.929	9267.62
234.001	9338.73
234.074	9404.86
234.146	9326.4
234.218	9326.11
234.29	9331.36
234.362	9315.62
234.434	9268.52
234.507	9236.26
234.579	9184.65
234.651	9163.6
234.723	9199.57
234.795	9213.2
234.867	9206.41
234.939	9266.36
235.012	9286.29
235.084	9282.87
235.156	9322.3
235.228	9304.97
235.3	9289.22
235.372	9299.96
235.444	9366.01
235.516	9285.86
235.588	9291.01
235.66	9312.77
235.732	9284.99
235.804	9476.24
235.876	9522.45
235.948	9582.99
236.02	9598.25
236.092	9612.59
236.164	9626.6
236.236	9623.62
236.308	9628
236.38	9655.06
236.452	9636.42
236.524	9653.42
236.596	9715.25
236.668	9746.84
236.74	9770.15
236.812	9803.28
236.884	9836.42
236.956	9842.44
237.028	9837.87
237.1	9823.9
237.172	9891.06
237.244	9973.03
237.316	9854.71
237.388	9842.14
237.46	9820.7
237.532	9880.19
237.604	9871.33
237.675	9947.4
237.747	9992.39
237.819	9977.75
237.891	9973.8
237.963	9959.5
238.035	9957.67
238.107	9851.05
238.178	9914.32
238.25	9921.73
238.322	10006.78
238.394	9959
238.466	9956.21
238.538	9997.81
238.609	10040.39
238.681	9982.63
238.753	9957.77
238.825	9979.11
238.897	10010.56
238.968	10096.62
239.04	10074.6
239.112	10180.33
239.184	10130.85
239.255	10122.56
239.327	10156.9
239.399	10185.89
239.471	10230.26
239.542	10265.52
239.614	10338.83
239.686	10253.7
239.758	10308.42
239.829	10275.75
239.901	10342.95
239.973	10356.92
240.044	10387.51
240.116	10401.62
240.188	10419.59
240.259	10434.57
240.331	10422.24
240.403	10454.8
240.474	10400.35
240.546	10394.47
240.618	10341.81
240.689	10350.04
240.761	10368.07
240.833	10439.81
240.904	10440.68
240.976	10438.94
241.048	10448.96
241.119	10481.16
241.191	10534.53
241.262	10598.3
241.334	10597.14
241.405	10604.22
241.477	10611.59
241.549	10623.83
241.62	10645.32
241.692	10689.89
241.763	10752.93
241.835	10776.25
241.906	10790.27
241.978	10764.25
242.049	10829.35
242.121	10887.26
242.192	10955.93
242.264	10923.79
242.335	10868.81
242.407	10916.37
242.478	10923.98
242.55	10951.4
242.621	10935.16
242.693	10924.46
242.764	10911.06
242.836	10916.03
242.907	10946.49
242.979	10978.53
243.05	10996.5
243.122	11021.71
243.193	11019.92
243.264	10944.27
243.336	10943.5
243.407	10987.59
243.479	11075.54
243.55	11093.27
243.622	11105.32
243.693	11100.55
243.764	11166.42
243.836	11141.9
243.907	11129.08
243.978	11137.85
244.05	11155.2
244.121	11107.69
244.192	11148.51
244.264	11104.17
244.335	11118.96
244.407	11066.29
244.478	11085.86
244.549	11079.45
244.62	11030.39
244.692	11040.03
244.763	11083.06
244.834	11074.14
244.906	11052.79
244.977	11068.7
245.048	11120.47
245.119	11099.7
245.191	11081.09
245.262	11019.99
245.333	11101.52
245.405	11117.28
245.476	11147.2
245.547	11172.99
245.618	11226.57
245.689	11248.55
245.761	11284.84
245.832	11286.86
245.903	11333.94
245.974	11361.08
246.045	11377.71
246.117	11464.6
246.188	11445.18
246.259	11432.26
246.33	11446.72
246.401	11449.57
246.473	11407.1
246.544	11388.64
246.615	11449.37
246.686	11448.89
246.757	11524.69
246.828	11500.88
246.899	11580.51
246.97	11542.44
247.042	11524.56
247.113	11567.99
247.184	11647.04
247.255	11641.11
247.326	11667.91
247.397	11675.09
247.468	11674.28
247.539	11685.17
247.61	11640.49
247.681	11676.97
247.752	11726.37
247.823	11704.44
247.894	11722.61
247.965	11698.66
248.037	11682.85
248.108	11630.31
248.179	11641.78
248.25	11629.16
248.321	11658.99
248.392	11607.65
248.463	11695.89
248.534	11699.07
248.605	11722.69
248.675	11699.94
248.746	11721.24
248.817	11733.68
248.888	11751.32
248.959	11700.52
249.03	11722.02
249.101	11736.77
249.172	11726.5
249.243	11659.95
249.314	11726.99
249.385	11733.64
249.456	11764.53
249.527	11762.56
249.598	11788.82
249.669	11790.9
249.739	11809.84
249.81	11822.8
249.881	11776.87
249.952	11769.16
250.023	11768.97
250.094	11712.43
250.165	11684.66
250.235	11679.12
250.306	11690.83
250.377	11659.94
250.448	11691.31
250.519	11630.05
250.59	11679.94
250.66	11678.98
250.731	11750.83
250.802	11746.69
250.873	11766.55
250.944	11793.39
251.014	11786.69
251.085	11871.05
251.156	11891.58
251.227	11941.19
251.297	12000.09
251.368	12049.01
251.439	12082.8
251.51	12138.62
251.58	12130.09
251.651	12123.87
251.722	12172.46
251.792	12115.83
251.863	12122.43
251.934	12180.61
252.005	12296
252.075	12307.23
252.146	12353.36
252.217	12403.1
252.287	12446.68
252.358	12450.59
252.429	12515.08
252.499	12505.68
252.57	12517.88
252.641	12568.59
252.711	12580.93
252.782	12528.68
252.852	12599.54
252.923	12603.49
252.994	12610.72
253.064	12659.12
253.135	12637.38
253.205	12620.07
253.276	12697.53
253.347	12759.57
253.417	12740.86
253.488	12720.47
253.558	12710.2
253.629	12711.31
253.699	12711.8
253.77	12733.3
253.841	12725.63
253.911	12738.55
253.982	12758.26
254.052	12783.09
254.123	12790.18
254.193	12790.56
254.264	12920.81
254.334	12893.43
254.405	12856.56
254.475	12826.91
254.546	12832.69
254.616	12898.15
254.687	12923.17
254.757	12944.53
254.827	12944.48
254.898	12970.7
254.968	12981.65
255.039	12964.58
255.109	13003.15
255.18	12984.11
255.25	12918.06
255.321	12955.62
255.391	12915.07
255.461	12995.43
255.532	12915.41
255.602	12905.62
255.673	12858.86
255.743	12831.39
255.813	12760.24
255.884	12815.29
255.954	12849.61
256.024	12920.52
256.095	12928
256.165	12889.1
256.235	12914.74
256.306	12898.54
256.376	12937.78
256.446	12971.43
256.517	13006.09
256.587	13050.49
256.657	13072.95
256.728	13100.29
256.798	13110.36
256.868	13111.28
256.938	13081
257.009	13133.02
257.079	13170.52
257.149	13258.93
257.219	13194.29
257.29	13234.39
257.36	13174.66
257.43	13208.6
257.5	13130.75
257.571	13113.88
257.641	13162.08
257.711	13125.35
257.781	13159.28
257.852	13179.92
257.922	13117.88
257.992	13119.42
258.062	13110.16
258.132	13144.49
258.202	13148.2
258.273	13152.97
258.343	13220.75
258.413	13217.86
258.483	13224.99
258.553	13193.8
258.623	13165.6
258.693	13199.39
258.764	13262.45
258.834	13339.72
258.904	13353.89
258.974	13350.86
259.044	13360.11
259.114	13379.92
259.184	13401.86
259.254	13411.69
259.324	13354.81
259.394	13404.07
259.464	13481.83
259.535	13485.78
259.605	13488.34
259.675	13478.02
259.745	13516.88
259.815	13490.89
259.885	13486.03
259.955	13598.34
260.025	13585.23
260.095	13598.82
260.165	13620.76
260.235	13677.49
260.305	13661.49
260.375	13631.12
260.445	13723
260.515	13792.95
260.585	13836.33
260.655	13860.34
260.725	13897.36
260.795	13936.99
260.865	13997.49
260.934	13963.84
261.004	13999.37
261.074	13996.76
261.144	14062.18
261.214	14095.63
261.284	14094.04
261.354	14136.99
261.424	14081.51
261.494	14153.25
261.564	14159.03
261.634	14184
261.703	14128.81
261.773	14148.04
261.843	14186.32
261.913	14176
261.983	14120.9
262.053	14144.33
262.123	14131.07
262.192	14101.66
262.262	14143.27
262.332	14104.8
262.402	14134.16
262.472	14136.47
262.541	14073.85
262.611	14114.1
262.681	14093.85
262.751	14136.47
262.821	14138.11
262.89	14111.4
262.96	14139.6
263.03	14215.96
263.1	14242.52
263.169	14255.78
263.239	14299.98
263.309	14359.95
263.379	14395.23
