Data from 20250701_urea_2M_exp3_MAYP1162681_15-39-48-922.txt Node
Date: Tue Jul 01 15:39:48 BST 2025
User: adleo
Spectrometer: MAYP116268
Trigger mode: 0
Integration Time (sec): 4.000000E0
Scans to average: 1
Electric dark correction enabled: true
Nonlinearity correction enabled: true
Boxcar width: 10
XAxis mode: Wavelengths
Number of Pixels in Spectrum: 2068
>>>>>Begin Spectral Data<<<<<
179.565	4183.97
179.642	4405.14
179.718	4570.25
179.795	4721.64
179.871	4848.07
179.948	4918
180.024	4998.91
180.101	5091.56
180.177	5149.09
180.254	5234.49
180.33	5318.49
180.407	5625.19
180.483	5948.71
180.56	6277.86
180.636	6582.76
180.712	6543.65
180.789	6576.4
180.865	6620.22
180.942	6655.41
181.018	6693.92
181.095	6742.65
181.171	6760.9
181.248	6758.98
181.324	6817.9
181.4	6840
181.477	6881.36
181.553	6935.19
181.63	7014.18
181.706	7071.09
181.782	7098.6
181.859	7098.07
181.935	7121.76
182.011	7109.56
182.088	7171.84
182.164	7245.37
182.24	7295.76
182.317	7328
182.393	7322.04
182.469	7377.89
182.546	7430.57
182.622	7451.09
182.698	7434.94
182.775	7478.44
182.851	7534.92
182.927	7507.52
183.003	7496.13
183.08	7473.93
183.156	7507.82
183.232	7494.88
183.308	7454.89
183.385	7489.05
183.461	7556.89
183.537	7559.63
183.613	7604.43
183.69	7568.47
183.766	7525.61
183.842	7556.97
183.918	7573.94
183.995	7624.27
184.071	7639.9
184.147	7614.13
184.223	7569.54
184.299	7618.36
184.375	7577.78
184.452	7599.48
184.528	7735.33
184.604	7777.39
184.68	7821.57
184.756	7841.24
184.832	7863.27
184.908	7878.55
184.985	7876.44
185.061	7818.98
185.137	7851.35
185.213	7809.38
185.289	7819.81
185.365	7799.95
185.441	7786.82
185.517	7837.68
185.593	7822.05
185.669	7804.06
185.745	7843.97
185.822	7904.72
185.898	7869.75
185.974	7904.65
186.05	7880.69
186.126	7802.59
186.202	7778.26
186.278	7761.87
186.354	7730.17
186.43	7748.65
186.506	7744.71
186.582	7744.56
186.658	7763.79
186.734	7685.44
186.81	7696.59
186.886	7707.88
186.962	7747.21
187.038	7735.14
187.114	7706.17
187.19	7732.63
187.266	7703.4
187.341	7706
187.417	7682.68
187.493	7684.22
187.569	7698.5
187.645	7672.15
187.721	7629.01
187.797	7657.37
187.873	7679.4
187.949	7659.12
188.025	7638.81
188.101	7651.55
188.176	7667.99
188.252	7654.44
188.328	7690.76
188.404	7694.75
188.48	7673.98
188.556	7648.35
188.632	7647.25
188.707	7650.18
188.783	7639.02
188.859	7622.69
188.935	7581.52
189.011	7606.47
189.086	7579.41
189.162	7548.78
189.238	7540.51
189.314	7531.57
189.39	7509.84
189.465	7481.18
189.541	7541.14
189.617	7480.48
189.693	7461.73
189.768	7477.32
189.844	7571.79
189.92	7535.91
189.996	7558.94
190.071	7595.91
190.147	7594.28
190.223	7621.79
190.298	7584.61
190.374	7538.27
190.45	7580.27
190.526	7614.75
190.601	7601.38
190.677	7613.49
190.753	7713.53
190.828	7731.36
190.904	7786.05
190.98	7842.61
191.055	7878.44
191.131	7849.77
191.207	7929.39
191.282	7957.85
191.358	7921.98
191.433	7859.52
191.509	7916.03
191.585	7907.95
191.66	7915.6
191.736	7944.69
191.811	7916.7
191.887	7986.51
191.963	8077.51
192.038	8092.75
192.114	8094.25
192.189	8101.99
192.265	8091.94
192.34	8011.28
192.416	8003.11
192.491	7985.98
192.567	7998.59
192.642	8013.46
192.718	8008.27
192.793	7959.93
192.869	7949.69
192.944	7956.8
193.02	7990.62
193.095	8001.01
193.171	8027.61
193.246	8022.22
193.322	8011.83
193.397	8016.02
193.473	7961.5
193.548	7893.28
193.624	7914.79
193.699	7902.09
193.775	7960.55
193.85	7965.79
193.925	7999.51
194.001	8000.76
194.076	7977.48
194.152	7934.47
194.227	7897.76
194.302	7869.98
194.378	7888.01
194.453	7870.9
194.529	7920.15
194.604	7864.45
194.679	7840.84
194.755	7765.08
194.83	7814.26
194.905	7805.08
194.981	7842.26
195.056	7814.57
195.131	7833.99
195.207	7827.83
195.282	7798.31
195.357	7727.4
195.433	7782.08
195.508	7740.66
195.583	7763.74
195.659	7819.21
195.734	7841.73
195.809	7845
195.884	7874.89
195.96	7876.96
196.035	7940.3
196.11	7925.24
196.185	7974.68
196.261	7989.15
196.336	8105.59
196.411	8052.61
196.486	8076.56
196.561	8045.87
196.637	8081.11
196.712	8143.67
196.787	8158.68
196.862	8216.59
196.937	8258.29
197.013	8279.32
197.088	8315.54
197.163	8396.3
197.238	8454.04
197.313	8459.53
197.388	8508.17
197.464	8622.49
197.539	8664.11
197.614	8641.98
197.689	8685.92
197.764	8739.5
197.839	8810.68
197.914	8790.02
197.989	8874.5
198.065	8914.59
198.14	9099.75
198.215	9193.14
198.29	9235.08
198.365	9281.4
198.44	9316.78
198.515	9420.41
198.59	9473.52
198.665	9563.08
198.74	9593.57
198.815	9598.15
198.89	9673.75
198.965	9780.68
199.04	9761.12
199.115	9818.19
199.19	9971.56
199.265	9980.86
199.34	10019.92
199.415	10147.07
199.49	10224.42
199.565	10257.7
199.64	10351.58
199.715	10342.42
199.79	10366.9
199.865	10390.22
199.94	10379.24
200.015	10499.49
200.09	10515.92
200.165	10537.31
200.24	10564.87
200.315	10704.64
200.39	10757.55
200.464	10785.54
200.539	10794.89
200.614	10856.61
200.689	10944.84
200.764	10968.6
200.839	11038.02
200.914	11055.89
200.989	11013.43
201.063	11061.47
201.138	10991.78
201.213	10990.34
201.288	10918.88
201.363	10937.53
201.438	10937.77
201.512	11001.6
201.587	10937.45
201.662	10951.67
201.737	11003.71
201.812	11032.29
201.886	10917.48
201.961	10962.3
202.036	10912.49
202.111	10895.72
202.186	10787.06
202.26	10719.88
202.335	10636.18
202.41	10599.9
202.485	10530.92
202.559	10462.7
202.634	10366.2
202.709	10404.39
202.784	10335.45
202.858	10332.94
202.933	10263.38
203.008	10237.03
203.082	10168.53
203.157	10159.09
203.232	9997.78
203.306	9915
203.381	9799.72
203.456	9714.18
203.53	9620.88
203.605	9553.77
203.68	9469.76
203.754	9445.7
203.829	9388.77
203.904	9319.72
203.978	9279.8
204.053	9297.28
204.127	9249.86
204.202	9239.22
204.277	9171.29
204.351	9150.44
204.426	9126.45
204.5	9094.49
204.575	8964.89
204.65	8997.15
204.724	8970.85
204.799	9001.69
204.873	8988.49
204.948	8977.23
205.022	8933.29
205.097	8901.07
205.171	8951.08
205.246	8985.22
205.32	8980.46
205.395	8984.41
205.469	8951.7
205.544	8976.64
205.618	8913.05
205.693	8954.21
205.767	8916.52
205.842	8995.77
205.916	8970.84
205.991	8932.23
206.065	8957.94
206.14	9019.12
206.214	8999.37
206.289	8971.39
206.363	9014.67
206.438	9022.42
206.512	9052.03
206.586	9123.46
206.661	9149.23
206.735	9066.89
206.81	9066.03
206.884	9126.48
206.958	9070.65
207.033	9131.95
207.107	9159.17
207.181	9280.05
207.256	9259.87
207.33	9322.6
207.405	9372.66
207.479	9440.69
207.553	9471.79
207.628	9406.58
207.702	9448.18
207.776	9425.21
207.851	9441.58
207.925	9498.47
207.999	9482.33
208.073	9473.95
208.148	9485.8
208.222	9447.27
208.296	9564.81
208.371	9628.6
208.445	9662.46
208.519	9773.98
208.593	9815.78
208.668	9798.97
208.742	9804.94
208.816	9807.83
208.89	9860.1
208.965	9855.33
209.039	9886.79
209.113	9950.76
209.187	10028.68
209.261	10015.24
209.336	10090
209.41	10163.7
209.484	10164.96
209.558	10250.76
209.632	10299.83
209.707	10337.56
209.781	10416.65
209.855	10471.2
209.929	10532.32
210.003	10557.13
210.077	10552.5
210.151	10733.87
210.226	10857.96
210.3	10960.68
210.374	11047.43
210.448	11063.48
210.522	11099.29
210.596	11141.98
210.67	11173.5
210.744	11350.79
210.818	11472.93
210.892	11547.58
210.966	11524.07
211.041	11587.78
211.115	11576.36
211.189	11662.33
211.263	11716.69
211.337	11741.99
211.411	11798.63
211.485	11772.93
211.559	11816.07
211.633	11819.58
211.707	11700.67
211.781	11732.1
211.855	11599.55
211.929	11566.74
212.003	11492.26
212.077	11519.64
212.151	11556.32
212.225	11585.77
212.299	11537.99
212.373	11486.28
212.447	11465.17
212.52	11565.52
212.594	11569.37
212.668	11606.48
212.742	11553.03
212.816	11532.45
212.89	11503.15
212.964	11483.68
213.038	11493.03
213.112	11525.13
213.186	11581.08
213.26	11494.4
213.333	11318.89
213.407	11329.59
213.481	11334.17
213.555	11371.79
213.629	11320.55
213.703	11245.7
213.777	11234.38
213.85	11150.95
213.924	11267.11
213.998	11257.23
214.072	11226.28
214.146	11162.14
214.219	11139.87
214.293	11117.08
214.367	11106.19
214.441	11129.27
214.515	11079.68
214.588	10974.09
214.662	10841.44
214.736	10745.7
214.81	10760.01
214.883	10780.19
214.957	10723.97
215.031	10668.29
215.105	10570.94
215.178	10506.71
215.252	10466.77
215.326	10348.35
215.4	10260.47
215.473	10057.66
215.547	9962.6
215.621	9883.28
215.694	9878.36
215.768	9763.58
215.842	9683.49
215.915	9613.82
215.989	9493.06
216.063	9427.21
216.136	9403.89
216.21	9374.38
216.284	9387.05
216.357	9357.53
216.431	9304.08
216.504	9301.09
216.578	9360.77
216.652	9371.31
216.725	9338.66
216.799	9348.82
216.873	9334.28
216.946	9347.47
217.02	9305.8
217.093	9271.71
217.167	9160.7
217.24	9066.5
217.314	9029.21
217.387	8977.78
217.461	8924.29
217.535	8946.77
217.608	8881.5
217.682	8856.71
217.755	8871.53
217.829	8804.71
217.902	8788.15
217.976	8769.38
218.049	8715.71
218.123	8625.94
218.196	8624.93
218.27	8586.67
218.343	8503.62
218.417	8498.9
218.49	8471.51
218.563	8522.76
218.637	8532.34
218.71	8622.12
218.784	8658.03
218.857	8697.39
218.931	8726.06
219.004	8736.89
219.077	8757.35
219.151	8777.66
219.224	8764.9
219.298	8753.2
219.371	8806.16
219.444	8761.56
219.518	8775.66
219.591	8796.64
219.665	8910.73
219.738	8931.62
219.811	8916.56
219.885	8971.2
219.958	9007.07
220.031	9009.19
220.105	9034.99
220.178	9038.65
220.251	9004.7
220.325	9026.71
220.398	9047.12
220.471	9075.62
220.544	9119.62
220.618	9095.45
220.691	9125.63
220.764	9144.89
220.838	9180.47
220.911	9167.27
220.984	9264.12
221.057	9298.98
221.131	9322.28
221.204	9224.93
221.277	9293.32
221.35	9431.04
221.424	9425.21
221.497	9437.54
221.57	9464.25
221.643	9497.63
221.716	9560.15
221.79	9567.03
221.863	9584.23
221.936	9592.32
222.009	9603.54
222.082	9635.76
222.155	9641.2
222.229	9718.28
222.302	9756.47
222.375	9761.57
222.448	9798.8
222.521	9800.82
222.594	9805.54
222.667	9778.49
222.74	9833.1
222.814	9831.75
222.887	9816.38
222.96	9873.94
223.033	9920.96
223.106	9952.65
223.179	9983.92
223.252	9996.59
223.325	10034.3
223.398	10046.78
223.471	10083.43
223.544	10111.22
223.617	10119.79
223.69	10152.3
223.763	10104.94
223.837	10128.4
223.91	10166.31
223.983	10116.71
224.056	10087.96
224.129	10111.17
224.202	10175.6
224.275	10165.24
224.348	10131.52
224.42	10087.25
224.493	10025.55
224.566	9999.24
224.639	10020.19
224.712	9989.64
224.785	9965.22
224.858	9951.78
224.931	9934.39
225.004	9888.82
225.077	9890.27
225.15	9799.49
225.223	9801.03
225.296	9895.24
225.369	9833.54
225.442	9795.25
225.514	9821.87
225.587	9844.41
225.66	9858.19
225.733	9855.88
225.806	9871.44
225.879	9865.03
225.952	9838.64
226.025	9887.24
226.097	9946.99
226.17	9941.7
226.243	9877.35
226.316	9881.79
226.389	9891.8
226.461	9917.92
226.534	9942.24
226.607	9926.54
226.68	10012.93
226.753	10007.58
226.825	9905.72
226.898	9968.95
226.971	9975.31
227.044	9999.2
227.117	10007.87
227.189	10029.8
227.262	10081.06
227.335	10098.12
227.407	10097.54
227.48	10136.31
227.553	10153.94
227.626	10137.36
227.698	10141.26
227.771	10189.8
227.844	10167.74
227.916	10187.97
227.989	10149.15
228.062	10147.36
228.134	10251.58
228.207	10256.69
228.28	10252.01
228.352	10279.28
228.425	10288.24
228.498	10344.08
228.57	10322.16
228.643	10388.22
228.716	10387.41
228.788	10373.14
228.861	10377.38
228.934	10449.6
229.006	10459.71
229.079	10470.02
229.151	10453.25
229.224	10424.74
229.296	10448.83
229.369	10561.35
229.442	10619.03
229.514	10597.31
229.587	10657.1
229.659	10576.34
229.732	10590.08
229.804	10640.18
229.877	10723.02
229.949	10759.6
230.022	10819.36
230.094	10821.19
230.167	10814.69
230.239	10767.71
230.312	10755.62
230.384	10835.19
230.457	10834.61
230.529	10841.17
230.602	10836.06
230.674	10851.91
230.747	10905.81
230.819	10947.26
230.892	10821.97
230.964	10821.35
231.037	10855.06
231.109	10836.46
231.181	10881.17
231.254	10847.73
231.326	10829.81
231.399	10807.3
231.471	10780.26
231.544	10693.42
231.616	10746.85
231.688	10749.11
231.761	10740.68
231.833	10730.08
231.905	10635.43
231.978	10630.71
232.05	10620.78
232.122	10636.88
232.195	10613.27
232.267	10652.45
232.339	10625.12
232.412	10700.04
232.484	10676.9
232.556	10652
232.629	10735.19
232.701	10761.4
232.773	10779.95
232.846	10772.68
232.918	10782.41
232.99	10807.62
233.062	10857.11
233.135	10873.93
233.207	10839.38
233.279	10890.68
233.351	10936.12
233.424	10939.39
233.496	10919.11
233.568	11018.24
233.64	10977.86
233.713	10994.87
233.785	10990.24
233.857	11007.06
233.929	10954.64
234.001	11033.4
234.074	11121.13
234.146	11045.65
234.218	11044.55
234.29	11051.05
234.362	11035.01
234.434	10990.33
234.507	10954.38
234.579	10901.52
234.651	10884.32
234.723	10921.57
234.795	10944.31
234.867	10935.44
234.939	11002.91
235.012	11022.62
235.084	11024.98
235.156	11067.96
235.228	11053.99
235.3	11040.59
235.372	11057.51
235.444	11125.21
235.516	11032.38
235.588	11037
235.66	11060.57
235.732	11036.67
235.804	11247.89
235.876	11309.9
235.948	11388.03
236.02	11407.35
236.092	11430.62
236.164	11447.63
236.236	11451.39
236.308	11460.4
236.38	11496.07
236.452	11479.63
236.524	11511.78
236.596	11589.68
236.668	11631.42
236.74	11660.19
236.812	11695.95
236.884	11742.03
236.956	11756.78
237.028	11760.05
237.1	11741.59
237.172	11824.74
237.244	11913.52
237.316	11786.79
237.388	11772
237.46	11742.01
237.532	11813.97
237.604	11808.53
237.675	11893.99
237.747	11950.87
237.819	11946.39
237.891	11953.81
237.963	11947.01
238.035	11950.97
238.107	11827.42
238.178	11905.27
238.25	11915.25
238.322	12023.56
238.394	11972.95
238.466	11980.43
238.538	12032.67
238.609	12088.58
238.681	12023.84
238.753	11999.6
238.825	12026.2
238.897	12064.91
238.968	12163.48
239.04	12148.64
239.112	12273.81
239.184	12230.43
239.255	12227.54
239.327	12260.41
239.399	12285.43
239.471	12344.04
239.542	12386.74
239.614	12465.6
239.686	12372.71
239.758	12443.18
239.829	12396.42
239.901	12470.94
239.973	12490.95
240.044	12531.34
240.116	12542.38
240.188	12566.87
240.259	12587.16
240.331	12583.83
240.403	12632.57
240.474	12585.13
240.546	12574.77
240.618	12510.66
240.689	12514.71
240.761	12542.33
240.833	12619.21
240.904	12625.34
240.976	12627.84
241.048	12644.28
241.119	12689.74
241.191	12749.22
241.262	12831.56
241.334	12852.09
241.405	12865.16
241.477	12874.12
241.549	12890.51
241.62	12932.02
241.692	12988.47
241.763	13060.34
241.835	13081.27
241.906	13101.56
241.978	13075.1
242.049	13156.37
242.121	13237.02
242.192	13324.85
242.264	13288.93
242.335	13244.68
242.407	13299.83
242.478	13309.86
242.55	13340.27
242.621	13330.05
242.693	13328.22
242.764	13310.92
242.836	13310.68
242.907	13348.76
242.979	13387.56
243.05	13416.34
243.122	13442.23
243.193	13453.8
243.264	13374.69
243.336	13388.53
243.407	13435.63
243.479	13532.04
243.55	13554.12
243.622	13564.39
243.693	13565.93
243.764	13652.22
243.836	13633.95
243.907	13625.61
243.978	13633.85
244.05	13670.58
244.121	13623.87
244.192	13671.4
244.264	13619.73
244.335	13636.7
244.407	13584.01
244.478	13612.06
244.549	13604.3
244.62	13559.81
244.692	13554.07
244.763	13614.86
244.834	13606.08
244.906	13583.81
244.977	13601.7
245.048	13666.48
245.119	13657.66
245.191	13638.28
245.262	13566.55
245.333	13659.78
245.405	13692.71
245.476	13739.61
245.547	13759.76
245.618	13820.5
245.689	13840.89
245.761	13886.59
245.832	13897.97
245.903	13959.53
245.974	13991.92
246.045	14014.87
246.117	14115.23
246.188	14101.69
246.259	14086.45
246.33	14116.58
246.401	14142.18
246.473	14117.21
246.544	14103.13
246.615	14167.68
246.686	14176.31
246.757	14269.35
246.828	14246.84
246.899	14328.78
246.97	14296.14
247.042	14295.23
247.113	14357.51
247.184	14461.86
247.255	14467.17
247.326	14508.77
247.397	14520.24
247.468	14538.27
247.539	14555.62
247.61	14508.33
247.681	14559.1
247.752	14631.07
247.823	14601.13
247.894	14616.56
247.965	14588.74
248.037	14582.86
248.108	14518.17
248.179	14534.99
248.25	14527.67
248.321	14564.78
248.392	14504.53
248.463	14595.45
248.534	14592.31
248.605	14616.08
248.675	14594.92
248.746	14621
248.817	14641.19
248.888	14665.92
248.959	14606.49
249.03	14638.59
249.101	14655.61
249.172	14650.16
249.243	14560.54
249.314	14649.68
249.385	14655.61
249.456	14694.89
249.527	14688.29
249.598	14727.24
249.669	14720.01
249.739	14739.68
249.81	14760.84
249.881	14725.6
249.952	14725.84
250.023	14724.59
250.094	14664.43
250.165	14620.13
250.235	14611.55
250.306	14616.52
250.377	14583.5
250.448	14619.7
250.519	14555.49
250.59	14626.88
250.66	14628.62
250.731	14716.64
250.802	14712.06
250.873	14738.14
250.944	14757.71
251.014	14749.71
251.085	14859.75
251.156	14901.59
251.227	14962.27
251.297	15017.42
251.368	15075.5
251.439	15119.46
251.51	15185.5
251.58	15172.68
251.651	15184.87
251.722	15258.19
251.792	15200.34
251.863	15208.44
251.934	15284.98
252.005	15415.56
252.075	15421.54
252.146	15478.95
252.217	15538
252.287	15589.19
252.358	15601.53
252.429	15693.88
252.499	15692
252.57	15696.72
252.641	15754.56
252.711	15765.5
252.782	15723.08
252.852	15814.47
252.923	15820.25
252.994	15830.81
253.064	15890.39
253.135	15868.99
253.205	15842.14
253.276	15936.42
253.347	16012.68
253.417	15982.89
253.488	15957.59
253.558	15947.42
253.629	15947.13
253.699	15966.65
253.77	15999.18
253.841	15990.17
253.911	15994.41
253.982	16018.75
254.052	16049.21
254.123	16050.61
254.193	16054.7
254.264	16201.89
254.334	16165.36
254.405	16132.44
254.475	16108.29
254.546	16119.76
254.616	16190.71
254.687	16233.8
254.757	16260.31
254.827	16263.4
254.898	16297.62
254.968	16308.8
255.039	16290.63
255.109	16339.45
255.18	16310.05
255.25	16226.43
255.321	16263.16
255.391	16224.41
255.461	16320.08
255.532	16235.45
255.602	16230.39
255.673	16177.27
255.743	16137.37
255.813	16067.14
255.884	16125.85
255.954	16166.72
256.024	16248.27
256.095	16254.58
256.165	16209.03
256.235	16232.99
256.306	16227.15
256.376	16279.4
256.446	16326.58
256.517	16372.66
256.587	16420.76
256.657	16442.69
256.728	16480.33
256.798	16497.4
256.868	16498.55
256.938	16464.82
257.009	16524.53
257.079	16573.89
257.149	16680.93
257.219	16627.29
257.29	16673.27
257.36	16609.46
257.43	16650.86
257.5	16585.07
257.571	16579.82
257.641	16634.96
257.711	16602.71
257.781	16632.16
257.852	16648.79
257.922	16587.87
257.992	16592.74
258.062	16588.3
258.132	16637.75
258.202	16646.14
258.273	16665.27
258.343	16749.32
258.413	16739.39
258.483	16746.67
258.553	16709.37
258.623	16682.52
258.693	16714.57
258.764	16792.51
258.834	16875.99
258.904	16893.14
258.974	16877.77
259.044	16897.24
259.114	16927.17
259.184	16958.73
259.254	16977.53
259.324	16921.14
259.394	16983.51
259.464	17076.62
259.535	17096.47
259.605	17093.92
259.675	17089.19
259.745	17132.91
259.815	17107.7
259.885	17124.14
259.955	17248.61
260.025	17248.37
260.095	17271.5
260.165	17311.07
260.235	17376.37
260.305	17363.36
260.375	17337.62
260.445	17439.46
260.515	17519.79
260.585	17579.31
260.655	17598.83
260.725	17643.41
260.795	17695.12
260.865	17762.44
260.934	17722.88
261.004	17748.66
261.074	17757.58
261.144	17824.52
261.214	17868.52
261.284	17868.47
261.354	17909.43
261.424	17856.52
261.494	17940.57
261.564	17949.44
261.634	17977.29
261.703	17901.01
261.773	17932.28
261.843	17968.52
261.913	17962.74
261.983	17891.75
262.053	17911.22
262.123	17909.2
262.192	17867.03
