Data from 20250701_urea_2M_exp3_MAYP1162681_08-29-52-030.txt Node
Date: Wed Jul 02 08:29:52 BST 2025
User: adleo
Spectrometer: MAYP116268
Trigger mode: 0
Integration Time (sec): 4.000000E0
Scans to average: 1
Electric dark correction enabled: true
Nonlinearity correction enabled: true
Boxcar width: 10
XAxis mode: Wavelengths
Number of Pixels in Spectrum: 2068
>>>>>Begin Spectral Data<<<<<
179.565	3800.76
179.642	3996.74
179.718	4156.91
179.795	4295.21
179.871	4409.9
179.948	4476.7
180.024	4548.32
180.101	4630.5
180.177	4690.51
180.254	4772.49
180.33	4849.39
180.407	5125.61
180.483	5420.09
180.56	5721
180.636	5990.98
180.712	5948.01
180.789	5980.54
180.865	6024.95
180.942	6060.92
181.018	6100.99
181.095	6149.58
181.171	6170.5
181.248	6173.43
181.324	6222.84
181.4	6243.19
181.477	6285.97
181.553	6325.93
181.63	6400.97
181.706	6455.9
181.782	6478.02
181.859	6473.36
181.935	6494.39
182.011	6481.81
182.088	6540.4
182.164	6606.75
182.24	6662.52
182.317	6695.88
182.393	6687.72
182.469	6730.22
182.546	6771.19
182.622	6789.05
182.698	6772.91
182.775	6812.15
182.851	6864.84
182.927	6839.38
183.003	6832.47
183.08	6807.59
183.156	6846.88
183.232	6833.67
183.308	6793.71
183.385	6821.84
183.461	6883.86
183.537	6886.79
183.613	6929.11
183.69	6900.28
183.766	6864.86
183.842	6885.71
183.918	6902.33
183.995	6954.06
184.071	6966.84
184.147	6949.5
184.223	6909.37
184.299	6953.15
184.375	6911.12
184.452	6934
184.528	7063.61
184.604	7098.58
184.68	7139.12
184.756	7160.89
184.832	7177.95
184.908	7193.65
184.985	7191.68
185.061	7135.43
185.137	7164.79
185.213	7123.48
185.289	7127.13
185.365	7102.78
185.441	7099.85
185.517	7148.79
185.593	7132.98
185.669	7125.1
185.745	7155.51
185.822	7215.54
185.898	7181.37
185.974	7217.72
186.05	7185.51
186.126	7112.71
186.202	7083.93
186.278	7074.18
186.354	7043.08
186.43	7063.47
186.506	7060.92
186.582	7061.31
186.658	7087.62
186.734	7017.07
186.81	7028.69
186.886	7040.41
186.962	7088.12
187.038	7075.24
187.114	7046.34
187.19	7075.08
187.266	7046.11
187.341	7053.47
187.417	7028.97
187.493	7030.6
187.569	7043.24
187.645	7025.13
187.721	6982.69
187.797	7009.25
187.873	7020.11
187.949	6999.6
188.025	6975.47
188.101	6983.97
188.176	6999.48
188.252	6983.01
188.328	7014.45
188.404	7014.5
188.48	6995.77
188.556	6965.73
188.632	6964.77
188.707	6966.12
188.783	6956.36
188.859	6939.56
188.935	6902.55
189.011	6928.02
189.086	6904.34
189.162	6873.49
189.238	6863.89
189.314	6856.25
189.39	6838.62
189.465	6815.42
189.541	6872.12
189.617	6821.49
189.693	6804.21
189.768	6818.77
189.844	6905.1
189.92	6875.97
189.996	6906.14
190.071	6944.62
190.147	6941.21
190.223	6971.58
190.298	6947.51
190.374	6900.96
190.45	6943.75
190.526	6971.76
190.601	6951.72
190.677	6962.58
190.753	7058.74
190.828	7076.08
190.904	7131.11
190.98	7184.36
191.055	7220.21
191.131	7189.45
191.207	7259.88
191.282	7293.16
191.358	7257.22
191.433	7203.03
191.509	7247.2
191.585	7237.2
191.66	7241.14
191.736	7266.56
191.811	7238.45
191.887	7291.72
191.963	7373.13
192.038	7387.26
192.114	7391.68
192.189	7407.49
192.265	7394.14
192.34	7317.91
192.416	7310.99
192.491	7293.1
192.567	7303.49
192.642	7316.91
192.718	7322.34
192.793	7278.46
192.869	7265.97
192.944	7277.16
193.02	7301.39
193.095	7314.31
193.171	7331.33
193.246	7323.2
193.322	7318.25
193.397	7318.69
193.473	7272.91
193.548	7209.75
193.624	7228.84
193.699	7221.68
193.775	7271.97
193.85	7277.11
193.925	7307.3
194.001	7311.53
194.076	7285.43
194.152	7243.36
194.227	7209.61
194.302	7172.1
194.378	7192.18
194.453	7182.72
194.529	7227.57
194.604	7180.09
194.679	7159.52
194.755	7098.33
194.83	7143.96
194.905	7129.6
194.981	7156.17
195.056	7132.68
195.131	7157.48
195.207	7156.32
195.282	7120.14
195.357	7055.05
195.433	7110.21
195.508	7069.69
195.583	7092.76
195.659	7142.37
195.734	7170.78
195.809	7170.54
195.884	7202
195.96	7203.92
196.035	7257.07
196.11	7234.57
196.185	7270.95
196.261	7281.52
196.336	7386.72
196.411	7338.97
196.486	7360.59
196.561	7338.87
196.637	7367.4
196.712	7416.84
196.787	7417.51
196.862	7475.71
196.937	7515.31
197.013	7531.57
197.088	7563.48
197.163	7634.58
197.238	7699.21
197.313	7696.71
197.388	7746.91
197.464	7850.57
197.539	7884.27
197.614	7858.65
197.689	7910.21
197.764	7970.1
197.839	8042.67
197.914	8022.84
197.989	8097.11
198.065	8143.57
198.14	8318.24
198.215	8408.05
198.29	8445.45
198.365	8496.21
198.44	8535.47
198.515	8627.92
198.59	8681.73
198.665	8772.63
198.74	8800.41
198.815	8797.09
198.89	8881.2
198.965	8985.15
199.04	8969.27
199.115	9028.12
199.19	9172.55
199.265	9174.29
199.34	9211.5
199.415	9324.97
199.49	9397.75
199.565	9429.67
199.64	9514.36
199.715	9500.72
199.79	9525.47
199.865	9552.34
199.94	9550.61
200.015	9654.83
200.09	9676.41
200.165	9701.6
200.24	9720.09
200.315	9850.91
200.39	9905.77
200.464	9922.77
200.539	9923.02
200.614	9976.47
200.689	10051.71
200.764	10069.97
200.839	10134.68
200.914	10154.86
200.989	10121.42
201.063	10168.77
201.138	10112.88
201.213	10110.33
201.288	10049.01
201.363	10062.65
201.438	10062.93
201.512	10115.61
201.587	10052.8
201.662	10059.35
201.737	10097.31
201.812	10131.22
201.886	10024.53
201.961	10058.84
202.036	10016.8
202.111	10006.74
202.186	9909.45
202.26	9847.69
202.335	9778.91
202.41	9750.73
202.485	9682.12
202.559	9608.83
202.634	9516.03
202.709	9541.39
202.784	9472.87
202.858	9465.75
202.933	9403.25
203.008	9382.73
203.082	9309.41
203.157	9305.27
203.232	9157.76
203.306	9085.33
203.381	8974.33
203.456	8896.05
203.53	8810.73
203.605	8742.47
203.68	8657.15
203.754	8634.26
203.829	8588.48
203.904	8516.11
203.978	8476.35
204.053	8491.7
204.127	8452.3
204.202	8450.42
204.277	8390.86
204.351	8368.15
204.426	8347.5
204.5	8318.87
204.575	8194.31
204.65	8228.58
204.724	8197.62
204.799	8225.12
204.873	8209.81
204.948	8203.42
205.022	8160.18
205.097	8127.45
205.171	8173.86
205.246	8211.35
205.32	8207.41
205.395	8199.09
205.469	8173.08
205.544	8191.42
205.618	8134.6
205.693	8174.73
205.767	8130.43
205.842	8208.38
205.916	8189.71
205.991	8151.08
206.065	8173.7
206.14	8226.27
206.214	8210.05
206.289	8188.25
206.363	8226.78
206.438	8234.34
206.512	8265.23
206.586	8329.92
206.661	8360.93
206.735	8288.42
206.81	8290.78
206.884	8341.37
206.958	8302.27
207.033	8359.25
207.107	8388.96
207.181	8495.86
207.256	8476.27
207.33	8540.11
207.405	8586.11
207.479	8648.08
207.553	8680.99
207.628	8620.15
207.702	8666.96
207.776	8644.63
207.851	8654.16
207.925	8712.9
207.999	8700
208.073	8686.09
208.148	8695.72
208.222	8655.96
208.296	8760.43
208.371	8809.17
208.445	8850.95
208.519	8950.27
208.593	8994.22
208.668	8980.59
208.742	8989.65
208.816	8995.18
208.89	9042.23
208.965	9030.67
209.039	9059.8
209.113	9113.09
209.187	9187.55
209.261	9169.84
209.336	9239.07
209.41	9310.76
209.484	9309.56
209.558	9388.24
209.632	9432.24
209.707	9474.8
209.781	9547.89
209.855	9603.91
209.929	9661.68
210.003	9683.12
210.077	9680.13
210.151	9840.35
210.226	9960.74
210.3	10056.64
210.374	10135.32
210.448	10146.49
210.522	10191.06
210.596	10229.02
210.67	10264.33
210.744	10422.44
210.818	10537.25
210.892	10610.43
210.966	10592.03
211.041	10650.81
211.115	10640.31
211.189	10725.44
211.263	10776.02
211.337	10797.94
211.411	10849.94
211.485	10826.76
211.559	10864.77
211.633	10869.87
211.707	10760.18
211.781	10778.21
211.855	10644.94
211.929	10616.33
212.003	10555.7
212.077	10576.71
212.151	10617.14
212.225	10641.28
212.299	10601.13
212.373	10554.01
212.447	10528.86
212.52	10618.57
212.594	10620.55
212.668	10651.62
212.742	10596.88
212.816	10575.15
212.89	10551.69
212.964	10538.58
213.038	10546.29
213.112	10586.48
213.186	10634.08
213.26	10554.81
213.333	10396.94
213.407	10412.64
213.481	10416.35
213.555	10447.02
213.629	10401.05
213.703	10332.05
213.777	10328.92
213.85	10255.25
213.924	10363.77
213.998	10360.06
214.072	10332.49
214.146	10276.27
214.219	10256.66
214.293	10235.03
214.367	10229.49
214.441	10261
214.515	10208.82
214.588	10119.26
214.662	9981.55
214.736	9895.39
214.81	9910.55
214.883	9924.95
214.957	9876.75
215.031	9815.57
215.105	9719.33
215.178	9651.47
215.252	9613.14
215.326	9501.56
215.4	9417.9
215.473	9229.57
215.547	9137.05
215.621	9063.59
215.694	9054.53
215.768	8954.87
215.842	8886.91
215.915	8810.19
215.989	8684.24
216.063	8625.49
216.136	8590.73
216.21	8565.86
216.284	8571.49
216.357	8542.18
216.431	8493.62
216.504	8486.6
216.578	8547.54
216.652	8559.18
216.725	8535.11
216.799	8541.32
216.873	8525.35
216.946	8530.45
217.02	8492.61
217.093	8464.55
217.167	8367.84
217.24	8288.09
217.314	8249.76
217.387	8197.02
217.461	8149.49
217.535	8171.71
217.608	8107.54
217.682	8085.27
217.755	8104.51
217.829	8048.6
217.902	8034.79
217.976	8021.76
218.049	7975.15
218.123	7892.32
218.196	7890.4
218.27	7852.93
218.343	7776.38
218.417	7771.28
218.49	7744.83
218.563	7790.51
218.637	7796.24
218.71	7865.84
218.784	7893.07
218.857	7925.38
218.931	7950.86
219.004	7960.48
219.077	7978.28
219.151	7992.76
219.224	7986.07
219.298	7973.8
219.371	8018.11
219.444	7971.43
219.518	7979.02
219.591	7997.25
219.665	8104.88
219.738	8117.05
219.811	8100.37
219.885	8146.64
219.958	8179.84
220.031	8185.9
220.105	8205.53
220.178	8210.15
220.251	8186.14
220.325	8205.87
220.398	8227.96
220.471	8249.98
220.544	8286.02
220.618	8256.9
220.691	8288.89
220.764	8307.89
220.838	8333.93
220.911	8323.77
220.984	8413.96
221.057	8445.62
221.131	8468.66
221.204	8370.26
221.277	8444.14
221.35	8568.87
221.424	8562.18
221.497	8575.18
221.57	8602.98
221.643	8637.74
221.716	8689.97
221.79	8696.37
221.863	8708.26
221.936	8712.16
222.009	8731.59
222.082	8761.87
222.155	8776.55
222.229	8840.39
222.302	8867.87
222.375	8880.38
222.448	8915.18
222.521	8922.7
222.594	8926.79
222.667	8901.58
222.74	8956.83
222.814	8950.66
222.887	8935.78
222.96	8993.16
223.033	9033.28
223.106	9058.3
223.179	9084.93
223.252	9092.64
223.325	9122.72
223.398	9136.83
223.471	9173.32
223.544	9192.62
223.617	9205.67
223.69	9230.17
223.763	9194.29
223.837	9225.01
223.91	9255.25
223.983	9207.31
224.056	9168.66
224.129	9191.91
224.202	9253.17
224.275	9246.53
224.348	9214.66
224.42	9174.55
224.493	9110.96
224.566	9080.43
224.639	9103.63
224.712	9074.21
224.785	9064.04
224.858	9056
224.931	9038.57
225.004	8994.77
225.077	8991.11
225.15	8894.53
225.223	8891.93
225.296	8971.55
225.369	8903.92
225.442	8866.99
225.514	8884.22
225.587	8908.67
225.66	8916.81
225.733	8915.22
225.806	8919.74
225.879	8916.9
225.952	8887.02
226.025	8942.86
226.097	9002.44
226.17	8987.37
226.243	8921.1
226.316	8912.62
226.389	8918.78
226.461	8939.2
226.534	8960.71
226.607	8952.24
226.68	9043.38
226.753	9034.77
226.825	8955.63
226.898	9022.15
226.971	9029.46
227.044	9051.99
227.117	9059.07
227.189	9074.77
227.262	9106.26
227.335	9126.48
227.407	9115.27
227.48	9149.58
227.553	9159.69
227.626	9137.2
227.698	9151.21
227.771	9192.06
227.844	9175.06
227.916	9187.92
227.989	9147.96
228.062	9143.67
228.134	9234.55
228.207	9233.78
228.28	9232.96
228.352	9237.97
228.425	9242.73
228.498	9284.29
228.57	9263.45
228.643	9329.24
228.716	9324.33
228.788	9313.15
228.861	9308.67
228.934	9382.77
229.006	9397.12
229.079	9397.84
229.151	9380.74
229.224	9339.59
229.296	9362.21
229.369	9463.12
229.442	9521.55
229.514	9503.03
229.587	9554.02
229.659	9477.63
229.732	9493.09
229.804	9536.09
229.877	9622.7
229.949	9655.6
230.022	9710.52
230.094	9714.57
230.167	9693.42
230.239	9654.42
230.312	9648.5
230.384	9719.94
230.457	9712.67
230.529	9720.75
230.602	9721.91
230.674	9735.78
230.747	9782.04
230.819	9820.57
230.892	9701.13
230.964	9696.46
231.037	9725.48
231.109	9709.82
231.181	9746.18
231.254	9716.27
231.326	9698.41
231.399	9672.53
231.471	9642.38
231.544	9554.7
231.616	9602.76
231.688	9608.54
231.761	9600.16
231.833	9580.52
231.905	9489.09
231.978	9489.57
232.05	9474.07
232.122	9482.02
232.195	9453.99
232.267	9488.23
232.339	9462.03
232.412	9535.65
232.484	9505.83
232.556	9482.05
232.629	9550.8
232.701	9574.98
232.773	9578.06
232.846	9567.33
232.918	9577.54
232.99	9594.83
233.062	9645.16
233.135	9653.54
233.207	9616.94
233.279	9663.44
233.351	9704.18
233.424	9714.1
233.496	9683.91
233.568	9766.9
233.64	9729.77
233.713	9758.76
233.785	9756.4
233.857	9774.08
233.929	9720.09
234.001	9794.49
234.074	9865.45
234.146	9792.57
234.218	9792.81
234.29	9800.9
234.362	9789.01
234.434	9738.38
234.507	9702.5
234.579	9652.22
234.651	9634.69
234.723	9671.96
234.795	9690.31
234.867	9681.69
234.939	9734.63
235.012	9758.8
235.084	9767.67
235.156	9802.58
235.228	9776.67
235.3	9761.83
235.372	9769.59
235.444	9823.52
235.516	9738.1
235.588	9741.28
235.66	9755.25
235.732	9723.36
235.804	9917.95
235.876	9963.26
235.948	10020.54
236.02	10038.36
236.092	10043.37
236.164	10056.61
236.236	10054.59
236.308	10055.02
236.38	10081.52
236.452	10062.58
236.524	10081.56
236.596	10139.93
236.668	10172.44
236.74	10202.16
236.812	10233.71
236.884	10268.55
236.956	10285.51
237.028	10276.02
237.1	10259.21
237.172	10329.31
237.244	10403.26
237.316	10288.73
237.388	10277.08
237.46	10263.73
237.532	10322.6
237.604	10316.92
237.675	10388.95
237.747	10434.48
237.819	10426.92
237.891	10429.81
237.963	10422.44
238.035	10417.43
238.107	10304.53
238.178	10369.49
238.25	10371.75
238.322	10462.55
238.394	10416.88
238.466	10416.11
238.538	10468.32
238.609	10509.99
238.681	10462.34
238.753	10440.7
238.825	10457.37
238.897	10490.95
238.968	10574.13
239.04	10563.68
239.112	10684.02
239.184	10643.64
239.255	10642.15
239.327	10673.46
239.399	10701.98
239.471	10756.47
239.542	10797.67
239.614	10871.05
239.686	10782.77
239.758	10841.55
239.829	10802.85
239.901	10873.05
239.973	10895.45
240.044	10923.45
240.116	10939.06
240.188	10955.01
240.259	10972.55
240.331	10968.84
240.403	11005.7
240.474	10950.37
240.546	10933.84
240.618	10869.46
240.689	10869.37
240.761	10893.99
240.833	10961.51
240.904	10958.23
240.976	10952.21
241.048	10962.23
241.119	10996.45
241.191	11054.08
241.262	11121.32
241.334	11127.3
241.405	11129.51
241.477	11124.69
241.549	11134.86
241.62	11161.37
241.692	11208.98
241.763	11272.7
241.835	11293.76
241.906	11311.59
241.978	11288.51
242.049	11363.78
242.121	11429.56
242.192	11499.01
242.264	11458.72
242.335	11408.07
242.407	11454.86
242.478	11461.37
242.55	11489.61
242.621	11468.98
242.693	11462.57
242.764	11446.86
242.836	11452.45
242.907	11482.24
242.979	11515.68
243.05	11539.39
243.122	11563.3
243.193	11560.5
243.264	11481.95
243.336	11473.13
243.407	11510.91
243.479	11594.2
243.55	11605.04
243.622	11624.47
243.693	11626.44
243.764	11697.87
243.836	11677.05
243.907	11661.19
243.978	11670.83
244.05	11697.15
244.121	11654.64
244.192	11699.08
244.264	11647.12
244.335	11649.05
244.407	11601.39
244.478	11616.28
244.549	11612.52
244.62	11568.47
244.692	11573.67
244.763	11623.94
244.834	11615.5
244.906	11587.26
244.977	11608.08
245.048	11663.47
245.119	11631.95
245.191	11613.58
245.262	11544.91
245.333	11626.88
245.405	11652.18
245.476	11682.31
245.547	11697.54
245.618	11758.12
245.689	11775.86
245.761	11819.77
245.832	11838.86
245.903	11885.36
245.974	11916.21
246.045	11926.63
246.117	12012.37
246.188	11996.13
246.259	11977.53
246.33	12004.81
246.401	12021.92
246.473	11980.75
246.544	11969.91
246.615	12029.48
246.686	12036.86
246.757	12118.79
246.828	12093.34
246.899	12168.69
246.97	12134.52
247.042	12123.09
247.113	12166.81
247.184	12256.19
247.255	12252.19
247.326	12273.01
247.397	12280.96
247.468	12298.27
247.539	12314.37
247.61	12267.76
247.681	12306.41
247.752	12364.59
247.823	12336.39
247.894	12354.37
247.965	12332.97
248.037	12315.91
248.108	12265.15
248.179	12267.17
248.25	12256.28
248.321	12287.08
248.392	12231.88
248.463	12312.72
248.534	12309.92
248.605	12326.12
248.675	12289.82
248.746	12311.51
248.817	12333.83
248.888	12356.44
248.959	12293.34
249.03	12313.83
249.101	12330.6
249.172	12321.35
249.243	12251.17
249.314	12316.43
249.385	12319.37
249.456	12350.17
249.527	12342.75
249.598	12369.16
249.669	12375.14
249.739	12393.17
249.81	12406.28
249.881	12367.67
249.952	12368.39
250.023	12371
250.094	12321.15
250.165	12289.53
250.235	12285.09
250.306	12287.31
250.377	12248.36
250.448	12280.51
250.519	12224.12
250.59	12277.53
250.66	12273.58
250.731	12343.22
250.802	12344.81
250.873	12366.31
250.944	12387.67
251.014	12382.17
251.085	12480.56
251.156	12506.83
251.227	12562.46
251.297	12617.71
251.368	12677.81
251.439	12716.76
251.51	12764.39
251.58	12748.34
251.651	12747.33
251.722	12806.53
251.792	12750.42
251.863	12762.32
251.934	12818.62
252.005	12930.75
252.075	12945.4
252.146	13000.26
252.217	13059.21
252.287	13102.99
252.358	13104.29
252.429	13173.85
252.499	13169.08
252.57	13176.11
252.641	13226.49
252.711	13227.69
252.782	13180.31
252.852	13253.92
252.923	13253.05
252.994	13274.7
253.064	13329.89
253.135	13316.73
253.205	13286.79
253.276	13365.51
253.347	13433.29
253.417	13416.03
253.488	13396.8
253.558	13379.83
253.629	13375.58
253.699	13377.47
253.77	13401.57
253.841	13399.5
253.911	13413.52
253.982	13431.6
254.052	13459.32
254.123	13465.1
254.193	13467.37
254.264	13605.81
254.334	13564.4
254.405	13529.41
254.475	13492.62
254.546	13498.89
254.616	13553.7
254.687	13587.98
254.757	13608.99
254.827	13599.31
254.898	13622.83
254.968	13632.09
255.039	13605.52
255.109	13635.6
255.18	13611.69
255.25	13539.77
255.321	13573.47
255.391	13529.79
255.461	13622.01
255.532	13535.87
255.602	13525.02
255.673	13469.78
255.743	13433.24
255.813	13365.12
255.884	13418.83
255.954	13455.99
256.024	13520.25
256.095	13524.78
256.165	13487.71
256.235	13515.58
256.306	13505.64
256.376	13561.32
256.446	13602.68
256.517	13644.72
256.587	13699.29
256.657	13720.93
256.728	13744.36
256.798	13753.86
256.868	13756.27
256.938	13721.85
257.009	13767.94
257.079	13799.32
257.149	13907.44
257.219	13844.87
257.29	13887
257.36	13824.19
257.43	13864.73
257.5	13796.62
257.571	13793.29
257.641	13831.08
257.711	13793.63
257.781	13822.5
257.852	13832.92
257.922	13763.02
257.992	13769.14
258.062	13754.44
258.132	13793
258.202	13799.56
258.273	13810.4
258.343	13880.98
258.413	13866.42
258.483	13874.81
258.553	13847.23
258.623	13814.93
258.693	13843.57
258.764	13907.15
258.834	13987.51
258.904	14000
258.974	13988.19
259.044	13993.01
259.114	14021.45
259.184	14051.63
259.254	14073.99
259.324	14017.69
259.394	14069.17
259.464	14149.97
259.535	14162.07
259.605	14159.75
259.675	14150.4
259.745	14186.26
259.815	14158.59
259.885	14157.24
259.955	14271.14
260.025	14255.57
260.095	14273.22
260.165	14313.18
260.235	14380.52
260.305	14360.37
260.375	14331.64
260.445	14435.04
260.515	14503.73
260.585	14551.16
260.655	14561.29
260.725	14603.71
260.795	14643.86
260.865	14721.61
260.934	14689.61
261.004	14720.02
261.074	14725.28
261.144	14795.71
261.214	14830.75
261.284	14840.63
261.354	14883.83
261.424	14838.42
261.494	14918.73
261.564	14917.53
261.634	14941.44
261.703	14869.57
261.773	14891.6
261.843	14922.01
261.913	14910.59
261.983	14851.11
262.053	14877.47
262.123	14867.69
262.192	14821.36
262.262	14862.24
262.332	14813.89
262.402	14844.21
262.472	14860.21
262.541	14798.03
262.611	14841.89
262.681	14819.82
262.751	14861.22
262.821	14863.1
262.89	14831.29
