Data from 20250701_urea_2M_exp3_MAYP1162681_03-19-49-503.txt Node
Date: Wed Jul 02 03:19:49 BST 2025
User: adleo
Spectrometer: MAYP116268
Trigger mode: 0
Integration Time (sec): 4.000000E0
Scans to average: 1
Electric dark correction enabled: true
Nonlinearity correction enabled: true
Boxcar width: 10
XAxis mode: Wavelengths
Number of Pixels in Spectrum: 2068
>>>>>Begin Spectral Data<<<<<
179.565	3668.59
179.642	3859.52
179.718	4004.81
179.795	4137.97
179.871	4253.25
179.948	4319.12
180.024	4389.75
180.101	4464.83
180.177	4513.4
180.254	4587.54
180.33	4663.63
180.407	4926.36
180.483	5212.92
180.56	5503.9
180.636	5768.17
180.712	5724.97
180.789	5755.48
180.865	5798.28
180.942	5826.62
181.018	5863.08
181.095	5911.6
181.171	5929.21
181.248	5931.03
181.324	5986.09
181.4	6011.57
181.477	6041.85
181.553	6085.2
181.63	6154.5
181.706	6211.14
181.782	6237.13
181.859	6238.14
181.935	6258.06
182.011	6248.41
182.088	6303.38
182.164	6369.57
182.24	6422.79
182.317	6454.98
182.393	6451.29
182.469	6495.88
182.546	6542.31
182.622	6560.74
182.698	6547.06
182.775	6587.15
182.851	6634.92
182.927	6606.54
183.003	6589.79
183.08	6574.43
183.156	6604.73
183.232	6596.18
183.308	6557.09
183.385	6589.87
183.461	6650.05
183.537	6650.05
183.613	6688.8
183.69	6658.88
183.766	6616.98
183.842	6635.37
183.918	6652.28
183.995	6690.98
184.071	6702.51
184.147	6682.53
184.223	6641.4
184.299	6681.27
184.375	6645.07
184.452	6666.84
184.528	6798.39
184.604	6834.73
184.68	6874.15
184.756	6895.73
184.832	6908.27
184.908	6927.08
184.985	6921.18
185.061	6867.1
185.137	6899.33
185.213	6862.12
185.289	6864.81
185.365	6844.12
185.441	6839.5
185.517	6885.84
185.593	6876.04
185.669	6870.99
185.745	6912.07
185.822	6963.76
185.898	6936.28
185.974	6971.95
186.05	6946.82
186.126	6865.28
186.202	6844.48
186.278	6831.8
186.354	6796.97
186.43	6822.73
186.506	6816.49
186.582	6817.74
186.658	6839.63
186.734	6771.11
186.81	6784.27
186.886	6799.15
186.962	6837.71
187.038	6823.88
187.114	6798.4
187.19	6825.21
187.266	6793.03
187.341	6790.54
187.417	6774.21
187.493	6777.28
187.569	6785.21
187.645	6766.14
187.721	6727.95
187.797	6751.81
187.873	6769.4
187.949	6756.91
188.025	6730.19
188.101	6739.6
188.176	6756.17
188.252	6743.54
188.328	6766.81
188.404	6765.09
188.48	6742.09
188.556	6718.99
188.632	6716.15
188.707	6720
188.783	6714.18
188.859	6695.95
188.935	6658.14
189.011	6682.49
189.086	6653.68
189.162	6625.34
189.238	6617.57
189.314	6611.04
189.39	6592.11
189.465	6563.78
189.541	6613.92
189.617	6568.45
189.693	6550.93
189.768	6568.71
189.844	6651.41
189.92	6627.9
189.996	6656.48
190.071	6696.24
190.147	6696.34
190.223	6732.66
190.298	6704.6
190.374	6655.57
190.45	6703.24
190.526	6729.51
190.601	6714.48
190.677	6722.21
190.753	6809.44
190.828	6822.17
190.904	6874.44
190.98	6923.88
191.055	6958.75
191.131	6930.83
191.207	6996.78
191.282	7029.57
191.358	6992.87
191.433	6947.49
191.509	6987.76
191.585	6976.56
191.66	6980.5
191.736	7003.8
191.811	6972.23
191.887	7027.65
191.963	7105.04
192.038	7115.81
192.114	7121.28
192.189	7130.84
192.265	7121.48
192.34	7052.49
192.416	7046.97
192.491	7033.46
192.567	7043.51
192.642	7050.92
192.718	7054.28
192.793	7013.49
192.869	6999.8
192.944	7010.27
193.02	7031.51
193.095	7049.67
193.171	7065.57
193.246	7064.71
193.322	7060.77
193.397	7061.29
193.473	7010.39
193.548	6955.22
193.624	6971.13
193.699	6966.42
193.775	7018.92
193.85	7019.59
193.925	7049.96
194.001	7049.14
194.076	7024.4
194.152	6987.44
194.227	6960.87
194.302	6925.48
194.378	6941.57
194.453	6934.9
194.529	6971.46
194.604	6919.86
194.679	6900.79
194.755	6839.38
194.83	6884.05
194.905	6875.93
194.981	6903.03
195.056	6877.34
195.131	6893.34
195.207	6888.43
195.282	6852.94
195.357	6786.18
195.433	6840.31
195.508	6806.77
195.583	6830.3
195.659	6879.23
195.734	6905.18
195.809	6908.59
195.884	6944.41
195.96	6944.94
196.035	6991.97
196.11	6978.7
196.185	7021.84
196.261	7036.11
196.336	7143.05
196.411	7088.63
196.486	7106.98
196.561	7087.38
196.637	7119.55
196.712	7172.1
196.787	7180.27
196.862	7231.43
196.937	7268.67
197.013	7290.49
197.088	7320.04
197.163	7390.44
197.238	7442.98
197.313	7442.79
197.388	7484.85
197.464	7589.65
197.539	7626.27
197.614	7600.8
197.689	7643.79
197.764	7697.46
197.839	7757.66
197.914	7734.33
197.989	7808.09
198.065	7846.03
198.14	8013.63
198.215	8103.47
198.29	8143.31
198.365	8192.67
198.44	8225.85
198.515	8316.93
198.59	8368.84
198.665	8452.12
198.74	8479.41
198.815	8486.49
198.89	8559.04
198.965	8655.5
199.04	8633.69
199.115	8688.11
199.19	8835.44
199.265	8844.67
199.34	8878.13
199.415	8986.95
199.49	9061.82
199.565	9099.03
199.64	9184.13
199.715	9173.1
199.79	9196.26
199.865	9216.72
199.94	9205.94
200.015	9317.4
200.09	9332.38
200.165	9352.36
200.24	9379.71
200.315	9512.97
200.39	9559.59
200.464	9582.41
200.539	9592.53
200.614	9644.86
200.689	9717.63
200.764	9742.44
200.839	9798.71
200.914	9808.97
200.989	9778.52
201.063	9820.04
201.138	9759.44
201.213	9754.82
201.288	9687.55
201.363	9702.24
201.438	9702.48
201.512	9758.61
201.587	9697.15
201.662	9714.15
201.737	9745.7
201.812	9773.39
201.886	9663.15
201.961	9695.77
202.036	9660.67
202.111	9651.95
202.186	9561.37
202.26	9508.1
202.335	9430.17
202.41	9415.44
202.485	9361.19
202.559	9292.39
202.634	9206.74
202.709	9237
202.784	9176.2
202.858	9179.81
202.933	9122.28
203.008	9099.8
203.082	9034.33
203.157	9032.02
203.232	8885.99
203.306	8819.21
203.381	8708.19
203.456	8631.38
203.53	8551.91
203.605	8476.59
203.68	8394.65
203.754	8369.94
203.829	8315.75
203.904	8245.7
203.978	8201.38
204.053	8210.81
204.127	8173.39
204.202	8166.84
204.277	8104.22
204.351	8083.29
204.426	8057.21
204.5	8025.03
204.575	7911.08
204.65	7945.39
204.724	7922.04
204.799	7948.57
204.873	7935.87
204.948	7929.81
205.022	7889.18
205.097	7865.79
205.171	7913.88
205.246	7940.63
205.32	7931.5
205.395	7930.39
205.469	7905.5
205.544	7925.04
205.618	7869.87
205.693	7910.47
205.767	7873.15
205.842	7945.79
205.916	7920.02
205.991	7892.12
206.065	7912.56
206.14	7964.31
206.214	7943.13
206.289	7913.35
206.363	7955.19
206.438	7965.87
206.512	7992.81
206.586	8058.98
206.661	8082.61
206.735	8010.27
206.81	8014.02
206.884	8071.82
206.958	8032.73
207.033	8090.13
207.107	8110.78
207.181	8216.88
207.256	8190.8
207.33	8249.86
207.405	8290.31
207.479	8356.79
207.553	8375.26
207.628	8319.72
207.702	8357.34
207.776	8333.48
207.851	8346.7
207.925	8394.02
207.999	8381.56
208.073	8374.63
208.148	8384.26
208.222	8342.29
208.296	8448.8
208.371	8497
208.445	8528.81
208.519	8624.46
208.593	8660.74
208.668	8651.02
208.742	8657.52
208.816	8665.99
208.89	8715.24
208.965	8712.2
209.039	8738.78
209.113	8797.74
209.187	8871.31
209.261	8859.86
209.336	8931.81
209.41	8998.25
209.484	9000.46
209.558	9071.57
209.632	9113.82
209.707	9148.68
209.781	9220.3
209.855	9274.82
209.929	9332.58
210.003	9356.27
210.077	9352.81
210.151	9513.43
210.226	9630.05
210.3	9730.47
210.374	9806.96
210.448	9819.72
210.522	9856.09
210.596	9888.6
210.67	9919.76
210.744	10075.5
210.818	10186.14
210.892	10252.67
210.966	10235.43
211.041	10290.05
211.115	10278.74
211.189	10353.11
211.263	10403.73
211.337	10433.11
211.411	10481.88
211.485	10467.13
211.559	10499.69
211.633	10503.25
211.707	10392.99
211.781	10409.19
211.855	10278.24
211.929	10253.3
212.003	10185.7
212.077	10216.78
212.151	10255.81
212.225	10280.28
212.299	10239.6
212.373	10195.58
212.447	10177.12
212.52	10266
212.594	10272.8
212.668	10308.3
212.742	10261.42
212.816	10242.49
212.89	10210.89
212.964	10199.09
213.038	10201.64
213.112	10238.84
213.186	10288.3
213.26	10215.6
213.333	10059.45
213.407	10082.7
213.481	10077.31
213.555	10110.57
213.629	10059.26
213.703	9996.97
213.777	9987.62
213.85	9915.5
213.924	10018.18
213.998	10013.7
214.072	9986.91
214.146	9923.61
214.219	9900.58
214.293	9878.09
214.367	9872.31
214.441	9900.11
214.515	9841.38
214.588	9752.47
214.662	9629.23
214.736	9545.78
214.81	9558.97
214.883	9569.41
214.957	9514.48
215.031	9458.42
215.105	9367.83
215.178	9303.36
215.252	9267.73
215.326	9167.29
215.4	9077.79
215.473	8897.1
215.547	8811.14
215.621	8741.35
215.694	8739.9
215.768	8647.87
215.842	8579.78
215.915	8508.76
215.989	8391.46
216.063	8335.95
216.136	8310.25
216.21	8283.94
216.284	8289.96
216.357	8263.39
216.431	8227.26
216.504	8216.39
216.578	8276.55
216.652	8286.25
216.725	8264.94
216.799	8269.32
216.873	8248.64
216.946	8255.37
217.02	8217.97
217.093	8180.44
217.167	8084.14
217.24	7998.59
217.314	7967.87
217.387	7919.56
217.461	7874.21
217.535	7898.69
217.608	7842.61
217.682	7814.52
217.755	7825.53
217.829	7770.79
217.902	7753.62
217.976	7732.27
218.049	7687.55
218.123	7613.94
218.196	7611.34
218.27	7573.4
218.343	7499.13
218.417	7496.14
218.49	7471.87
218.563	7510.37
218.637	7522.16
218.71	7592.08
218.784	7622.57
218.857	7647.19
218.931	7672.27
219.004	7678.23
219.077	7700.08
219.151	7716.08
219.224	7704.21
219.298	7700.12
219.371	7748.37
219.444	7711.26
219.518	7722.46
219.591	7742.41
219.665	7842.71
219.738	7857.47
219.811	7843.39
219.885	7890.27
219.958	7922.5
220.031	7923.99
220.105	7947.23
220.178	7949.58
220.251	7920.04
220.325	7943.81
220.398	7965.26
220.471	7985.84
220.544	8025.33
220.618	7994.15
220.691	8020.8
220.764	8045.85
220.838	8072.98
220.911	8053.98
220.984	8136.16
221.057	8170.22
221.131	8191.57
221.204	8100.12
221.277	8173.22
221.35	8293.02
221.424	8288.3
221.497	8302.26
221.57	8333.61
221.643	8361.66
221.716	8415.13
221.79	8421.63
221.863	8432.12
221.936	8435.39
222.009	8450.35
222.082	8477.54
222.155	8489.33
222.229	8553.11
222.302	8581.4
222.375	8589.1
222.448	8630.1
222.521	8636.12
222.594	8641.56
222.667	8616.21
222.74	8666.88
222.814	8659.46
222.887	8639.91
222.96	8691.03
223.033	8732.29
223.106	8754.46
223.179	8784.51
223.252	8790.62
223.325	8825.17
223.398	8843.13
223.471	8875.42
223.544	8900.73
223.617	8910.89
223.69	8939.04
223.763	8900
223.837	8921.32
223.91	8944.86
223.983	8891.11
224.056	8858.68
224.129	8876.15
224.202	8930.41
224.275	8915.54
224.348	8887.67
224.42	8853.97
224.493	8794.92
224.566	8766.66
224.639	8788.51
224.712	8764.82
224.785	8749.94
224.858	8739.16
224.931	8717.06
225.004	8675.58
225.077	8668.02
225.15	8583.63
225.223	8574.83
225.296	8653.66
225.369	8598.56
225.442	8564.14
225.514	8586.22
225.587	8606.14
225.66	8615.29
225.733	8617.22
225.806	8634.3
225.879	8624
225.952	8596.05
226.025	8647.45
226.097	8702.64
226.17	8694.5
226.243	8626.08
226.316	8622.67
226.389	8631.33
226.461	8653.14
226.534	8676.47
226.607	8672.43
226.68	8755.71
226.753	8757.64
226.825	8677.6
226.898	8732.46
226.971	8738.43
227.044	8758.26
227.117	8764.8
227.189	8782.76
227.262	8818.24
227.335	8834.9
227.407	8832.5
227.48	8867.72
227.553	8880.38
227.626	8860.29
227.698	8869.34
227.771	8915.81
227.844	8895.45
227.916	8907.34
227.989	8870.47
228.062	8869.03
228.134	8955.21
228.207	8956.75
228.28	8949.87
228.352	8962.34
228.425	8968.84
228.498	9014.19
228.57	8989.98
228.643	9046.61
228.716	9046.03
228.788	9032.69
228.861	9025.08
228.934	9088.58
229.006	9091.08
229.079	9087.13
229.151	9070.66
229.224	9031.35
229.296	9050.07
229.369	9152.26
229.442	9203.17
229.514	9183.06
229.587	9230.86
229.659	9156.18
229.732	9168.07
229.804	9206.73
229.877	9290.53
229.949	9321.45
230.022	9371.02
230.094	9378.47
230.167	9375.2
230.239	9330.05
230.312	9320.13
230.384	9390.4
230.457	9381.35
230.529	9398.49
230.602	9403.69
230.674	9417.56
230.747	9466.3
230.819	9496.83
230.892	9379.44
230.964	9373.37
231.037	9399.88
231.109	9385.15
231.181	9428.81
231.254	9392.41
231.326	9379.9
231.399	9350.22
231.471	9322.77
231.544	9249.89
231.616	9288.26
231.688	9288.98
231.761	9279.17
231.833	9263.43
231.905	9177.89
231.978	9177.12
232.05	9159.79
232.122	9161.96
232.195	9131.19
232.267	9160.03
232.339	9139.66
232.412	9207.01
232.484	9188.85
232.556	9167.92
232.629	9234.48
232.701	9249.99
232.773	9257.45
232.846	9245.03
232.918	9256.64
232.99	9277.59
233.062	9315.63
233.135	9336.39
233.207	9298.25
233.279	9345.08
233.351	9379.84
233.424	9386.39
233.496	9365.2
233.568	9447.74
233.64	9412.36
233.713	9440.33
233.785	9440.28
233.857	9455.5
233.929	9407.6
234.001	9472.64
234.074	9541.47
234.146	9470.04
234.218	9460.22
234.29	9463.2
234.362	9453.04
234.434	9401.41
234.507	9362.22
234.579	9309.83
234.651	9287.34
234.723	9315.03
234.795	9330.87
234.867	9324.56
234.939	9378.98
235.012	9402.24
235.084	9402.04
235.156	9438.2
235.228	9411.14
235.3	9393.61
235.372	9402.18
235.444	9461.55
235.516	9377.68
235.588	9382.02
235.66	9397.09
235.732	9372.24
235.804	9566.47
235.876	9610.52
235.948	9683.5
236.02	9700.73
236.092	9715.03
236.164	9729.72
236.236	9737.95
236.308	9735.4
236.38	9763.04
236.452	9745.22
236.524	9761.4
236.596	9826.03
236.668	9861.24
236.74	9887
236.812	9918.78
236.884	9954.48
236.956	9962.86
237.028	9957.32
237.1	9937.15
237.172	10013.36
237.244	10089.08
237.316	9971.62
237.388	9952.79
237.46	9917.38
237.532	9977.35
237.604	9969.02
237.675	10042.97
237.747	10086.77
237.819	10075.98
237.891	10084.6
237.963	10074.49
238.035	10070.39
238.107	9960.3
238.178	10019.09
238.25	10026.94
238.322	10112.08
238.394	10064.15
238.466	10067.38
238.538	10114.1
238.609	10157.49
238.681	10101.27
238.753	10087.24
238.825	10107.29
238.897	10143.6
238.968	10230.77
239.04	10219.69
239.112	10338.19
239.184	10295.07
239.255	10285.33
239.327	10317.41
239.399	10343.18
239.471	10390.15
239.542	10426.18
239.614	10494.44
239.686	10411.43
239.758	10464.61
239.829	10433.72
239.901	10504.58
239.973	10523.08
240.044	10556.04
240.116	10570.97
240.188	10583.35
240.259	10590.97
240.331	10577.72
240.403	10612.35
240.474	10565.08
240.546	10547.16
240.618	10478.98
240.689	10481.72
240.761	10508.18
240.833	10586
240.904	10581.03
240.976	10585.03
241.048	10600.5
241.119	10629.27
241.191	10679.81
241.262	10745.06
241.334	10746.75
241.405	10752.24
241.477	10749.21
241.549	10752.44
241.62	10774.03
241.692	10820.14
241.763	10885.39
241.835	10908.67
241.906	10921.63
241.978	10888.91
242.049	10953.57
242.121	11021.56
242.192	11086.81
242.264	11052.07
242.335	10995.2
242.407	11041.42
242.478	11040.89
242.55	11060.88
242.621	11051.97
242.693	11044.79
242.764	11038.57
242.836	11041.56
242.907	11061.08
242.979	11096.16
243.05	11124.01
243.122	11146.28
243.193	11146.47
243.264	11069.85
243.336	11076.5
243.407	11115.87
243.479	11196.78
243.55	11222.42
243.622	11228.45
243.693	11231.82
243.764	11297.94
243.836	11278.43
243.907	11266.38
243.978	11272.26
244.05	11302.57
244.121	11259.06
244.192	11303.63
244.264	11242.52
244.335	11254.57
244.407	11207.25
244.478	11221.52
244.549	11214.58
244.62	11176.46
244.692	11167.01
244.763	11212.4
244.834	11203.1
244.906	11177.56
244.977	11194.24
245.048	11239.64
245.119	11226.34
245.191	11193.42
245.262	11128.17
245.333	11208.93
245.405	11220.02
245.476	11254.48
245.547	11267.92
245.618	11322.47
245.689	11337.61
245.761	11381.61
245.832	11385.13
245.903	11435.82
245.974	11460.4
246.045	11474.38
246.117	11553.13
246.188	11542.58
246.259	11525.86
246.33	11535.74
246.401	11549.81
246.473	11518.29
246.544	11496.16
246.615	11551.45
246.686	11560.31
246.757	11640.6
246.828	11616.55
246.899	11695.56
246.97	11661.92
247.042	11653.43
247.113	11692.14
247.184	11777.41
247.255	11771.05
247.326	11802.62
247.397	11806.77
247.468	11819.64
247.539	11828.75
247.61	11784.6
247.681	11833.46
247.752	11886.62
247.823	11873.13
247.894	11895.54
247.965	11869.81
248.037	11864.41
248.108	11806.96
248.179	11818.57
248.25	11799.77
248.321	11830.14
248.392	11782.85
248.463	11865.41
248.534	11859.62
248.605	11884.93
248.675	11858.27
248.746	11878.71
248.817	11890.23
248.888	11911.97
248.959	11857.07
249.03	11882.28
249.101	11891.97
249.172	11876.64
249.243	11805.7
249.314	11866.04
249.385	11869.27
249.456	11901.66
249.527	11899.44
249.598	11929.13
249.669	11928.55
249.739	11951.3
249.81	11960.7
249.881	11911.83
249.952	11900.12
250.023	11892.07
250.094	11838.13
250.165	11805.78
250.235	11808.39
250.306	11808.68
250.377	11774.84
250.448	11798.89
250.519	11735.12
250.59	11794.27
250.66	11793.5
250.731	11866.85
250.802	11865.02
250.873	11884.39
250.944	11902.81
251.014	11892.15
251.085	11984.47
251.156	12012.95
251.227	12066.94
251.297	12121.08
251.368	12171.68
251.439	12215.16
251.51	12279.47
251.58	12265.2
251.651	12266.74
251.722	12316.87
251.792	12269.93
251.863	12282.46
251.934	12350.81
252.005	12462.97
252.075	12465.91
252.146	12517.49
252.217	12560.54
252.287	12602.96
252.358	12602.38
252.429	12668.61
252.499	12660.56
252.57	12667.7
252.641	12714.41
252.711	12711.42
252.782	12666.39
252.852	12751.53
252.923	12755.09
252.994	12761.7
253.064	12809.61
253.135	12784.98
253.205	12762.95
253.276	12836.94
253.347	12895.02
253.417	12864.36
253.488	12851.3
253.558	12842.14
253.629	12832.93
253.699	12851.88
253.77	12879.55
253.841	12874.87
253.911	12893.67
253.982	12913.73
254.052	12937.25
254.123	12935.37
254.193	12943.81
254.264	13082.98
254.334	13044.17
254.405	13011.92
254.475	12980.68
254.546	12988.25
254.616	13053.76
254.687	13082.88
254.757	13106.45
254.827	13111.75
254.898	13140.82
254.968	13139.18
255.039	13124.09
255.109	13172.35
255.18	13141.21
255.25	13067.02
255.321	13104.04
255.391	13056.41
255.461	13139.57
255.532	13065.57
255.602	13067.06
255.673	13009.22
255.743	12966.17
255.813	12893.05
255.884	12939.08
255.954	12977.17
256.024	13039.64
256.095	13039.45
256.165	13005.8
256.235	13027.59
256.306	13011.63
256.376	13060.71
256.446	13104.96
256.517	13142.9
256.587	13179.92
256.657	13201.57
256.728	13229.72
256.798	13235.94
256.868	13236.42
256.938	13206.58
257.009	13251.65
257.079	13286.31
257.149	13388.85
257.219	13330.47
257.29	13376.11
257.36	13318.94
257.43	13361.17
257.5	13292.72
257.571	13283.46
257.641	13317.26
257.711	13287.17
257.781	13314.07
257.852	13330.46
257.922	13267.02
257.992	13269.92
258.062	13259.94
258.132	13298.55
258.202	13300.67
258.273	13312.82
258.343	13381.8
258.413	13370.81
258.483	13365.32
258.553	13335.62
258.623	13309.4
258.693	13337.6
258.764	13398.29
258.834	13464.81
258.904	13478.6
258.974	13475.18
259.044	13489.54
259.114	13519.67
259.184	13544.16
259.254	13549.46
259.324	13490.8
259.394	13538.04
259.464	13607.89
259.535	13613.43
259.605	13608.18
259.675	13601.91
259.745	13638.94
259.815	13617.44
259.885	13619.22
259.955	13740.35
260.025	13727.48
260.095	13733.65
260.165	13767.59
260.235	13829
260.305	13811.31
260.375	13772.65
260.445	13859.86
260.515	13925.7
260.585	13970.58
260.655	13987.55
260.725	14031.42
260.795	14069.02
260.865	14138.44
260.934	14107.92
261.004	14146.01
261.074	14158.54
261.144	14224.44
261.214	14260.45
261.284	14265.03
261.354	14310.77
261.424	14262.04
261.494	14336.38
261.564	14349.92
261.634	14379.23
261.703	14319.17
261.773	14349.78
261.843	14382.37
261.913	14376.2
261.983	14320.28
262.053	14344.81
262.123	14338.74
262.192	14301.38
262.262	14338.59
262.332	14286.24
262.402	14327.6
262.472	14332.76
262.541	14270.09
262.611	14317.24
262.681	14284.22
262.751	14322.06
262.821	14318.25
262.89	14292.12
262.96	14313.86
263.03	14385.11
263.1	14402.61
263.169	14425.17
263.239	14459.92
