Data from 20250701_urea_2M_exp3_MAYP1162681_17-49-52-298.txt Node
Date: Tue Jul 01 17:49:52 BST 2025
User: adleo
Spectrometer: MAYP116268
Trigger mode: 0
Integration Time (sec): 4.000000E0
Scans to average: 1
Electric dark correction enabled: true
Nonlinearity correction enabled: true
Boxcar width: 10
XAxis mode: Wavelengths
Number of Pixels in Spectrum: 2068
>>>>>Begin Spectral Data<<<<<
179.565	4087.9
179.642	4304.51
179.718	4472.51
179.795	4615.22
179.871	4739.44
179.948	4803.47
180.024	4881.19
180.101	4974.41
180.177	5033.25
180.254	5119.43
180.33	5205.38
180.407	5503.7
180.483	5824.62
180.56	6147.43
180.636	6446.24
180.712	6403.63
180.789	6440.03
180.865	6484.41
180.942	6516.57
181.018	6556.85
181.095	6605
181.171	6621.18
181.248	6618.49
181.324	6675.09
181.4	6708.38
181.477	6750.51
181.553	6805.47
181.63	6883.73
181.706	6938.12
181.782	6966.01
181.859	6964.19
181.935	6988.17
182.011	6976.78
182.088	7032.91
182.164	7103.24
182.24	7153.63
182.317	7188.55
182.393	7184.23
182.469	7237.13
182.546	7287.35
182.622	7305.76
182.698	7291.38
182.775	7337.42
182.851	7393.89
182.927	7364.76
183.003	7343.72
183.08	7318.25
183.156	7344.88
183.232	7332.47
183.308	7287.63
183.385	7317.95
183.461	7384.28
183.537	7378.13
183.613	7423.79
183.69	7391.11
183.766	7357.58
183.842	7384.03
183.918	7403.79
183.995	7449.3
184.071	7461.08
184.147	7436.52
184.223	7395.4
184.299	7433.33
184.375	7392.34
184.452	7412.25
184.528	7551.51
184.604	7594.81
184.68	7638.88
184.756	7668.5
184.832	7681.58
184.908	7702.24
184.985	7699.55
185.061	7638.21
185.137	7677.2
185.213	7633.08
185.289	7637.16
185.365	7600.64
185.441	7600.25
185.517	7647.64
185.593	7633.31
185.669	7624.65
185.745	7663.69
185.822	7721.98
185.898	7697.64
185.974	7732.25
186.05	7703.68
186.126	7618.99
186.202	7592.03
186.278	7579.05
186.354	7545.29
186.43	7572.37
186.506	7568.57
186.582	7565.02
186.658	7582.89
186.734	7508.97
186.81	7517.52
186.886	7526.89
186.962	7573.47
187.038	7549.47
187.114	7517.91
187.19	7552.3
187.266	7516.97
187.341	7521.88
187.417	7498.22
187.493	7498.75
187.569	7512.12
187.645	7492.56
187.721	7456.1
187.797	7485.52
187.873	7500.71
187.949	7477.7
188.025	7459.27
188.101	7465.81
188.176	7487.05
188.252	7476.96
188.328	7502.47
188.404	7505.98
188.48	7492.09
188.556	7471.03
188.632	7470.69
188.707	7476.51
188.783	7455.54
188.859	7444.16
188.935	7400.02
189.011	7425.11
189.086	7402.04
189.162	7369.64
189.238	7357.34
189.314	7344.46
189.39	7320.33
189.465	7295.42
189.541	7360.09
189.617	7301.64
189.693	7282.52
189.768	7293.58
189.844	7382.74
189.92	7357.96
189.996	7386.46
190.071	7432.09
190.147	7425.26
190.223	7461.33
190.298	7431.75
190.374	7390.18
190.45	7425.06
190.526	7456.26
190.601	7436.02
190.677	7440.35
190.753	7539.93
190.828	7559.15
190.904	7615.66
190.98	7672.45
191.055	7711.93
191.131	7678.5
191.207	7751.72
191.282	7791.27
191.358	7756.22
191.433	7703.4
191.509	7745.15
191.585	7734.71
191.66	7727.26
191.736	7757.21
191.811	7723.88
191.887	7779.97
191.963	7866.19
192.038	7888.94
192.114	7891.78
192.189	7908.89
192.265	7898.99
192.34	7823.97
192.416	7810.61
192.491	7797.86
192.567	7804.98
192.642	7816.34
192.718	7819.9
192.793	7774.12
192.869	7757.82
192.944	7767.72
193.02	7797.49
193.095	7814.23
193.171	7840.77
193.246	7844.67
193.322	7839.28
193.397	7840.92
193.473	7792.14
193.548	7726.05
193.624	7743.66
193.699	7741.44
193.775	7802.35
193.85	7807.11
193.925	7836.31
194.001	7843.32
194.076	7810.86
194.152	7773.1
194.227	7738.37
194.302	7704.06
194.378	7722.81
194.453	7712.23
194.529	7763.79
194.604	7710.07
194.679	7690.41
194.755	7616.68
194.83	7658.2
194.905	7645.99
194.981	7683.21
195.056	7656.25
195.131	7680.67
195.207	7674.42
195.282	7638.51
195.357	7563.41
195.433	7619.14
195.508	7577.64
195.583	7602.68
195.659	7652.8
195.734	7677.57
195.809	7680.84
195.884	7715.35
195.96	7713.86
196.035	7767.71
196.11	7747.36
196.185	7792.9
196.261	7803.62
196.336	7920.23
196.411	7866.44
196.486	7885.34
196.561	7856.67
196.637	7890.66
196.712	7949.94
196.787	7957.83
196.862	8011.64
196.937	8053.52
197.013	8073.59
197.088	8108.74
197.163	8190.22
197.238	8250.98
197.313	8250.83
197.388	8298.51
197.464	8402.51
197.539	8440.32
197.614	8415.65
197.689	8459.96
197.764	8517.44
197.839	8591.68
197.914	8563.96
197.989	8650.63
198.065	8699.51
198.14	8880.52
198.215	8977.36
198.29	9014.82
198.365	9061.27
198.44	9103.48
198.515	9202.71
198.59	9259.34
198.665	9358.33
198.74	9383.37
198.815	9390.45
198.89	9469.31
198.965	9581.58
199.04	9566.17
199.115	9624.47
199.19	9779.12
199.265	9784.18
199.34	9822.13
199.415	9941.18
199.49	10022.31
199.565	10052.9
199.64	10147.54
199.715	10134.29
199.79	10158.76
199.865	10181.5
199.94	10177.94
200.015	10297.8
200.09	10317.03
200.165	10334.99
200.24	10353.21
200.315	10493.64
200.39	10551.27
200.464	10574.63
200.539	10574.78
200.614	10633.26
200.689	10723.84
200.764	10744.76
200.839	10816.33
200.914	10829.96
200.989	10794.88
201.063	10841.52
201.138	10776.12
201.213	10765.81
201.288	10696.72
201.363	10710.21
201.438	10714.36
201.512	10777.55
201.587	10708.93
201.662	10716.79
201.737	10760.68
201.812	10796.3
201.886	10677.68
201.961	10707.08
202.036	10663.88
202.111	10651.15
202.186	10548.24
202.26	10477.84
202.335	10406.04
202.41	10382.63
202.485	10324.92
202.559	10252.08
202.634	10162.77
202.709	10199.46
202.784	10129.71
202.858	10131.44
202.933	10069.21
203.008	10038.57
203.082	9962.67
203.157	9961.03
203.232	9806.72
203.306	9728.96
203.381	9605.51
203.456	9522.96
203.53	9440.37
203.605	9373.42
203.68	9285.95
203.754	9258.67
203.829	9210.17
203.904	9127.61
203.978	9080.13
204.053	9089.85
204.127	9040.27
204.202	9032.66
204.277	8965.61
204.351	8949.25
204.426	8926.37
204.5	8893.49
204.575	8768.48
204.65	8805.95
204.724	8777.43
204.799	8808.41
204.873	8794.78
204.948	8787.7
205.022	8742.38
205.097	8706.07
205.171	8754.1
205.246	8788.24
205.32	8789.59
205.395	8779.96
205.469	8754.95
205.544	8775.07
205.618	8716.59
205.693	8764.29
205.767	8715.21
205.842	8796.27
205.916	8767.93
205.991	8730.38
206.065	8751.75
206.14	8809.55
206.214	8790.92
206.289	8756.73
206.363	8800.53
206.438	8811.12
206.512	8839.38
206.586	8911.03
206.661	8946.86
206.735	8868.88
206.81	8870.23
206.884	8923.89
206.958	8882.6
207.033	8949
207.107	8980.64
207.181	9090.04
207.256	9060.53
207.33	9130.95
207.405	9174.55
207.479	9243.34
207.553	9269.62
207.628	9208.37
207.702	9252.75
207.776	9229.54
207.851	9242.49
207.925	9301.64
207.999	9286.52
208.073	9281.46
208.148	9289.89
208.222	9247.18
208.296	9365.76
208.371	9426.03
208.445	9462.39
208.519	9565.99
208.593	9600.47
208.668	9584.04
208.742	9595.61
208.816	9602.25
208.89	9650.37
208.965	9644.21
209.039	9671.23
209.113	9729.94
209.187	9807.13
209.261	9786.67
209.336	9861.22
209.41	9937.81
209.484	9934.24
209.558	10011.65
209.632	10056.25
209.707	10095.16
209.781	10178.78
209.855	10231.83
209.929	10295.36
210.003	10317.03
210.077	10312.7
210.151	10490.58
210.226	10608.36
210.3	10706.68
210.374	10794.92
210.448	10807.98
210.522	10842.29
210.596	10882.04
210.67	10919.09
210.744	11093.44
210.818	11218.01
210.892	11291.61
210.966	11267.27
211.041	11321
211.115	11306.89
211.189	11392.18
211.263	11452.22
211.337	11472.37
211.411	11517.09
211.485	11494.1
211.559	11534.29
211.633	11545.85
211.707	11428.77
211.781	11462.51
211.855	11324.68
211.929	11294.76
212.003	11224.57
212.077	11259.18
212.151	11305.84
212.225	11330.9
212.299	11285.15
212.373	11235.71
212.447	11215.03
212.52	11319.8
212.594	11329.78
212.668	11369.53
212.742	11313.82
212.816	11291.07
212.89	11266.16
212.964	11254.83
213.038	11254.16
213.112	11299.47
213.186	11342.4
213.26	11253.28
213.333	11076.72
213.407	11096.38
213.481	11099.22
213.555	11143.87
213.629	11089.55
213.703	11018.37
213.777	11005.41
213.85	10920.59
213.924	11031.83
213.998	11020.26
214.072	10980.4
214.146	10921.55
214.219	10904.74
214.293	10878.72
214.367	10876.6
214.441	10901.9
214.515	10854.72
214.588	10757.72
214.662	10617.03
214.736	10534.5
214.81	10552.08
214.883	10570.47
214.957	10516.48
215.031	10456.81
215.105	10349.78
215.178	10284.17
215.252	10242.98
215.326	10133.15
215.4	10042.67
215.473	9845.19
215.547	9753.07
215.621	9683.73
215.694	9674.82
215.768	9566.78
215.842	9494.56
215.915	9413.53
215.989	9284.54
216.063	9218.79
216.136	9192.83
216.21	9163.47
216.284	9168.38
216.357	9137.23
216.431	9086.29
216.504	9079.5
216.578	9134.55
216.652	9145.9
216.725	9115.61
216.799	9117.68
216.873	9102.09
216.946	9112.92
217.02	9073.85
217.093	9041.26
217.167	8934.63
217.24	8845.89
217.314	8804.85
217.387	8755.49
217.461	8703.94
217.535	8730.27
217.608	8661.55
217.682	8638.44
217.755	8652.4
217.829	8595.78
217.902	8581.34
217.976	8565.47
218.049	8514.55
218.123	8432.12
218.196	8429.52
218.27	8394.44
218.343	8319.39
218.417	8313.67
218.49	8286.34
218.563	8337.77
218.637	8341.53
218.71	8421.66
218.784	8455.74
218.857	8496.01
218.931	8523.13
219.004	8537.67
219.077	8555.72
219.151	8577.66
219.224	8558.84
219.298	8549.94
219.371	8600.05
219.444	8557.86
219.518	8570.85
219.591	8592.79
219.665	8707.6
219.738	8724.2
219.811	8701.88
219.885	8753.96
219.958	8787.61
220.031	8795.83
220.105	8816.15
220.178	8825.1
220.251	8792.6
220.325	8814.08
220.398	8831.07
220.471	8854.26
220.544	8889.6
220.618	8868.6
220.691	8899.74
220.764	8925.4
220.838	8956.93
220.911	8936.9
220.984	9034.7
221.057	9070.94
221.131	9097.8
221.204	8995.22
221.277	9074.72
221.35	9217.8
221.424	9205.19
221.497	9219.3
221.57	9240.76
221.643	9271.54
221.716	9327.54
221.79	9331.68
221.863	9343.39
221.936	9352.78
222.009	9364.38
222.082	9399.97
222.155	9401.6
222.229	9472.07
222.302	9501.87
222.375	9511.98
222.448	9556.29
222.521	9559.81
222.594	9557.78
222.667	9527.51
222.74	9587.12
222.814	9576.47
222.887	9553.05
222.96	9619.33
223.033	9665.47
223.106	9697.58
223.179	9730.73
223.252	9737.67
223.325	9777.49
223.398	9789.15
223.471	9822.38
223.544	9852.52
223.617	9864.32
223.69	9895.09
223.763	9850.1
223.837	9876.06
223.91	9902.55
223.983	9848.67
224.056	9808.7
224.129	9838.85
224.202	9891.51
224.275	9881.49
224.348	9853.99
224.42	9822.01
224.493	9751.5
224.566	9722.93
224.639	9735.74
224.712	9708.04
224.785	9696.14
224.858	9678.99
224.931	9664.93
225.004	9622.17
225.077	9617.35
225.15	9525.96
225.223	9524.32
225.296	9616.11
225.369	9562.22
225.442	9526.58
225.514	9550.75
225.587	9578.77
225.66	9581.86
225.733	9589.8
225.806	9597.12
225.879	9589.13
225.952	9554.08
226.025	9614.47
226.097	9667.23
226.17	9661.83
226.243	9591.24
226.316	9585.37
226.389	9595.29
226.461	9618.41
226.534	9644.22
226.607	9639.55
226.68	9722.41
226.753	9714.85
226.825	9630.53
226.898	9688.41
226.971	9698.81
227.044	9716.15
227.117	9719.33
227.189	9747.66
227.262	9780.75
227.335	9801.37
227.407	9793.91
227.48	9832.52
227.553	9836.52
227.626	9817.63
227.698	9827.07
227.771	9870.45
227.844	9850.6
227.916	9868.62
227.989	9829.41
228.062	9821.8
228.134	9910.25
228.207	9912.51
228.28	9904.95
228.352	9913.86
228.425	9925.04
228.498	9970.03
228.57	9948.99
228.643	10013.35
228.716	10002.27
228.788	10000.97
228.861	9996.88
228.934	10065.32
229.006	10069.08
229.079	10077.41
229.151	10069.51
229.224	10032.58
229.296	10063.65
229.369	10174.51
229.442	10228.53
229.514	10213.7
229.587	10263.31
229.659	10185.89
229.732	10204.53
229.804	10252.27
229.877	10336.69
229.949	10367.67
230.022	10429.21
230.094	10432.78
230.167	10424.78
230.239	10387.21
230.312	10372.13
230.384	10449.37
230.457	10451.69
230.529	10465.22
230.602	10466.43
230.674	10476.55
230.747	10529.76
230.819	10559.49
230.892	10432.97
230.964	10431.86
231.037	10460.56
231.109	10451.84
231.181	10499.91
231.254	10460.8
231.326	10445.04
231.399	10419.84
231.471	10396.23
231.544	10310.4
231.616	10358.04
231.688	10364.31
231.761	10355.88
231.833	10341.62
231.905	10253.05
231.978	10248.14
232.05	10235.18
232.122	10239.09
232.195	10215.19
232.267	10262.6
232.339	10237.54
232.412	10308.26
232.484	10284.55
232.556	10256.47
232.629	10333.38
232.701	10349.57
232.773	10364.31
232.846	10357.91
232.918	10368.08
232.99	10379.4
233.062	10425.07
233.135	10444.54
233.207	10406.38
233.279	10458.3
233.351	10498.82
233.424	10500.07
233.496	10478.78
233.568	10570.86
233.64	10532.89
233.713	10549.71
233.785	10533.76
233.857	10548.74
233.929	10503.94
234.001	10574.26
234.074	10652.1
234.146	10581.3
234.218	10578.46
234.29	10584
234.362	10574.22
234.434	10529.65
234.507	10492.79
234.579	10435.7
234.651	10411.75
234.723	10447.94
234.795	10463.45
234.867	10460.27
234.939	10524.07
235.012	10543.72
235.084	10548.06
235.156	10587.23
235.228	10573.83
235.3	10565.5
235.372	10588.96
235.444	10652.8
235.516	10573.43
235.588	10579.98
235.66	10595.64
235.732	10572.9
235.804	10783.38
235.876	10827.61
235.948	10898.16
236.02	10920.46
236.092	10936.55
236.164	10956.4
236.236	10965.75
236.308	10965.61
236.38	10994.09
236.452	10976.93
236.524	11003.29
236.596	11070.68
236.668	11109.66
236.74	11137.95
236.812	11169.03
236.884	11201.9
236.956	11210.38
237.028	11200.26
237.1	11180.79
237.172	11261.43
237.244	11347.36
237.316	11220.62
237.388	11212.1
237.46	11183.85
237.532	11247.27
237.604	11245.2
237.675	11326.27
237.747	11365.69
237.819	11359.23
237.891	11363.67
237.963	11353.93
238.035	11346.61
238.107	11229.15
238.178	11303.23
238.25	11310.85
238.322	11411.54
238.394	11364.6
238.466	11375.01
238.538	11427.63
238.609	11474.81
238.681	11416.68
238.753	11390.61
238.825	11413.84
238.897	11449.88
238.968	11536.74
239.04	11525.32
239.112	11655.2
239.184	11612.74
239.255	11612.3
239.327	11642.23
239.399	11673.8
239.471	11727.25
239.542	11769.56
239.614	11846.63
239.686	11758.76
239.758	11820.06
239.829	11780.92
239.901	11855.48
239.973	11868.54
240.044	11907.97
240.116	11922.43
240.188	11940.45
240.259	11960.02
240.331	11953.9
240.403	11989.23
240.474	11945.56
240.546	11938.9
240.618	11869.88
240.689	11872.48
240.761	11895.33
240.833	11976.07
240.904	11977.27
240.976	11983.63
241.048	12002.77
241.119	12042.73
241.191	12096.81
241.262	12169.94
241.334	12179.05
241.405	12186.86
241.477	12196.35
241.549	12207.92
241.62	12243.83
241.692	12294.3
241.763	12363.91
241.835	12388.11
241.906	12409.61
241.978	12382.18
242.049	12454.82
242.121	12528.14
242.192	12610.76
242.264	12581.35
242.335	12532.23
242.407	12588.87
242.478	12591.72
242.55	12614.95
242.621	12604.15
242.693	12607.91
242.764	12597.12
242.836	12603.43
242.907	12636.89
242.979	12667.06
243.05	12692.51
243.122	12714.69
243.193	12716.66
243.264	12634.19
243.336	12641.42
243.407	12686.54
243.479	12775.76
243.55	12795.91
243.622	12810.23
243.693	12804.35
243.764	12874.92
243.836	12847.98
243.907	12834
243.978	12842.14
244.05	12879.02
244.121	12825.66
244.192	12869.43
244.264	12821.71
244.335	12838
244.407	12785.55
244.478	12804.45
244.549	12796.88
244.62	12753.64
244.692	12750.75
244.763	12807.78
244.834	12799.82
244.906	12778.66
244.977	12801.7
245.048	12862.97
245.119	12846.44
245.191	12820.5
245.262	12755.04
245.333	12846.87
245.405	12863.74
245.476	12909.77
245.547	12927.51
245.618	12995.14
245.689	13006.33
245.761	13047.01
245.832	13053.86
245.903	13113.39
245.974	13149.45
246.045	13171.1
246.117	13262.73
246.188	13247.94
246.259	13234.49
246.33	13259.07
246.401	13273.92
246.473	13234.29
246.544	13221.37
246.615	13282.21
246.686	13295.66
246.757	13381.13
246.828	13361.89
246.899	13453.24
246.97	13415.4
247.042	13404.94
247.113	13452.71
247.184	13557.65
247.255	13558.72
247.326	13595.3
247.397	13599.93
247.468	13611.31
247.539	13627.8
247.61	13582.05
247.681	13639.89
247.752	13700.34
247.823	13680.63
247.894	13698.66
247.965	13675.9
248.037	13662.21
248.108	13606.44
248.179	13613.72
248.25	13608.66
248.321	13638.3
248.392	13578.14
248.463	13668.82
248.534	13669.4
248.605	13688.2
248.675	13654.26
248.746	13670.51
248.817	13679.72
248.888	13706.42
248.959	13652.53
249.03	13683.86
249.101	13691.72
249.172	13679.33
249.243	13597.43
249.314	13664.44
249.385	13671.47
249.456	13708.35
249.527	13706.91
249.598	13736.89
249.669	13743.64
249.739	13762.44
249.81	13778.11
249.881	13736.5
249.952	13729.27
250.023	13724.45
250.094	13661.5
250.165	13630.11
250.235	13629.01
250.306	13641.73
250.377	13604.61
250.448	13637.3
250.519	13563.69
250.59	13642.17
250.66	13637.68
250.731	13723.92
250.802	13717.51
250.873	13746
250.944	13771.02
251.014	13756.85
251.085	13855.38
251.156	13884.73
251.227	13939.45
251.297	13994.83
251.368	14052.88
251.439	14093.17
251.51	14157.14
251.58	14156.03
251.651	14156.42
251.722	14211.95
251.792	14154.44
251.863	14162.54
251.934	14230.61
252.005	14358.88
252.075	14361.24
252.146	14419.72
252.217	14469.42
252.287	14516.95
252.358	14524.47
252.429	14601.4
252.499	14599.91
252.57	14615.09
252.641	14669.56
252.711	14670.57
252.782	14630.23
252.852	14716.99
252.923	14725.76
252.994	14741
253.064	14801.11
253.135	14785.15
253.205	14773.87
253.276	14860.06
253.347	14931.79
253.417	14909.23
253.488	14886.44
253.558	14875.83
253.629	14874.91
253.699	14889.47
253.77	14925.24
253.841	14920.03
253.911	14931.16
253.982	14950.25
254.052	14979.17
254.123	14980.96
254.193	14991.9
254.264	15135.49
254.334	15094.61
254.405	15054.17
254.475	15021.97
254.546	15020.14
254.616	15083.91
254.687	15115.05
254.757	15138.48
254.827	15137.37
254.898	15160.7
254.968	15168.27
255.039	15140.93
255.109	15185.38
255.18	15153.18
255.25	15069.31
255.321	15105.41
255.391	15061.88
255.461	15154.05
255.532	15061.99
255.602	15057.79
255.673	15001.01
255.743	14961.73
255.813	14887.97
255.884	14948.9
255.954	14989.78
256.024	15069.7
256.095	15071.53
256.165	15030.85
256.235	15060.3
256.306	15046.17
256.376	15103
256.446	15149.71
256.517	15195.55
256.587	15238.4
256.657	15266.16
256.728	15298.17
256.798	15311.86
256.868	15312.78
256.938	15282.65
257.009	15337.31
257.079	15379.39
257.149	15488.67
257.219	15425.33
257.29	15468.57
257.36	15419.94
257.43	15465.29
257.5	15390.87
257.571	15383.64
257.641	15428.76
257.711	15383.69
257.781	15428.76
257.852	15448.47
257.922	15384.75
257.992	15391.84
258.062	15387.79
258.132	15432.95
258.202	15442.78
258.273	15448.86
258.343	15531.04
258.413	15518.51
258.483	15524.87
258.553	15496.14
258.623	15469.49
258.693	15514.99
258.764	15590.76
258.834	15652.51
258.904	15667.84
258.974	15664.94
259.044	15682.63
259.114	15714.64
259.184	15755.9
259.254	15760.04
259.324	15700.08
259.394	15759.03
259.464	15848.54
259.535	15854.23
259.605	15857.26
259.675	15851.43
259.745	15898.95
259.815	15872.44
259.885	15869.65
259.955	15992.06
260.025	15982.37
260.095	16002.47
260.165	16027.39
260.235	16095.68
260.305	16084.93
260.375	16050.91
260.445	16150.39
260.515	16230.69
260.585	16282.45
260.655	16286.02
260.725	16336.96
260.795	16384.1
260.865	16449.74
260.934	16417.6
261.004	16452.25
261.074	16452.73
261.144	16517.32
261.214	16555.16
261.284	16553.42
261.354	16606.39
261.424	16563.89
261.494	16631.75
261.564	16631.51
261.634	16662.17
261.703	16593.29
261.773	16625.83
261.843	16669.64
261.913	16660.53
261.983	16583.03
262.053	16598.55
262.123	16596.72
262.192	16551.03
262.262	16591.41
262.332	16541.82
