Data from 20250701_urea_2M_exp3_MAYP1162681_09-39-51-685.txt Node
Date: Wed Jul 02 09:39:51 BST 2025
User: adleo
Spectrometer: MAYP116268
Trigger mode: 0
Integration Time (sec): 4.000000E0
Scans to average: 1
Electric dark correction enabled: true
Nonlinearity correction enabled: true
Boxcar width: 10
XAxis mode: Wavelengths
Number of Pixels in Spectrum: 2068
>>>>>Begin Spectral Data<<<<<
179.565	3835.4
179.642	4032.92
179.718	4185.55
179.795	4323.01
179.871	4443.61
179.948	4508.6
180.024	4584.13
180.101	4669.34
180.177	4723.42
180.254	4808.42
180.33	4887.72
180.407	5163.18
180.483	5461.73
180.56	5766
180.636	6043.66
180.712	6001.89
180.789	6039.03
180.865	6086.31
180.942	6118.55
181.018	6157.32
181.095	6206.36
181.171	6228.72
181.248	6234.86
181.324	6291
181.4	6314.33
181.477	6351.39
181.553	6398.74
181.63	6470.43
181.706	6527.44
181.782	6557.52
181.859	6551.61
181.935	6575.63
182.011	6563.05
182.088	6618.66
182.164	6682.66
182.24	6736.04
182.317	6768.59
182.393	6761.58
182.469	6807.26
182.546	6853.13
182.622	6869.98
182.698	6852.25
182.775	6888.09
182.851	6937.08
182.927	6912.73
183.003	6903.6
183.08	6883.58
183.156	6918.45
183.232	6913.26
183.308	6868.88
183.385	6897.69
183.461	6962.4
183.537	6960.43
183.613	7005.35
183.69	6977.48
183.766	6945.85
183.842	6968.53
183.918	6984.53
183.995	7032.09
184.071	7045.26
184.147	7024.55
184.223	6988.97
184.299	7032.42
184.375	6996.54
184.452	7016.68
184.528	7145.92
184.604	7183.24
184.68	7222.73
184.756	7245.23
184.832	7251.09
184.908	7269.43
184.985	7265.3
185.061	7204.14
185.137	7235.43
185.213	7196.42
185.289	7200.98
185.365	7174.95
185.441	7173.07
185.517	7221.1
185.593	7203.8
185.669	7194.09
185.745	7229.51
185.822	7283.2
185.898	7256.04
185.974	7284.86
186.05	7261.5
186.126	7185.46
186.202	7161.1
186.278	7154.08
186.354	7115.64
186.43	7141.41
186.506	7135.83
186.582	7130.74
186.658	7155.38
186.734	7085.01
186.81	7098.41
186.886	7109.45
186.962	7155.72
187.038	7132.51
187.114	7104.43
187.19	7137.45
187.266	7103.3
187.341	7104.4
187.417	7085.95
187.493	7084.46
187.569	7096.48
187.645	7074.57
187.721	7033.18
187.797	7052.83
187.873	7066.48
187.949	7053.51
188.025	7033.12
188.101	7041.43
188.176	7065.31
188.252	7050.66
188.328	7081.58
188.404	7079.47
188.48	7057.28
188.556	7025.89
188.632	7028.34
188.707	7034.31
188.783	7020.07
188.859	7006.06
188.935	6966.17
189.011	6989.47
189.086	6963.39
189.162	6938.36
189.238	6926.83
189.314	6920.35
189.39	6902.33
189.465	6878.21
189.541	6932.7
189.617	6884.09
189.693	6866.51
189.768	6872.71
189.844	6960.88
189.92	6933.27
189.996	6963.83
190.071	7002.98
190.147	7000.29
190.223	7031.44
190.298	7003.32
190.374	6963.01
190.45	7002.34
190.526	7037.47
190.601	7016.57
190.677	7021.27
190.753	7117.64
190.828	7134.74
190.904	7184
190.98	7245.24
191.055	7282.63
191.131	7251.1
191.207	7318.32
191.282	7358.34
191.358	7329.7
191.433	7274.73
191.509	7319.44
191.585	7311.7
191.66	7314.44
191.736	7342.5
191.811	7311.36
191.887	7366.79
191.963	7443.36
192.038	7461.77
192.114	7462.35
192.189	7479.74
192.265	7469.95
192.34	7394.24
192.416	7387.56
192.491	7373.57
192.567	7377.95
192.642	7382.47
192.718	7387.8
192.793	7343.68
192.869	7325.76
192.944	7335.22
193.02	7367.87
193.095	7379.3
193.171	7398.53
193.246	7397.76
193.322	7390.7
193.397	7398.96
193.473	7351.07
193.548	7288.14
193.624	7310.31
193.699	7305.31
193.775	7355.03
193.85	7361.46
193.925	7394.73
194.001	7399.2
194.076	7371.76
194.152	7336.13
194.227	7307.76
194.302	7271.59
194.378	7287.4
194.453	7277.41
194.529	7316.49
194.604	7260.01
194.679	7233.97
194.755	7162.25
194.83	7206.78
194.905	7194.77
194.981	7221.69
195.056	7193.3
195.131	7214.34
195.207	7206.02
195.282	7172
195.357	7108.44
195.433	7164.52
195.508	7119.58
195.583	7142.79
195.659	7194.71
195.734	7214.23
195.809	7208.94
195.884	7244.77
195.96	7242.66
196.035	7296.39
196.11	7288.31
196.185	7330.41
196.261	7351.12
196.336	7462.14
196.411	7409
196.486	7429.18
196.561	7404.24
196.637	7434.55
196.712	7491.01
196.787	7498.42
196.862	7557.59
196.937	7593.11
197.013	7612.78
197.088	7652.29
197.163	7718.43
197.238	7773.87
197.313	7772
197.388	7821.18
197.464	7921.83
197.539	7961.25
197.614	7941.35
197.689	7975.45
197.764	8032.65
197.839	8100.57
197.914	8078.29
197.989	8159.25
198.065	8210.62
198.14	8387.85
198.215	8479.16
198.29	8518.53
198.365	8562.8
198.44	8592.68
198.515	8687.44
198.59	8743.04
198.665	8834.48
198.74	8867.75
198.815	8876.08
198.89	8958.52
198.965	9064.88
199.04	9054.04
199.115	9113.77
199.19	9251.76
199.265	9265
199.34	9304.24
199.415	9418.15
199.49	9495.74
199.565	9526.31
199.64	9604.41
199.715	9590.73
199.79	9614.9
199.865	9644.28
199.94	9644.67
200.015	9751.25
200.09	9767.62
200.165	9782.12
200.24	9800.47
200.315	9936.31
200.39	9988.19
200.464	10004.61
200.539	10004.99
200.614	10060.04
200.689	10141.07
200.764	10166.51
200.839	10233.97
200.914	10251.02
200.989	10209.87
201.063	10253.75
201.138	10195.99
201.213	10200.56
201.288	10129.04
201.363	10148.79
201.438	10138.58
201.512	10194.39
201.587	10139.75
201.662	10152.47
201.737	10198.82
201.812	10224.4
201.886	10109.22
201.961	10143.29
202.036	10101.83
202.111	10093.45
202.186	9987.63
202.26	9931.22
202.335	9858.96
202.41	9831.89
202.485	9768.04
202.559	9705.72
202.634	9618.12
202.709	9653.88
202.784	9583.96
202.858	9587.67
202.933	9524.15
203.008	9493.86
203.082	9427.94
203.157	9419.27
203.232	9273.25
203.306	9194.98
203.381	9085.05
203.456	9008.16
203.53	8924.67
203.605	8860.45
203.68	8778.35
203.754	8760.02
203.829	8701.24
203.904	8628.04
203.978	8586.11
204.053	8594.73
204.127	8550.27
204.202	8544.63
204.277	8476.36
204.351	8448.49
204.426	8422.16
204.5	8394.06
204.575	8284.17
204.65	8314.88
204.724	8292.73
204.799	8313.6
204.873	8302.67
204.948	8302.57
205.022	8262.27
205.097	8234.59
205.171	8284.9
205.246	8317.06
205.32	8309.51
205.395	8306.62
205.469	8280.66
205.544	8293.32
205.618	8236.31
205.693	8277.16
205.767	8232.42
205.842	8310.42
205.916	8293.16
205.991	8258.03
206.065	8276.56
206.14	8333.09
206.214	8317.87
206.289	8290.39
206.363	8338.69
206.438	8349.28
206.512	8369.59
206.586	8438.86
206.661	8464.76
206.735	8388.3
206.81	8393.5
206.884	8443.81
206.958	8402.69
207.033	8462.42
207.107	8492.12
207.181	8604.08
207.256	8582.67
207.33	8647.04
207.405	8692.94
207.479	8763.73
207.553	8794.19
207.628	8736.33
207.702	8774.43
207.776	8748.16
207.851	8756.14
207.925	8811.18
207.999	8793.61
208.073	8784.42
208.148	8791.74
208.222	8753.42
208.296	8866.85
208.371	8919.55
208.445	8961.91
208.519	9061.96
208.593	9097.54
208.668	9087.38
208.742	9093.93
208.816	9100.23
208.89	9146.32
208.965	9137.16
209.039	9163.6
209.113	9225.13
209.187	9297
209.261	9280.11
209.336	9347.8
209.41	9418.73
209.484	9414.78
209.558	9495.77
209.632	9538.86
209.707	9573.05
209.781	9649.18
209.855	9703.27
209.929	9753
210.003	9771.55
210.077	9766.73
210.151	9932.39
210.226	10050.05
210.3	10143.68
210.374	10224.09
210.448	10238.02
210.522	10272.76
210.596	10306.24
210.67	10333.12
210.744	10495.28
210.818	10609.85
210.892	10681.93
210.966	10664.16
211.041	10719.61
211.115	10707.09
211.189	10794.87
211.263	10850.03
211.337	10869.64
211.411	10911.9
211.485	10897.16
211.559	10932.76
211.633	10935.6
211.707	10828.02
211.781	10853.47
211.855	10725.4
211.929	10692.65
212.003	10624.31
212.077	10650.09
212.151	10686.48
212.225	10717.65
212.299	10682.71
212.373	10642.33
212.447	10623.39
212.52	10719.76
212.594	10727.62
212.668	10760.24
212.742	10700.63
212.816	10684.44
212.89	10663.63
212.964	10653.89
213.038	10655.19
213.112	10691.53
213.186	10743.65
213.26	10657.88
213.333	10492.01
213.407	10504.87
213.481	10507.95
213.555	10546.28
213.629	10500.26
213.703	10441.04
213.777	10424.12
213.85	10336.72
213.924	10442.98
213.998	10435.22
214.072	10399.99
214.146	10340.25
214.219	10323.82
214.293	10304.16
214.367	10288.99
214.441	10307.58
214.515	10257.04
214.588	10167.68
214.662	10041.52
214.736	9953.24
214.81	9971.67
214.883	9986.69
214.957	9935.95
215.031	9882.03
215.105	9789.53
215.178	9726
215.252	9684.15
215.326	9579.55
215.4	9500.85
215.473	9309.19
215.547	9219.02
215.621	9145.56
215.694	9137.85
215.768	9036.69
215.842	8962.94
215.915	8889.41
215.989	8769.47
216.063	8710.05
216.136	8682.22
216.21	8651.76
216.284	8663.03
216.357	8637.13
216.431	8591.7
216.504	8591.61
216.578	8644.9
216.652	8647.69
216.725	8622.46
216.799	8624.15
216.873	8608.9
216.946	8617.99
217.02	8580.82
217.093	8542.75
217.167	8445.89
217.24	8357.67
217.314	8318.57
217.387	8277.84
217.461	8229.73
217.535	8249.6
217.608	8182.25
217.682	8153.47
217.755	8169.25
217.829	8110.11
217.902	8088.03
217.976	8076.15
218.049	8020.59
218.123	7942.18
218.196	7944.83
218.27	7906.44
218.343	7834.31
218.417	7828.97
218.49	7799.63
218.563	7842
218.637	7854.85
218.71	7931.39
218.784	7964.68
218.857	7997.57
218.931	8017.91
219.004	8034.4
219.077	8060.59
219.151	8079.15
219.224	8074.48
219.298	8062.17
219.371	8109.99
219.444	8067.44
219.518	8067.25
219.591	8090.29
219.665	8201.44
219.738	8214.57
219.811	8194.96
219.885	8242.2
219.958	8275.07
220.031	8281.37
220.105	8303.31
220.178	8306.34
220.251	8277.85
220.325	8300.66
220.398	8319.19
220.471	8342.51
220.544	8372.44
220.618	8347.7
220.691	8377.05
220.764	8393.4
220.838	8431.42
220.911	8411.93
220.984	8504.33
221.057	8546.58
221.131	8571.12
221.204	8466.79
221.277	8543.03
221.35	8666.18
221.424	8656.17
221.497	8668.3
221.57	8688.84
221.643	8721.05
221.716	8773.37
221.79	8774.82
221.863	8779.54
221.936	8786.37
222.009	8801.53
222.082	8829.83
222.155	8838.01
222.229	8906.87
222.302	8940.22
222.375	8944.89
222.448	8988.26
222.521	8995.48
222.594	8996.3
222.667	8969.22
222.74	9027.36
222.814	9017.05
222.887	9005.2
222.96	9058.88
223.033	9105.11
223.106	9135.52
223.179	9167.31
223.252	9175.21
223.325	9207.46
223.398	9228.21
223.471	9256.95
223.544	9278.85
223.617	9296.86
223.69	9318.62
223.763	9278.46
223.837	9297.91
223.91	9322.47
223.983	9269.81
224.056	9231.68
224.129	9254.5
224.202	9312.3
224.275	9299.78
224.348	9277.2
224.42	9240.94
224.493	9186.59
224.566	9154.08
224.639	9176.32
224.712	9149.35
224.785	9137.26
224.858	9123.54
224.931	9103.6
225.004	9063.46
225.077	9063.6
225.15	8972.16
225.223	8970.23
225.296	9046.82
225.369	8994.16
225.442	8961.66
225.514	8983.27
225.587	9005.41
225.66	9008.97
225.733	9009.11
225.806	9018.45
225.879	9001.61
225.952	8971.87
226.025	9013.84
226.097	9070.97
226.17	9062.83
226.243	8994.82
226.316	8991.74
226.389	8999.82
226.461	9016.1
226.534	9040.16
226.607	9030.01
226.68	9114.04
226.753	9111.05
226.825	9030.52
226.898	9084.48
226.971	9094.01
227.044	9114.71
227.117	9122.32
227.189	9144.08
227.262	9180.73
227.335	9203.94
227.407	9200.24
227.48	9227.67
227.553	9240.91
227.626	9220.63
227.698	9225.11
227.771	9265.77
227.844	9240.01
227.916	9254.51
227.989	9222.92
228.062	9216.66
228.134	9304.75
228.207	9309.56
228.28	9300.9
228.352	9310.91
228.425	9316.65
228.498	9365.14
228.57	9344.63
228.643	9404.74
228.716	9400.12
228.788	9381.81
228.861	9374.49
228.934	9438.82
229.006	9450.81
229.079	9455
229.151	9444.21
229.224	9411.95
229.296	9435.6
229.369	9544.17
229.442	9600.96
229.514	9585.89
229.587	9633.56
229.659	9555.78
229.732	9560.21
229.804	9602.58
229.877	9686.83
229.949	9725.23
230.022	9774.95
230.094	9776.15
230.167	9760.45
230.239	9721.21
230.312	9709.17
230.384	9780.61
230.457	9774.16
230.529	9782.83
230.602	9787.02
230.674	9792.94
230.747	9838.19
230.819	9868.97
230.892	9748.99
230.964	9743.69
231.037	9769.3
231.109	9753.5
231.181	9793.32
231.254	9758.27
231.326	9743.68
231.399	9716.26
231.471	9679.65
231.544	9591.11
231.616	9633.62
231.688	9645.19
231.761	9632.91
231.833	9620.59
231.905	9531.08
231.978	9539.08
232.05	9528.82
232.122	9526.56
232.195	9503.49
232.267	9538.12
232.339	9513.56
232.412	9577.02
232.484	9557.51
232.556	9533.15
232.629	9607.53
232.701	9629.84
232.773	9644.09
232.846	9633.64
232.918	9640.82
232.99	9667.07
233.062	9714.51
233.135	9732.38
233.207	9690.28
233.279	9732.89
233.351	9774.59
233.424	9775.17
233.496	9745.55
233.568	9827.24
233.64	9798.88
233.713	9815.3
233.785	9809.23
233.857	9831.2
233.929	9783.38
234.001	9846.36
234.074	9914.44
234.146	9841.5
234.218	9832.83
234.29	9831.48
234.362	9817.04
234.434	9767.61
234.507	9723.69
234.579	9673.89
234.651	9649.95
234.723	9683.57
234.795	9699.61
234.867	9690.31
234.939	9757.17
235.012	9776.24
235.084	9778.26
235.156	9806.86
235.228	9787.55
235.3	9768.53
235.372	9780.33
235.444	9838.5
235.516	9754
235.588	9756.5
235.66	9777.36
235.732	9756.31
235.804	9958.75
235.876	10006.47
235.948	10072.71
236.02	10091.45
236.092	10100.11
236.164	10119.09
236.236	10121.59
236.308	10125.54
236.38	10154.98
236.452	10127.47
236.524	10147.07
236.596	10212.33
236.668	10250.05
236.74	10268.93
236.812	10299.18
236.884	10333.97
236.956	10346.11
237.028	10338.12
237.1	10322.99
237.172	10394.74
237.244	10474.04
237.316	10351.61
237.388	10333.4
237.46	10310.47
237.532	10370.98
237.604	10365.54
237.675	10434.15
237.747	10480.89
237.819	10469.23
237.891	10472.89
237.963	10470.25
238.035	10467.21
238.107	10356.04
238.178	10419.8
238.25	10429.82
238.322	10524.04
238.394	10471.37
238.466	10475.66
238.538	10530.77
238.609	10579.38
238.681	10524.06
238.753	10497.26
238.825	10524.3
238.897	10560.62
238.968	10644.52
239.04	10626.5
239.112	10746.08
239.184	10708.74
239.255	10704.01
239.327	10733.25
239.399	10756.77
239.471	10804.56
239.542	10841.52
239.614	10909.55
239.686	10827.53
239.758	10878.46
239.829	10847.27
239.901	10913.57
239.973	10928.41
240.044	10956.75
240.116	10963.59
240.188	10975.63
240.259	10988.93
240.331	10981.46
240.403	11016.45
240.474	10967.76
240.546	10963.28
240.618	10898.08
240.689	10901.21
240.761	10922.71
240.833	10996.3
240.904	10994.42
240.976	10987.43
241.048	11002.08
241.119	11038.23
241.191	11080.44
241.262	11159.48
241.334	11161.94
241.405	11170.47
241.477	11171.53
241.549	11186.14
241.62	11216.02
241.692	11268.83
241.763	11338.29
241.835	11358.14
241.906	11381.23
241.978	11351.74
242.049	11414.63
242.121	11484.17
242.192	11550.29
242.264	11516.07
242.335	11462.24
242.407	11512.61
242.478	11521.62
242.55	11542.05
242.621	11532.99
242.693	11539.79
242.764	11520.84
242.836	11520.12
242.907	11545.57
242.979	11579.59
243.05	11597.81
243.122	11628.13
243.193	11620.46
243.264	11541.85
243.336	11541.57
243.407	11582.87
243.479	11668.66
243.55	11690.21
243.622	11707.32
243.693	11708.67
243.764	11775.56
243.836	11758.07
243.907	11744.72
243.978	11751.18
244.05	11776.24
244.121	11721.21
244.192	11762.27
244.264	11717.16
244.335	11727.28
244.407	11679.85
244.478	11694.51
244.549	11687.66
244.62	11637.73
244.692	11641.25
244.763	11689.68
244.834	11675.42
244.906	11648.28
244.977	11663.27
245.048	11720.2
245.119	11689.64
245.191	11662.41
245.262	11593.68
245.333	11674.45
245.405	11695.9
245.476	11726.89
245.547	11745.59
245.618	11803.23
245.689	11812.92
245.761	11851.92
245.832	11859.92
245.903	11913.13
245.974	11946.34
246.045	11962.58
246.117	12043.75
246.188	12027.27
246.259	12004.62
246.33	12025.2
246.401	12035.94
246.473	12004.61
246.544	11985.52
246.615	12051.27
246.686	12053.58
246.757	12134.36
246.828	12112.53
246.899	12180.45
246.97	12152.21
247.042	12141.84
247.113	12188.5
247.184	12278.41
247.255	12272.57
247.326	12299.18
247.397	12301.21
247.468	12304.97
247.539	12310.66
247.61	12263.13
247.681	12306.17
247.752	12364.39
247.823	12344.05
247.894	12360.59
247.965	12323.76
248.037	12304.92
248.108	12239.84
248.179	12246.25
248.25	12240.28
248.321	12268.14
248.392	12221.38
248.463	12302.16
248.534	12298.4
248.605	12316.72
248.675	12289
248.746	12313.3
248.817	12329.4
248.888	12352.53
248.959	12302.02
249.03	12333.11
249.101	12350.08
249.172	12338.8
249.243	12263.46
249.314	12334.56
249.385	12335.57
249.456	12379.68
249.527	12382.86
249.598	12415.1
249.669	12423.39
249.739	12442.24
249.81	12462.97
249.881	12416.89
249.952	12412.12
250.023	12416.65
250.094	12368.1
250.165	12339.52
250.235	12329.2
250.306	12335.18
250.377	12300.86
250.448	12326.55
250.519	12266.06
250.59	12322.79
250.66	12317.44
250.731	12397.89
250.802	12394.8
250.873	12419.68
250.944	12440.26
251.014	12421.99
251.085	12519.46
251.156	12545.06
251.227	12592.97
251.297	12644.89
251.368	12708.38
251.439	12742.7
251.51	12794.71
251.58	12777.31
251.651	12770.51
251.722	12827.93
251.792	12781.17
251.863	12781.07
251.934	12844.41
252.005	12956.3
252.075	12962.18
252.146	13014.67
252.217	13060.56
252.287	13100.67
252.358	13101.01
252.429	13172.64
252.499	13170.86
252.57	13174.76
252.641	13223.45
252.711	13229.48
252.782	13183.3
252.852	13263.99
252.923	13271.18
252.994	13286.55
253.064	13342.42
253.135	13319.91
253.205	13297.93
253.276	13369.03
253.347	13444.81
253.417	13426.54
253.488	13403.35
253.558	13398.24
253.629	13399.4
253.699	13407.45
253.77	13432.61
253.841	13428.27
253.911	13440.66
253.982	13459.95
254.052	13491.81
254.123	13497.93
254.193	13508.1
254.264	13641.24
254.334	13594.73
254.405	13558.76
254.475	13523.96
254.546	13528.01
254.616	13604.41
254.687	13635.12
254.757	13663.23
254.827	13656.57
254.898	13679.66
254.968	13688
255.039	13661.39
255.109	13698.03
255.18	13678.85
255.25	13605.19
255.321	13636.13
255.391	13592.8
255.461	13681.88
255.532	13597.86
255.602	13586.92
255.673	13522.18
255.743	13486.65
255.813	13418.2
255.884	13471.95
255.954	13505.4
256.024	13570.68
256.095	13562.05
256.165	13525.65
256.235	13541.65
256.306	13530.37
256.376	13574.92
256.446	13615.55
256.517	13657.3
256.587	13703.29
256.657	13721.99
256.728	13755.21
256.798	13767.5
256.868	13763.93
256.938	13726.28
257.009	13773.58
257.079	13810.07
257.149	13912.79
257.219	13845.35
257.29	13883.34
257.36	13820.67
257.43	13870.37
257.5	13805.2
257.571	13804.28
257.641	13844.24
257.711	13808.43
257.781	13844.24
257.852	13860.59
257.922	13802.98
257.992	13810.26
258.062	13802.88
258.132	13847.28
258.202	13843.18
258.273	13857.02
258.343	13933.95
258.413	13926.53
258.483	13927.01
258.553	13895.58
258.623	13867.53
258.693	13900.02
258.764	13975.07
258.834	14050.18
258.904	14053.46
258.974	14041.02
259.044	14048.3
259.114	14079.54
259.184	14107.3
259.254	14116.27
259.324	14062.38
259.394	14108.32
259.464	14176.38
259.535	14181.01
259.605	14169.83
259.675	14169.59
259.745	14206.66
259.815	14181.3
259.885	14171.66
259.955	14293.75
260.025	14289.03
260.095	14303.58
260.165	14336.94
260.235	14392.47
260.305	14376.03
260.375	14343.74
260.445	14439.33
260.515	14505.75
260.585	14551.98
260.655	14567.46
260.725	14607.42
260.795	14649.98
260.865	14727.69
260.934	14695.63
261.004	14721.42
261.074	14729.18
261.144	14788.09
261.214	14820.29
261.284	14816.09
261.354	14874.04
261.424	14814.13
261.494	14887.21
261.564	14886.49
261.634	14921.24
261.703	14855.68
261.773	14885.96
261.843	14928.52
261.913	14920.57
261.983	14863.01
262.053	14878.73
262.123	14869.28
262.192	14825.75
262.262	14865.52
262.332	14810.81
262.402	14850.19
262.472	14867.88
262.541	14805.31
262.611	14856.74
262.681	14836.98
262.751	14879.11
262.821	14872.79
262.89	14852.84
262.96	14879.73
