Data from 20250701_urea_2M_exp3_MAYP1162681_16-49-48-584.txt Node
Date: Tue Jul 01 16:49:48 BST 2025
User: adleo
Spectrometer: MAYP116268
Trigger mode: 0
Integration Time (sec): 4.000000E0
Scans to average: 1
Electric dark correction enabled: true
Nonlinearity correction enabled: true
Boxcar width: 10
XAxis mode: Wavelengths
Number of Pixels in Spectrum: 2068
>>>>>Begin Spectral Data<<<<<
179.565	4122.53
179.642	4336.02
179.718	4501.3
179.795	4648.3
179.871	4771.33
179.948	4840.56
180.024	4921.92
180.101	5013.27
180.177	5071.62
180.254	5159.21
180.33	5241.59
180.407	5545.16
180.483	5863.1
180.56	6187.11
180.636	6488.75
180.712	6440.52
180.789	6479.13
180.865	6521.26
180.942	6557.74
181.018	6604.46
181.095	6650.21
181.171	6670.71
181.248	6673.4
181.324	6735.29
181.4	6765.51
181.477	6804.9
181.553	6854.35
181.63	6932.04
181.706	6988.93
181.782	7019.13
181.859	7016.15
181.935	7043.54
182.011	7031.05
182.088	7098.09
182.164	7173.67
182.24	7220.07
182.317	7256.53
182.393	7247.26
182.469	7301.75
182.546	7347.7
182.622	7359.57
182.698	7348.41
182.775	7387.68
182.851	7437.95
182.927	7404.11
183.003	7384.13
183.08	7368.46
183.156	7404.89
183.232	7392.92
183.308	7349.37
183.385	7379.26
183.461	7446.27
183.537	7446.08
183.613	7493.09
183.69	7459.73
183.766	7417.64
183.842	7444.13
183.918	7464.56
183.995	7514.46
184.071	7521.38
184.147	7505.56
184.223	7469.68
184.299	7511.08
184.375	7474.07
184.452	7499.18
184.528	7635.26
184.604	7678.22
184.68	7717.59
184.756	7739.91
184.832	7754.96
184.908	7771.29
184.985	7772.16
185.061	7714.47
185.137	7742.4
185.213	7698.66
185.289	7701.44
185.365	7679.72
185.441	7676.88
185.517	7727.68
185.593	7712.68
185.669	7707.39
185.745	7742.93
185.822	7803.09
185.898	7775.39
185.974	7809.13
186.05	7783.88
186.126	7708.92
186.202	7681.18
186.278	7666.52
186.354	7635.64
186.43	7663.16
186.506	7659.32
186.582	7656.77
186.658	7679.79
186.734	7608.75
186.81	7621.68
186.886	7629.23
186.962	7669.9
187.038	7655.04
187.114	7621.07
187.19	7653.49
187.266	7619.07
187.341	7619.84
187.417	7592.1
187.493	7594.12
187.569	7605.95
187.645	7582.44
187.721	7539.92
187.797	7574.49
187.873	7590.79
187.949	7567.96
188.025	7537.55
188.101	7549.81
188.176	7567.5
188.252	7554.19
188.328	7585.7
188.404	7579.41
188.48	7561
188.556	7535.9
188.632	7535.23
188.707	7542.59
188.783	7526.33
188.859	7507.45
188.935	7469.07
189.011	7496.72
189.086	7470.14
189.162	7440.76
189.238	7431
189.314	7419.42
189.39	7392.55
189.465	7367.74
189.541	7426.68
189.617	7371.56
189.693	7349.74
189.768	7363.11
189.844	7444.49
189.92	7413.7
189.996	7444.57
190.071	7488.84
190.147	7482.59
190.223	7513.9
190.298	7480.86
190.374	7429.72
190.45	7472.29
190.526	7496.91
190.601	7479.89
190.677	7485.85
190.753	7587.08
190.828	7601.45
190.904	7661.9
190.98	7719.8
191.055	7765.06
191.131	7732.45
191.207	7812.3
191.282	7850.46
191.358	7808.83
191.433	7755.08
191.509	7808.57
191.585	7798.47
191.66	7799.67
191.736	7830.97
191.811	7798.75
191.887	7862.88
191.963	7956.17
192.038	7977.95
192.114	7985.5
192.189	7999.98
192.265	7987.43
192.34	7903.61
192.416	7899.42
192.491	7883.02
192.567	7891.01
192.642	7897.16
192.718	7902.26
192.793	7854.7
192.869	7836.96
192.944	7853.73
193.02	7886.39
193.095	7896.25
193.171	7921.74
193.246	7919.96
193.322	7909.53
193.397	7911.64
193.473	7857.66
193.548	7791.09
193.624	7814.08
193.699	7805.23
193.775	7857.63
193.85	7861.42
193.925	7891.73
194.001	7893.79
194.076	7868.45
194.152	7833.09
194.227	7799.46
194.302	7763.66
194.378	7778.46
194.453	7771.78
194.529	7818.1
194.604	7763.37
194.679	7738.27
194.755	7664.11
194.83	7711.84
194.905	7705.25
194.981	7736.71
195.056	7709.02
195.131	7732.87
195.207	7723.48
195.282	7693
195.357	7622.1
195.433	7681.38
195.508	7641.27
195.583	7666.9
195.659	7712.94
195.734	7734.01
195.809	7730.93
195.884	7763.18
195.96	7767.51
196.035	7823.14
196.11	7803.42
196.185	7848.19
196.261	7867.03
196.336	7984.9
196.411	7933.17
196.486	7951.83
196.561	7928.12
196.637	7961.53
196.712	8019.47
196.787	8029.57
196.862	8086.03
196.937	8127
197.013	8143.36
197.088	8182.99
197.163	8260.34
197.238	8319.85
197.313	8316.43
197.388	8372.24
197.464	8485.87
197.539	8521.91
197.614	8500.69
197.689	8543.95
197.764	8606.05
197.839	8673.95
197.914	8652.38
197.989	8726.83
198.065	8778.13
198.14	8963.33
198.215	9060.75
198.29	9103.03
198.365	9152.62
198.44	9190.5
198.515	9287.37
198.59	9345.25
198.665	9439.47
198.74	9467.8
198.815	9479.4
198.89	9564.09
198.965	9668.95
199.04	9650.55
199.115	9715.41
199.19	9868.82
199.265	9883.12
199.34	9915.3
199.415	10044.52
199.49	10119.83
199.565	10161.64
199.64	10246.08
199.715	10229.16
199.79	10250.93
199.865	10270.69
199.94	10265.58
200.015	10379.33
200.09	10404.29
200.165	10428.76
200.24	10447.6
200.315	10591.46
200.39	10641.23
200.464	10662.38
200.539	10667.44
200.614	10731.47
200.689	10817.38
200.764	10837.72
200.839	10898.61
200.914	10918.6
200.989	10874.94
201.063	10928.61
201.138	10866.49
201.213	10868.75
201.288	10804.04
201.363	10823.99
201.438	10826.35
201.512	10883.43
201.587	10817.8
201.662	10832.11
201.737	10876.06
201.812	10913.17
201.886	10798.36
201.961	10834.31
202.036	10795.87
202.111	10788.69
202.186	10680.37
202.26	10613.29
202.335	10535.18
202.41	10510.76
202.485	10446.02
202.559	10376.98
202.634	10282.75
202.709	10317.95
202.784	10245.78
202.858	10246.41
202.933	10178.68
203.008	10151.75
203.082	10082.35
203.157	10078.73
203.232	9919.36
203.306	9840.73
203.381	9711.44
203.456	9624.84
203.53	9540.89
203.605	9466.62
203.68	9375.43
203.754	9344.11
203.829	9287.81
203.904	9212.66
203.978	9165.17
204.053	9178.66
204.127	9127.1
204.202	9117.56
204.277	9045.02
204.351	9023.35
204.426	8990.32
204.5	8962.97
204.575	8835.84
204.65	8870.08
204.724	8843.29
204.799	8872.11
204.873	8859.35
204.948	8856.22
205.022	8810.17
205.097	8780.74
205.171	8826.94
205.246	8856.55
205.32	8855.16
205.395	8854.82
205.469	8824.52
205.544	8853.65
205.618	8790.06
205.693	8836.32
205.767	8790.17
205.842	8868.88
205.916	8842.31
205.991	8810.98
206.065	8828.02
206.14	8884.38
206.214	8866.08
206.289	8838.25
206.363	8882.82
206.438	8887.06
206.512	8918.06
206.586	8989.97
206.661	9017.28
206.735	8939.58
206.81	8943.09
206.884	9000.6
206.958	8954.98
207.033	9017.72
207.107	9046.28
207.181	9163.58
207.256	9135.85
207.33	9205.27
207.405	9251.13
207.479	9321.81
207.553	9350.69
207.628	9293.86
207.702	9340.84
207.776	9318.88
207.851	9325.81
207.925	9378.89
207.999	9362.38
208.073	9350.53
208.148	9361.95
208.222	9311.19
208.296	9428.33
208.371	9489.76
208.445	9526.31
208.519	9626.55
208.593	9668.83
208.668	9649.76
208.742	9662.86
208.816	9676.97
208.89	9720.47
208.965	9714.06
209.039	9740.02
209.113	9800.95
209.187	9878.25
209.261	9857.98
209.336	9931.67
209.41	10007.82
209.484	10012.01
209.558	10098.67
209.632	10147.36
209.707	10181.66
209.781	10266.62
209.855	10322.76
209.929	10385.56
210.003	10407.91
210.077	10407.77
210.151	10582.19
210.226	10710.08
210.3	10805.47
210.374	10889.77
210.448	10905.28
210.522	10943.36
210.596	10987.74
210.67	11022.14
210.744	11184.92
210.818	11304.88
210.892	11384.98
210.966	11365.03
211.041	11425.65
211.115	11412.31
211.189	11500.98
211.263	11559.86
211.337	11583.57
211.411	11638.13
211.485	11613.6
211.559	11658.65
211.633	11665.01
211.707	11543.11
211.781	11564.13
211.855	11435.54
211.929	11410.87
212.003	11346.37
212.077	11380.83
212.151	11420.02
212.225	11450.14
212.299	11413.84
212.373	11371.43
212.447	11339.47
212.52	11445.94
212.594	11443.86
212.668	11481.69
212.742	11430.27
212.816	11413.06
212.89	11389.11
212.964	11373.59
213.038	11374.89
213.112	11413.02
213.186	11462.6
213.26	11376.14
213.333	11204.63
213.407	11216.1
213.481	11205.5
213.555	11240.62
213.629	11187.69
213.703	11115.35
213.777	11108.56
213.85	11023.84
213.924	11132.43
213.998	11120.23
214.072	11077.91
214.146	11025.38
214.219	11001.38
214.293	10973.92
214.367	10958.54
214.441	10982.11
214.515	10933.33
214.588	10835.61
214.662	10694.58
214.736	10610.17
214.81	10627.02
214.883	10643.69
214.957	10588.78
215.031	10525.16
215.105	10424.73
215.178	10352.7
215.252	10307.9
215.326	10185.58
215.4	10095.97
215.473	9897.75
215.547	9813.58
215.621	9745.25
215.694	9739.37
215.768	9632.83
215.842	9558.72
215.915	9483.33
215.989	9356.27
216.063	9288.39
216.136	9261.23
216.21	9236.68
216.284	9239.04
216.357	9217.22
216.431	9170.86
216.504	9162.62
216.578	9228.31
216.652	9240.43
216.725	9215.35
216.799	9225.89
216.873	9210.73
216.946	9222.67
217.02	9185.81
217.093	9149.75
217.167	9038.01
217.24	8941.41
217.314	8907.2
217.387	8860.49
217.461	8808.41
217.535	8836.38
217.608	8766.25
217.682	8740.45
217.755	8750.27
217.829	8691.53
217.902	8666.5
217.976	8643.79
218.049	8598.35
218.123	8517.07
218.196	8514.48
218.27	8479.34
218.343	8403.42
218.417	8400.58
218.49	8371.23
218.563	8414
218.637	8417.42
218.71	8497.89
218.784	8527.88
218.857	8559.83
218.931	8579.36
219.004	8592.06
219.077	8612.04
219.151	8632.06
219.224	8620.22
219.298	8618.87
219.371	8663.69
219.444	8623.81
219.518	8641.27
219.591	8658.84
219.665	8766.23
219.738	8783.7
219.811	8759.79
219.885	8812.4
219.958	8841.14
220.031	8847.73
220.105	8876.53
220.178	8879.41
220.251	8847.88
220.325	8875.32
220.398	8899.06
220.471	8919.22
220.544	8962.25
220.618	8928.6
220.691	8962.68
220.764	8989.97
220.838	9016.35
220.911	9005.32
220.984	9097.87
221.057	9135.33
221.131	9156.56
221.204	9057.01
221.277	9132.56
221.35	9268.1
221.424	9254.28
221.497	9274.74
221.57	9304.82
221.643	9335.79
221.716	9394.21
221.79	9395.65
221.863	9405.04
221.936	9408.8
222.009	9425.45
222.082	9455.46
222.155	9471.69
222.229	9538.88
222.302	9570.18
222.375	9581.35
222.448	9624.55
222.521	9634.42
222.594	9636.93
222.667	9613.25
222.74	9672.66
222.814	9661.39
222.887	9645.63
222.96	9710.37
223.033	9755.51
223.106	9779.24
223.179	9809.93
223.252	9818.56
223.325	9859.63
223.398	9881.12
223.471	9919.6
223.544	9948.01
223.617	9959.76
223.69	9983.65
223.763	9945.44
223.837	9969.77
223.91	9997.18
223.983	9942.52
224.056	9903.13
224.129	9922.01
224.202	9986.24
224.275	9974.15
224.348	9945.54
224.42	9910.61
224.493	9845.01
224.566	9819.38
224.639	9844.19
224.712	9820.38
224.785	9809.16
224.858	9796.35
224.931	9774.38
225.004	9731.66
225.077	9729.11
225.15	9634.54
225.223	9633.97
225.296	9723.1
225.369	9659.83
225.442	9626.35
225.514	9651.48
225.587	9675.94
225.66	9686.01
225.733	9676.38
225.806	9685.05
225.879	9678.02
225.952	9646.43
226.025	9699.12
226.097	9754.87
226.17	9747.55
226.243	9670.64
226.316	9671.12
226.389	9686.54
226.461	9710.38
226.534	9730.66
226.607	9723.58
226.68	9813.42
226.753	9806.58
226.825	9714.02
226.898	9779.13
226.971	9785.2
227.044	9801
227.117	9813.76
227.189	9835.1
227.262	9882.36
227.335	9911.85
227.407	9907.03
227.48	9943.58
227.553	9958.08
227.626	9933.12
227.698	9934.76
227.771	9988.39
227.844	9963.2
227.916	9970.96
227.989	9929.87
228.062	9930.59
228.134	10033.59
228.207	10038.51
228.28	10040
228.352	10054.64
228.425	10061.49
228.498	10108.5
228.57	10087.17
228.643	10147.39
228.716	10148.6
228.788	10135.4
228.861	10128.75
228.934	10201.34
229.006	10207.89
229.079	10209.82
229.151	10201
229.224	10171.53
229.296	10196.53
229.369	10316.03
229.442	10375.54
229.514	10364.03
229.587	10414.32
229.659	10331.16
229.732	10347.15
229.804	10389.98
229.877	10483.99
229.949	10520.62
230.022	10584.67
230.094	10593
230.167	10583.99
230.239	10538.61
230.312	10530.9
230.384	10605.69
230.457	10601.16
230.529	10613.49
230.602	10618.7
230.674	10635.66
230.747	10688.16
230.819	10722.8
230.892	10587.75
230.964	10589.05
231.037	10616.84
231.109	10604.55
231.181	10649.3
231.254	10611.34
231.326	10597.08
231.399	10567.2
231.471	10537.22
231.544	10447.16
231.616	10497.4
231.688	10509.16
231.761	10499.58
231.833	10488.21
231.905	10400.41
231.978	10399.01
232.05	10386.87
232.122	10392.12
232.195	10362.88
232.267	10400.89
232.339	10373.19
232.412	10452.48
232.484	10429.97
232.556	10406.86
232.629	10489.8
232.701	10509.22
232.773	10529.54
232.846	10520.68
232.918	10529.74
232.99	10551.18
233.062	10604.09
233.135	10617.82
233.207	10572.72
233.279	10622
233.351	10664.73
233.424	10661.36
233.496	10638.04
233.568	10727.67
233.64	10689.85
233.713	10714.47
233.785	10707.87
233.857	10731.43
233.929	10670.34
234.001	10740.32
234.074	10813.06
234.146	10728.68
234.218	10725.11
234.29	10721.5
234.362	10715.53
234.434	10667.77
234.507	10630.96
234.579	10569.86
234.651	10554.25
234.723	10598.29
234.795	10619.11
234.867	10607.74
234.939	10675.87
235.012	10699.09
235.084	10701.69
235.156	10743.32
235.228	10718.17
235.3	10704.63
235.372	10714.8
235.444	10787.31
235.516	10706.82
235.588	10717.71
235.66	10742.14
235.732	10720.12
235.804	10932.05
235.876	10978.69
235.948	11048.96
236.02	11071.46
236.092	11093.23
236.164	11106.96
236.236	11101.86
236.308	11105.76
236.38	11147.35
236.452	11133.81
236.524	11155.3
236.596	11227.02
236.668	11263.94
236.74	11299.12
236.812	11333.09
236.884	11373.19
236.956	11388.66
237.028	11381.19
237.1	11362.35
237.172	11443.28
237.244	11524.29
237.316	11406.09
237.388	11393.71
237.46	11372.74
237.532	11440.07
237.604	11429.56
237.675	11512.47
237.747	11569.53
237.819	11560.42
237.891	11555.85
237.963	11551.65
238.035	11555.51
238.107	11435.49
238.178	11505.58
238.25	11511.94
238.322	11616.49
238.394	11569.4
238.466	11571.33
238.538	11623.04
238.609	11670.27
238.681	11612.28
238.753	11593.77
238.825	11616.62
238.897	11651.41
238.968	11740.69
239.04	11719.82
239.112	11849.65
239.184	11808.73
239.255	11808.3
239.327	11847.53
239.399	11883.53
239.471	11933.99
239.542	11973.9
239.614	12055.5
239.686	11970.71
239.758	12030.82
239.829	11997.22
239.901	12075.15
239.973	12093.81
240.044	12137.81
240.116	12147.5
240.188	12166.25
240.259	12188.09
240.331	12174.78
240.403	12223.9
240.474	12180.27
240.546	12181.19
240.618	12116.07
240.689	12119.44
240.761	12139.93
240.833	12216.52
240.904	12211.94
240.976	12209.2
241.048	12233.1
241.119	12274.37
241.191	12327.49
241.262	12405.63
241.334	12412.67
241.405	12416.57
241.477	12428.86
241.549	12435.37
241.62	12476.73
241.692	12530.28
241.763	12594.68
241.835	12623.85
241.906	12642.26
241.978	12606.3
242.049	12678.66
242.121	12757.61
242.192	12835.61
242.264	12806.54
242.335	12757.42
242.407	12813.63
242.478	12830.31
242.55	12849.35
242.621	12835.22
242.693	12838.84
242.764	12819.7
242.836	12821.1
242.907	12855.81
242.979	12889.6
243.05	12922.91
243.122	12954.1
243.193	12954.73
243.264	12878.03
243.336	12892.25
243.407	12938.67
243.479	13037.45
243.55	13060.78
243.622	13084.06
243.693	13083.77
243.764	13153.52
243.836	13130.24
243.907	13118.24
243.978	13124.27
244.05	13153.96
244.121	13112.75
244.192	13159.31
244.264	13115.93
244.335	13132.61
244.407	13085.12
244.478	13103.01
244.549	13092.16
244.62	13043.28
244.692	13044.39
244.763	13099.25
244.834	13084.83
244.906	13057.16
244.977	13075.1
245.048	13134.87
245.119	13107.15
245.191	13085.22
245.262	13023.08
245.333	13112.31
245.405	13139.98
245.476	13178.06
245.547	13200.38
245.618	13259.24
245.689	13280.83
245.761	13322.58
245.832	13337.28
245.903	13387.23
245.974	13426.32
246.045	13450.76
246.117	13552.38
246.188	13538.64
246.259	13521.14
246.33	13549.25
246.401	13566.51
246.473	13538.59
246.544	13525.48
246.615	13584.92
246.686	13595.24
246.757	13686.73
246.828	13671.16
246.899	13749.69
246.97	13718.5
247.042	13718.06
247.113	13768.63
247.184	13862.15
247.255	13865.04
247.326	13889.33
247.397	13910.5
247.468	13921.01
247.539	13940.63
247.61	13888.76
247.681	13937.98
247.752	14005.22
247.823	13978.37
247.894	13999.49
247.965	13971.33
248.037	13950.89
248.108	13899.75
248.179	13913.78
248.25	13903.7
248.321	13934.94
248.392	13879.55
248.463	13975.34
248.534	13968.06
248.605	13987.44
248.675	13960.69
248.746	13985.8
248.817	14012.07
248.888	14030
248.959	13968.2
249.03	13989.85
249.101	13997.08
249.172	13989.41
249.243	13911.51
249.314	13986.47
249.385	13991.87
249.456	14033.43
249.527	14037.96
249.598	14073
249.669	14076.62
249.739	14095.66
249.81	14112.34
249.881	14074.21
249.952	14064.67
250.023	14070.5
250.094	14021.62
250.165	13995.44
250.235	13992.65
250.306	13996.12
250.377	13963.05
250.448	14005.23
250.519	13943.04
250.59	14013.04
250.66	14015.16
250.731	14096.1
250.802	14087.52
250.873	14108.97
250.944	14125.89
251.014	14117.74
251.085	14217.62
251.156	14243.46
251.227	14300.58
251.297	14357.22
251.368	14421.67
251.439	14468.72
251.51	14527.19
251.58	14511.86
251.651	14505.64
251.722	14565.12
251.792	14514.22
251.863	14526.85
251.934	14595.73
252.005	14722.22
252.075	14738.08
252.146	14794.14
252.217	14848.71
252.287	14904.1
252.358	14915.28
252.429	14993.7
252.499	14984.74
252.57	14989.94
252.641	15049.14
252.711	15052.08
252.782	15005.9
252.852	15080.27
252.923	15085.87
252.994	15101.77
253.064	15167.86
253.135	15149.83
253.205	15121.25
253.276	15204.79
253.347	15273.43
253.417	15248.9
253.488	15222.48
253.558	15203.97
253.629	15201.8
253.699	15213.32
253.77	15242.29
253.841	15237.95
253.911	15250.58
253.982	15278.44
254.052	15317.67
254.123	15323.75
254.193	15333.48
254.264	15482.95
254.334	15453.98
254.405	15414.84
254.475	15384.95
254.546	15387.03
254.616	15463.77
254.687	15506.28
254.757	15534.04
254.827	15531.73
254.898	15556.12
254.968	15575.98
255.039	15557.95
255.109	15606.54
255.18	15585.09
255.25	15507.58
255.321	15548.07
255.391	15507.92
255.461	15599.07
255.532	15509.66
255.602	15505.47
255.673	15444.44
255.743	15411.91
255.813	15336.62
255.884	15394.85
255.954	15437.07
256.024	15508.31
256.095	15505.08
256.165	15473.51
256.235	15496.69
256.306	15489.8
256.376	15545.23
256.446	15579.11
256.517	15622.64
256.587	15663.75
256.657	15686.41
256.728	15720.63
256.798	15729.6
256.868	15732.3
256.938	15699.81
257.009	15747.48
257.079	15785.7
257.149	15896.85
257.219	15826.92
257.29	15873.58
257.36	15820.17
257.43	15864.71
257.5	15798
257.571	15787.64
257.641	15831.4
257.711	15789.04
257.781	15820.8
257.852	15834.01
257.922	15772.21
257.992	15782.43
258.062	15782.34
258.132	15829.38
258.202	15831.64
258.273	15846.49
258.343	15925.05
258.413	15917.24
258.483	15930.88
258.553	15895.46
258.623	15872.32
258.693	15913.68
258.764	15984.14
258.834	16053.79
258.904	16065.51
258.974	16062.61
259.044	16079.53
259.114	16111.82
259.184	16145.61
259.254	16161.57
259.324	16108.64
259.394	16171.69
259.464	16253.33
259.535	16261.58
259.605	16261.58
259.675	16259.31
259.745	16307.8
259.815	16285.29
259.885	16285.1
259.955	16403.89
260.025	16404.9
260.095	16415.89
260.165	16446.83
260.235	16514.79
260.305	16499.6
260.375	16468.23
260.445	16564
260.515	16640.92
260.585	16692.78
260.655	16706.99
260.725	16761.55
260.795	16806.76
260.865	16883.1
260.934	16849.94
261.004	16883.39
261.074	16880.98
261.144	16945.04
261.214	16975.98
261.284	16979.83
261.354	17029.81
261.424	16985.19
261.494	17058.69
261.564	17070.79
261.634	17095.37
261.703	17028.38
261.773	17060.33
261.843	17100.24
261.913	17094.17
261.983	17033.39
262.053	17051.32
262.123	17051.95
262.192	17004.57
262.262	17052.86
262.332	17001.92
