Data from 20250701_urea_2M_exp3_MAYP1162681_14-49-49-132.txt Node
Date: Tue Jul 01 14:49:49 BST 2025
User: adleo
Spectrometer: MAYP116268
Trigger mode: 0
Integration Time (sec): 4.000000E0
Scans to average: 1
Electric dark correction enabled: true
Nonlinearity correction enabled: true
Boxcar width: 10
XAxis mode: Wavelengths
Number of Pixels in Spectrum: 2068
>>>>>Begin Spectral Data<<<<<
179.565	4224.34
179.642	4446.08
179.718	4611.29
179.795	4764.71
179.871	4890.61
179.948	4963.79
180.024	5047.1
180.101	5137.51
180.177	5197.97
180.254	5288.18
180.33	5376.49
180.407	5688.27
180.483	6013.42
180.56	6344.78
180.636	6648.96
180.712	6603.74
180.789	6647.59
180.865	6691.61
180.942	6721.95
181.018	6765.56
181.095	6814.59
181.171	6829.48
181.248	6832.17
181.324	6893.49
181.4	6925.3
181.477	6964.84
181.553	7014.01
181.63	7089.99
181.706	7152.23
181.782	7176.48
181.859	7178.88
181.935	7195.65
182.011	7178.16
182.088	7239.83
182.164	7315.13
182.24	7373.07
182.317	7411.75
182.393	7403.92
182.469	7455.78
182.546	7507.45
182.622	7522.16
182.698	7512.16
182.775	7555.37
182.851	7605.51
182.927	7574.89
183.003	7551.53
183.08	7533.6
183.156	7569.42
183.232	7561.67
183.308	7514.52
183.385	7553.59
183.461	7616.14
183.537	7621.24
183.613	7669.65
183.69	7642.34
183.766	7596.6
183.842	7619.2
183.918	7636.22
183.995	7684.1
184.071	7699.35
184.147	7676.99
184.223	7637.74
184.299	7677.47
184.375	7635.21
184.452	7659.07
184.528	7801.29
184.604	7846.52
184.68	7888.78
184.756	7910.43
184.832	7921.59
184.908	7944.99
184.985	7937.44
185.061	7877.34
185.137	7911.24
185.213	7866.72
185.289	7869.08
185.365	7850.52
185.441	7848.07
185.517	7900.32
185.593	7885.8
185.669	7874.16
185.745	7919.46
185.822	7980.17
185.898	7951.64
185.974	7992.41
186.05	7967.29
186.126	7885.91
186.202	7856.35
186.278	7842.11
186.354	7810.94
186.43	7838.08
186.506	7827.99
186.582	7826.59
186.658	7846.2
186.734	7770.73
186.81	7782.93
186.886	7792.98
186.962	7837.17
187.038	7821.01
187.114	7789.11
187.19	7819.07
187.266	7779.27
187.341	7779.65
187.417	7754.94
187.493	7756.52
187.569	7769.56
187.645	7748.69
187.721	7707.56
187.797	7737.46
187.873	7757.14
187.949	7736.03
188.025	7710
188.101	7722.36
188.176	7749.19
188.252	7737.56
188.328	7772.1
188.404	7770.76
188.48	7754.08
188.556	7724.31
188.632	7721.86
188.707	7727
188.783	7713.68
188.859	7699.74
188.935	7655.06
189.011	7677.9
189.086	7646.75
189.162	7613.61
189.238	7602.65
189.314	7592.89
189.39	7569.48
189.465	7543.65
189.541	7606.41
189.617	7553.05
189.693	7532.67
189.768	7537.58
189.844	7627.97
189.92	7594.39
189.996	7627.76
190.071	7671.42
190.147	7669.31
190.223	7704.75
190.298	7672.62
190.374	7627.14
190.45	7673.28
190.526	7705.07
190.601	7687.04
190.677	7695.54
190.753	7796.79
190.828	7811.93
190.904	7867.29
190.98	7924.19
191.055	7955.41
191.131	7922.6
191.207	8002.18
191.282	8036.12
191.358	8002.37
191.433	7950.58
191.509	8001.05
191.585	7986.81
191.66	7984.31
191.736	8014.99
191.811	7983.63
191.887	8042.85
191.963	8126.69
192.038	8148.77
192.114	8145.21
192.189	8157.18
192.265	8149.49
192.34	8067.82
192.416	8061.81
192.491	8049.44
192.567	8060.32
192.642	8073.16
192.718	8074.66
192.793	8028.81
192.869	8017.61
192.944	8024.29
193.02	8052.49
193.095	8063.4
193.171	8094.05
193.246	8094.77
193.322	8082.69
193.397	8082.89
193.473	8035.78
193.548	7968.24
193.624	7990.18
193.699	7985.95
193.775	8046.14
193.85	8052.73
193.925	8084.91
194.001	8085.1
194.076	8050.42
194.152	8008.66
194.227	7982.01
194.302	7943.26
194.378	7955.67
194.453	7941.87
194.529	7990.45
194.604	7937.83
194.679	7913.88
194.755	7838.39
194.83	7884.45
194.905	7874.98
194.981	7905.09
195.056	7876.14
195.131	7895.71
195.207	7885.8
195.282	7857.33
195.357	7787.71
195.433	7839.22
195.508	7796.75
195.583	7821.51
195.659	7874.91
195.734	7897.72
195.809	7895.07
195.884	7929.44
195.96	7934.35
196.035	7997.06
196.11	7981.23
196.185	8017.83
196.261	8034.18
196.336	8151.21
196.411	8099.28
196.486	8126.07
196.561	8102.36
196.637	8135.49
196.712	8198.38
196.787	8208.35
196.862	8258.27
196.937	8298.96
197.013	8323.22
197.088	8358.86
197.163	8436.89
197.238	8500.26
197.313	8503.82
197.388	8554.82
197.464	8670.16
197.539	8707.74
197.614	8683.11
197.689	8728.16
197.764	8792.09
197.839	8865.96
197.914	8842.9
197.989	8926.23
198.065	8973.97
198.14	9167.96
198.215	9267.18
198.29	9313.8
198.365	9354.63
198.44	9395.26
198.515	9495.03
198.59	9551.52
198.665	9645.27
198.74	9674.75
198.815	9682.99
198.89	9769.67
198.965	9880.99
199.04	9857.73
199.115	9923.7
199.19	10079.54
199.265	10091.34
199.34	10127.47
199.415	10255.69
199.49	10332.64
199.565	10360.44
199.64	10447.3
199.715	10428.84
199.79	10454.37
199.865	10476.05
199.94	10476.97
200.015	10599.39
200.09	10620.98
200.165	10645.55
200.24	10673.65
200.315	10818.04
200.39	10868.93
200.464	10886.32
200.539	10890.66
200.614	10954.64
200.689	11033.24
200.764	11054.11
200.839	11119.86
200.914	11135.33
200.989	11090.17
201.063	11144.86
201.138	11087.55
201.213	11087.4
201.288	11017.87
201.363	11037.29
201.438	11042.49
201.512	11096.06
201.587	11025.7
201.662	11040.06
201.737	11080.16
201.812	11110.18
201.886	10995.51
201.961	11034.94
202.036	10993.08
202.111	10982.71
202.186	10872.22
202.26	10806.92
202.335	10727.32
202.41	10701.06
202.485	10636.36
202.559	10565.97
202.634	10463.54
202.709	10496.91
202.784	10425.13
202.858	10425.56
202.933	10352.39
203.008	10324.97
203.082	10253.58
203.157	10254.31
203.232	10092.99
203.306	10008.52
203.381	9890.64
203.456	9801.04
203.53	9711.21
203.605	9639.19
203.68	9548.77
203.754	9531.16
203.829	9475.81
203.904	9397.81
203.978	9356.44
204.053	9376.47
204.127	9325.82
204.202	9328.81
204.277	9257.31
204.351	9232.9
204.426	9201.59
204.5	9169.82
204.575	9037.51
204.65	9077.96
204.724	9047.42
204.799	9078.69
204.873	9069.69
204.948	9063.04
205.022	9017.18
205.097	8979.51
205.171	9029.72
205.246	9057.75
205.32	9054.67
205.395	9050.77
205.469	9019.16
205.544	9040.4
205.618	8975.5
205.693	9024.85
205.767	8975.02
205.842	9065.26
205.916	9045.47
205.991	9009.32
206.065	9037.82
206.14	9097.61
206.214	9078.39
206.289	9054.07
206.363	9102.36
206.438	9112.62
206.512	9140.11
206.586	9211.93
206.661	9247.47
206.735	9166.39
206.81	9167.26
206.884	9216.69
206.958	9165.29
207.033	9233.48
207.107	9253.76
207.181	9367.13
207.256	9340.83
207.33	9407.8
207.405	9444.62
207.479	9514.1
207.553	9539.18
207.628	9472.37
207.702	9516.72
207.776	9496.2
207.851	9503.33
207.925	9555.89
207.999	9536.14
208.073	9528.58
208.148	9536.38
208.222	9494.09
208.296	9612.75
208.371	9677.45
208.445	9721.81
208.519	9832.07
208.593	9872.48
208.668	9864.29
208.742	9876.29
208.816	9884.33
208.89	9929.33
208.965	9921.14
209.039	9945.28
209.113	10014.11
209.187	10093.77
209.261	10074.17
209.336	10148.21
209.41	10220.95
209.484	10221.63
209.558	10304.2
209.632	10357.38
209.707	10399.72
209.781	10486.1
209.855	10544.6
209.929	10602.77
210.003	10625.71
210.077	10622
210.151	10801.44
210.226	10925.05
210.3	11028.4
210.374	11118.39
210.448	11135.01
210.522	11177.04
210.596	11219.83
210.67	11252.16
210.744	11428.7
210.818	11550.3
210.892	11625.1
210.966	11609.63
211.041	11664.67
211.115	11656.53
211.189	11737.01
211.263	11796.82
211.337	11815.28
211.411	11871.04
211.485	11853.93
211.559	11893.26
211.633	11908.72
211.707	11786.24
211.781	11814.39
211.855	11677.32
211.929	11642.91
212.003	11575.6
212.077	11614.41
212.151	11654.46
212.225	11685.6
212.299	11640.62
212.373	11593.92
212.447	11570.93
212.52	11673.2
212.594	11681.25
212.668	11721.74
212.742	11665.54
212.816	11646.84
212.89	11624.57
212.964	11601.39
213.038	11608.28
213.112	11647.9
213.186	11696.53
213.26	11614.43
213.333	11434.34
213.407	11441.23
213.481	11448.17
213.555	11489.02
213.629	11428.1
213.703	11358.98
213.777	11336.81
213.85	11253.19
213.924	11373.69
213.998	11363.18
214.072	11329.39
214.146	11270.16
214.219	11245.39
214.293	11220.96
214.367	11210.11
214.441	11230.45
214.515	11180.37
214.588	11078.55
214.662	10937.89
214.736	10841.47
214.81	10854.53
214.883	10879.43
214.957	10833.37
215.031	10765.56
215.105	10656.78
215.178	10587.54
215.252	10543.55
215.326	10440.07
215.4	10343.17
215.473	10136.4
215.547	10043.31
215.621	9963.6
215.694	9957.05
215.768	9848.81
215.842	9776.47
215.915	9695
215.989	9560.17
216.063	9499.66
216.136	9470.23
216.21	9442.93
216.284	9455.84
216.357	9429.59
216.431	9374.41
216.504	9368.53
216.578	9430.91
216.652	9446.11
216.725	9415.68
216.799	9420.98
216.873	9400.28
216.946	9412.02
217.02	9368.85
217.093	9338.28
217.167	9231.2
217.24	9142
217.314	9108.07
217.387	9058.99
217.461	9019.56
217.535	9050.56
217.608	8979.12
217.682	8954.71
217.755	8967.95
217.829	8907.52
217.902	8883.93
217.976	8867.57
218.049	8811.78
218.123	8728.85
218.196	8727.64
218.27	8692.12
218.343	8615.57
218.417	8614.6
218.49	8587.89
218.563	8638.18
218.637	8643.24
218.71	8724.64
218.784	8752.76
218.857	8787.21
218.931	8807.18
219.004	8812.43
219.077	8836.46
219.151	8858.35
219.224	8847.33
219.298	8842.13
219.371	8891.77
219.444	8850.44
219.518	8863.48
219.591	8889.56
219.665	9002.32
219.738	9017.05
219.811	8999.54
219.885	9052.15
219.958	9087.69
220.031	9092.65
220.105	9119.71
220.178	9123.75
220.251	9094.23
220.325	9119.8
220.398	9139.98
220.471	9170.2
220.544	9211.47
220.618	9187.34
220.691	9220.08
220.764	9242.46
220.838	9277.52
220.911	9256.42
220.984	9359.54
221.057	9395.89
221.131	9418.66
221.204	9317.55
221.277	9395.09
221.35	9534.65
221.424	9525.4
221.497	9534.84
221.57	9562.9
221.643	9598.69
221.716	9654.95
221.79	9656.49
221.863	9664.34
221.936	9675.13
222.009	9684.71
222.082	9720.46
222.155	9728.16
222.229	9797.09
222.302	9830.42
222.375	9831.48
222.448	9874.3
222.521	9876.95
222.594	9883.93
222.667	9856.63
222.74	9911.44
222.814	9902.14
222.887	9882.14
222.96	9950.21
223.033	10004.36
223.106	10033.06
223.179	10061.59
223.252	10071.9
223.325	10115.53
223.398	10142.42
223.471	10177.24
223.544	10208.21
223.617	10220.93
223.69	10249.25
223.763	10210.75
223.837	10238.89
223.91	10276.66
223.983	10230.57
224.056	10191.6
224.129	10217.37
224.202	10282.76
224.275	10279.1
224.348	10250.2
224.42	10217.87
224.493	10155.1
224.566	10127.69
224.639	10157.46
224.712	10130.91
224.785	10120.98
224.858	10112.16
224.931	10090.1
225.004	10050.31
225.077	10055.13
225.15	9952.36
225.223	9950.33
225.296	10042.18
225.369	9978.55
225.442	9942.52
225.514	9968.43
225.587	9990.44
225.66	9998.15
225.733	9998.82
225.806	10011.2
225.879	10009.56
225.952	9975.95
226.025	10031.54
226.097	10089.66
226.17	10077.52
226.243	10009.6
226.316	10010.47
226.389	10017.41
226.461	10044
226.534	10066.54
226.607	10058.65
226.68	10150.62
226.753	10150.29
226.825	10063.83
226.898	10131.17
226.971	10143.84
227.044	10170.53
227.117	10185.75
227.189	10210.13
227.262	10250.12
227.335	10269.35
227.407	10266.89
227.48	10305.42
227.553	10319.73
227.626	10300.31
227.698	10307.58
227.771	10355.64
227.844	10335.46
227.916	10358.39
227.989	10319.75
228.062	10324.38
228.134	10421.42
228.207	10435.64
228.28	10430.63
228.352	10449.7
228.425	10458.67
228.498	10512.83
228.57	10484.69
228.643	10550.61
228.716	10552.06
228.788	10546.81
228.861	10547.43
228.934	10624.23
229.006	10638.68
229.079	10637.04
229.151	10626.68
229.224	10597.06
229.296	10632.14
229.369	10752.86
229.442	10813.05
229.514	10795.33
229.587	10845.87
229.659	10764.91
229.732	10777.35
229.804	10829
229.877	10922.4
229.949	10964.42
230.022	11020.05
230.094	11029.97
230.167	11023.61
230.239	10981.06
230.312	10970.08
230.384	11042.61
230.457	11036.63
230.529	11047.38
230.602	11051.48
230.674	11067.43
230.747	11120.85
230.819	11152.03
230.892	11023.26
230.964	11019.99
231.037	11063.53
231.109	11048.88
231.181	11094.66
231.254	11059.34
231.326	11045.99
231.399	11014.56
231.471	10983.33
231.544	10902.84
231.616	10953.34
231.688	10966.59
231.761	10955.03
231.833	10941.49
231.905	10857.2
231.978	10856.43
232.05	10843.9
232.122	10854.84
232.195	10826.79
232.267	10872.63
232.339	10855.81
232.412	10933.43
232.484	10905.33
232.556	10879.27
232.629	10962.7
232.701	10990.03
232.773	11007.85
232.846	11004.19
232.918	11017.45
232.99	11037.06
233.062	11079.71
233.135	11097.45
233.207	11056.92
233.279	11115.36
233.351	11155.74
233.424	11162.34
233.496	11143.79
233.568	11243.88
233.64	11214.83
233.713	11232.8
233.785	11232.46
233.857	11247.79
233.929	11189.48
234.001	11282.46
234.074	11359.56
234.146	11283.31
234.218	11284.85
234.29	11288.22
234.362	11275.84
234.434	11227.59
234.507	11198.15
234.579	11151.69
234.651	11136.8
234.723	11177.48
234.795	11201.43
234.867	11197.77
234.939	11269.91
235.012	11290.1
235.084	11297.72
235.156	11337.96
235.228	11329.38
235.3	11314.44
235.372	11328.9
235.444	11393.76
235.516	11300.25
235.588	11304.83
235.66	11332.11
235.732	11304.15
235.804	11520.73
235.876	11578.36
235.948	11654.08
236.02	11677.65
236.092	11696.68
236.164	11716.59
236.236	11721.12
236.308	11722.13
236.38	11766.33
236.452	11743.48
236.524	11773.31
236.596	11842.54
236.668	11886.3
236.74	11922.4
236.812	11958.26
236.884	12003.47
236.956	12028.97
237.028	12028.54
237.1	12019.81
237.172	12103.45
237.244	12194.45
237.316	12076.64
237.388	12060.78
237.46	12039.09
237.532	12112.11
237.604	12108.35
237.675	12189.72
237.747	12241.54
237.819	12242.26
237.891	12253.98
237.963	12251.71
238.035	12256.24
238.107	12140.79
238.178	12207.56
238.25	12216.91
238.322	12320.07
238.394	12280.88
238.466	12286.33
238.538	12343.83
238.609	12396.37
238.681	12340.98
238.753	12321.41
238.825	12345.37
238.897	12394.29
238.968	12487.81
239.04	12472.33
239.112	12603.44
239.184	12567.29
239.255	12571.63
239.327	12611.3
239.399	12639.21
239.471	12701.1
239.542	12744.58
239.614	12826.91
239.686	12740.67
239.758	12806.13
239.829	12771.81
239.901	12843.06
239.973	12872.61
240.044	12911.75
240.116	12925.44
240.188	12949.01
240.259	12968.15
240.331	12969.93
240.403	13011.53
240.474	12966.8
240.546	12960.82
240.618	12897.67
240.689	12904.66
240.761	12927.56
240.833	13005.89
240.904	13008.64
240.976	13008.64
241.048	13031.39
241.119	13074.39
241.191	13138.94
241.262	13214.86
241.334	13224.12
241.405	13238.49
241.477	13244.61
241.549	13259.07
241.62	13295.71
241.692	13346.08
241.763	13421.77
241.835	13446.35
241.906	13466.94
241.978	13442.78
242.049	13522.76
242.121	13604.56
242.192	13684.54
242.264	13657.64
242.335	13616.08
242.407	13666.8
242.478	13681.93
242.55	13712.45
242.621	13703.63
242.693	13709.07
242.764	13706.42
242.836	13720.55
242.907	13756.12
242.979	13788.57
243.05	13821.11
243.122	13858.32
243.193	13865.84
243.264	13794.55
243.336	13805.25
243.407	13850.99
243.479	13951.12
243.55	13980.81
243.622	14001.83
243.693	14005.4
243.764	14086
243.836	14058.86
243.907	14064.79
243.978	14074.96
244.05	14113.62
244.121	14071.78
244.192	14124.66
244.264	14075.15
244.335	14090.38
244.407	14048.59
244.478	14076.84
244.549	14077.42
244.62	14030.18
244.692	14035.38
244.763	14089.37
244.834	14081.37
244.906	14065.32
244.977	14087.2
245.048	14149
245.119	14128.27
245.191	14114.29
245.262	14049.74
245.333	14142.1
245.405	14165.77
245.476	14213.98
245.547	14235.96
245.618	14301.71
245.689	14322.87
245.761	14371.47
245.832	14388.1
245.903	14443.24
245.974	14494.15
246.045	14511.98
246.117	14618.47
246.188	14603.33
246.259	14596.87
246.33	14627
246.401	14648.02
246.473	14620.11
246.544	14616.3
246.615	14691.35
246.686	14701.76
246.757	14805.79
246.828	14796.05
246.899	14883.25
246.97	14853.51
247.042	14854.23
247.113	14914
247.184	15018.25
247.255	15028.18
247.326	15066.41
247.397	15083.09
247.468	15098.42
247.539	15120.2
247.61	15074.41
247.681	15134.09
247.752	15201.62
247.823	15188.32
247.894	15223.02
247.965	15197.14
248.037	15183.31
248.108	15123.73
248.179	15139.1
248.25	15126.81
248.321	15165.57
248.392	15116.89
248.463	15214.79
248.534	15216.09
248.605	15240.86
248.675	15216.62
248.746	15241.69
248.817	15267.14
248.888	15292.59
248.959	15220.62
249.03	15256.43
249.101	15271.67
249.172	15261.64
249.243	15185.28
249.314	15260.63
249.385	15261.64
249.456	15296.73
249.527	15291.38
249.598	15327.05
249.669	15331.39
249.739	15354.43
249.81	15375.11
249.881	15333.61
249.952	15322.52
250.023	15321.99
250.094	15268.44
250.165	15238.75
250.235	15233.64
250.306	15230.65
250.377	15198.69
250.448	15239.86
250.519	15168.52
250.59	15237.93
250.66	15243.13
250.731	15321.8
250.802	15323.11
250.873	15343.93
250.944	15370.73
251.014	15371.79
251.085	15477.25
251.156	15516.29
251.227	15569.11
251.297	15624.83
251.368	15691.25
251.439	15747.07
251.51	15807.51
251.58	15794.59
251.651	15792.04
251.722	15858.55
251.792	15816.23
251.863	15829.34
251.934	15909.98
252.005	16038.53
252.075	16047.59
252.146	16107.79
252.217	16172.72
252.287	16221.49
252.358	16238.6
252.429	16330.42
252.499	16328.44
252.57	16345.74
252.641	16401.07
252.711	16417.6
252.782	16373.99
252.852	16458.38
252.923	16457.12
252.994	16476.21
253.064	16534.43
253.135	16510.38
253.205	16484.36
253.276	16578.83
253.347	16647.7
253.417	16621.29
253.488	16608.71
253.558	16597.05
253.629	16599.65
253.699	16612.95
253.77	16652.09
253.841	16643.56
253.911	16656.81
253.982	16674.21
254.052	16707.07
254.123	16719.89
254.193	16729.48
254.264	16889.92
254.334	16855.22
254.405	16837.24
254.475	16808.33
254.546	16821.87
254.616	16904.19
254.687	16946.02
254.757	16964
254.827	16974.99
254.898	17005.26
254.968	17015.23
255.039	17012.24
255.109	17062.27
255.18	17038.08
255.25	16956.58
255.321	17006.42
255.391	16967.67
255.461	17074.18
255.532	16986.37
255.602	16985.02
255.673	16931.57
255.743	16888.49
255.813	16814.89
255.884	16863.76
255.954	16907.14
256.024	16991.24
256.095	17003.19
256.165	16963.48
256.235	16998.17
256.306	16982.94
256.376	17043.57
256.446	17089.69
256.517	17132.34
256.587	17175.76
256.657	17199.04
256.728	17232.78
256.798	17242.8
256.868	17244.39
256.938	17218.76
257.009	17279.19
257.079	17324.73
257.149	17436.59
257.219	17373.84
257.29	17430.82
257.36	17374.04
257.43	17423.05
257.5	17357.94
257.571	17356.02
257.641	17413.37
257.711	17378.48
257.781	17423.2
257.852	17442.19
257.922	17386.53
257.992	17395.73
258.062	17391.92
258.132	17448.31
258.202	17461.51
258.273	17476.7
258.343	17557.95
258.413	17535.87
258.483	17540.16
258.553	17505.85
258.623	17483.49
258.693	17530.57
258.764	17604.98
258.834	17684.5
258.904	17711.59
258.974	17700.31
259.044	17715.2
259.114	17742.19
259.184	17782.14
259.254	17794.19
259.324	17738.67
259.394	17792.07
259.464	17873.27
259.535	17898.04
259.605	17895.05
259.675	17890.14
259.745	17947.1
259.815	17932.93
259.885	17949.46
259.955	18081.94
260.025	18078.42
260.095	18086.56
260.165	18121.84
260.235	18188.1
260.305	18175.76
260.375	18139.76
260.445	18243.28
260.515	18316.67
260.585	18372.43
260.655	18379.08
260.725	18433.29
260.795	18480.38
260.865	18559.89
260.934	18532.91
261.004	18560.61
261.074	18567.6
261.144	18640.37
261.214	18673.82
261.284	18679.16
261.354	18722.97
261.424	18683.79
261.494	18761.76
261.564	18776.85
261.634	18802.77
261.703	18735.45
261.773	18770.97
261.843	18807.93
261.913	18800.8
261.983	18737.53
262.053	18767.69
