Data from 20250701_urea_2M_exp3_MAYP1162681_15-49-48-863.txt Node
Date: Tue Jul 01 15:49:48 BST 2025
User: adleo
Spectrometer: MAYP116268
Trigger mode: 0
Integration Time (sec): 4.000000E0
Scans to average: 1
Electric dark correction enabled: true
Nonlinearity correction enabled: true
Boxcar width: 10
XAxis mode: Wavelengths
Number of Pixels in Spectrum: 2068
>>>>>Begin Spectral Data<<<<<
179.565	4203.75
179.642	4430.43
179.718	4586.24
179.795	4729.87
179.871	4853.95
179.948	4929.57
180.024	5005.78
180.101	5096.09
180.177	5156.04
180.254	5245.09
180.33	5330.51
180.407	5636.97
180.483	5960.58
180.56	6289.35
180.636	6595.03
180.712	6551.78
180.789	6588.28
180.865	6632.68
180.942	6665.42
181.018	6698.75
181.095	6744.89
181.171	6759.68
181.248	6759.58
181.324	6824.6
181.4	6859.33
181.477	6899.74
181.553	6947.71
181.63	7030.16
181.706	7087.35
181.782	7113.23
181.859	7109.29
181.935	7128.03
182.011	7115.92
182.088	7175.08
182.164	7248.99
182.24	7297.08
182.317	7331.91
182.393	7326.1
182.469	7380.84
182.546	7427.17
182.622	7444.09
182.698	7426.35
182.775	7473.89
182.851	7525.13
182.927	7497.63
183.003	7474.86
183.08	7455.63
183.156	7486.59
183.232	7473.94
183.308	7429.38
183.385	7456.15
183.461	7524.99
183.537	7528.31
183.613	7573.74
183.69	7545.66
183.766	7506.56
183.842	7531.75
183.918	7548.19
183.995	7596.07
184.071	7603.05
184.147	7588.82
184.223	7552.26
184.299	7594.09
184.375	7549.53
184.452	7570.75
184.528	7709.49
184.604	7757.9
184.68	7802.41
184.756	7828.19
184.832	7845.03
184.908	7863.57
184.985	7868.57
185.061	7805.78
185.137	7844.4
185.213	7803.2
185.289	7806.94
185.365	7782.48
185.441	7782.24
185.517	7830.35
185.593	7818.56
185.669	7809.76
185.745	7853.34
185.822	7919.76
185.898	7889.79
185.974	7922.24
186.05	7889.29
186.126	7808.11
186.202	7777.58
186.278	7761.23
186.354	7729.63
186.43	7751.47
186.506	7748.49
186.582	7741.18
186.658	7765.45
186.734	7687.87
186.81	7696.61
186.886	7705.99
186.962	7750.75
187.038	7732.04
187.114	7705.87
187.19	7732.61
187.266	7697.13
187.341	7690.11
187.417	7657.51
187.493	7663.62
187.569	7682.42
187.645	7664.1
187.721	7618.55
187.797	7647.98
187.873	7666.3
187.949	7640.54
188.025	7616.72
188.101	7628.11
188.176	7649.12
188.252	7632.35
188.328	7662.28
188.404	7659.11
188.48	7640.46
188.556	7610.69
188.632	7608.09
188.707	7608.29
188.783	7596.31
188.859	7584.83
188.935	7545.97
189.011	7573.37
189.086	7550.25
189.162	7517.74
189.238	7506.59
189.314	7499.53
189.39	7477.5
189.465	7454.66
189.541	7514.33
189.617	7461.17
189.693	7441.46
189.768	7458.25
189.844	7556.24
189.92	7527.8
189.996	7564.29
190.071	7610.16
190.147	7607.23
190.223	7639.93
190.298	7615.98
190.374	7570.26
190.45	7616.54
190.526	7640.06
190.601	7620.3
190.677	7623.61
190.753	7724.76
190.828	7745.9
190.904	7801.55
190.98	7858.21
191.055	7891.3
191.131	7862.2
191.207	7935.47
191.282	7968.59
191.358	7929.07
191.433	7869.25
191.509	7921.59
191.585	7908.22
191.66	7908.89
191.736	7937.12
191.811	7902.3
191.887	7962.87
191.963	8046.66
192.038	8059.55
192.114	8064.45
192.189	8084.84
192.265	8074.17
192.34	7993.85
192.416	7985.24
192.491	7970.28
192.567	7981.35
192.642	7999.78
192.718	8001.65
192.793	7957.11
192.869	7945.38
192.944	7959.18
193.02	7994.25
193.095	8002.09
193.171	8028.26
193.246	8021.86
193.322	8016.33
193.397	8022.24
193.473	7968.79
193.548	7903.03
193.624	7923.18
193.699	7917.65
193.775	7975.35
193.85	7975.01
193.925	8004.7
194.001	8005.08
194.076	7974.06
194.152	7939.46
194.227	7904.73
194.302	7867.96
194.378	7889.07
194.453	7880.36
194.529	7923.85
194.604	7866.08
194.679	7847.85
194.755	7776.94
194.83	7824.72
194.905	7811.69
194.981	7845.36
195.056	7820.55
195.131	7844.79
195.207	7836.65
195.282	7804.15
195.357	7726.26
195.433	7785.07
195.508	7739.23
195.583	7760.96
195.659	7811.47
195.734	7830.96
195.809	7825.23
195.884	7860.61
195.96	7860.56
196.035	7916.54
196.11	7898.31
196.185	7932.79
196.261	7947.55
196.336	8063.76
196.411	8008.86
196.486	8034.78
196.561	8010.29
196.637	8040.49
196.712	8104.59
196.787	8115.04
196.862	8177.32
196.937	8220.07
197.013	8247.5
197.088	8282.37
197.163	8366.26
197.238	8435.12
197.313	8428.09
197.388	8476.69
197.464	8582.96
197.539	8618.47
197.614	8595.91
197.689	8641.33
197.764	8711.66
197.839	8784.1
197.914	8758.73
197.989	8840.26
198.065	8886.17
198.14	9076.35
198.215	9177.53
198.29	9218.09
198.365	9267.19
198.44	9303.97
198.515	9403.26
198.59	9454.55
198.665	9558.89
198.74	9587.69
198.815	9593.13
198.89	9681.49
198.965	9793.72
199.04	9783.02
199.115	9843.07
199.19	9993.41
199.265	10008.24
199.34	10045.09
199.415	10167.19
199.49	10246.5
199.565	10279.21
199.64	10366.49
199.715	10351.31
199.79	10371.64
199.865	10392.84
199.94	10387.4
200.015	10506.93
200.09	10530.74
200.165	10552.37
200.24	10573.33
200.315	10716.13
200.39	10765.28
200.464	10787.06
200.539	10794.48
200.614	10856.87
200.689	10943.42
200.764	10972.72
200.839	11040.26
200.914	11057.65
200.989	11014.51
201.063	11057.11
201.138	10999.41
201.213	10993.49
201.288	10918.47
201.363	10944.63
201.438	10944.24
201.512	11005.57
201.587	10935.69
201.662	10947.21
201.737	10986.43
201.812	11017.08
201.886	10903.53
201.961	10943.53
202.036	10899.74
202.111	10886.29
202.186	10774.65
202.26	10712.14
202.335	10628.39
202.41	10601.89
202.485	10533.83
202.559	10469.6
202.634	10379.8
202.709	10415.63
202.784	10351.46
202.858	10354.3
202.933	10276.12
203.008	10247.6
203.082	10170.62
203.157	10167.35
203.232	10005.22
203.306	9931.7
203.381	9804.91
203.456	9716.33
203.53	9629.73
203.605	9557.81
203.68	9476.35
203.754	9456.57
203.829	9396.9
203.904	9319.86
203.978	9278.49
204.053	9293.42
204.127	9239.78
204.202	9234.19
204.277	9162.51
204.351	9140.31
204.426	9112.04
204.5	9084.5
204.575	8958.37
204.65	9000.41
204.724	8969.82
204.799	9003.88
204.873	8990.78
204.948	8991.12
205.022	8945.98
205.097	8913.32
205.171	8963.72
205.246	8990.11
205.32	8982.03
205.395	8979.48
205.469	8950.13
205.544	8968.87
205.618	8908.11
205.693	8949.7
205.767	8900.75
205.842	8983.81
205.916	8957.38
205.991	8923.2
206.065	8940.1
206.14	8994.93
206.214	8972.34
206.289	8946.53
206.363	8992.12
206.438	9003.24
206.512	9035.07
206.586	9105.92
206.661	9134.96
206.735	9056.86
206.81	9058.89
206.884	9119.24
206.958	9076.5
207.033	9137.9
207.107	9163.48
207.181	9279.83
207.256	9256.05
207.33	9323.3
207.405	9368.44
207.479	9443.99
207.553	9470.61
207.628	9414.11
207.702	9460.47
207.776	9438.7
207.851	9442.99
207.925	9497.47
207.999	9479.32
208.073	9469.2
208.148	9477.15
208.222	9431.25
208.296	9548.41
208.371	9611.29
208.445	9647.79
208.519	9749.92
208.593	9795.28
208.668	9775.77
208.742	9788.83
208.816	9800.68
208.89	9853.48
208.965	9846.92
209.039	9870.87
209.113	9933.72
209.187	10010.21
209.261	9990.42
209.336	10062.62
209.41	10138.82
209.484	10137.28
209.558	10217.44
209.632	10263.97
209.707	10307.03
209.781	10392.01
209.855	10447.42
209.929	10501.55
210.003	10521.59
210.077	10518.94
210.151	10692.06
210.226	10826.42
210.3	10919.64
210.374	10997.63
210.448	11014.3
210.522	11052.33
210.596	11094.25
210.67	11124.47
210.744	11299.93
210.818	11430.49
210.892	11506.64
210.966	11489.58
211.041	11549.15
211.115	11535.56
211.189	11621.97
211.263	11681.97
211.337	11697.87
211.411	11745.73
211.485	11724.86
211.559	11764.47
211.633	11772.09
211.707	11658.42
211.781	11679.44
211.855	11540.11
211.929	11515.53
212.003	11442.06
212.077	11478.65
212.151	11513.45
212.225	11542.94
212.299	11490.02
212.373	11435.85
212.447	11412.13
212.52	11515.13
212.594	11518.98
212.668	11561.34
212.742	11503.22
212.816	11476.23
212.89	11458.16
212.964	11446.63
213.038	11450.64
213.112	11495.75
213.186	11546.78
213.26	11461.8
213.333	11287.4
213.407	11302.96
213.481	11305.85
213.555	11348.1
213.629	11290.5
213.703	11223.17
213.777	11214.78
213.85	11135.07
213.924	11248.48
213.998	11240.34
214.072	11203.75
214.146	11146.69
214.219	11124.62
214.293	11102.93
214.367	11097
214.441	11120.91
214.515	11069.29
214.588	10971.13
214.662	10825.81
214.736	10736.38
214.81	10747.99
214.883	10766.67
214.957	10716.92
215.031	10655.27
215.105	10552.51
215.178	10487.46
215.252	10444.1
215.326	10330.12
215.4	10244.06
215.473	10042.56
215.547	9947.21
215.621	9872.18
215.694	9866.44
215.768	9756.38
215.842	9680.91
215.915	9604.89
215.989	9471.13
216.063	9406.04
216.136	9381.62
216.21	9358.03
216.284	9373.88
216.357	9342.15
216.431	9291.3
216.504	9280.8
216.578	9344.04
216.652	9357.47
216.725	9323.08
216.799	9330.74
216.873	9310.19
216.946	9320.01
217.02	9278.29
217.093	9244.73
217.167	9139.39
217.24	9046.78
217.314	9010.02
217.387	8957.1
217.461	8900.58
217.535	8926.96
217.608	8861.35
217.682	8831.12
217.755	8843.58
217.829	8771.99
217.902	8760.87
217.976	8740.51
218.049	8693
218.123	8605.7
218.196	8595.98
218.27	8562.33
218.343	8487.61
218.417	8484.67
218.49	8456.13
218.563	8506.37
218.637	8512.96
218.71	8590.61
218.784	8621.99
218.857	8661.6
218.931	8686.99
219.004	8701.96
219.077	8725.36
219.151	8746.39
219.224	8735.66
219.298	8728.96
219.371	8781.83
219.444	8735.49
219.518	8752.19
219.591	8771.63
219.665	8883.46
219.738	8904.35
219.811	8885.59
219.885	8928.96
219.958	8965.64
220.031	8971.37
220.105	8996.5
220.178	9005.12
220.251	8981.09
220.325	9006.37
220.398	9022.98
220.471	9053.88
220.544	9095.77
220.618	9073.9
220.691	9102.21
220.764	9128.78
220.838	9160.51
220.911	9142.69
220.984	9242
221.057	9280.95
221.131	9303.91
221.204	9208.25
221.277	9280.1
221.35	9413.91
221.424	9407.99
221.497	9422.1
221.57	9452.9
221.643	9491.87
221.716	9550.78
221.79	9555.01
221.863	9567.73
221.936	9578.85
222.009	9588.72
222.082	9624.13
222.155	9633.37
222.229	9704.23
222.302	9738.08
222.375	9747.38
222.448	9793.28
222.521	9795.3
222.594	9796.46
222.667	9771.43
222.74	9827.58
222.814	9828.45
222.887	9812.74
222.96	9871.55
223.033	9923.1
223.106	9950.21
223.179	9982.4
223.252	9992.27
223.325	10028.88
223.398	10042.46
223.471	10078.25
223.544	10112.2
223.617	10121.88
223.69	10147.31
223.763	10109.73
223.837	10131.75
223.91	10165.13
223.983	10112.78
224.056	10079.07
224.129	10112.26
224.202	10178.99
224.275	10167.09
224.348	10134.77
224.42	10100.9
224.493	10038.19
224.566	10006.39
224.639	10022.91
224.712	9988.61
224.785	9974.68
224.858	9961
224.931	9941.93
225.004	9896.22
225.077	9892.37
225.15	9796.06
225.223	9804.53
225.296	9891.99
225.369	9828.71
225.442	9796.38
225.514	9819.74
225.587	9839.92
225.66	9845.51
225.733	9844.45
225.806	9849.79
225.879	9840.3
225.952	9807.85
226.025	9863.62
226.097	9922.22
226.17	9917.16
226.243	9850.51
226.316	9844.97
226.389	9859.37
226.461	9887.55
226.534	9906.57
226.607	9893.18
226.68	9984.58
226.753	9973.4
226.825	9881.27
226.898	9957.71
226.971	9963.68
227.044	9989.74
227.117	10001.2
227.189	10018.41
227.262	10065.77
227.335	10093.61
227.407	10090.29
227.48	10123.95
227.553	10139.32
227.626	10119.18
227.698	10128.23
227.771	10174.07
227.844	10157.55
227.916	10170.56
227.989	10134.91
228.062	10145.27
228.134	10247.22
228.207	10247.12
228.28	10240.66
228.352	10262.39
228.425	10263.64
228.498	10312.11
228.57	10290.97
228.643	10365.03
228.716	10368.4
228.788	10356.98
228.861	10353.94
228.934	10431.26
229.006	10448.27
229.079	10450.53
229.151	10442.2
229.224	10409.01
229.296	10439.36
229.369	10555.35
229.442	10614.91
229.514	10591.03
229.587	10638
229.659	10554.83
229.732	10577.34
229.804	10625.18
229.877	10709.22
229.949	10743.34
230.022	10797.37
230.094	10802.86
230.167	10783.68
230.239	10738.73
230.312	10722.78
230.384	10801.09
230.457	10795.36
230.529	10799.55
230.602	10806.3
230.674	10819.36
230.747	10869.31
230.819	10899.37
230.892	10772.26
230.964	10774.38
231.037	10809.87
231.109	10797.39
231.181	10842.49
231.254	10802.88
231.326	10788.14
231.399	10767.37
231.471	10741.25
231.544	10663.17
231.616	10707.5
231.688	10716.07
231.761	10702.88
231.833	10695.02
231.905	10600.43
231.978	10596.91
232.05	10588
232.122	10598.26
232.195	10566.41
232.267	10607.27
232.339	10584.19
232.412	10662.53
232.484	10636.26
232.556	10612.08
232.629	10690.98
232.701	10712.62
232.773	10735.11
232.846	10724.66
232.918	10732.9
232.99	10757.09
233.062	10802.15
233.135	10827.98
233.207	10790.78
233.279	10844.4
233.351	10879.23
233.424	10887.76
233.496	10865.74
233.568	10961.3
233.64	10920.92
233.713	10944.44
233.785	10942.32
233.857	10964
233.929	10903.77
234.001	10980.84
234.074	11054.07
234.146	10979.85
234.218	10986.94
234.29	10979.08
234.362	10979.95
234.434	10928
234.507	10889.83
234.579	10838.17
234.651	10814.95
234.723	10855.81
234.795	10882.22
234.867	10876
234.939	10947.08
235.012	10967.85
235.084	10977.97
235.156	11026.3
235.228	11013.15
235.3	11003.32
235.372	11018.5
235.444	11086.15
235.516	10995.1
235.588	11010.62
235.66	11034.67
235.732	10998.77
235.804	11223.24
235.876	11270.7
235.948	11348.97
236.02	11370.6
236.092	11391.56
236.164	11407.42
236.236	11402.21
236.308	11402.45
236.38	11442.7
236.452	11424.38
236.524	11451.08
236.596	11510.37
236.668	11547.24
236.74	11574.76
236.812	11604.59
236.884	11645.08
236.956	11668.84
237.028	11672.41
237.1	11650.58
237.172	11727.84
237.244	11818.64
237.316	11692.63
237.388	11673.45
237.46	11651.76
237.532	11714.18
237.604	11704.11
237.675	11791.88
237.747	11853.77
237.819	11844.61
237.891	11848.66
237.963	11835.7
238.035	11838.69
238.107	11724.45
238.178	11792.47
238.25	11806.88
238.322	11909.5
238.394	11860.24
238.466	11862.07
238.538	11912.1
238.609	11966.76
238.681	11913.06
238.753	11890.69
238.825	11916.96
238.897	11958.41
238.968	12056.36
239.04	12054.87
239.112	12189.44
239.184	12143.12
239.255	12145.33
239.327	12188.52
239.399	12215.12
239.471	12274.75
239.542	12320.44
239.614	12400.31
239.686	12315.47
239.758	12376.93
239.829	12340.44
239.901	12419.34
239.973	12440.07
240.044	12475.74
240.116	12495.65
240.188	12522.25
240.259	12542.45
240.331	12537.1
240.403	12580.58
240.474	12527.55
240.546	12515.02
240.618	12449.17
240.689	12455
240.761	12469.85
240.833	12547.85
240.904	12556.28
240.976	12565.15
241.048	12589.3
241.119	12636.45
241.191	12693.76
241.262	12772
241.334	12778.03
241.405	12789.5
241.477	12797.89
241.549	12818.95
241.62	12849.27
241.692	12893.91
241.763	12972.87
241.835	12995.77
241.906	13022.29
241.978	12992.45
242.049	13068.95
242.121	13143.28
242.192	13226.68
242.264	13199.3
242.335	13147.57
242.407	13204.41
242.478	13211.97
242.55	13236.8
242.621	13218.67
242.693	13220.6
242.764	13208.6
242.836	13219.59
242.907	13258.25
242.979	13293.3
243.05	13320.1
243.122	13352.74
243.193	13360.16
243.264	13278.93
243.336	13290.89
243.407	13331.38
243.479	13426.2
243.55	13452.09
243.622	13461.92
243.693	13460.81
243.764	13538.76
243.836	13519.87
243.907	13506.56
243.978	13512.2
244.05	13544.36
244.121	13500.44
244.192	13551.01
244.264	13507.19
244.335	13524.88
244.407	13474.51
244.478	13494.99
244.549	13495.57
244.62	13448.96
244.692	13452.09
244.763	13506.27
244.834	13500.1
244.906	13480.1
244.977	13501.74
245.048	13564.79
245.119	13551.39
245.191	13537.03
245.262	13478.55
245.333	13567.49
245.405	13595.55
245.476	13637.39
245.547	13664
245.618	13737.47
245.689	13755.45
245.761	13796.23
245.832	13806.79
245.903	13863.48
245.974	13904.98
246.045	13920.94
246.117	14014.27
246.188	13999.42
246.259	13989.29
246.33	14017.88
246.401	14036.92
246.473	14007.28
246.544	13990.79
246.615	14064.64
246.686	14068.21
246.757	14158.6
246.828	14140.57
246.899	14220.97
246.97	14197.3
247.042	14196.1
247.113	14243.29
247.184	14351.31
247.255	14350.39
247.326	14393.05
247.397	14404.67
247.468	14421.3
247.539	14444.73
247.61	14410.07
247.681	14471.97
247.752	14546.01
247.823	14519.16
247.894	14539.65
247.965	14514.29
248.037	14509.57
248.108	14451.96
248.179	14464.3
248.25	14453.7
248.321	14485.37
248.392	14435.38
248.463	14528.85
248.534	14515.74
248.605	14534.3
248.675	14500.22
248.746	14528.86
248.817	14548.52
248.888	14575.9
248.959	14515.5
249.03	14537.77
249.101	14544.23
249.172	14528.95
249.243	14440.01
249.314	14516.37
249.385	14526.97
249.456	14560.19
249.527	14548.62
249.598	14580.82
249.669	14586.46
249.739	14604.44
249.81	14629.94
249.881	14594.03
249.952	14577.35
250.023	14582.56
250.094	14531.41
250.165	14503.07
250.235	14499.6
250.306	14499.65
250.377	14463.45
250.448	14492.27
250.519	14427.82
250.59	14497.04
250.66	14491.98
250.731	14573.88
250.802	14568.29
250.873	14596.73
250.944	14627.87
251.014	14628.21
251.085	14723.65
251.156	14755.94
251.227	14814.36
251.297	14869.12
251.368	14926.1
251.439	14974.59
251.51	15040.53
251.58	15035.62
251.651	15027.71
251.722	15094.52
251.792	15052.44
251.863	15064.92
251.934	15139.3
252.005	15264.67
252.075	15275.18
252.146	15336.88
252.217	15398
252.287	15453.24
252.358	15459.89
252.429	15543.33
252.499	15536.1
252.57	15555.47
252.641	15615.96
252.711	15632.35
252.782	15591.77
252.852	15680.4
252.923	15688.12
252.994	15703.2
253.064	15758.93
253.135	15747.21
253.205	15725.09
253.276	15809.3
253.347	15887.43
253.417	15868.97
253.488	15849.84
253.558	15838.56
253.629	15837.79
253.699	15851.04
253.77	15880.68
253.841	15873.21
253.911	15888.73
253.982	15915.34
254.052	15950.57
254.123	15959
254.193	15959.82
254.264	16107.54
254.334	16061.66
254.405	16030.52
254.475	15996.54
254.546	16012.06
254.616	16076.85
254.687	16111.31
254.757	16137.43
254.827	16134.88
254.898	16161.63
254.968	16175.61
255.039	16162.21
255.109	16207.51
255.18	16183.75
255.25	16110.92
255.321	16155.94
255.391	16108.23
255.461	16197.88
255.532	16109.77
255.602	16100.52
255.673	16039.31
255.743	16004.13
255.813	15944.07
255.884	15994.97
255.954	16035.21
256.024	16099.36
256.095	16116.42
256.165	16076.56
256.235	16103.12
256.306	16084.61
256.376	16138.93
256.446	16186.25
256.517	16226.21
256.587	16274.31
256.657	16297.78
256.728	16323.04
256.798	16334.03
256.868	16337.02
256.938	16308.58
257.009	16357.55
257.079	16402.95
257.149	16521.57
257.219	16450
257.29	16492.42
257.36	16444.22
257.43	16493.04
257.5	16427.92
257.571	16425.08
257.641	16473.67
257.711	16432.22
257.781	16475.69
257.852	16494.78
257.922	16429.42
257.992	16435.98
258.062	16436.94
258.132	16487.11
258.202	16502.68
258.273	16522.92
258.343	16611.46
258.413	16607.94
258.483	16621.48
258.553	16585
258.623	16560.51
258.693	16605.87
258.764	16681.34
258.834	16762.65
258.904	16781.3
258.974	16784.68
259.044	16796.82
259.114	16835.19
259.184	16876.1
259.254	16888.01
259.324	16833.31
259.394	16889.84
259.464	16975.39
259.535	16985.12
259.605	16979.82
259.675	16979.34
259.745	17015.68
259.815	16988.06
259.885	16983.68
259.955	17107.86
260.025	17109.45
260.095	17121.98
260.165	17161.6
260.235	17241.26
260.305	17221.31
260.375	17194.61
260.445	17286.42
260.515	17356.68
260.585	17414.76
260.655	17418.66
260.725	17468.25
260.795	17517.6
260.865	17602.13
260.934	17574.9
261.004	17606.13
261.074	17611.38
261.144	17671.43
261.214	17712.35
261.284	17719.29
261.354	17768.01
261.424	17723.87
261.494	17802.53
261.564	17811.97
261.634	17835.25
261.703	17746.67
261.773	17776.07
261.843	17808.94
261.913	17802.91
261.983	17742.82
262.053	17760.99
262.123	17764.31
262.192	17725.23
262.262	17764.31
