Data from 20250701_urea_2M_exp3_MAYP1162681_01-29-50-049.txt Node
Date: Wed Jul 02 01:29:50 BST 2025
User: adleo
Spectrometer: MAYP116268
Trigger mode: 0
Integration Time (sec): 4.000000E0
Scans to average: 1
Electric dark correction enabled: true
Nonlinearity correction enabled: true
Boxcar width: 10
XAxis mode: Wavelengths
Number of Pixels in Spectrum: 2068
>>>>>Begin Spectral Data<<<<<
179.565	3707.78
179.642	3904.25
179.718	4059.41
179.795	4189.95
179.871	4300.88
179.948	4362.7
180.024	4435.54
180.101	4509.36
180.177	4560.4
180.254	4641
180.33	4720.05
180.407	4990.18
180.483	5279.81
180.56	5572.99
180.636	5840.48
180.712	5800.25
180.789	5838.3
180.865	5879.09
180.942	5908.83
181.018	5945.71
181.095	5992.95
181.171	6009.74
181.248	6009.79
181.324	6054.34
181.4	6081.6
181.477	6120.42
181.553	6165.6
181.63	6232.08
181.706	6291.7
181.782	6315.1
181.859	6312.84
181.935	6332.53
182.011	6316.97
182.088	6371.61
182.164	6438.1
182.24	6485.89
182.317	6517.56
182.393	6505.61
182.469	6555.59
182.546	6600.39
182.622	6614.93
182.698	6599.47
182.775	6647.35
182.851	6694.26
182.927	6672.03
183.003	6657.87
183.08	6636.12
183.156	6668.15
183.232	6661.9
183.308	6617.44
183.385	6650.51
183.461	6709.25
183.537	6706.75
183.613	6748.72
183.69	6719.57
183.766	6679.01
183.842	6702.31
183.918	6721.95
183.995	6768
184.071	6772.13
184.147	6753.78
184.223	6716.93
184.299	6756.03
184.375	6709.36
184.452	6732.28
184.528	6866.15
184.604	6905.28
184.68	6945.14
184.756	6968.45
184.832	6980.22
184.908	7000.71
184.985	6994.23
185.061	6943.17
185.137	6973.54
185.213	6936.94
185.289	6939.53
185.365	6918.69
185.441	6912.3
185.517	6954.46
185.593	6941.73
185.669	6934.09
185.745	6970.8
185.822	7031.09
185.898	7003.9
185.974	7040.63
186.05	7014.44
186.126	6938.61
186.202	6912.29
186.278	6901.96
186.354	6868.61
186.43	6894.71
186.506	6892.07
186.582	6891.11
186.658	6908.25
186.734	6839.3
186.81	6849.33
186.886	6857.07
186.962	6896.21
187.038	6882.66
187.114	6858.96
187.19	6886.49
187.266	6859.84
187.341	6857.1
187.417	6830.39
187.493	6832.22
187.569	6840.77
187.645	6818.92
187.721	6775.09
187.797	6805.49
187.873	6820.34
187.949	6806.8
188.025	6782.19
188.101	6792.18
188.176	6812.78
188.252	6798.18
188.328	6825.1
188.404	6825.82
188.48	6812.96
188.556	6792.2
188.632	6793.88
188.707	6792.01
188.783	6788.41
188.859	6775.11
188.935	6738.98
189.011	6760.31
189.086	6736.78
189.162	6708.34
189.238	6701.86
189.314	6694.42
189.39	6666.18
189.465	6642.44
189.541	6694.96
189.617	6643.43
189.693	6621.97
189.768	6634.56
189.844	6717.36
189.92	6694.71
189.996	6718.77
190.071	6758.35
190.147	6750.33
190.223	6780.65
190.298	6759.85
190.374	6708.12
190.45	6747.54
190.526	6775.64
190.601	6762.91
190.677	6767.95
190.753	6864.96
190.828	6875.86
190.904	6930.98
190.98	6990.56
191.055	7023.18
191.131	6990.89
191.207	7063.23
191.282	7096.84
191.358	7065.76
191.433	7018.21
191.509	7063.14
191.585	7061.65
191.66	7062.37
191.736	7093.4
191.811	7062.94
191.887	7119.38
191.963	7201.01
192.038	7218.31
192.114	7223.93
192.189	7237.29
192.265	7224.18
192.34	7154.11
192.416	7156.52
192.491	7137.62
192.567	7137.43
192.642	7147.19
192.718	7155.31
192.793	7111.72
192.869	7098.95
192.944	7108.41
193.02	7133.45
193.095	7147.82
193.171	7155.94
193.246	7154.69
193.322	7147.86
193.397	7150.55
193.473	7092.1
193.548	7028.04
193.624	7043.18
193.699	7035.49
193.775	7086.79
193.85	7095.52
193.925	7115.57
194.001	7109.95
194.076	7083.19
194.152	7049.73
194.227	7020.9
194.302	6982.1
194.378	6998.52
194.453	6987.72
194.529	7031.98
194.604	6985.42
194.679	6964.47
194.755	6904.26
194.83	6944.6
194.905	6936.72
194.981	6965.74
195.056	6950.66
195.131	6971.41
195.207	6964.3
195.282	6933.61
195.357	6868.62
195.433	6919.4
195.508	6883.65
195.583	6910.16
195.659	6956.06
195.734	6980.66
195.809	6979.56
195.884	7010.67
195.96	7011.34
196.035	7061.36
196.11	7038.57
196.185	7077.58
196.261	7084.79
196.336	7195.4
196.411	7151.98
196.486	7167.5
196.561	7146.64
196.637	7174.5
196.712	7228.93
196.787	7240.27
196.862	7294.28
196.937	7329.98
197.013	7345.32
197.088	7376.84
197.163	7445.32
197.238	7508.21
197.313	7511.33
197.388	7556.27
197.464	7658.42
197.539	7693.27
197.614	7671.84
197.689	7721.27
197.764	7776.58
197.839	7846.73
197.914	7820.09
197.989	7891.99
198.065	7937.09
198.14	8108.99
198.215	8202.93
198.29	8247.55
198.365	8286.61
198.44	8316.28
198.515	8404.19
198.59	8461.54
198.665	8553.06
198.74	8583.96
198.815	8586.75
198.89	8663.69
198.965	8770.99
199.04	8760.26
199.115	8819.58
199.19	8966.83
199.265	8970.2
199.34	9001.1
199.415	9115.28
199.49	9196.27
199.565	9227.08
199.64	9310.8
199.715	9297.89
199.79	9312.09
199.865	9330
199.94	9332.17
200.015	9439.79
200.09	9465.17
200.165	9481.82
200.24	9495.69
200.315	9628.09
200.39	9679.53
200.464	9692.58
200.539	9691.76
200.614	9739.72
200.689	9813.6
200.764	9836.1
200.839	9898.01
200.914	9914.33
200.989	9877.23
201.063	9919.86
201.138	9861.19
201.213	9861.05
201.288	9792.9
201.363	9811.49
201.438	9811.39
201.512	9860.98
201.587	9802.6
201.662	9809.44
201.737	9855.06
201.812	9884.25
201.886	9773.23
201.961	9798.62
202.036	9764.68
202.111	9756.01
202.186	9660.8
202.26	9598.57
202.335	9527.96
202.41	9504.6
202.485	9449.05
202.559	9380.97
202.634	9291.16
202.709	9321.58
202.784	9250.32
202.858	9252.73
202.933	9190.67
203.008	9161.45
203.082	9091.75
203.157	9091.79
203.232	8949.8
203.306	8872.42
203.381	8764.62
203.456	8687.32
203.53	8613.72
203.605	8543.54
203.68	8461.65
203.754	8439.73
203.829	8390.69
203.904	8313.27
203.978	8274.29
204.053	8280.5
204.127	8237.92
204.202	8234.27
204.277	8174.19
204.351	8157.2
204.426	8134.15
204.5	8107.5
204.575	7993.88
204.65	8036.76
204.724	8007.88
204.799	8032.39
204.873	8021.37
204.948	8018.58
205.022	7975.26
205.097	7942.97
205.171	7986.34
205.246	8019.21
205.32	8016.57
205.395	8016.76
205.469	7990.09
205.544	8010.54
205.618	7955.18
205.693	7997.61
205.767	7952.21
205.842	8023.6
205.916	8001
205.991	7966.51
206.065	7980.26
206.14	8035.62
206.214	8012.9
206.289	7986.82
206.363	8032.51
206.438	8041.46
206.512	8064.22
206.586	8132.51
206.661	8159.17
206.735	8089.32
206.81	8088.94
206.884	8138.03
206.958	8094.03
207.033	8152.93
207.107	8173
207.181	8282.28
207.256	8254.96
207.33	8317.54
207.405	8363.33
207.479	8430.4
207.553	8453.24
207.628	8404.06
207.702	8444.22
207.776	8420.98
207.851	8430.22
207.925	8476.43
207.999	8464.79
208.073	8456.94
208.148	8468.11
208.222	8432.74
208.296	8536.95
208.371	8586.01
208.445	8621.58
208.519	8719.39
208.593	8755.58
208.668	8741.09
208.742	8752.07
208.816	8760.49
208.89	8809.17
208.965	8793.37
209.039	8826.02
209.113	8881.95
209.187	8947.64
209.261	8933.01
209.336	8996.98
209.41	9066.88
209.484	9070.54
209.558	9149.11
209.632	9203.22
209.707	9236.19
209.781	9310.53
209.855	9369.76
209.929	9430.23
210.003	9454.26
210.077	9451.7
210.151	9623.18
210.226	9739.75
210.3	9823.84
210.374	9908.32
210.448	9924.56
210.522	9969.79
210.596	9998.84
210.67	10034.86
210.744	10197.29
210.818	10307.51
210.892	10379.53
210.966	10360.75
211.041	10409.5
211.115	10390.18
211.189	10459.74
211.263	10517.55
211.337	10532.63
211.411	10581.58
211.485	10558.02
211.559	10594.53
211.633	10603
211.707	10486.81
211.781	10510.82
211.855	10392.73
211.929	10361.19
212.003	10292.91
212.077	10319.75
212.151	10354.15
212.225	10384.02
212.299	10344.74
212.373	10293.73
212.447	10277.54
212.52	10371.34
212.594	10380.25
212.668	10414.99
212.742	10369.6
212.816	10347.29
212.89	10326.63
212.964	10311.35
213.038	10318.24
213.112	10364.55
213.186	10406.89
213.26	10327.59
213.333	10164.69
213.407	10178.84
213.481	10175.09
213.555	10213.41
213.629	10162.53
213.703	10098.31
213.777	10081.01
213.85	10004.41
213.924	10118.65
213.998	10109.83
214.072	10078.7
214.146	10021.33
214.219	10004.08
214.293	9979.95
214.367	9970.94
214.441	9998.64
214.515	9950.37
214.588	9861.11
214.662	9718.6
214.736	9637.65
214.81	9657.34
214.883	9680.1
214.957	9631.43
215.031	9581.14
215.105	9483.9
215.178	9419.61
215.252	9382.63
215.326	9278.39
215.4	9193.6
215.473	9007.36
215.547	8923.57
215.621	8854.3
215.694	8849.39
215.768	8750.03
215.842	8683.42
215.915	8612.93
215.989	8490.42
216.063	8430.23
216.136	8407.57
216.21	8385.29
216.284	8395.69
216.357	8368.64
216.431	8324.18
216.504	8311.58
216.578	8366.93
216.652	8376.78
216.725	8355.08
216.799	8365.29
216.873	8349.56
216.946	8357.16
217.02	8322.54
217.093	8290.93
217.167	8191.11
217.24	8112.14
217.314	8077.14
217.387	8027.67
217.461	7977.99
217.535	8005.02
217.608	7946.24
217.682	7914.01
217.755	7924.3
217.829	7862.63
217.902	7842.52
217.976	7824.54
218.049	7777.12
218.123	7702.44
218.196	7700.08
218.27	7664.69
218.343	7591.03
218.417	7585.88
218.49	7561.65
218.563	7599.05
218.637	7604.1
218.71	7671.48
218.784	7695.29
218.857	7726.73
218.931	7749.36
219.004	7763.84
219.077	7780.68
219.151	7791.88
219.224	7783.8
219.298	7783.9
219.371	7830.9
219.444	7789.41
219.518	7790.76
219.591	7814.12
219.665	7915.87
219.738	7932.32
219.811	7913.19
219.885	7957.2
219.958	7991.64
220.031	7999
220.105	8024.4
220.178	8027.62
220.251	8006.26
220.325	8029.12
220.398	8048.16
220.471	8072.11
220.544	8106.55
220.618	8083.94
220.691	8112.51
220.764	8133.43
220.838	8156.47
220.911	8138.09
220.984	8224.03
221.057	8265.88
221.131	8286.8
221.204	8184.28
221.277	8253.2
221.35	8378.05
221.424	8370.98
221.497	8381.18
221.57	8404.65
221.643	8438.63
221.716	8490.42
221.79	8498.84
221.863	8509.24
221.936	8518.86
222.009	8528.48
222.082	8555.58
222.155	8559.86
222.229	8626.82
222.302	8657.86
222.375	8663.54
222.448	8711.09
222.521	8716.53
222.594	8715.9
222.667	8686.18
222.74	8741.75
222.814	8732.65
222.887	8709.63
222.96	8763.49
223.033	8810.58
223.106	8837.77
223.179	8865.65
223.252	8873.55
223.325	8905.12
223.398	8918.07
223.471	8949.35
223.544	8974.28
223.617	8992.29
223.69	9018.47
223.763	8983.12
223.837	9006.86
223.91	9032.56
223.983	8977.7
224.056	8941.8
224.129	8968.9
224.202	9034.57
224.275	9030.38
224.348	8999.52
224.42	8970.21
224.493	8904.51
224.566	8874.85
224.639	8895.02
224.712	8861.98
224.785	8847.15
224.858	8835.65
224.931	8819.9
225.004	8778.08
225.077	8775
225.15	8677.9
225.223	8677.32
225.296	8752.4
225.369	8692.44
225.442	8662.89
225.514	8685.79
225.587	8712.16
225.66	8713.41
225.733	8709.94
225.806	8714.95
225.879	8708.79
225.952	8680.4
226.025	8736.85
226.097	8792.34
226.17	8774.67
226.243	8715.72
226.316	8710.67
226.389	8711.87
226.461	8731.18
226.534	8753.21
226.607	8744.07
226.68	8830.53
226.753	8816.43
226.825	8733.65
226.898	8791.44
226.971	8799.91
227.044	8817.77
227.117	8820.8
227.189	8844.49
227.262	8878.15
227.335	8897.16
227.407	8894.71
227.48	8924.78
227.553	8937.16
227.626	8910.47
227.698	8923.08
227.771	8965.18
227.844	8948.53
227.916	8964.75
227.989	8927.2
228.062	8921.96
228.134	9007.66
228.207	9004.44
228.28	9003.62
228.352	9013.24
228.425	9027.74
228.498	9072.76
228.57	9048.98
228.643	9105.9
228.716	9102.48
228.788	9088.71
228.861	9082.54
228.934	9146.04
229.006	9157.98
229.079	9155.57
229.151	9145.36
229.224	9111
229.296	9129.53
229.369	9224.26
229.442	9275.89
229.514	9256.26
229.587	9303.25
229.659	9230.82
229.732	9245.56
229.804	9286.86
229.877	9373.03
229.949	9403.71
230.022	9453.18
230.094	9455.73
230.167	9441.91
230.239	9394.44
230.312	9384
230.384	9451.91
230.457	9449.31
230.529	9452.68
230.602	9454.8
230.674	9463.04
230.747	9506.3
230.819	9539.67
230.892	9431.28
230.964	9432.1
231.037	9463.37
231.109	9451.48
231.181	9488.16
231.254	9455.28
231.326	9440.84
231.399	9414.14
231.471	9383.32
231.544	9297.78
231.616	9345.68
231.688	9354.73
231.761	9346.02
231.833	9339.96
231.905	9255.48
231.978	9247.53
232.05	9233.67
232.122	9240.27
232.195	9217.59
232.267	9254
232.339	9231.79
232.412	9293.8
232.484	9262.63
232.556	9236.65
232.629	9306.59
232.701	9324.65
232.773	9338.08
232.846	9330.33
232.918	9338.76
232.99	9353.6
233.062	9402.04
233.135	9410.47
233.207	9375.75
233.279	9421.28
233.351	9451.95
233.424	9459.36
233.496	9440.63
233.568	9525.87
233.64	9488.27
233.713	9504.88
233.785	9501.08
233.857	9520.34
233.929	9472.53
234.001	9537.66
234.074	9604.09
234.146	9531.79
234.218	9523.89
234.29	9526.88
234.362	9515.71
234.434	9464.61
234.507	9423.97
234.579	9368.88
234.651	9349.04
234.723	9384.53
234.795	9403.17
234.867	9390.65
234.939	9450.61
235.012	9466.06
235.084	9466.21
235.156	9498.9
235.228	9478.19
235.3	9455.85
235.372	9457.92
235.444	9518.78
235.516	9443.44
235.588	9454.85
235.66	9469.3
235.732	9446.96
235.804	9465.4
235.876	9514.03
235.948	9579.87
236.02	9597.74
236.092	9613.28
236.164	9624.31
236.236	9620.46
236.308	9618.43
236.38	9641.5
236.452	9618.43
236.524	9635.81
236.596	9705.11
236.668	9742.73
236.74	9770.37
236.812	9802.64
236.884	9837.42
236.956	9845.08
237.028	9842.39
237.1	9826.69
237.172	9902.42
237.244	9981.08
237.316	10036.05
237.388	10016.59
237.46	9988.17
237.532	10055.85
237.604	10052.23
237.675	10133.03
237.747	10178.89
237.819	10172.15
237.891	10186.31
237.963	10182.41
238.035	10183.13
238.107	10067.49
238.178	10130.04
238.25	10137.65
238.322	10226.17
238.394	10178.63
238.466	10179.06
238.538	10224.67
238.609	10264.84
238.681	10200.76
238.753	10179.37
238.825	10205.15
238.897	10236.7
238.968	10320.74
239.04	10301.27
239.112	10414.43
239.184	10366.68
239.255	10367.26
239.327	10393.8
239.399	10417.84
239.471	10460.81
239.542	10498
239.614	10570.26
239.686	10482.37
239.758	10539.18
239.829	10504.28
239.901	10575.25
239.973	10589.55
240.044	10620.44
240.116	10629.74
240.188	10650.21
240.259	10664.09
240.331	10649.05
240.403	10690.82
240.474	10644.41
240.546	10629.48
240.618	10562.31
240.689	10572.14
240.761	10586.11
240.833	10671.6
240.904	10672.7
240.976	10675.69
241.048	10690.48
241.119	10726.92
241.191	10777.31
241.262	10837.95
241.334	10843.68
241.405	10844.88
241.477	10853.99
241.549	10859.39
241.62	10882.95
241.692	10933.6
241.763	10999.57
241.835	11017.5
241.906	11030.13
241.978	10997.84
242.049	11065.88
242.121	11132.71
242.192	11201.63
242.264	11168.19
242.335	11104.48
242.407	11149.01
242.478	11150.98
242.55	11170.84
242.621	11154.4
242.693	11154.64
242.764	11140.28
242.836	11142.88
242.907	11169.82
242.979	11197.43
243.05	11221.09
243.122	11250.25
243.193	11241.34
243.264	11168.08
243.336	11174.54
243.407	11212.13
243.479	11297.86
243.55	11323.07
243.622	11337.87
243.693	11328.33
243.764	11396.66
243.836	11378.02
243.907	11361.97
243.978	11367.89
244.05	11392.96
244.121	11346.31
244.192	11382.26
244.264	11339.94
244.335	11357.49
244.407	11316.09
244.478	11335.46
244.549	11323.37
244.62	11279.27
244.692	11285.73
244.763	11329.63
244.834	11318.54
244.906	11294.11
244.977	11320.91
245.048	11370.17
245.119	11348.68
245.191	11329.59
245.262	11269.4
245.333	11343.51
245.405	11364.09
245.476	11393.78
245.547	11411.76
245.618	11465.83
245.689	11486.79
245.761	11530.32
245.832	11533.16
245.903	11573.35
245.974	11601.55
246.045	11617.5
246.117	11708.11
246.188	11684.98
246.259	11671.05
246.33	11687.63
246.401	11695.39
246.473	11651.53
246.544	11636.63
246.615	11691.77
246.686	11700.55
246.757	11772.45
246.828	11752.4
246.899	11821.86
246.97	11791.4
247.042	11778.87
247.113	11829.77
247.184	11914.76
247.255	11903.38
247.326	11928.21
247.397	11934.23
247.468	11943.78
247.539	11964.36
247.61	11907.91
247.681	11957.17
247.752	12011.54
247.823	11990.81
247.894	12009.51
247.965	11982.33
248.037	11968.69
248.108	11916.73
248.179	11918.66
248.25	11911.77
248.321	11945.21
248.392	11904.1
248.463	11987.38
248.534	11991.77
248.605	12009.89
248.675	11974.8
248.746	11997.11
248.817	12017.41
248.888	12049.03
248.959	11990.23
249.03	12015.92
249.101	12031.44
249.172	12022.62
249.243	11949.7
249.314	12019.2
249.385	12026.38
249.456	12059.54
249.527	12046.43
249.598	12077.13
249.669	12078.63
249.739	12095.83
249.81	12104.46
249.881	12044.94
249.952	12041.61
250.023	12033.27
250.094	11974.03
250.165	11948.77
250.235	11937.93
250.306	11935.85
250.377	11892.38
250.448	11921.63
250.519	11853.91
250.59	11909.2
250.66	11901.44
250.731	11973.06
250.802	11964.72
250.873	11988.05
250.944	12011.04
251.014	12008.97
251.085	12098.34
251.156	12125.62
251.227	12173.73
251.297	12225.51
251.368	12293.8
251.439	12327.69
251.51	12384.23
251.58	12376.09
251.651	12365.58
251.722	12426.94
251.792	12373.25
251.863	12380.33
251.934	12444.59
252.005	12558.15
252.075	12563.6
252.146	12610.35
252.217	12655.14
252.287	12704.31
252.358	12698.81
252.429	12772.71
252.499	12767.02
252.57	12778.88
252.641	12830.75
252.711	12832
252.782	12789.92
252.852	12865.94
252.923	12876.69
252.994	12889.61
253.064	12936.41
253.135	12923.11
253.205	12897.85
253.276	12989.29
253.347	13058.46
253.417	13029.44
253.488	13008.52
253.558	12994.49
253.629	12995.8
253.699	13008.38
253.77	13026.65
253.841	13031.47
253.911	13039.86
253.982	13058.61
254.052	13079
254.123	13085.46
254.193	13089.07
254.264	13225.01
254.334	13180.95
254.405	13139.16
254.475	13104.3
254.546	13106.38
254.616	13166.59
254.687	13202.45
254.757	13214.79
254.827	13210.26
254.898	13239.04
254.968	13245.84
255.039	13227.47
255.109	13265.02
255.18	13239.57
255.25	13171.31
255.321	13207.66
255.391	13161.19
255.461	13237.88
255.532	13155.55
255.602	13149.09
255.673	13100.88
255.743	13069.84
255.813	13006.35
255.884	13054.17
255.954	13093.61
256.024	13164.47
256.095	13169.34
256.165	13127.35
256.235	13147.31
256.306	13132.03
256.376	13180.18
256.446	13214.03
256.517	13249.02
256.587	13298.48
256.657	13315.98
256.728	13343.17
256.798	13349.39
256.868	13350.45
256.938	13322.01
257.009	13368.72
257.079	13394.51
257.149	13489.09
257.219	13418.9
257.29	13459.92
257.36	13409.45
257.43	13447.53
257.5	13378.36
257.571	13373.58
257.641	13412.78
257.711	13380.62
257.781	13411.96
257.852	13419.19
257.922	13361.63
257.992	13369.78
258.062	13357.72
258.132	13402.27
258.202	13402.41
258.273	13406.27
258.343	13481.86
258.413	13477.56
258.483	13487.59
258.553	13458.67
258.623	13428.01
258.693	13461.85
258.764	13526.59
258.834	13591.57
258.904	13609.46
258.974	13598.03
259.044	13610.32
259.114	13636.55
259.184	13666.34
259.254	13677.91
259.324	13629.13
259.394	13683.94
259.464	13759.28
259.535	13765.21
259.605	13754.03
259.675	13751.47
259.745	13790.42
259.815	13760.05
259.885	13757.11
259.955	13863.79
260.025	13859.35
260.095	13873.96
260.165	13904.57
260.235	13970.61
260.305	13949.98
260.375	13917.1
260.445	14013.85
260.515	14079.65
260.585	14121.59
260.655	14127.71
260.725	14170.32
260.795	14216.02
260.865	14280.57
260.934	14249.77
261.004	14276.71
261.074	14287.9
261.144	14345.5
261.214	14384.12
261.284	14394.43
261.354	14430.73
261.424	14386.92
261.494	14460.34
261.564	14465.3
261.634	14488.2
261.703	14416.23
261.773	14449.59
261.843	14481.31
261.913	14476.97
261.983	14411.7
262.053	14445.05
262.123	14436.72
262.192	14398.68
262.262	14438.06
262.332	14392.61
262.402	14426.83
262.472	14439.99
262.541	14382.53
262.611	14423.46
262.681	14397.76
262.751	14433.58
262.821	14443.46
262.89	14421.63
262.96	14444.23
263.03	14530.61
263.1	14551.53
263.169	14575.49
263.239	14607.65
