Data from 20250701_urea_2M_exp3_MAYP1162681_05-09-48-967.txt Node
Date: Wed Jul 02 05:09:48 BST 2025
User: adleo
Spectrometer: MAYP116268
Trigger mode: 0
Integration Time (sec): 4.000000E0
Scans to average: 1
Electric dark correction enabled: true
Nonlinearity correction enabled: true
Boxcar width: 10
XAxis mode: Wavelengths
Number of Pixels in Spectrum: 2068
>>>>>Begin Spectral Data<<<<<
179.565	3581.22
179.642	3766.55
179.718	3915.31
179.795	4040.58
179.871	4152.31
179.948	4213.46
180.024	4283.52
180.101	4362.8
180.177	4418.52
180.254	4495.71
180.33	4569
180.407	4832.3
180.483	5111.77
180.56	5396.36
180.636	5658.96
180.712	5616.45
180.789	5655.48
180.865	5697.18
180.942	5727.24
181.018	5764.74
181.095	5815.75
181.171	5830.24
181.248	5835.13
181.324	5882.59
181.4	5909.65
181.477	5944.58
181.553	5988.83
181.63	6057.3
181.706	6110.19
181.782	6128.89
181.859	6126.69
181.935	6149.39
182.011	6130.91
182.088	6186.06
182.164	6251.13
182.24	6298.1
182.317	6336
182.393	6326.07
182.469	6372.91
182.546	6417.17
182.622	6431.14
182.698	6410.06
182.775	6454.37
182.851	6501.51
182.927	6481.25
183.003	6467.76
183.08	6448.85
183.156	6482.36
183.232	6471.32
183.308	6428.83
183.385	6460.27
183.461	6521.44
183.537	6516.59
183.613	6559.51
183.69	6527.19
183.766	6492.99
183.842	6509.79
183.918	6522.9
183.995	6565.29
184.071	6576.49
184.147	6562.22
184.223	6527.05
184.299	6571.24
184.375	6531.11
184.452	6549.32
184.528	6666.95
184.604	6703.24
184.68	6742.22
184.756	6758.51
184.832	6773.01
184.908	6790.43
184.985	6788.84
185.061	6729.5
185.137	6766.05
185.213	6732
185.289	6739.01
185.365	6710.98
185.441	6706.7
185.517	6752.4
185.593	6740.06
185.669	6731.22
185.745	6762.06
185.822	6818.64
185.898	6788.14
185.974	6822.08
186.05	6804.39
186.126	6737.77
186.202	6715.26
186.278	6707.52
186.354	6675.78
186.43	6704.9
186.506	6705.14
186.582	6701.49
186.658	6728.08
186.734	6662.4
186.81	6670.51
186.886	6684.2
186.962	6725.34
187.038	6711.22
187.114	6685.46
187.19	6714.04
187.266	6685.76
187.341	6687.54
187.417	6664.64
187.493	6665.84
187.569	6673.91
187.645	6648.22
187.721	6608.77
187.797	6634.56
187.873	6646.66
187.949	6633.08
188.025	6604.29
188.101	6607.41
188.176	6623.69
188.252	6608.62
188.328	6634.05
188.404	6633.23
188.48	6615.61
188.556	6596.16
188.632	6598.46
188.707	6599.95
188.783	6590.01
188.859	6570.72
188.935	6533.06
189.011	6551.65
189.086	6530.04
189.162	6501.71
189.238	6493.7
189.314	6487.22
189.39	6466.09
189.465	6438.86
189.541	6492.89
189.617	6443.16
189.693	6427.75
189.768	6439.23
189.844	6518.84
189.92	6493.75
189.996	6515.93
190.071	6548.15
190.147	6543.26
190.223	6573.08
190.298	6548.15
190.374	6501.29
190.45	6539.4
190.526	6569.94
190.601	6556.11
190.677	6563.7
190.753	6659.68
190.828	6674.17
190.904	6721.15
190.98	6774.91
191.055	6815.88
191.131	6792
191.207	6864.95
191.282	6898.93
191.358	6865.56
191.433	6816.34
191.509	6855.07
191.585	6851.8
191.66	6857.57
191.736	6886.91
191.811	6860.11
191.887	6911.53
191.963	6992.8
192.038	7009.95
192.114	7007.36
192.189	7021.96
192.265	7009.81
192.34	6934.09
192.416	6927.28
192.491	6919.35
192.567	6919.73
192.642	6923.77
192.718	6919.16
192.793	6872.75
192.869	6858.83
192.944	6872.12
193.02	6902.16
193.095	6919.16
193.171	6935.69
193.246	6929.97
193.322	6919.64
193.397	6925.59
193.473	6882.15
193.548	6820.94
193.624	6840.83
193.699	6839.44
193.775	6891.3
193.85	6892.64
193.925	6922.38
194.001	6924.83
194.076	6901.34
194.152	6871.55
194.227	6843.97
194.302	6810.27
194.378	6830.58
194.453	6821.94
194.529	6861.67
194.604	6808.69
194.679	6785.78
194.755	6721.11
194.83	6766.68
194.905	6752.85
194.981	6777.74
195.056	6756.47
195.131	6774.76
195.207	6764.24
195.282	6733.84
195.357	6668.58
195.433	6722.56
195.508	6684.46
195.583	6707.03
195.659	6751.1
195.734	6774.35
195.809	6769.74
195.884	6805.99
195.96	6802.05
196.035	6855.32
196.11	6838.5
196.185	6880.09
196.261	6896.18
196.336	7001.37
196.411	6953.16
196.486	6974.53
196.561	6946.77
196.637	6969.77
196.712	7024.76
196.787	7038.69
196.862	7091.2
196.937	7125.64
197.013	7146.02
197.088	7177.34
197.163	7247.25
197.238	7305.17
197.313	7304.17
197.388	7354.82
197.464	7454.16
197.539	7486.94
197.614	7462.43
197.689	7502.95
197.764	7557.29
197.839	7622.58
197.914	7601.95
197.989	7676.52
198.065	7720.51
198.14	7886.44
198.215	7978.43
198.29	8019.13
198.365	8063.96
198.44	8094.3
198.515	8190.71
198.59	8237.76
198.665	8328.2
198.74	8355.49
198.815	8356.79
198.89	8431.69
198.965	8525.54
199.04	8504.84
199.115	8563.57
199.19	8698.95
199.265	8709.68
199.34	8744.67
199.415	8852.91
199.49	8923.25
199.565	8949
199.64	9030.68
199.715	9028.41
199.79	9050.32
199.865	9072.27
199.94	9067.22
200.015	9171.98
200.09	9184.5
200.165	9201.59
200.24	9222.82
200.315	9349.62
200.39	9397.19
200.464	9418.71
200.539	9425.5
200.614	9480.38
200.689	9556.66
200.764	9580.65
200.839	9639.42
200.914	9651.74
200.989	9613.4
201.063	9665.55
201.138	9609.35
201.213	9608.34
201.288	9540.64
201.363	9558.26
201.438	9558.45
201.512	9609.86
201.587	9552.65
201.662	9565.7
201.737	9610.58
201.812	9635.05
201.886	9523.71
201.961	9556.13
202.036	9515.5
202.111	9507.51
202.186	9410.79
202.26	9348.08
202.335	9276.86
202.41	9254.95
202.485	9201.14
202.559	9134.13
202.634	9039.63
202.709	9076.91
202.784	9011.3
202.858	9010.96
202.933	8943.67
203.008	8914.02
203.082	8847.17
203.157	8843.7
203.232	8699.09
203.306	8629.85
203.381	8517.89
203.456	8446.19
203.53	8371.2
203.605	8303.68
203.68	8225.27
203.754	8208.26
203.829	8161.15
203.904	8093.18
203.978	8056.61
204.053	8069.12
204.127	8036.13
204.202	8033.24
204.277	7966.87
204.351	7943.74
204.426	7917.08
204.5	7896.35
204.575	7783.92
204.65	7819.18
204.724	7792.04
204.799	7821.69
204.873	7808.07
204.948	7808.07
205.022	7766.97
205.097	7731.65
205.171	7774.92
205.246	7796.23
205.32	7791.43
205.395	7786.42
205.469	7760.14
205.544	7779.58
205.618	7718.02
205.693	7753.95
205.767	7709.86
205.842	7779.7
205.916	7759.26
205.991	7732.19
206.065	7747.63
206.14	7798.31
206.214	7778.38
206.289	7753.99
206.363	7792.75
206.438	7807.38
206.512	7824.55
206.586	7890.94
206.661	7919.72
206.735	7851.43
206.81	7857.93
206.884	7907.83
206.958	7873.17
207.033	7925.75
207.107	7948.23
207.181	8053.78
207.256	8032.76
207.33	8095.9
207.405	8144.72
207.479	8209.56
207.553	8233.79
207.628	8177.07
207.702	8216.74
207.776	8192.98
207.851	8205.01
207.925	8254.63
207.999	8235.62
208.073	8233.65
208.148	8242.36
208.222	8200.11
208.296	8303.63
208.371	8357.94
208.445	8394.12
208.519	8483.59
208.593	8523.86
208.668	8511.97
208.742	8521.46
208.816	8520.64
208.89	8565.8
208.965	8554.48
209.039	8580.81
209.113	8636.11
209.187	8704.38
209.261	8694.37
209.336	8762.27
209.41	8829.61
209.484	8830.86
209.558	8903.26
209.632	8947.44
209.707	8984.64
209.781	9056.84
209.855	9106.14
209.929	9161.5
210.003	9181.14
210.077	9177.24
210.151	9340.85
210.226	9454.95
210.3	9553.39
210.374	9638.1
210.448	9650.43
210.522	9685.15
210.596	9718.58
210.67	9747.95
210.744	9905.98
210.818	10005.1
210.892	10076.1
210.966	10056.12
211.041	10110.31
211.115	10098.22
211.189	10172.34
211.263	10223.06
211.337	10251.04
211.411	10301.05
211.485	10286.35
211.559	10319.2
211.633	10329.98
211.707	10222.47
211.781	10240.11
211.855	10111.63
211.929	10081.73
212.003	10021.46
212.077	10052.05
212.151	10089.82
212.225	10118.63
212.299	10079.01
212.373	10041.06
212.447	10022.13
212.52	10124.74
212.594	10132.59
212.668	10167.94
212.742	10122.52
212.816	10103.73
212.89	10075.17
212.964	10065
213.038	10062.93
213.112	10103.88
213.186	10147.76
213.26	10071.31
213.333	9915.69
213.407	9920.84
213.481	9923.4
213.555	9955.88
213.629	9908.53
213.703	9847.93
213.777	9834.72
213.85	9760.78
213.924	9861.18
213.998	9846.73
214.072	9801.39
214.146	9742.67
214.219	9723.84
214.293	9696.78
214.367	9692.87
214.441	9722.35
214.515	9675.29
214.588	9586.96
214.662	9460.08
214.736	9380.73
214.81	9389.82
214.883	9407.05
214.957	9364.17
215.031	9312.29
215.105	9214.22
215.178	9153.84
215.252	9116.1
215.326	9017.5
215.4	8939.17
215.473	8765.19
215.547	8682.09
215.621	8613.32
215.694	8601.19
215.768	8502.77
215.842	8440.84
215.915	8365.79
215.989	8248.59
216.063	8185.91
216.136	8161.56
216.21	8136.79
216.284	8144.78
216.357	8122.22
216.431	8077.96
216.504	8075.31
216.578	8121.17
216.652	8136.07
216.725	8106.58
216.799	8106.24
216.873	8085.61
216.946	8092.87
217.02	8057.01
217.093	8025.36
217.167	7929.04
217.24	7850.28
217.314	7817.5
217.387	7769.06
217.461	7725.97
217.535	7751.46
217.608	7689.34
217.682	7663.85
217.755	7673.71
217.829	7615.75
217.902	7595.89
217.976	7577.33
218.049	7526.47
218.123	7455.75
218.196	7459.59
218.27	7429.11
218.343	7363.12
218.417	7355.91
218.49	7322.79
218.563	7359.23
218.637	7370.72
218.71	7445.29
218.784	7472.41
218.857	7505.29
218.931	7531.04
219.004	7539.88
219.077	7553.55
219.151	7573.64
219.224	7561.18
219.298	7557.91
219.371	7602.5
219.444	7565.4
219.518	7575.83
219.591	7599.67
219.665	7700.48
219.738	7711.1
219.811	7689.72
219.885	7739.2
219.958	7775.95
220.031	7786.71
220.105	7807.3
220.178	7810.33
220.251	7780.98
220.325	7803.69
220.398	7818.02
220.471	7837.54
220.544	7876.69
220.618	7852.73
220.691	7880.96
220.764	7904.66
220.838	7928.42
220.911	7912.31
220.984	7997.27
221.057	8031.03
221.131	8050.75
221.204	7958.06
221.277	8030.43
221.35	8153.91
221.424	8145.63
221.497	8161.8
221.57	8177.85
221.643	8212.12
221.716	8264.13
221.79	8276.21
221.863	8286.79
221.936	8299.45
222.009	8313.63
222.082	8336.35
222.155	8339.28
222.229	8406.81
222.302	8431.97
222.375	8441.11
222.448	8480.57
222.521	8486.1
222.594	8493.13
222.667	8464.23
222.74	8513.39
222.814	8500.83
222.887	8482.63
222.96	8532.73
223.033	8572.44
223.106	8598.85
223.179	8626.53
223.252	8640.54
223.325	8668.3
223.398	8680.39
223.471	8708.87
223.544	8730.72
223.617	8746.27
223.69	8777.3
223.763	8740.18
223.837	8763.19
223.91	8791.1
223.983	8736.79
224.056	8703.44
224.129	8717.88
224.202	8776.51
224.275	8769
224.348	8742.2
224.42	8710.82
224.493	8652.73
224.566	8621.34
224.639	8645.16
224.712	8617.62
224.785	8603.9
224.858	8593.89
224.931	8584.74
225.004	8545.14
225.077	8543.89
225.15	8455.08
225.223	8453.35
225.296	8533.24
225.369	8477.67
225.442	8445.71
225.514	8472.35
225.587	8490.83
225.66	8500.17
225.733	8497.18
225.806	8511.04
225.879	8508.78
225.952	8474.97
226.025	8518.18
226.097	8569.6
226.17	8561.37
226.243	8499.93
226.316	8495.02
226.389	8502.24
226.461	8517.93
226.534	8536.94
226.607	8528.42
226.68	8610.25
226.753	8610.78
226.825	8526.27
226.898	8584.01
226.971	8586.8
227.044	8602
227.117	8612.78
227.189	8632.23
227.262	8664.53
227.335	8680.9
227.407	8669.45
227.48	8703.17
227.553	8720.45
227.626	8706.58
227.698	8711.39
227.771	8746.75
227.844	8724.94
227.916	8741.93
227.989	8704.35
228.062	8701.75
228.134	8783.93
228.207	8787.15
228.28	8775.84
228.352	8786.57
228.425	8794.13
228.498	8839.72
228.57	8818.5
228.643	8872.18
228.716	8869.54
228.788	8860.39
228.861	8855.43
228.934	8917.95
229.006	8927.81
229.079	8929.07
229.151	8912.89
229.224	8882.82
229.296	8911.16
229.369	9012.48
229.442	9067.82
229.514	9055.36
229.587	9100.07
229.659	9028.67
229.732	9040.13
229.804	9081.43
229.877	9163.21
229.949	9193.64
230.022	9240.51
230.094	9250.8
230.167	9236.21
230.239	9193.18
230.312	9181.96
230.384	9245.11
230.457	9247.08
230.529	9256.03
230.602	9258.49
230.674	9267.06
230.747	9309.74
230.819	9338.05
230.892	9216.76
230.964	9206.94
231.037	9233.35
231.109	9220.35
231.181	9262.9
231.254	9227.43
231.326	9205.23
231.399	9173.29
231.471	9145.17
231.544	9070.81
231.616	9109.32
231.688	9117.84
231.761	9110.53
231.833	9099.41
231.905	9021.2
231.978	9013.31
232.05	8998.87
232.122	9006.33
232.195	8983.03
232.267	9018.8
232.339	9001.08
232.412	9072.56
232.484	9049.88
232.556	9025.82
232.629	9093.15
232.701	9106.2
232.773	9116.45
232.846	9113.56
232.918	9125.22
232.99	9143.42
233.062	9184.49
233.135	9199.71
233.207	9165.86
233.279	9206.28
233.351	9243.11
233.424	9242.48
233.496	9220.68
233.568	9302.63
233.64	9261.81
233.713	9277.65
233.785	9275.62
233.857	9288.19
233.929	9230.91
234.001	9298.44
234.074	9358.51
234.146	9291.37
234.218	9292.33
234.29	9294.79
234.362	9282.04
234.434	9231.81
234.507	9199.89
234.579	9145.67
234.651	9136.14
234.723	9172.3
234.795	9192.28
234.867	9187.13
234.939	9245.15
235.012	9261.71
235.084	9264.89
235.156	9303.26
235.228	9290.02
235.3	9271.63
235.372	9280.1
235.444	9339.65
235.516	9256.61
235.588	9266.05
235.66	9279
235.732	9248.95
235.804	9439.94
235.876	9485.34
235.948	9549.44
236.02	9561.48
236.092	9577.74
236.164	9581.84
236.236	9573.55
236.308	9573.65
236.38	9602.11
236.452	9584
236.524	9602.83
236.596	9659.74
236.668	9687.29
236.74	9705.25
236.812	9731.54
236.884	9759
236.956	9768.63
237.028	9756.88
237.1	9739.5
237.172	9814.89
237.244	9892.87
237.316	9777.1
237.388	9761.02
237.46	9737.46
237.532	9795.4
237.604	9789.38
237.675	9858.17
237.747	9900.7
237.819	9888.67
237.891	9889.53
237.963	9877.16
238.035	9877.25
238.107	9771.51
238.178	9835.69
238.25	9842.38
238.322	9932.48
238.394	9891.21
238.466	9898.53
238.538	9949.81
238.609	9987.13
238.681	9926.53
238.753	9901.72
238.825	9920.41
238.897	9953.59
238.968	10045
239.04	10022.84
239.112	10133.67
239.184	10094.89
239.255	10099.56
239.327	10132.4
239.399	10153.55
239.471	10206.29
239.542	10241.5
239.614	10313.33
239.686	10226.41
239.758	10286
239.829	10250.19
239.901	10315.61
239.973	10323.99
240.044	10352.65
240.116	10370.09
240.188	10387.96
240.259	10406.08
240.331	10397.21
240.403	10434.98
240.474	10378.4
240.546	10375.42
240.618	10317.21
240.689	10321.36
240.761	10335.28
240.833	10398.45
240.904	10399.41
240.976	10397.53
241.048	10412.37
241.119	10442.35
241.191	10495.14
241.262	10554.66
241.334	10559.05
241.405	10565.36
241.477	10572.54
241.549	10583.43
241.62	10603.86
241.692	10646.11
241.763	10697.77
241.835	10720.9
241.906	10733.91
241.978	10705.97
242.049	10770.34
242.121	10823.53
242.192	10893.93
242.264	10859.72
242.335	10816.79
242.407	10863.72
242.478	10861.74
242.55	10882.22
242.621	10869.45
242.693	10871.77
242.764	10857.74
242.836	10859.28
242.907	10891.09
242.979	10920.67
243.05	10942.7
243.122	10977.15
243.193	10975.76
243.264	10909.69
243.336	10907.04
243.407	10936.53
243.479	11021.49
243.55	11036.48
243.622	11060.19
243.693	11054.4
243.764	11123.89
243.836	11101.3
243.907	11088.28
243.978	11103.08
244.05	11131.03
244.121	11090.6
244.192	11129.15
244.264	11084.53
244.335	11100.43
244.407	11048.77
244.478	11064.14
244.549	11053.45
244.62	11002.27
244.692	11005.35
244.763	11055.51
244.834	11048.57
244.906	11030.26
244.977	11044.05
245.048	11095.24
245.119	11066.22
245.191	11041.6
245.262	10974.14
245.333	11051.08
245.405	11063.66
245.476	11088.91
245.547	11103.32
245.618	11152.38
245.689	11161.29
245.761	11196.76
245.832	11198.35
245.903	11252.23
245.974	11282.06
246.045	11294.64
246.117	11377.15
246.188	11361.39
246.259	11337.97
246.33	11353.3
246.401	11370.94
246.473	11338.93
246.544	11324.08
246.615	11380.86
246.686	11386.3
246.757	11465.72
246.828	11438.25
246.899	11508.57
246.97	11478.51
247.042	11470.22
247.113	11512.24
247.184	11600.22
247.255	11595.98
247.326	11629.28
247.397	11629.81
247.468	11639.93
247.539	11653.81
247.61	11612.12
247.681	11656.7
247.752	11714.63
247.823	11692.61
247.894	11697.28
247.965	11666.58
248.037	11655.74
248.108	11609.56
248.179	11618.67
248.25	11610.96
248.321	11641.95
248.392	11597.17
248.463	11677.94
248.534	11669.51
248.605	11689.8
248.675	11663.24
248.746	11684.78
248.817	11690.62
248.888	11708.26
248.959	11651.43
249.03	11679.15
249.101	11689.94
249.172	11676.02
249.243	11601.66
249.314	11666.33
249.385	11679.11
249.456	11704.07
249.527	11700.89
249.598	11731.2
249.669	11732.22
249.739	11743.69
249.81	11758.1
249.881	11716.6
249.952	11709.61
250.023	11708.36
250.094	11652.93
250.165	11621.5
250.235	11611.38
250.306	11621.35
250.377	11587.18
250.448	11615.28
250.519	11552.67
250.59	11611.53
250.66	11606.37
250.731	11679.28
250.802	11674.99
250.873	11697.12
250.944	11727.44
251.014	11715.77
251.085	11798.39
251.156	11817.53
251.227	11869.88
251.297	11927.38
251.368	11988.5
251.439	12026.34
251.51	12082.3
251.58	12070.44
251.651	12070.68
251.722	12129.49
251.792	12077.24
251.863	12088.95
251.934	12156.63
252.005	12270.96
252.075	12274.58
252.146	12330.05
252.217	12380.04
252.287	12426.99
252.358	12427.18
252.429	12499.44
252.499	12496.89
252.57	12496.21
252.641	12545.91
252.711	12553.77
252.782	12497.08
252.852	12568.81
252.923	12572.23
252.994	12581.68
253.064	12638.8
253.135	12615.71
253.205	12594.4
253.276	12669.31
253.347	12725.08
253.417	12702.18
253.488	12677.69
253.558	12663.08
253.629	12657.11
253.699	12665.74
253.77	12690.71
253.841	12688.73
253.911	12695.72
253.982	12713.94
254.052	12749.23
254.123	12756.17
254.193	12754.58
254.264	12898.71
254.334	12866.56
254.405	12830.84
254.475	12801.67
254.546	12801.34
254.616	12860.68
254.687	12894.47
254.757	12917.94
254.827	12917.22
254.898	12928.89
254.968	12932.21
255.039	12915.73
255.109	12954.29
255.18	12928.6
255.25	12852.72
255.321	12885.21
255.391	12843.66
255.461	12926.38
255.532	12848.86
255.602	12842.79
255.673	12798.01
255.743	12759.54
255.813	12682.75
255.884	12736.65
255.954	12773.09
256.024	12840.29
256.095	12850.89
256.165	12808.81
256.235	12826.98
256.306	12820.57
256.376	12871.14
256.446	12916.89
256.517	12951.21
256.587	12996.81
256.657	13017.3
256.728	13045.55
256.798	13052.01
256.868	13054.03
256.938	13017.88
257.009	13057.21
257.079	13094.43
257.149	13181.73
257.219	13116.41
257.29	13155.5
257.36	13099.05
257.43	13137.04
257.5	13069.74
257.571	13053.59
257.641	13092.74
257.711	13061.88
257.781	13087.43
257.852	13104.93
257.922	13042.02
257.992	13048
258.062	13036
258.132	13076.06
258.202	13079.43
258.273	13092.5
258.343	13161.62
258.413	13156.27
258.483	13166.64
258.553	13136.03
258.623	13118.43
258.693	13150.78
258.764	13209.54
258.834	13277.94
258.904	13287.2
258.974	13275.77
259.044	13288.79
259.114	13318.15
259.184	13346.16
259.254	13355.51
259.324	13299.25
259.394	13347.94
259.464	13428.35
259.535	13440.74
259.605	13431.67
259.675	13426.13
259.745	13457.56
259.815	13432.3
259.885	13429.99
259.955	13538.83
260.025	13528.27
260.095	13533.14
260.165	13562.4
260.235	13631.1
260.305	13614.8
260.375	13584.82
260.445	13678.19
260.515	13744.91
260.585	13790.61
260.655	13792.39
260.725	13845.03
260.795	13886.44
260.865	13955.67
260.934	13919.85
261.004	13947.04
261.074	13960.54
261.144	14028.84
261.214	14069.63
261.284	14078.4
261.354	14120.34
261.424	14075.22
261.494	14150.28
261.564	14156.79
261.634	14185.33
261.703	14120.97
261.773	14148.45
261.843	14182.87
261.913	14175.78
261.983	14120.01
262.053	14137.17
262.123	14148.26
262.192	14103.62
262.262	14144.21
262.332	14096.43
262.402	14133.99
262.472	14147.39
262.541	14089.01
262.611	14125.4
262.681	14100.63
262.751	14136.78
262.821	14138.81
262.89	14101.88
262.96	14124.44
263.03	14201.23
263.1	14219.6
263.169	14239.46
263.239	14264.67
263.309	14335.29
263.379	14361.99
