Data from 20250701_background_MAYP1162681_14-05-21-375.txt Node
Date: Tue Jul 01 14:05:21 BST 2025
User: adleo
Spectrometer: MAYP116268
Trigger mode: 0
Integration Time (sec): 4.000000E0
Scans to average: 1
Electric dark correction enabled: true
Nonlinearity correction enabled: true
Boxcar width: 10
XAxis mode: Wavelengths
Number of Pixels in Spectrum: 2068
>>>>>Begin Spectral Data<<<<<
179.565	4192
179.642	4402.4
179.718	4576.09
179.795	4722.65
179.871	4854.19
179.948	4926.31
180.024	5008.62
180.101	5098.58
180.177	5157.65
180.254	5250.53
180.33	5339.43
180.407	5645.83
180.483	5967.09
180.56	6296.9
180.636	6599.46
180.712	6552.75
180.789	6594.49
180.865	6639.99
180.942	6678.97
181.018	6720.7
181.095	6771.21
181.171	6791.15
181.248	6801.76
181.324	6852.9
181.4	6879.61
181.477	6919.39
181.553	6967.79
181.63	7047.03
181.706	7102.34
181.782	7128.75
181.859	7124.47
181.935	7146.01
182.011	7132.02
182.088	7196.47
182.164	7269.56
182.24	7322.98
182.317	7356.99
182.393	7343.21
182.469	7397.8
182.546	7441.93
182.622	7457.5
182.698	7442.12
182.775	7483.84
182.851	7533.93
182.927	7511.82
183.003	7494.47
183.08	7469.82
183.156	7506.88
183.232	7494.04
183.308	7454.24
183.385	7487.2
183.461	7554.47
183.537	7554.37
183.613	7603.7
183.69	7565.72
183.766	7524.3
183.842	7547.48
183.918	7563.92
183.995	7616.65
184.071	7628.1
184.147	7614.06
184.223	7577.26
184.299	7619.58
184.375	7578
184.452	7598.11
184.528	7733.68
184.604	7781.21
184.68	7832.27
184.756	7858.63
184.832	7873.59
184.908	7891.46
184.985	7889.88
185.061	7829.15
185.137	7860.89
185.213	7818.34
185.289	7828.48
185.365	7802.91
185.441	7800.6
185.517	7849.91
185.593	7838.56
185.669	7831.16
185.745	7868.67
185.822	7928.75
185.898	7897.82
185.974	7934.88
186.05	7911.84
186.126	7834.65
186.202	7805.52
186.278	7786.71
186.354	7748.28
186.43	7774.17
186.506	7770.52
186.582	7766.67
186.658	7788.44
186.734	7715.18
186.81	7723.5
186.886	7733.74
186.962	7777.82
187.038	7760.27
187.114	7728.13
187.19	7761.61
187.266	7720.89
187.341	7720.94
187.417	7695.17
187.493	7693.77
187.569	7708.54
187.645	7680.07
187.721	7636.73
187.797	7666.88
187.873	7682.22
187.949	7661.12
188.025	7635.14
188.101	7644.89
188.176	7664.75
188.252	7653.65
188.328	7683.87
188.404	7684.44
188.48	7667.09
188.556	7646.22
188.632	7646.94
188.707	7657.48
188.783	7641.74
188.859	7628.2
188.935	7584.77
189.011	7607.85
189.086	7586.26
189.162	7549.48
189.238	7545.58
189.314	7532.03
189.39	7514.05
189.465	7485.87
189.541	7552.52
189.617	7496.13
189.693	7475.9
189.768	7490.28
189.844	7580.44
189.92	7548.92
189.996	7579.07
190.071	7625.03
190.147	7616.72
190.223	7651.2
190.298	7619.46
190.374	7568.54
190.45	7610.64
190.526	7641.37
190.601	7627.14
190.677	7639.39
190.753	7753.58
190.828	7764.78
190.904	7823.99
190.98	7877.91
191.055	7918.54
191.131	7887.61
191.207	7966.85
191.282	8005.88
191.358	7970.25
191.433	7911.83
191.509	7964.31
191.585	7953.97
191.66	7949.83
191.736	7982.1
191.811	7949.39
191.887	8012.23
191.963	8104.29
192.038	8119.39
192.114	8121.22
192.189	8135.5
192.265	8118.49
192.34	8030.45
192.416	8026.99
192.491	8010.39
192.567	8022.71
192.642	8034.6
192.718	8032.05
192.793	7981.88
192.869	7965.2
192.944	7977.46
193.02	8008.01
193.095	8021.04
193.171	8043.12
193.246	8046.05
193.322	8036.68
193.397	8038.02
193.473	7982.21
193.548	7913.12
193.624	7936.12
193.699	7929.14
193.775	7988.04
193.85	7991.55
193.925	8025.32
194.001	8024.89
194.076	7998.44
194.152	7951.09
194.227	7926.41
194.302	7888.53
194.378	7907.28
194.453	7899.64
194.529	7941.2
194.604	7886.89
194.679	7861.17
194.755	7796.36
194.83	7844.54
194.905	7831.07
194.981	7865.46
195.056	7844.6
195.131	7868.02
195.207	7864.98
195.282	7831.95
195.357	7759.78
195.433	7819.36
195.508	7772.08
195.583	7794.63
195.659	7848.08
195.734	7874.87
195.809	7866.26
195.884	7895.29
195.96	7903.33
196.035	7957.34
196.11	7945.5
196.185	7985.71
196.261	7999.17
196.336	8109.99
196.411	8055.13
196.486	8080.28
196.561	8053.73
196.637	8084.21
196.712	8139.17
196.787	8147.21
196.862	8207.62
196.937	8247.1
197.013	8269.73
197.088	8312.1
197.163	8398.06
197.238	8458.59
197.313	8466.44
197.388	8513.97
197.464	8629.01
197.539	8663.51
197.614	8642.2
197.689	8690.66
197.764	8760.56
197.839	8832.75
197.914	8814.69
197.989	8892.81
198.065	8942.77
198.14	9133.48
198.215	9234.62
198.29	9281.29
198.365	9330.64
198.44	9367.75
198.515	9470.9
198.59	9526.72
198.665	9620.81
198.74	9650.63
198.815	9660.94
198.89	9743.47
198.965	9862.31
199.04	9851.61
199.115	9914.89
199.19	10075.11
199.265	10084.84
199.34	10115.76
199.415	10251.21
199.49	10328.69
199.565	10371.42
199.64	10459.53
199.715	10449.75
199.79	10470.85
199.865	10493.97
199.94	10490.8
200.015	10613.18
200.09	10639.15
200.165	10665.5
200.24	10688.39
200.315	10834.24
200.39	10891.53
200.464	10913.21
200.539	10915.62
200.614	10978.45
200.689	11059.02
200.764	11079.26
200.839	11146.8
200.914	11168.48
200.989	11124.82
201.063	11182.45
201.138	11114.92
201.213	11121.24
201.288	11049.39
201.363	11070.74
201.438	11070.26
201.512	11135.05
201.587	11071.68
201.662	11081.51
201.737	11131.2
201.812	11164.02
201.886	11045.73
201.961	11082.17
202.036	11043.1
202.111	11038.91
202.186	10925.38
202.26	10868.7
202.335	10789.43
202.41	10769.53
202.485	10704.21
202.559	10635.26
202.634	10531.38
202.709	10574.58
202.784	10501.45
202.858	10503.52
202.933	10434.14
203.008	10409.33
203.082	10334.37
203.157	10324.4
203.232	10158.6
203.306	10069.22
203.381	9951.96
203.456	9865.4
203.53	9772.92
203.605	9695.65
203.68	9603.39
203.754	9584.09
203.829	9526
203.904	9449.25
203.978	9396.79
204.053	9410.76
204.127	9363.57
204.202	9360.25
204.277	9285.19
204.351	9259.23
204.426	9227.88
204.5	9195.91
204.575	9064.28
204.65	9102.23
204.724	9075.69
204.799	9115.52
204.873	9114.7
204.948	9106.76
205.022	9062.72
205.097	9032.28
205.171	9083.93
205.246	9114.03
205.32	9107.78
205.395	9108.69
205.469	9085.69
205.544	9110.16
205.618	9043.77
205.693	9086.67
205.767	9038.44
205.842	9122.32
205.916	9096.42
205.991	9062.67
206.065	9089.2
206.14	9151.15
206.214	9130.25
206.289	9109.97
206.363	9153.64
206.438	9150.46
206.512	9180.51
206.586	9253.29
206.661	9288.07
206.735	9206.35
206.81	9207.22
206.884	9263.68
206.958	9218.63
207.033	9276.57
207.107	9307.36
207.181	9430.5
207.256	9403.53
207.33	9475.46
207.405	9522.39
207.479	9595.29
207.553	9619.03
207.628	9554.39
207.702	9598.58
207.776	9569.16
207.851	9570.17
207.925	9623.6
207.999	9610.59
208.073	9605.78
208.148	9610.06
208.222	9556.84
208.296	9677.62
208.371	9739.53
208.445	9777.49
208.519	9873.89
208.593	9914.54
208.668	9895.75
208.742	9910.79
208.816	9921.19
208.89	9973.95
208.965	9962.23
209.039	9992.88
209.113	10062.43
209.187	10141.28
209.261	10121.92
209.336	10197.06
209.41	10278.48
209.484	10277.47
209.558	10362.65
209.632	10408.5
209.707	10451.33
209.781	10540.55
209.855	10592.4
209.929	10654.53
210.003	10682.09
210.077	10684.45
210.151	10861.24
210.226	10994.64
210.3	11084.2
210.374	11167.64
210.448	11184.21
210.522	11225.71
210.596	11265.81
210.67	11298.67
210.744	11475.64
210.818	11606.69
210.892	11690.21
210.966	11662.07
211.041	11721.64
211.115	11703.47
211.189	11789.31
211.263	11847.67
211.337	11867.62
211.411	11927.15
211.485	11906.23
211.559	11955.87
211.633	11962.76
211.707	11849.24
211.781	11870.35
211.855	11738.82
211.929	11710.05
212.003	11636.82
212.077	11666.7
212.151	11712.93
212.225	11746.23
212.299	11704.68
212.373	11652.1
212.447	11624.67
212.52	11735.14
212.594	11741.69
212.668	11780.59
212.742	11725.98
212.816	11703.61
212.89	11683.23
212.964	11664.09
213.038	11664.14
213.112	11698.36
213.186	11743.95
213.26	11655.4
213.333	11479.2
213.407	11494
213.481	11488.99
213.555	11522.37
213.629	11470.89
213.703	11393.2
213.777	11373.68
213.85	11285.72
213.924	11396.05
213.998	11389.44
214.072	11348.42
214.146	11287.98
214.219	11266.58
214.293	11241.86
214.367	11231.26
214.441	11244.18
214.515	11188.51
214.588	11087.7
214.662	10934.61
214.736	10844.46
214.81	10850.96
214.883	10863.24
214.957	10800.72
215.031	10740.7
215.105	10632.27
215.178	10556.14
215.252	10510.47
215.326	10390.12
215.4	10288.36
215.473	10082.37
215.547	9984.03
215.621	9903.16
215.694	9884.52
215.768	9768.53
215.842	9680.78
215.915	9600.56
215.989	9474.5
216.063	9407.54
216.136	9371.66
216.21	9341.91
216.284	9348.84
216.357	9316.19
216.431	9258.8
216.504	9252.25
216.578	9304.6
216.652	9309.27
216.725	9273.54
216.799	9270.55
216.873	9246.63
216.946	9254.47
217.02	9206.07
217.093	9160.67
217.167	9043.78
217.24	8945.55
217.314	8901.82
217.387	8842.36
217.461	8780.89
217.535	8789.51
217.608	8708.02
217.682	8675.33
217.755	8680.44
217.829	8601.44
217.902	8578.38
217.976	8546.63
218.049	8482.57
218.123	8387.48
218.196	8380.02
218.27	8336.71
218.343	8252.52
218.417	8236.83
218.49	8193.62
218.563	8231.87
218.637	8234.13
218.71	8310.7
218.784	8335.97
218.857	8365.12
218.931	8382.72
219.004	8392.97
219.077	8406.21
219.151	8423.33
219.224	8404.9
219.298	8388.59
219.371	8430.51
219.444	8374.09
219.518	8383.71
219.591	8392.9
219.665	8506.29
219.738	8510.14
219.811	8479.89
219.885	8516.37
219.958	8544.38
220.031	8541.3
220.105	8562.24
220.178	8557.38
220.251	8512.56
220.325	8526.43
220.398	8534.13
220.471	8550.53
220.544	8581.24
220.618	8553.37
220.691	8573.39
220.764	8581.76
220.838	8610.01
220.911	8588.01
220.984	8676.1
221.057	8706.47
221.131	8727.55
221.204	8609.91
221.277	8681.74
221.35	8814.63
221.424	8801.78
221.497	8810.21
221.57	8832.09
221.643	8853.47
221.716	8895.45
221.79	8890.64
221.863	8900.9
221.936	8905.23
222.009	8909.22
222.082	8934.31
222.155	8930.12
222.229	8992.53
222.302	9019.67
222.375	9015.44
222.448	9052.7
222.521	9050.82
222.594	9043.94
222.667	9000.83
222.74	9053.01
222.814	9033.02
222.887	9000.17
222.96	9050.62
223.033	9086.5
223.106	9106.13
223.179	9134.89
223.252	9141.53
223.325	9175.23
223.398	9176.96
223.471	9202.86
223.544	9219.27
223.617	9215.9
223.69	9234.52
223.763	9179.44
223.837	9193.64
223.91	9222.1
223.983	9157.75
224.056	9109.33
224.129	9121.65
224.202	9181.6
224.275	9158.59
224.348	9117
224.42	9073.76
224.493	8999.83
224.566	8962.55
224.639	8974.78
224.712	8925.8
224.785	8901.39
224.858	8874.87
224.931	8848.82
225.004	8794.91
225.077	8786.78
225.15	8676.69
225.223	8665.62
225.296	8752.94
225.369	8683.98
225.442	8633.96
225.514	8647.92
225.587	8661.92
225.66	8658.11
225.733	8646.47
225.806	8645.79
225.879	8631.12
225.952	8586.86
226.025	8633.73
226.097	8680.16
226.17	8659.75
226.243	8579.02
226.316	8563.57
226.389	8567.56
226.461	8578.49
226.534	8585.9
226.607	8557.76
226.68	8640.2
226.753	8629.33
226.825	8522.95
226.898	8576.41
226.971	8568.66
227.044	8578.86
227.117	8579.15
227.189	8594.07
227.262	8618.91
227.335	8629.7
227.407	8609.4
227.48	8632.87
227.553	8626.71
227.626	8590.35
227.698	8586.16
227.771	8617.99
227.844	8578.3
227.916	8579.35
227.989	8518.43
228.062	8499.82
228.134	8587.9
228.207	8569.61
228.28	8543.1
228.352	8534.97
228.425	8520.44
228.498	8549.22
228.57	8502.13
228.643	8541.69
228.716	8518.49
228.788	8483.26
228.861	8455.73
228.934	8509.13
229.006	8492.82
229.079	8478.34
229.151	8443
229.224	8386.21
229.296	8404.01
229.369	8507.37
229.442	8542.08
229.514	8513
229.587	8552.4
229.659	8462.34
229.732	8467.64
229.804	8502.71
229.877	8593.03
229.949	8623.84
230.022	8679.42
230.094	8682.88
230.167	8672.05
230.239	8621.63
230.312	8609.17
230.384	8691.36
230.457	8685.29
230.529	8699.87
230.602	8699.87
230.674	8716.42
230.747	8761.91
230.819	8791.61
230.892	8654.73
230.964	8654.73
231.037	8683.24
231.109	8671.93
231.181	8708.5
231.254	8668.08
231.326	8653.02
231.399	8609.48
231.471	8570.25
231.544	8470.74
231.616	8514.61
231.688	8512.01
231.761	8495.24
231.833	8480.42
231.905	8376.68
231.978	8364.17
232.05	8340.89
232.122	8339.69
232.195	8300.42
232.267	8334.78
232.339	8299.12
232.412	8365.64
232.484	8330.78
232.556	8295.4
232.629	8360.4
232.701	8370.99
232.773	8378.25
232.846	8354.87
232.918	8361.42
232.99	8372.97
233.062	8415.46
233.135	8420.13
233.207	8370.76
233.279	8415
233.351	8443.57
233.424	8436.46
233.496	8403.84
233.568	8487.29
233.64	8441.92
233.713	8456.45
233.785	8448.08
233.857	8451.3
233.929	8387.76
234.001	8456.18
234.074	8519.42
234.146	8429.88
234.218	8418.24
234.29	8409.29
234.362	8385.3
234.434	8317.05
234.507	8265.53
234.579	8196.5
234.651	8169.55
234.723	8196.21
234.795	8198.85
234.867	8175.76
234.939	8233.55
235.012	8250.53
235.084	8244.03
235.156	8270.96
235.228	8240.8
235.3	8208.13
235.372	8218.14
235.444	8271.91
235.516	8170.14
235.588	8166.39
235.66	8177.31
235.732	8136.13
235.804	8343.03
235.876	8382.66
235.948	8445.65
236.02	8457.1
236.092	8466.71
236.164	8461.71
236.236	8452.71
236.308	8446.65
236.38	8472.97
236.452	8442.07
236.524	8453.42
236.596	8511.37
236.668	8539.57
236.74	8558.23
236.812	8582.1
236.884	8609.87
236.956	8613.43
237.028	8593.14
237.1	8565.38
237.172	8634.41
237.244	8717.29
237.316	8577.94
237.388	8556.4
237.46	8520.63
237.532	8582.18
237.604	8564.73
237.675	8641.79
237.747	8684.53
237.819	8657.98
237.891	8652.3
237.963	8629.12
238.035	8610.4
238.107	8480.66
238.178	8542.2
238.25	8540.37
238.322	8630.28
238.394	8564.64
238.466	8553.19
238.538	8597.63
238.609	8638.76
238.681	8570.21
238.753	8535.41
238.825	8548.07
238.897	8568.7
238.968	8653.69
239.04	8623.99
239.112	8737.99
239.184	8682.58
239.255	8667.17
239.327	8696.94
239.399	8712.25
239.471	8760.07
239.542	8791.78
239.614	8858.43
239.686	8752.28
239.758	8803.25
239.829	8754.36
239.901	8822.79
239.973	8837.66
240.044	8864.03
240.116	8865.96
240.188	8870.09
240.259	8870.24
240.331	8848.57
240.403	8879.56
240.474	8815.84
240.546	8792.85
240.618	8715.59
240.689	8708.18
240.761	8719.93
240.833	8785.49
240.904	8774.27
240.976	8762.92
241.048	8766.96
241.119	8795.32
241.191	8840.02
241.262	8899.89
241.334	8898.06
241.405	8890.02
241.477	8882.13
241.549	8876.98
241.62	8895.17
241.692	8930.31
241.763	8991.41
241.835	9000.95
241.906	9005.9
241.978	8961.06
242.049	9023.67
242.121	9084.22
242.192	9149.64
242.264	9097.71
242.335	9032.05
242.407	9076.2
242.478	9068.21
242.55	9086.65
242.621	9058.71
242.693	9046.06
242.764	9018.55
242.836	9008.87
242.907	9031.93
242.979	9050.37
243.05	9070.4
243.122	9090.86
243.193	9086.82
243.264	8995.01
243.336	8997.8
243.407	9038.44
243.479	9122.73
243.55	9135.01
243.622	9141.7
243.693	9132.84
243.764	9207.98
243.836	9182.29
243.907	9157.64
243.978	9160.19
244.05	9177.19
244.121	9117.18
244.192	9158.68
244.264	9102.44
244.335	9109.23
244.407	9048.48
244.478	9066.92
244.549	9047.52
244.62	8992.74
244.692	8984.51
244.763	9027.91
244.834	9000.28
244.906	8967.01
244.977	8978.37
245.048	9031.46
245.119	9001.23
245.191	8959.05
245.262	8871.41
245.333	8948.26
245.405	8960.15
245.476	8982.72
245.547	8995.53
245.618	9048.37
245.689	9050.68
245.761	9084.09
245.832	9073.12
245.903	9114.75
245.974	9133.34
246.045	9136.13
246.117	9213.21
246.188	9182.99
246.259	9145.35
246.33	9146.12
246.401	9141.45
246.473	9083.72
246.544	9044.64
246.615	9090
246.686	9078.45
246.757	9147.56
246.828	9095.96
246.899	9158.05
246.97	9094.01
247.042	9060.25
247.113	9091.5
247.184	9165.07
247.255	9143.16
247.326	9159.72
247.397	9151.97
247.468	9143.21
247.539	9145.42
247.61	9077.25
247.681	9113.92
247.752	9172.35
247.823	9142.09
247.894	9147.81
247.965	9113.79
248.037	9093.52
248.108	9027.99
248.179	9039.45
248.25	9030.92
248.321	9065.28
248.392	9012.83
248.463	9111.35
248.534	9107.49
248.605	9132.4
248.675	9106.91
248.746	9123.66
248.817	9141.05
248.888	9162.86
248.959	9103.03
249.03	9132.83
249.101	9150.54
249.172	9134.13
249.243	9050.78
249.314	9125.63
249.385	9135.94
249.456	9172.46
249.527	9167.16
249.598	9195.37
249.669	9188.68
249.739	9203.94
249.81	9220.79
249.881	9162.26
249.952	9151.19
250.023	9150.99
250.094	9080.59
250.165	9040.65
250.235	9033.96
250.306	9038.59
250.377	8996.66
250.448	9017.35
250.519	8939.37
250.59	8996.82
250.66	8990.13
250.731	9062.99
250.802	9052.44
250.873	9064.28
250.944	9080.17
251.014	9057.74
251.085	9151.23
251.156	9173.85
251.227	9220.29
251.297	9263.25
251.368	9314.75
251.439	9353.62
251.51	9404.47
251.58	9385.08
251.651	9370.44
251.722	9416.72
251.792	9343.97
251.863	9332.52
251.934	9397.38
252.005	9508.69
252.075	9502.48
252.146	9544.26
252.217	9586.98
252.287	9614.53
252.358	9606.92
252.429	9673.73
252.499	9660.44
252.57	9652.4
252.641	9698.57
252.711	9690.87
252.782	9632.35
252.852	9709.86
252.923	9700.32
252.994	9700.47
253.064	9748.79
253.135	9719.52
253.205	9684.89
253.276	9764.09
253.347	9831.83
253.417	9798.5
253.488	9773.88
253.558	9749.66
253.629	9736.9
253.699	9744.37
253.77	9771.3
253.841	9759.84
253.911	9765.19
253.982	9777.12
254.052	9801.22
254.123	9798.96
254.193	9793.61
254.264	9934.29
254.334	9887.89
254.405	9840.4
254.475	9791.62
254.546	9789.41
254.616	9855.67
254.687	9884.08
254.757	9898.1
254.827	9891.89
254.898	9911.53
254.968	9905.71
255.039	9876.72
255.109	9907.2
255.18	9865.3
255.25	9775.67
255.321	9800.47
255.391	9734.48
255.461	9814.52
255.532	9716.29
255.602	9696.21
255.673	9624.71
255.743	9574.49
255.813	9478.7
255.884	9522.67
255.954	9553.34
256.024	9611.24
256.095	9595.44
256.165	9542.61
256.235	9554.71
256.306	9520.71
256.376	9557.66
256.446	9585.17
256.517	9618.15
256.587	9653.41
256.657	9657.02
256.728	9673.44
256.798	9668.96
256.868	9654.47
256.938	9607.83
257.009	9639.81
257.079	9661.05
257.149	9752.41
257.219	9663.3
257.29	9695.92
257.36	9612.43
257.43	9643.21
257.5	9552.92
257.571	9532.5
257.641	9563.5
257.711	9502.72
257.781	9525.97
257.852	9527.75
257.922	9451.47
257.992	9440.78
258.062	9415.2
258.132	9450.22
258.202	9440.3
258.273	9440.26
258.343	9505.13
258.413	9477.68
258.483	9468.68
258.553	9421.05
258.623	9374.09
258.693	9402.21
258.764	9456.42
258.834	9519.62
258.904	9517.41
258.974	9489.31
259.044	9471.64
259.114	9471.4
259.184	9482.28
259.254	9468.37
259.324	9385.63
259.394	9412.2
259.464	9471.01
259.535	9461.81
259.605	9426.79
259.675	9397.68
259.745	9405.39
259.815	9357.03
259.885	9329.16
259.955	9431.99
260.025	9396.14
260.095	9392.57
260.165	9393.97
260.235	9447.06
260.305	9402.48
260.375	9341.7
260.445	9422.81
260.515	9477.37
260.585	9525.25
260.655	9517.21
260.725	9553.57
260.795	9584.09
260.865	9648.25
260.934	9601.05
261.004	9620.26
261.074	9618.34
261.144	9671.43
261.214	9708.67
261.284	9703.08
261.354	9740.62
261.424	9677.2
261.494	9748.54
261.564	9749.36
261.634	9772.38
261.703	9685.39
261.773	9715
261.843	9748.7
261.913	9727.61
261.983	9659.47
262.053	9663.62
262.123	9651.77
262.192	9594.48
262.262	9626.75
262.332	9558.2
262.402	9581.32
262.472	9573.14
262.541	9491.13
262.611	9525.62
262.681	9480.48
262.751	9505.14
262.821	9494.21
262.89	9442.71
262.96	9455.33
263.03	9518.01
263.1	9524.65
263.169	9530.72
263.239	9547.62
263.309	9605.53
263.379	9622.05
263.448	9625.18
263.518	9633.56
263.588	9637.37
263.657	9696.54
263.727	9717.93
263.797	9717.88
263.867	9692.74
263.936	9637.32
264.006	9691.49
264.076	9663.99
264.145	9642.42
264.215	9604.81
264.285	9631.2
264.354	9569.49
