Data from 20250701_urea_2M_exp3_MAYP1162681_05-39-48-876.txt Node
Date: Wed Jul 02 05:39:48 BST 2025
User: adleo
Spectrometer: MAYP116268
Trigger mode: 0
Integration Time (sec): 4.000000E0
Scans to average: 1
Electric dark correction enabled: true
Nonlinearity correction enabled: true
Boxcar width: 10
XAxis mode: Wavelengths
Number of Pixels in Spectrum: 2068
>>>>>Begin Spectral Data<<<<<
179.565	3556.55
179.642	3747.33
179.718	3886.45
179.795	4019.8
179.871	4136.44
179.948	4197.61
180.024	4266.2
180.101	4345.01
180.177	4396.82
180.254	4476.48
180.33	4553.97
180.407	4810.99
180.483	5087.05
180.56	5369.82
180.636	5627.67
180.712	5594.09
180.789	5628.61
180.865	5667.72
180.942	5701.28
181.018	5742.51
181.095	5790.35
181.171	5812.17
181.248	5811.02
181.324	5865.73
181.4	5890.05
181.477	5922.92
181.553	5968.51
181.63	6032.61
181.706	6081.18
181.782	6102.66
181.859	6096.32
181.935	6108.32
182.011	6099.54
182.088	6152.47
182.164	6214.32
182.24	6263.3
182.317	6288.97
182.393	6281.87
182.469	6329.76
182.546	6370.42
182.622	6380.55
182.698	6364.22
182.775	6400.95
182.851	6448.23
182.927	6423.6
183.003	6408.96
183.08	6392.07
183.156	6421.83
183.232	6418.04
183.308	6382.33
183.385	6409.91
183.461	6468.87
183.537	6475.16
183.613	6514.77
183.69	6490.43
183.766	6459.1
183.842	6480.47
183.918	6498.53
183.995	6541.54
184.071	6553.31
184.147	6538.9
184.223	6507.1
184.299	6551.14
184.375	6517.68
184.452	6540.84
184.528	6669.96
184.604	6705.29
184.68	6742.06
184.756	6765.36
184.832	6780.06
184.908	6797.14
184.985	6800.55
185.061	6748.74
185.137	6778.04
185.213	6742.46
185.289	6747.55
185.365	6724.7
185.441	6720.96
185.517	6762.52
185.593	6748.5
185.669	6739.23
185.745	6772.51
185.822	6826.17
185.898	6796.67
185.974	6825.86
186.05	6798.09
186.126	6718.19
186.202	6694.86
186.278	6683.33
186.354	6645.67
186.43	6663.6
186.506	6660.05
186.582	6652.89
186.658	6672.52
186.734	6607.48
186.81	6615.11
186.886	6626.29
186.962	6665.43
187.038	6652.03
187.114	6628.38
187.19	6653.89
187.266	6626.18
187.341	6628.01
187.417	6606.5
187.493	6608.18
187.569	6615.77
187.645	6597.62
187.721	6562.41
187.797	6588.1
187.873	6602.12
187.949	6588.87
188.025	6566.29
188.101	6577.62
188.176	6598.84
188.252	6584.73
188.328	6608.29
188.404	6608.09
188.48	6589.76
188.556	6569.63
188.632	6564.25
188.707	6569.88
188.783	6561.28
188.859	6543.19
188.935	6502.17
189.011	6525.84
189.086	6506.16
189.162	6476.87
189.238	6469.43
189.314	6458.1
189.39	6434.86
189.465	6410.71
189.541	6465.89
189.617	6416.64
189.693	6393.08
189.768	6406.67
189.844	6488.87
189.92	6464.6
189.996	6496.19
190.071	6532.11
190.147	6525.49
190.223	6561.56
190.298	6534.61
190.374	6496.05
190.45	6532.67
190.526	6559.27
190.601	6545.97
190.677	6548.61
190.753	6638.71
190.828	6653.35
190.904	6705.13
190.98	6758.3
191.055	6794.28
191.131	6763.63
191.207	6839.35
191.282	6872.81
191.358	6834.49
191.433	6784.7
191.509	6827.93
191.585	6817.99
191.66	6818.47
191.736	6838.45
191.811	6811.07
191.887	6864.5
191.963	6938.29
192.038	6956.11
192.114	6957.5
192.189	6962.93
192.265	6951.46
192.34	6880.89
192.416	6872.78
192.491	6860.53
192.567	6869.13
192.642	6877.35
192.718	6879.94
192.793	6836.8
192.869	6821.58
192.944	6836.32
193.02	6865.49
193.095	6878.74
193.171	6896.23
193.246	6896.61
193.322	6895.7
193.397	6893.21
193.473	6843.56
193.548	6787.06
193.624	6804.98
193.699	6801.76
193.775	6857.46
193.85	6867.59
193.925	6898.38
194.001	6900.3
194.076	6872.54
194.152	6837.56
194.227	6811.8
194.302	6776.76
194.378	6786.51
194.453	6781.13
194.529	6822.74
194.604	6771.77
194.679	6754.96
194.755	6690.58
194.83	6732.74
194.905	6719.34
194.981	6745.85
195.056	6724.82
195.131	6741.1
195.207	6742.11
195.282	6713.4
195.357	6650.4
195.433	6698.04
195.508	6660.62
195.583	6682.61
195.659	6730.71
195.734	6753.91
195.809	6749.74
195.884	6781.51
195.96	6785.5
196.035	6832.08
196.11	6814.4
196.185	6853.35
196.261	6862.43
196.336	6965.46
196.411	6912.98
196.486	6933.68
196.561	6911.77
196.637	6940.1
196.712	6994.51
196.787	7001.82
196.862	7046.82
196.937	7083.04
197.013	7098.04
197.088	7129.84
197.163	7203.3
197.238	7261.89
197.313	7263.14
197.388	7307.88
197.464	7408.47
197.539	7444.85
197.614	7426.73
197.689	7469.85
197.764	7526.16
197.839	7594.71
197.914	7572.4
197.989	7650.81
198.065	7693.59
198.14	7861.26
198.215	7946.27
198.29	7980.39
198.365	8018.82
198.44	8059.83
198.515	8147.33
198.59	8198.13
198.665	8288.76
198.74	8312.29
198.815	8317.15
198.89	8387.77
198.965	8482.05
199.04	8466.31
199.115	8519.56
199.19	8655.23
199.265	8662.39
199.34	8694.98
199.415	8806.83
199.49	8882.75
199.565	8909.22
199.64	8993.21
199.715	8985.98
199.79	9010.24
199.865	9033.11
199.94	9031.18
200.015	9132.09
200.09	9150.73
200.165	9175.52
200.24	9192.18
200.315	9319.35
200.39	9361.96
200.464	9380.79
200.539	9389.36
200.614	9445.44
200.689	9521.62
200.764	9550.33
200.839	9613.24
200.914	9628.02
200.989	9587.85
201.063	9628.88
201.138	9575.42
201.213	9572.34
201.288	9507.19
201.363	9527.89
201.438	9528.33
201.512	9581.37
201.587	9526.76
201.662	9534.8
201.737	9570.63
201.812	9599.67
201.886	9495.99
201.961	9530.29
202.036	9491.49
202.111	9483.98
202.186	9389.71
202.26	9328.45
202.335	9248.94
202.41	9221.65
202.485	9163.94
202.559	9097.98
202.634	9008.88
202.709	9038.03
202.784	8975.79
202.858	8973.29
202.933	8901.57
203.008	8881.45
203.082	8812.29
203.157	8803.81
203.232	8664.55
203.306	8594.26
203.381	8486.53
203.456	8410.74
203.53	8332.34
203.605	8268.14
203.68	8187.91
203.754	8164.4
203.829	8116.62
203.904	8054.76
203.978	8013.91
204.053	8026.57
204.127	7985.93
204.202	7988.33
204.277	7934.18
204.351	7910.9
204.426	7886.22
204.5	7862.41
204.575	7744.93
204.65	7782.21
204.724	7762.82
204.799	7790.83
204.873	7776.35
204.948	7767.74
205.022	7726.26
205.097	7700.13
205.171	7741.71
205.246	7766.63
205.32	7759.62
205.395	7758.13
205.469	7728.92
205.544	7750.81
205.618	7692.38
205.693	7731.24
205.767	7682.49
205.842	7753.1
205.916	7733.34
205.991	7702.71
206.065	7726.41
206.14	7781.56
206.214	7762.31
206.289	7734.46
206.363	7773.41
206.438	7788.13
206.512	7815.59
206.586	7873.9
206.661	7904.65
206.735	7835.07
206.81	7838.44
206.884	7893.24
206.958	7853.73
207.033	7908.37
207.107	7933.01
207.181	8035
207.256	8013.12
207.33	8075.25
207.405	8115.88
207.479	8179.57
207.553	8204.52
207.628	8144.24
207.702	8180.36
207.776	8158.18
207.851	8165.97
207.925	8220.12
207.999	8202.13
208.073	8198.71
208.148	8211.89
208.222	8167
208.296	8276.28
208.371	8322.59
208.445	8358.1
208.519	8448.58
208.593	8485.82
208.668	8472.68
208.742	8487.46
208.816	8496.84
208.89	8542.81
208.965	8534.05
209.039	8556.14
209.113	8612.01
209.187	8680.09
209.261	8662.05
209.336	8728.6
209.41	8802.58
209.484	8795.6
209.558	8866.98
209.632	8910.73
209.707	8948.32
209.781	9015.26
209.855	9063.12
209.929	9120.74
210.003	9138.79
210.077	9139.85
210.151	9301.86
210.226	9417.46
210.3	9507.46
210.374	9582.6
210.448	9598.87
210.522	9634.37
210.596	9676.85
210.67	9709.35
210.744	9869.06
210.818	9981.47
210.892	10054.69
210.966	10033.06
211.041	10091.1
211.115	10086.24
211.189	10153.67
211.263	10207.99
211.337	10240.02
211.411	10288.54
211.485	10268.97
211.559	10307.79
211.633	10309.96
211.707	10204.76
211.781	10222.74
211.855	10098.26
211.929	10070.09
212.003	10002.07
212.077	10026.6
212.151	10054.83
212.225	10081.32
212.299	10046.48
212.373	10001.93
212.447	9980.34
212.52	10072.21
212.594	10075.97
212.668	10105.39
212.742	10059.44
212.816	10040.07
212.89	10014.84
212.964	10001.92
213.038	10009.15
213.112	10039.7
213.186	10086.02
213.26	10008.42
213.333	9852.28
213.407	9860.75
213.481	9863.83
213.555	9896.61
213.629	9852.72
213.703	9793.33
213.777	9778.49
213.85	9697.61
213.924	9799.46
213.998	9789.05
214.072	9753.06
214.146	9697.62
214.219	9679.94
214.293	9658.22
214.367	9652.35
214.441	9672.24
214.515	9622.96
214.588	9534.16
214.662	9410.94
214.736	9328.9
214.81	9337.66
214.883	9359.93
214.957	9320.57
215.031	9260.95
215.105	9172.92
215.178	9115.15
215.252	9075.24
215.326	8973.14
215.4	8895.82
215.473	8723.34
215.547	8635.47
215.621	8568.72
215.694	8562.65
215.768	8471.02
215.842	8407.5
215.915	8335.77
215.989	8221.13
216.063	8162.94
216.136	8140.51
216.21	8113.63
216.284	8122.24
216.357	8099.87
216.431	8052.49
216.504	8045.61
216.578	8099.64
216.652	8111.18
216.725	8081.4
216.799	8087.27
216.873	8077.51
216.946	8084.43
217.02	8041.22
217.093	8012.84
217.167	7916.42
217.24	7840.69
217.314	7801.51
217.387	7755.33
217.461	7711.18
217.535	7735.52
217.608	7674.74
217.682	7643.29
217.755	7659.16
217.829	7607.31
217.902	7592.31
217.976	7571.64
218.049	7527.88
218.123	7456.16
218.196	7455.44
218.27	7420.58
218.343	7350.6
218.417	7342.67
218.49	7314.74
218.563	7360.21
218.637	7360.5
218.71	7435.99
218.784	7459.21
218.857	7493.38
218.931	7510.34
219.004	7519.57
219.077	7538.09
219.151	7559.91
219.224	7555.44
219.298	7548.61
219.371	7588.91
219.444	7545.33
219.518	7556
219.591	7567.29
219.665	7666.23
219.738	7678.68
219.811	7661.81
219.885	7704.03
219.958	7735.96
220.031	7742.4
220.105	7761.59
220.178	7772.89
220.251	7743.5
220.325	7765.15
220.398	7780.44
220.471	7810.73
220.544	7844.58
220.618	7815.19
220.691	7842.12
220.764	7860.97
220.838	7889.92
220.911	7877.47
220.984	7964.05
221.057	8000.46
221.131	8028.4
221.204	7935.14
221.277	8003.31
221.35	8122.08
221.424	8116.11
221.497	8124.63
221.57	8147.85
221.643	8176.34
221.716	8225.13
221.79	8228.59
221.863	8238.79
221.936	8243.7
222.009	8255.1
222.082	8280.51
222.155	8293.25
222.229	8356.2
222.302	8391.71
222.375	8396.81
222.448	8436.7
222.521	8440.84
222.594	8439.87
222.667	8408.86
222.74	8460.86
222.814	8453.54
222.887	8439.87
222.96	8496.8
223.033	8541.85
223.106	8568.26
223.179	8600.85
223.252	8607.16
223.325	8640.46
223.398	8652.58
223.471	8682.66
223.544	8707.24
223.617	8719.76
223.69	8743.09
223.763	8701.98
223.837	8721.14
223.91	8745.64
223.983	8695.36
224.056	8668.37
224.129	8693.97
224.202	8749.23
224.275	8739.75
224.348	8714.1
224.42	8678.72
224.493	8620.11
224.566	8593.97
224.639	8607.54
224.712	8580.48
224.785	8571.48
224.858	8563.73
224.931	8546.93
225.004	8508.34
225.077	8499.54
225.15	8414.97
225.223	8417.09
225.296	8502.12
225.369	8441.5
225.442	8412.24
225.514	8433.88
225.587	8448.75
225.66	8454.38
225.733	8457.27
225.806	8467.03
225.879	8452.79
225.952	8423.45
226.025	8468.25
226.097	8520.11
226.17	8518.86
226.243	8451.41
226.316	8449.05
226.389	8452.42
226.461	8472.59
226.534	8495.05
226.607	8486.73
226.68	8569.37
226.753	8561.63
226.825	8476.78
226.898	8533.41
226.971	8536.3
227.044	8551.26
227.117	8558.43
227.189	8574.56
227.262	8609.89
227.335	8628.96
227.407	8627.66
227.48	8657.43
227.553	8674.28
227.626	8649.33
227.698	8653.57
227.771	8697.43
227.844	8675.54
227.916	8690.36
227.989	8657.39
228.062	8656.91
228.134	8745.01
228.207	8743.81
228.28	8741.69
228.352	8754.59
228.425	8766.53
228.498	8815.53
228.57	8796.04
228.643	8857.67
228.716	8855.02
228.788	8839.9
228.861	8832.3
228.934	8891.88
229.006	8901.41
229.079	8897.12
229.151	8886.09
229.224	8853.47
229.296	8877.15
229.369	8978.61
229.442	9028.16
229.514	9006.95
229.587	9046.51
229.659	8965.92
229.732	8977.81
229.804	9013.62
229.877	9097.47
229.949	9129.64
230.022	9180.94
230.094	9182.48
230.167	9166.53
230.239	9127.55
230.312	9120.86
230.384	9194.54
230.457	9186.65
230.529	9196.9
230.602	9210.09
230.674	9218.95
230.747	9259.56
230.819	9288.64
230.892	9174.34
230.964	9170.48
231.037	9197.18
231.109	9187.75
231.181	9229.77
231.254	9194.58
231.326	9179.94
231.399	9145.88
231.471	9115.55
231.544	9029.73
231.616	9075.16
231.688	9083.92
231.761	9069.92
231.833	9051.59
231.905	8962.16
231.978	8967.55
232.05	8950.28
232.122	8946.47
232.195	8924.42
232.267	8959.38
232.339	8934.29
232.412	8997.3
232.484	8972.35
232.556	8954.26
232.629	9022.36
232.701	9042.2
232.773	9050.09
232.846	9045.81
232.918	9060.31
232.99	9079.52
233.062	9122.52
233.135	9140.09
233.207	9098.78
233.279	9146.95
233.351	9186.71
233.424	9194.32
233.496	9174.29
233.568	9256.91
233.64	9215.76
233.713	9231.74
233.785	9224.76
233.857	9241.66
233.929	9190.63
234.001	9258.12
234.074	9316.54
234.146	9247.14
234.218	9241.99
234.29	9248.05
234.362	9235.59
234.434	9189.31
234.507	9152.96
234.579	9101.54
234.651	9072.6
234.723	9107.61
234.795	9118.1
234.867	9110.64
234.939	9168.76
235.012	9182.52
235.084	9188.16
235.156	9225.56
235.228	9209.87
235.3	9196
235.372	9205.3
235.444	9263.11
235.516	9181.57
235.588	9195.1
235.66	9214.74
235.732	9189.56
235.804	9382.48
235.876	9422.24
235.948	9481.24
236.02	9492.55
236.092	9506.13
236.164	9522.88
236.236	9512.96
236.308	9515.95
236.38	9542.24
236.452	9520.03
236.524	9542.43
236.596	9602.13
236.668	9638.25
236.74	9662.76
236.812	9692.27
236.884	9723.34
236.956	9739.53
237.028	9735.67
237.1	9716.41
237.172	9778.51
237.244	9861.4
237.316	9746.06
237.388	9731.33
237.46	9712.2
237.532	9769.56
237.604	9766
237.675	9843.41
237.747	9896.64
237.819	9884.84
237.891	9887.2
237.963	9878.53
238.035	9875.06
238.107	9773.26
238.178	9832.77
238.25	9837.3
238.322	9924.89
238.394	9878.85
238.466	9879.52
238.538	9923.44
238.609	9965.29
238.681	9911.77
238.753	9883.63
238.825	9899.63
238.897	9931.79
238.968	10006.34
239.04	9997.52
239.112	10104.69
239.184	10062.39
239.255	10060.65
239.327	10091.71
239.399	10120.28
239.471	10166.71
239.542	10196.33
239.614	10260.11
239.686	10183.41
239.758	10238.47
239.829	10213.12
239.901	10283.49
239.973	10293.51
240.044	10326.22
240.116	10334.84
240.188	10352.28
240.259	10370.06
240.331	10366.68
240.403	10401.99
240.474	10350.05
240.546	10333.91
240.618	10280
240.689	10279.37
240.761	10299.17
240.833	10371.49
240.904	10364.6
240.976	10361.04
241.048	10381.37
241.119	10411.73
241.191	10453.21
241.262	10520.15
241.334	10510.94
241.405	10513.21
241.477	10517.93
241.549	10527.18
241.62	10551.13
241.692	10597.81
241.763	10655.88
241.835	10671.11
241.906	10687.59
241.978	10666.25
242.049	10733.99
242.121	10789.78
242.192	10851.21
242.264	10815.61
242.335	10771.47
242.407	10814.74
242.478	10821.96
242.55	10845.77
242.621	10828.85
242.693	10831.36
242.764	10814.34
242.836	10827.79
242.907	10854.44
242.979	10881.85
243.05	10898.72
243.122	10921.08
243.193	10913.47
243.264	10843.54
243.336	10843.3
243.407	10877.04
243.479	10956.74
243.55	10974.71
243.622	10989.37
243.693	10992.02
243.764	11059.33
243.836	11034.91
243.907	11028.79
243.978	11032.64
244.05	11051.05
244.121	11008.89
244.192	11051.35
244.264	11008.65
244.335	11015.93
244.407	10969.28
244.478	10990.58
244.549	10989.67
244.62	10947.12
244.692	10956.51
244.763	11000.55
244.834	10992.41
244.906	10966.34
244.977	10987.4
245.048	11033.58
245.119	11014.21
245.191	10988.95
245.262	10929.3
245.333	11000.32
245.405	11019.35
245.476	11052.12
245.547	11068.46
245.618	11126.81
245.689	11132.84
245.761	11169.27
245.832	11175.39
245.903	11221.31
245.974	11245.22
246.045	11254.37
246.117	11340.2
246.188	11316.83
246.259	11296.64
246.33	11314.91
246.401	11329.41
246.473	11293.22
246.544	11276.34
246.615	11330.32
246.686	11334.81
246.757	11410.22
246.828	11389.21
246.899	11453.22
246.97	11420.74
247.042	11409.95
247.113	11447.11
247.184	11525.49
247.255	11515.75
247.326	11541.73
247.397	11546.26
247.468	11552.48
247.539	11565.78
247.61	11528.86
247.681	11573.29
247.752	11628.67
247.823	11608.72
247.894	11620.43
247.965	11590.31
248.037	11578.06
248.108	11528.81
248.179	11542.69
248.25	11532.85
248.321	11569.96
248.392	11525.62
248.463	11608.27
248.534	11604.22
248.605	11631.31
248.675	11610.2
248.746	11636.61
248.817	11657.67
248.888	11677.34
248.959	11627.94
249.03	11657.58
249.101	11658.45
249.172	11650.54
249.243	11576.52
249.314	11641.39
249.385	11657.3
249.456	11684.62
249.527	11680.48
249.598	11706.6
249.669	11705.97
249.739	11715.56
249.81	11722.51
249.881	11678.5
249.952	11671.27
250.023	11671.8
250.094	11613.09
250.165	11585.47
250.235	11580.89
250.306	11574.29
250.377	11546.82
250.448	11574.19
250.519	11506.43
250.59	11566.63
250.66	11566.34
250.731	11634.15
250.802	11631.16
250.873	11648.27
250.944	11677.57
251.014	11668.94
251.085	11752.43
251.156	11773.74
251.227	11822.61
251.297	11872.26
251.368	11926.05
251.439	11962.88
251.51	12012.33
251.58	11994.93
251.651	11988.43
251.722	12032.53
251.792	11982.94
251.863	11988.33
251.934	12048.87
252.005	12160.84
252.075	12170.24
252.146	12212.56
252.217	12265.05
252.287	12303.42
252.358	12305.98
252.429	12371.92
252.499	12368.6
252.57	12373.46
252.641	12419.4
252.711	12426.63
252.782	12387.35
252.852	12463.32
252.923	12467.56
252.994	12485.35
253.064	12537.69
253.135	12518.65
253.205	12495.8
253.276	12575.19
253.347	12641.13
253.417	12618.33
253.488	12597.21
253.558	12572.53
253.629	12569.45
253.699	12583.52
253.77	12612.16
253.841	12607.77
253.911	12617.99
253.982	12634.38
254.052	12668.12
254.123	12675.98
254.193	12680.32
254.264	12807.73
254.334	12776.97
254.405	12742.75
254.475	12709.34
254.546	12716.23
254.616	12780.73
254.687	12815
254.757	12834.77
254.827	12830.28
254.898	12852.12
254.968	12860.94
255.039	12847.98
255.109	12881.33
255.18	12850.82
255.25	12778.99
255.321	12814.62
255.391	12773.45
255.461	12862.19
255.532	12784.48
255.602	12785.98
255.673	12732.76
255.743	12701.96
255.813	12625.32
255.884	12668.22
255.954	12700.71
256.024	12770.9
256.095	12776.73
256.165	12742.12
256.235	12762.8
256.306	12747.04
256.376	12797.17
256.446	12835.74
256.517	12870.73
256.587	12911.47
256.657	12938.03
256.728	12963.34
256.798	12969.6
256.868	12965.5
256.938	12931.28
257.009	12973.17
257.079	12998
257.149	13094.94
257.219	13023.45
257.29	13068.61
257.36	13015.34
257.43	13056.85
257.5	12977.98
257.571	12963.62
257.641	12996.69
257.711	12964.15
257.781	12994.81
257.852	13007
257.922	12950.55
257.992	12960.15
258.062	12958.07
258.132	12991.29
258.202	12988.3
258.273	12999.15
258.343	13079.51
258.413	13066.3
258.483	13073.62
258.553	13045.42
258.623	13020.07
258.693	13054.82
258.764	13117.54
258.834	13189.7
258.904	13200.45
258.974	13201.37
259.044	13217.18
259.114	13244.51
259.184	13274.88
259.254	13285.92
259.324	13230.73
259.394	13277.63
259.464	13353.75
259.535	13363.87
259.605	13356.4
259.675	13357.75
259.745	13392.36
259.815	13361.46
259.885	13364.69
259.955	13468.72
260.025	13460.91
260.095	13470.35
260.165	13500.15
260.235	13561.46
260.305	13544.78
260.375	13515.23
260.445	13604.99
260.515	13664.91
260.585	13717.51
260.655	13719.72
260.725	13763.88
260.795	13804.52
260.865	13867.14
260.934	13830.89
261.004	13854.56
261.074	13864.82
261.144	13919.78
261.214	13954.78
261.284	13952.13
261.354	14000.81
261.424	13958.3
261.494	14025.88
261.564	14033.36
261.634	14061.08
261.703	13990.5
261.773	14023.86
261.843	14065.56
261.913	14057.36
261.983	13999.42
262.053	14017.59
262.123	14020.2
262.192	13983.27
262.262	14018.36
262.332	13972.18
262.402	14005.83
262.472	14015.04
262.541	13958.49
262.611	14004
262.681	13980.43
262.751	14027.62
262.821	14018.03
262.89	13993.11
262.96	14024.97
263.03	14100.65
263.1	14120.94
263.169	14144.32
263.239	14169.15
263.309	14228.49
