Data from 20250701_urea_2M_exp3_MAYP1162681_19-29-51-802.txt Node
Date: Tue Jul 01 19:29:51 BST 2025
User: adleo
Spectrometer: MAYP116268
Trigger mode: 0
Integration Time (sec): 4.000000E0
Scans to average: 1
Electric dark correction enabled: true
Nonlinearity correction enabled: true
Boxcar width: 10
XAxis mode: Wavelengths
Number of Pixels in Spectrum: 2068
>>>>>Begin Spectral Data<<<<<
179.565	4004
179.642	4211.62
179.718	4374.04
179.795	4513.11
179.871	4640.02
179.948	4708.62
180.024	4787.11
180.101	4870.31
180.177	4925.19
180.254	5009.14
180.33	5095.05
180.407	5387.8
180.483	5696.68
180.56	6010.55
180.636	6301.01
180.712	6256.57
180.789	6288.59
180.865	6333.74
180.942	6364.64
181.018	6401.27
181.095	6453.92
181.171	6476.24
181.248	6475.9
181.324	6526.39
181.4	6557.7
181.477	6595.79
181.553	6640.9
181.63	6714.34
181.706	6771.6
181.782	6803.76
181.859	6801.36
181.935	6819.33
182.011	6803.72
182.088	6864.06
182.164	6940.25
182.24	6993.93
182.317	7022.51
182.393	7020.11
182.469	7072.19
182.546	7121
182.622	7139.74
182.698	7124.89
182.775	7166.65
182.851	7222.05
182.927	7199.56
183.003	7184.14
183.08	7160.12
183.156	7193.56
183.232	7183.94
183.308	7142.29
183.385	7170.92
183.461	7233.97
183.537	7231.18
183.613	7279.81
183.69	7250.55
183.766	7209.33
183.842	7228.37
183.918	7245.86
183.995	7295.65
184.071	7302.09
184.147	7289.45
184.223	7247.14
184.299	7285.74
184.375	7243.12
184.452	7263.17
184.528	7399.86
184.604	7438.15
184.68	7477.22
184.756	7505.78
184.832	7515.54
184.908	7533.45
184.985	7525.33
185.061	7470.11
185.137	7508.62
185.213	7463.92
185.289	7468.97
185.365	7441.72
185.441	7441.58
185.517	7490.83
185.593	7476.65
185.669	7465.59
185.745	7500.16
185.822	7562.18
185.898	7533.28
185.974	7567.97
186.05	7545.32
186.126	7463.01
186.202	7436.58
186.278	7428.55
186.354	7393.4
186.43	7424.04
186.506	7424.09
186.582	7430.38
186.658	7450.22
186.734	7374.87
186.81	7386.07
186.886	7394.14
186.962	7437.54
187.038	7416.39
187.114	7386.95
187.19	7417.48
187.266	7387.93
187.341	7383.6
187.417	7359.14
187.493	7359.57
187.569	7370.58
187.645	7345.97
187.721	7311.64
187.797	7339.99
187.873	7349.17
187.949	7331.97
188.025	7304.46
188.101	7315.32
188.176	7333.3
188.252	7323.21
188.328	7350.96
188.404	7350.15
188.48	7331.17
188.556	7309.53
188.632	7311.94
188.707	7315.74
188.783	7301.31
188.859	7281.67
188.935	7241.72
189.011	7266.38
189.086	7248.4
189.162	7215.72
189.238	7201.36
189.314	7186.36
189.39	7163.15
189.465	7143.88
189.541	7199.06
189.617	7148.42
189.693	7128.86
189.768	7141.56
189.844	7230.19
189.92	7201.9
189.996	7234.39
190.071	7279.19
190.147	7272.17
190.223	7303.71
190.298	7274.53
190.374	7226.76
190.45	7274.84
190.526	7308.01
190.601	7285.42
190.677	7286.91
190.753	7393.93
190.828	7415.84
190.904	7472.72
190.98	7531.81
191.055	7567.67
191.131	7537.28
191.207	7610.25
191.282	7635.23
191.358	7592.74
191.433	7539.58
191.509	7588.82
191.585	7578.29
191.66	7575.55
191.736	7603.14
191.811	7579.2
191.887	7634.84
191.963	7721.62
192.038	7737.63
192.114	7737.97
192.189	7754.55
192.265	7746.77
192.34	7665.31
192.416	7657.05
192.491	7641.27
192.567	7643.68
192.642	7655.7
192.718	7658.15
192.793	7619.4
192.869	7615.36
192.944	7629.68
193.02	7653.44
193.095	7669.69
193.171	7693.01
193.246	7692.05
193.322	7687.09
193.397	7682.1
193.473	7634.38
193.548	7566.14
193.624	7588.46
193.699	7587.4
193.775	7641.03
193.85	7643.82
193.925	7675.03
194.001	7676.57
194.076	7648.2
194.152	7616.12
194.227	7585.49
194.302	7551.08
194.378	7558.15
194.453	7542.24
194.529	7584.51
194.604	7536.04
194.679	7509.46
194.755	7437.9
194.83	7487.07
194.905	7471.93
194.981	7503.52
195.056	7481.55
195.131	7505.3
195.207	7498.61
195.282	7464.29
195.357	7401.24
195.433	7452.91
195.508	7415.41
195.583	7436.51
195.659	7482.86
195.734	7503.59
195.809	7498.88
195.884	7532.08
195.96	7536.99
196.035	7592.27
196.11	7577.17
196.185	7616.06
196.261	7633.85
196.336	7748.66
196.411	7692.95
196.486	7716.99
196.561	7692.47
196.637	7720.49
196.712	7777.01
196.787	7784.95
196.862	7839.14
196.937	7881.36
197.013	7904.11
197.088	7936.57
197.163	8015.52
197.238	8079.31
197.313	8081.57
197.388	8131.44
197.464	8237.74
197.539	8277.76
197.614	8253.91
197.689	8298.75
197.764	8357.89
197.839	8425.82
197.914	8400.22
197.989	8478.17
198.065	8523.2
198.14	8706.54
198.215	8802.69
198.29	8846.65
198.365	8896.71
198.44	8931.55
198.515	9023.94
198.59	9082.86
198.665	9174.9
198.74	9207.99
198.815	9217.09
198.89	9297.58
198.965	9405.55
199.04	9393.46
199.115	9446.12
199.19	9605.96
199.265	9614.77
199.34	9652.19
199.415	9768.05
199.49	9843.78
199.565	9875.66
199.64	9963.21
199.715	9947.26
199.79	9967.78
199.865	9990.61
199.94	9979.44
200.015	10095.15
200.09	10112.83
200.165	10129.3
200.24	10149.63
200.315	10279.31
200.39	10327.93
200.464	10341.89
200.539	10345.17
200.614	10401.72
200.689	10488.01
200.764	10505.55
200.839	10569.12
200.914	10581.26
200.989	10549.74
201.063	10601.92
201.138	10548.48
201.213	10552.04
201.288	10480.84
201.363	10504.35
201.438	10500.98
201.512	10555.83
201.587	10495.65
201.662	10510.54
201.737	10558.62
201.812	10597.13
201.886	10489.84
201.961	10523.53
202.036	10492.17
202.111	10480.61
202.186	10377.99
202.26	10311.74
202.335	10233.54
202.41	10208.3
202.485	10148.92
202.559	10076.43
202.634	9976.86
202.709	10004.69
202.784	9928.92
202.858	9930.9
202.933	9860.29
203.008	9836.4
203.082	9766.38
203.157	9758
203.232	9605.2
203.306	9523.11
203.381	9398.6
203.456	9316.5
203.53	9234.06
203.605	9154.51
203.68	9071.76
203.754	9043.14
203.829	8990.85
203.904	8919.75
203.978	8880.8
204.053	8898.13
204.127	8852.07
204.202	8848.75
204.277	8780.12
204.351	8759.76
204.426	8736.6
204.5	8707.38
204.575	8582.05
204.65	8621.29
204.724	8592.88
204.799	8617.93
204.873	8602.86
204.948	8599.98
205.022	8555.33
205.097	8524.03
205.171	8578.45
205.246	8608.35
205.32	8604.11
205.395	8605.99
205.469	8574.01
205.544	8597.75
205.618	8535.52
205.693	8580.08
205.767	8534.71
205.842	8617.06
205.916	8596.42
205.991	8559.32
206.065	8577.75
206.14	8634
206.214	8621.43
206.289	8592.12
206.363	8639.66
206.438	8648.52
206.512	8677.74
206.586	8744.86
206.661	8773.61
206.735	8696.41
206.81	8696.41
206.884	8748.03
206.958	8701.07
207.033	8760.67
207.107	8783.6
207.181	8897.08
207.256	8872.48
207.33	8942.26
207.405	8980.51
207.479	9048.48
207.553	9076.39
207.628	9019.38
207.702	9060.24
207.776	9034.92
207.851	9049.74
207.925	9103.92
207.999	9096.85
208.073	9086.54
208.148	9093.77
208.222	9055.39
208.296	9168.71
208.371	9227.33
208.445	9270.18
208.519	9373.05
208.593	9419.04
208.668	9402.42
208.742	9410.51
208.816	9419.71
208.89	9467.59
208.965	9469.37
209.039	9495.72
209.113	9563.42
209.187	9638.29
209.261	9620.92
209.336	9687.9
209.41	9760.53
209.484	9754.85
209.558	9832.44
209.632	9882.33
209.707	9924.28
209.781	10001.77
209.855	10054.72
209.929	10113.18
210.003	10138.95
210.077	10129.7
210.151	10292.88
210.226	10418.21
210.3	10509.3
210.374	10592.04
210.448	10603.56
210.522	10633.92
210.596	10674.87
210.67	10704.12
210.744	10871.85
210.818	10996.22
210.892	11074.77
210.966	11051.02
211.041	11109.56
211.115	11098.19
211.189	11190.42
211.263	11243.28
211.337	11268.39
211.411	11316.77
211.485	11297.83
211.559	11333.39
211.633	11346.64
211.707	11238.19
211.781	11261.57
211.855	11134.29
211.929	11102.5
212.003	11035.88
212.077	11069.86
212.151	11109.86
212.225	11138.15
212.299	11094.72
212.373	11048.75
212.447	11025.33
212.52	11126.91
212.594	11135.97
212.668	11173.61
212.742	11107.29
212.816	11091.1
212.89	11055.44
212.964	11048.12
213.038	11050.05
213.112	11088.22
213.186	11134.38
213.26	11046.9
213.333	10875.85
213.407	10889.34
213.481	10889.15
213.555	10930.23
213.629	10881.75
213.703	10810.18
213.777	10789.6
213.85	10712.6
213.924	10811.2
213.998	10801.03
214.072	10761.32
214.146	10700.55
214.219	10673.71
214.293	10653
214.367	10639.79
214.441	10664.41
214.515	10613.14
214.588	10516.39
214.662	10378.51
214.736	10287.56
214.81	10308.7
214.883	10333.88
214.957	10280.72
215.031	10224.38
215.105	10118.52
215.178	10049.3
215.252	10008.36
215.326	9904.37
215.4	9810.19
215.473	9627.03
215.547	9543.25
215.621	9478.54
215.694	9475.75
215.768	9375.15
215.842	9297.48
215.915	9227.83
215.989	9109.9
216.063	9043.23
216.136	9019.64
216.21	8991.63
216.284	9004.97
216.357	8970.69
216.431	8920.28
216.504	8917.49
216.578	8977.78
216.652	8989.56
216.725	8962.12
216.799	8967.32
216.873	8952.35
216.946	8962.94
217.02	8917.48
217.093	8872.23
217.167	8766.53
217.24	8676.02
217.314	8636.23
217.387	8591.65
217.461	8538.04
217.535	8562.1
217.608	8497.04
217.682	8476.78
217.755	8494
217.829	8432.25
217.902	8413.29
217.976	8388.17
218.049	8333.08
218.123	8249.36
218.196	8248.88
218.27	8215.15
218.343	8139.19
218.417	8134.81
218.49	8109.65
218.563	8159.83
218.637	8172.77
218.71	8245.77
218.784	8269.26
218.857	8309.18
218.931	8330.34
219.004	8345.06
219.077	8361.67
219.151	8381.59
219.224	8362.05
219.298	8353.34
219.371	8400.7
219.444	8362.89
219.518	8376.89
219.591	8401.23
219.665	8515.59
219.738	8532.48
219.811	8509.64
219.885	8558.48
219.958	8586.73
220.031	8589.76
220.105	8607.67
220.178	8616.19
220.251	8587.26
220.325	8614.32
220.398	8628.13
220.471	8649.39
220.544	8686.89
220.618	8665.8
220.691	8694.43
220.764	8717.63
220.838	8744.15
220.911	8730
220.984	8815.31
221.057	8851.12
221.131	8872.82
221.204	8763.56
221.277	8836.35
221.35	8967.57
221.424	8962.18
221.497	8973.4
221.57	9002.08
221.643	9041.03
221.716	9094.44
221.79	9096.36
221.863	9107.15
221.936	9119.86
222.009	9138
222.082	9166.65
222.155	9175.94
222.229	9245.43
222.302	9278.32
222.375	9290.64
222.448	9328.25
222.521	9331.52
222.594	9332.48
222.667	9306.83
222.74	9364.17
222.814	9354.25
222.887	9345.91
222.96	9404.37
223.033	9452.83
223.106	9480.41
223.179	9507.48
223.252	9514.8
223.325	9559.15
223.398	9575.96
223.471	9605.09
223.544	9625.69
223.617	9644.14
223.69	9669.52
223.763	9629.3
223.837	9651.11
223.91	9678.66
223.983	9622.14
224.056	9591.09
224.129	9615.36
224.202	9671.68
224.275	9660.31
224.348	9633.87
224.42	9592.79
224.493	9528.16
224.566	9499.02
224.639	9523.34
224.712	9496.84
224.785	9478.49
224.858	9459.42
224.931	9439.87
225.004	9393.84
225.077	9394.08
225.15	9292.55
225.223	9287.97
225.296	9377.2
225.369	9315.19
225.442	9282.39
225.514	9311.41
225.587	9341.41
225.66	9350.65
225.733	9355.66
225.806	9367.99
225.879	9360.48
225.952	9323.13
226.025	9367.76
226.097	9427.11
226.17	9417.05
226.243	9344.21
226.316	9336.84
226.389	9348.83
226.461	9372.38
226.534	9401.65
226.607	9392.98
226.68	9482.95
226.753	9482.47
226.825	9391.13
226.898	9457.28
226.971	9460.56
227.044	9479.77
227.117	9479.53
227.189	9496.77
227.262	9532.61
227.335	9550.96
227.407	9544.85
227.48	9584.18
227.553	9601.18
227.626	9577.52
227.698	9580.94
227.771	9623.39
227.844	9606.83
227.916	9624.02
227.989	9581.74
228.062	9572.06
228.134	9660.11
228.207	9658.14
228.28	9651.59
228.352	9668.35
228.425	9675.77
228.498	9727.88
228.57	9707.56
228.643	9772.79
228.716	9773.99
228.788	9760.55
228.861	9756.31
228.934	9820.51
229.006	9824.36
229.079	9822.72
229.151	9805.57
229.224	9773.51
229.296	9802.59
229.369	9903.57
229.442	9953.58
229.514	9934.76
229.587	9982.15
229.659	9907.05
229.732	9927.52
229.804	9968.89
229.877	10056.44
229.949	10086.7
230.022	10138.26
230.094	10139.95
230.167	10126.55
230.239	10082.96
230.312	10066.49
230.384	10146.48
230.457	10146.67
230.529	10158.56
230.602	10172.2
230.674	10186.41
230.747	10233.98
230.819	10270.16
230.892	10151.23
230.964	10151.9
231.037	10183.24
231.109	10176.89
231.181	10222.06
231.254	10181.8
231.326	10166.86
231.399	10132.21
231.471	10102.49
231.544	10018.89
231.616	10068.35
231.688	10074.81
231.761	10064.5
231.833	10063.16
231.905	9970.94
231.978	9963.56
232.05	9952.1
232.122	9951.62
232.195	9926.86
232.267	9965.88
232.339	9935.48
232.412	10007.68
232.484	9976.65
232.556	9954.93
232.629	10023.16
232.701	10040.99
232.773	10062.61
232.846	10054.38
232.918	10064.88
232.99	10079.87
233.062	10129.1
233.135	10143.17
233.207	10107.47
233.279	10155.34
233.351	10193.59
233.424	10198.74
233.496	10181.11
233.568	10265.71
233.64	10223.85
233.713	10245.96
233.785	10239.17
233.857	10257.96
233.929	10204.15
234.001	10282.66
234.074	10354.75
234.146	10280.74
234.218	10280.94
234.29	10275.4
234.362	10265.14
234.434	10216.43
234.507	10185.84
234.579	10131.64
234.651	10115.84
234.723	10151.73
234.795	10166.52
234.867	10149.8
234.939	10206.94
235.012	10220.29
235.084	10226.89
235.156	10270.14
235.228	10247.02
235.3	10225.39
235.372	10242.73
235.444	10310.99
235.516	10223.24
235.588	10230.18
235.66	10254.5
235.732	10224.92
235.804	10425.42
235.876	10468.48
235.948	10535.75
236.02	10545.52
236.092	10561.85
236.164	10573.75
236.236	10571.15
236.308	10573.37
236.38	10606.66
236.452	10585.31
236.524	10613.59
236.596	10678.66
236.668	10716.83
236.74	10743.47
236.812	10776.28
236.884	10803.89
236.956	10810.68
237.028	10806.44
237.1	10787.94
237.172	10857.05
237.244	10935.4
237.316	10813.11
237.388	10800
237.46	10779.04
237.532	10847.99
237.604	10833.45
237.675	10910.55
237.747	10957.44
237.819	10949.68
237.891	10953.2
237.963	10943.95
238.035	10942.07
238.107	10825.2
238.178	10889.21
238.25	10897.83
238.322	10998.91
238.394	10955.68
238.466	10959.87
238.538	11007.33
238.609	11051.32
238.681	10994.94
238.753	10973.15
238.825	11001.11
238.897	11035.85
238.968	11122.12
239.04	11102.17
239.112	11228.47
239.184	11191.99
239.255	11191.55
239.327	11229.67
239.399	11251.98
239.471	11314.96
239.542	11355.97
239.614	11431.77
239.686	11341.5
239.758	11401.79
239.829	11360.77
239.901	11434.94
239.973	11454.21
240.044	11493.44
240.116	11507.81
240.188	11530.6
240.259	11546.21
240.331	11535.13
240.403	11574.12
240.474	11520.56
240.546	11516.23
240.618	11458.53
240.689	11447.59
240.761	11467.84
240.833	11537
240.904	11543.56
240.976	11536.38
241.048	11554.45
241.119	11599.04
241.191	11657.4
241.262	11729.61
241.334	11740.45
241.405	11745.56
241.477	11749.71
241.549	11754.63
241.62	11782.29
241.692	11828.61
241.763	11899.42
241.835	11923.52
241.906	11938.03
241.978	11905.01
242.049	11979.09
242.121	12041.61
242.192	12124.08
242.264	12086.05
242.335	12038.09
242.407	12092.36
242.478	12094.82
242.55	12112.42
242.621	12093.91
242.693	12086.63
242.764	12077.37
242.836	12083.01
242.907	12115.45
242.979	12155.75
243.05	12182.69
243.122	12213.01
243.193	12214.84
243.264	12133.53
243.336	12138.73
243.407	12181.3
243.479	12275.34
243.55	12287.87
243.622	12303.87
243.693	12301.27
243.764	12378.25
243.836	12351.79
243.907	12335.93
243.978	12345.96
244.05	12376.28
244.121	12325.81
244.192	12377.97
244.264	12325.9
244.335	12331.88
244.407	12281.99
244.478	12298.19
244.549	12290.14
244.62	12243.19
244.692	12248.93
244.763	12305.46
244.834	12296.79
244.906	12275.58
244.977	12293.75
245.048	12358.35
245.119	12333.28
245.191	12306.72
245.262	12241.07
245.333	12323.3
245.405	12341.76
245.476	12384.08
245.547	12405.68
245.618	12471.96
245.689	12481.07
245.761	12520.4
245.832	12535.34
245.903	12579.59
245.974	12606.2
246.045	12620.47
246.117	12708.69
246.188	12683.04
246.259	12661.4
246.33	12681.74
246.401	12693.17
246.473	12661.35
246.544	12642.5
246.615	12704.69
246.686	12714.13
246.757	12793.86
246.828	12771.21
246.899	12851.52
246.97	12816.81
247.042	12807.46
247.113	12844.1
247.184	12940.27
247.255	12937.28
247.326	12963.36
247.397	12980.52
247.468	12999.66
247.539	13019.66
247.61	12975.31
247.681	13033.01
247.752	13100.5
247.823	13072.97
247.894	13089.56
247.965	13061.16
248.037	13053.35
248.108	12993.39
248.179	13005.73
248.25	13001.39
248.321	13036.63
248.392	12988.76
248.463	13076.49
248.534	13067.96
248.605	13094.57
248.675	13070.37
248.746	13094.47
248.817	13117.66
248.888	13135.93
248.959	13073.7
249.03	13095.78
249.101	13107.87
249.172	13089.8
249.243	13005.78
249.314	13084.5
249.385	13096.55
249.456	13137.96
249.527	13134.92
249.598	13167.8
249.669	13169.1
249.739	13191.37
249.81	13208.05
249.881	13154.54
249.952	13147.98
250.023	13148.85
250.094	13094.72
250.165	13061.74
250.235	13063.72
250.306	13066.8
250.377	13030.46
250.448	13061.26
250.519	13005.73
250.59	13069.74
250.66	13071.19
250.731	13151.64
250.802	13150.82
250.873	13172.28
250.944	13184.52
251.014	13169.48
251.085	13266.76
251.156	13298.33
251.227	13342.97
251.297	13404.82
251.368	13471.01
251.439	13507.79
251.51	13569.69
251.58	13558.02
251.651	13546.26
251.722	13599.43
251.792	13547.41
251.863	13555.37
251.934	13624.01
252.005	13741.78
252.075	13745.06
252.146	13798.86
252.217	13844.7
252.287	13885.34
252.358	13890.3
252.429	13976.3
252.499	13971.87
252.57	13983.68
252.641	14035.16
252.711	14043.26
252.782	13989.32
252.852	14067.51
252.923	14075.75
252.994	14079.56
253.064	14133.69
253.135	14122.75
253.205	14096.72
253.276	14173.66
253.347	14249.05
253.417	14218.01
253.488	14196.36
253.558	14190.87
253.629	14186.05
253.699	14206.97
253.77	14238.69
253.841	14229.86
253.911	14237.77
253.982	14263.08
254.052	14296.67
254.123	14302.75
254.193	14311.33
254.264	14455.6
254.334	14418.1
254.405	14379.48
254.475	14349.45
254.546	14355.67
254.616	14423.69
254.687	14462.11
254.757	14491.9
254.827	14487.27
254.898	14515.38
254.968	14524.49
255.039	14502.46
255.109	14540.1
255.18	14509.78
255.25	14422.39
255.321	14469.34
255.391	14421.91
255.461	14506.65
255.532	14410.39
255.602	14402.97
255.673	14343.77
255.743	14309.79
255.813	14235.36
255.884	14290.94
255.954	14338.95
256.024	14411.74
256.095	14411.31
256.165	14368.45
256.235	14390
256.306	14373.42
256.376	14427.69
256.446	14464.66
256.517	14504.63
256.587	14555.24
256.657	14577.46
256.728	14612.65
256.798	14614.92
256.868	14611.74
256.938	14580.41
257.009	14631.7
257.079	14666.98
257.149	14775.49
257.219	14706.17
257.29	14755.06
257.36	14699.19
257.43	14729.94
257.5	14657.63
257.571	14654.55
257.641	14696.05
257.711	14655.03
257.781	14692.54
257.852	14709.41
257.922	14642.31
257.992	14648.09
258.062	14640.43
258.132	14685.16
258.202	14693.26
258.273	14707.24
258.343	14790.77
258.413	14779.93
258.483	14791.11
258.553	14761.85
258.623	14732.06
258.693	14773.13
258.764	14836.71
258.834	14911.91
258.904	14935.92
258.974	14929.22
259.044	14939
259.114	14971.35
259.184	15003.16
259.254	15013.86
259.324	14954.52
259.394	15011.21
259.464	15094.5
259.535	15108.1
259.605	15102.6
259.675	15095.8
259.745	15134.32
259.815	15101.16
259.885	15100.72
259.955	15219.86
260.025	15209.02
260.095	15225.26
260.165	15261.61
260.235	15334.48
260.305	15316.21
260.375	15283.97
260.445	15379.22
260.515	15446.36
260.585	15493.84
260.655	15506.95
260.725	15548.69
260.795	15588.12
260.865	15654.54
260.934	15616.27
261.004	15642.15
261.074	15647.17
261.144	15713.16
261.214	15751.09
261.284	15758.61
261.354	15803.87
261.424	15758.86
261.494	15837.14
261.564	15839.17
261.634	15860.47
261.703	15785.23
261.773	15810.3
261.843	15853.48
261.913	15839.94
261.983	15790.78
262.053	15817.62
262.123	15809.96
262.192	15774
262.262	15822.87
262.332	15776.17
262.402	15812.99
262.472	15830.63
262.541	15767.73
