Data from 20250701_urea_2M_exp3_MAYP1162681_00-59-50-241.txt Node
Date: Wed Jul 02 00:59:50 BST 2025
User: adleo
Spectrometer: MAYP116268
Trigger mode: 0
Integration Time (sec): 4.000000E0
Scans to average: 1
Electric dark correction enabled: true
Nonlinearity correction enabled: true
Boxcar width: 10
XAxis mode: Wavelengths
Number of Pixels in Spectrum: 2068
>>>>>Begin Spectral Data<<<<<
179.565	3723.12
179.642	3917.16
179.718	4069.8
179.795	4203.23
179.871	4311.35
179.948	4375.37
180.024	4440.08
180.101	4520.82
180.177	4572.77
180.254	4654.62
180.33	4732.86
180.407	4998.23
180.483	5288.29
180.56	5579.03
180.636	5847.28
180.712	5807.35
180.789	5837.71
180.865	5876.83
180.942	5906.7
181.018	5940.04
181.095	5979.7
181.171	5995.1
181.248	5997.21
181.324	6052.71
181.4	6075.31
181.477	6116.78
181.553	6160.33
181.63	6235.63
181.706	6289.21
181.782	6317.41
181.859	6318.03
181.935	6333.4
182.011	6324.42
182.088	6379.44
182.164	6450.73
182.24	6499.43
182.317	6530.24
182.393	6526.26
182.469	6575.09
182.546	6623.92
182.622	6643.07
182.698	6631.21
182.775	6675.19
182.851	6723.93
182.927	6696.84
183.003	6684.89
183.08	6664.01
183.156	6694.26
183.232	6684.07
183.308	6641.53
183.385	6668.85
183.461	6724.08
183.537	6726.39
183.613	6770.38
183.69	6740.36
183.766	6697.73
183.842	6723.82
183.918	6739.96
183.995	6788.03
184.071	6798.65
184.147	6783.47
184.223	6742.67
184.299	6779.71
184.375	6746.33
184.452	6770.7
184.528	6898.33
184.604	6933.72
184.68	6972.33
184.756	7000.01
184.832	7015.96
184.908	7038.37
184.985	7033.04
185.061	6978.14
185.137	7020.24
185.213	6981.86
185.289	6986.61
185.365	6966.3
185.441	6960.06
185.517	7007.02
185.593	6994.86
185.669	6985.35
185.745	7018.93
185.822	7076.35
185.898	7052.8
185.974	7085.65
186.05	7056.38
186.126	6973.87
186.202	6950.39
186.278	6938.62
186.354	6902.05
186.43	6925.36
186.506	6922.96
186.582	6922.29
186.658	6943.08
186.734	6865.8
186.81	6874.25
186.886	6887.56
186.962	6928.81
187.038	6913.73
187.114	6884.5
187.19	6909.34
187.266	6880.1
187.341	6873.61
187.417	6849.64
187.493	6851.46
187.569	6855.36
187.645	6836.05
187.721	6802.84
187.797	6831.13
187.873	6844.97
187.949	6828.16
188.025	6802.78
188.101	6810.13
188.176	6828.38
188.252	6816.38
188.328	6843.83
188.404	6843.49
188.48	6821.84
188.556	6799.83
188.632	6799.02
188.707	6801.47
188.783	6790.8
188.859	6777.17
188.935	6747.81
189.011	6773.7
189.086	6749.88
189.162	6721.54
189.238	6709.88
189.314	6699.17
189.39	6680.1
189.465	6659.68
189.541	6715.22
189.617	6663.79
189.693	6643.77
189.768	6655.15
189.844	6739.55
189.92	6714.64
189.996	6747.35
190.071	6783.67
190.147	6778.09
190.223	6807.98
190.298	6785.25
190.374	6744.52
190.45	6784.33
190.526	6811.47
190.601	6794.13
190.677	6800.13
190.753	6897.34
190.828	6911.74
190.904	6963.54
190.98	7014.86
191.055	7050.22
191.131	7021.19
191.207	7088.96
191.282	7121.47
191.358	7087.46
191.433	7037.12
191.509	7085.95
191.585	7076.53
191.66	7081
191.736	7109.15
191.811	7084.41
191.887	7144.16
191.963	7220.66
192.038	7239.01
192.114	7243.43
192.189	7255.06
192.265	7241.52
192.34	7162.81
192.416	7158.96
192.491	7150.84
192.567	7155.6
192.642	7166.18
192.718	7172.52
192.793	7134.51
192.869	7121.06
192.944	7129.18
193.02	7152.2
193.095	7160.61
193.171	7174.98
193.246	7173.97
193.322	7162.24
193.397	7158.79
193.473	7104.56
193.548	7039.1
193.624	7054.39
193.699	7044.97
193.775	7095.35
193.85	7102.55
193.925	7132.92
194.001	7134.65
194.076	7103.85
194.152	7067.8
194.227	7035.74
194.302	7000.2
194.378	7013.6
194.453	7001.98
194.529	7048.02
194.604	7001.79
194.679	6979.21
194.755	6917.26
194.83	6960.82
194.905	6955.4
194.981	6989.37
195.056	6966.7
195.131	6991.53
195.207	6990.81
195.282	6963.29
195.357	6898.6
195.433	6950.72
195.508	6912.81
195.583	6938.17
195.659	6983.49
195.734	7002.47
195.809	6999.83
195.884	7032.58
195.96	7032.2
196.035	7085.53
196.11	7072.16
196.185	7111.32
196.261	7122.66
196.336	7226.69
196.411	7177.21
196.486	7191.91
196.561	7164.91
196.637	7193.68
196.712	7250.13
196.787	7256.04
196.862	7306.88
196.937	7348.59
197.013	7363.11
197.088	7399.43
197.163	7471.62
197.238	7532.39
197.313	7542.54
197.388	7592.68
197.464	7689.83
197.539	7735.26
197.614	7713.39
197.689	7752
197.764	7808.23
197.839	7877.57
197.914	7854.96
197.989	7928.45
198.065	7977.49
198.14	8151.75
198.215	8242.56
198.29	8279.95
198.365	8326.96
198.44	8359.95
198.515	8451.28
198.59	8512.54
198.665	8589.14
198.74	8609.21
198.815	8617.78
198.89	8693.66
198.965	8789.84
199.04	8781.95
199.115	8823.9
199.19	8972.41
199.265	8978.52
199.34	9011.74
199.415	9124.04
199.49	9201.9
199.565	9231.7
199.64	9313.01
199.715	9302.6
199.79	9324.32
199.865	9345.31
199.94	9337.03
200.015	9440.08
200.09	9456.84
200.165	9473.21
200.24	9500.23
200.315	9635.27
200.39	9679.96
200.464	9697.16
200.539	9703.66
200.614	9748.15
200.689	9828.58
200.764	9841.78
200.839	9908.98
200.914	9921.89
200.989	9884.89
201.063	9931.75
201.138	9874.53
201.213	9871.11
201.288	9804.36
201.363	9821.31
201.438	9819.34
201.512	9873.16
201.587	9818.1
201.662	9831.21
201.737	9873.45
201.812	9902.69
201.886	9796.73
201.961	9827.56
202.036	9784.43
202.111	9774.89
202.186	9684.73
202.26	9630.98
202.335	9560.52
202.41	9539.14
202.485	9480.16
202.559	9412.13
202.634	9318.95
202.709	9353.94
202.784	9286.58
202.858	9283.6
202.933	9223.13
203.008	9198.14
203.082	9132.77
203.157	9125.74
203.232	8978.16
203.306	8897.55
203.381	8788.6
203.456	8708.31
203.53	8634.32
203.605	8569.29
203.68	8490.62
203.754	8462.54
203.829	8407.34
203.904	8334.98
203.978	8291.37
204.053	8305.66
204.127	8268.19
204.202	8260.49
204.277	8202.18
204.351	8190.49
204.426	8169.6
204.5	8141.8
204.575	8030.1
204.65	8062.77
204.724	8040.39
204.799	8069.27
204.873	8060.66
204.948	8055.61
205.022	8014.17
205.097	7982.49
205.171	8026.49
205.246	8052.05
205.32	8047
205.395	8049.69
205.469	8018.07
205.544	8041.56
205.618	7986.96
205.693	8024.58
205.767	7981.64
205.842	8051.5
205.916	8024.08
205.991	7989.02
206.065	8004.22
206.14	8055.92
206.214	8031.33
206.289	8005.34
206.363	8041.08
206.438	8048.39
206.512	8073.31
206.586	8139.58
206.661	8165.77
206.735	8093.18
206.81	8096.26
206.884	8150.99
206.958	8105.59
207.033	8169.96
207.107	8183.44
207.181	8288.98
207.256	8263.86
207.33	8330.39
207.405	8369.3
207.479	8433.57
207.553	8457.28
207.628	8401.51
207.702	8440.04
207.776	8418.34
207.851	8428.97
207.925	8488.67
207.999	8479.62
208.073	8470.96
208.148	8481.4
208.222	8441.17
208.296	8552.06
208.371	8607.35
208.445	8644.65
208.519	8741.5
208.593	8779.76
208.668	8773.79
208.742	8783.47
208.816	8789.34
208.89	8832.28
208.965	8828.33
209.039	8854.96
209.113	8918.11
209.187	8991.64
209.261	8977.98
209.336	9050.56
209.41	9121.29
209.484	9121.67
209.558	9200.78
209.632	9251.75
209.707	9292.05
209.781	9361.18
209.855	9410.16
209.929	9470.58
210.003	9488.16
210.077	9484.69
210.151	9646.96
210.226	9762.24
210.3	9851.05
210.374	9934.76
210.448	9948.25
210.522	9983.61
210.596	10021.71
210.67	10051.48
210.744	10202.98
210.818	10320.47
210.892	10393.5
210.966	10365.67
211.041	10411.62
211.115	10394.52
211.189	10467.84
211.263	10519.58
211.337	10541.45
211.411	10590.98
211.485	10565.44
211.559	10607.35
211.633	10614.28
211.707	10503.63
211.781	10527.06
211.855	10408.58
211.929	10379.45
212.003	10316.23
212.077	10342.87
212.151	10380.46
212.225	10406.67
212.299	10375.19
212.373	10328.51
212.447	10302.11
212.52	10402.99
212.594	10415.71
212.668	10451.45
212.742	10399.95
212.816	10378.22
212.89	10361.27
212.964	10347.39
213.038	10349.27
213.112	10383.91
213.186	10434.78
213.26	10360.58
213.333	10199.98
213.407	10204.51
213.481	10201.38
213.555	10237.63
213.629	10190.02
213.703	10123.01
213.777	10105.56
213.85	10026.84
213.924	10125.19
213.998	10117.67
214.072	10083.46
214.146	10021.7
214.219	9998.28
214.293	9979.21
214.367	9970.54
214.441	9993.13
214.515	9944.62
214.588	9854.31
214.662	9726.39
214.736	9638.89
214.81	9652.85
214.883	9672.39
214.957	9630.65
215.031	9579.87
215.105	9488.79
215.178	9428.93
215.252	9391.91
215.326	9291.32
215.4	9216.24
215.473	9033.52
215.547	8951.18
215.621	8879.31
215.694	8874.93
215.768	8778.99
215.842	8714.98
215.915	8639.72
215.989	8520.04
216.063	8462.65
216.136	8439.26
216.21	8410.45
216.284	8418.68
216.357	8386.05
216.431	8336.93
216.504	8328.22
216.578	8384.72
216.652	8392.94
216.725	8365.75
216.799	8367.87
216.873	8351.37
216.946	8350.46
217.02	8312.77
217.093	8273.8
217.167	8180.76
217.24	8096.88
217.314	8060.1
217.387	8005.83
217.461	7961
217.535	7986.4
217.608	7920.17
217.682	7892.51
217.755	7905.45
217.829	7847.96
217.902	7832.43
217.976	7812.23
218.049	7766.21
218.123	7683.63
218.196	7682
218.27	7647.37
218.343	7574.58
218.417	7569.82
218.49	7546.07
218.563	7589.29
218.637	7599.59
218.71	7668.94
218.784	7698.91
218.857	7727.17
218.931	7749.23
219.004	7761.73
219.077	7777.47
219.151	7801.02
219.224	7794.67
219.298	7790.3
219.371	7838.06
219.444	7804.18
219.518	7819.99
219.591	7833.21
219.665	7940.35
219.738	7956.84
219.811	7934.88
219.885	7981.96
219.958	8014.24
220.031	8015.68
220.105	8041.04
220.178	8042.44
220.251	8019.82
220.325	8043.59
220.398	8066.49
220.471	8092.4
220.544	8124.01
220.618	8101.49
220.691	8130.49
220.764	8146.32
220.838	8178.27
220.911	8165.95
220.984	8249.78
221.057	8283.79
221.131	8316.79
221.204	8218.02
221.277	8283.47
221.35	8412.03
221.424	8404.91
221.497	8413.76
221.57	8448.58
221.643	8476.69
221.716	8531.17
221.79	8528.67
221.863	8533.48
221.936	8543.73
222.009	8555.71
222.082	8583.38
222.155	8589.49
222.229	8652.7
222.302	8685.08
222.375	8689.95
222.448	8726.86
222.521	8734.03
222.594	8735.72
222.667	8700.37
222.74	8756.08
222.814	8753.87
222.887	8736.05
222.96	8796.7
223.033	8839.84
223.106	8858.17
223.179	8884.37
223.252	8897.18
223.325	8936.01
223.398	8953.34
223.471	8984.15
223.544	9007.68
223.617	9026.7
223.69	9050.33
223.763	9010.41
223.837	9035.06
223.91	9059.71
223.983	9008.99
224.056	8973.61
224.129	8996.62
224.202	9051.27
224.275	9041.98
224.348	9004.82
224.42	8963.52
224.493	8900.8
224.566	8878.79
224.639	8896.12
224.712	8865.3
224.785	8851.53
224.858	8837.33
224.931	8821.01
225.004	8778.22
225.077	8775.38
225.15	8682.9
225.223	8684.39
225.296	8769.68
225.369	8705.05
225.442	8676.65
225.514	8695.51
225.587	8717.12
225.66	8726.22
225.733	8730.5
225.806	8738.39
225.879	8736.76
225.952	8711.93
226.025	8756.35
226.097	8810.63
226.17	8801.39
226.243	8738.89
226.316	8727.52
226.389	8736.81
226.461	8756.22
226.534	8774.89
226.607	8766.95
226.68	8854.95
226.753	8848.5
226.825	8760.27
226.898	8821.87
226.971	8823.17
227.044	8844.3
227.117	8847.23
227.189	8851.86
227.262	8885.8
227.335	8904.87
227.407	8893.08
227.48	8928.73
227.553	8937.16
227.626	8914.13
227.698	8919.04
227.771	8958.1
227.844	8942.94
227.916	8954.3
227.989	8914.25
228.062	8910.6
228.134	8993.22
228.207	8990.67
228.28	8984.12
228.352	8997.75
228.425	9001.36
228.498	9047.53
228.57	9028.57
228.643	9086.98
228.716	9095.93
228.788	9084.62
228.861	9071.33
228.934	9136.41
229.006	9137.13
229.079	9143.29
229.151	9129.52
229.224	9096.65
229.296	9125.58
229.369	9228.94
229.442	9276.52
229.514	9260.35
229.587	9307.82
229.659	9235.01
229.732	9245.08
229.804	9283.64
229.877	9361.95
229.949	9400.58
230.022	9453.91
230.094	9454.49
230.167	9441.87
230.239	9393.73
230.312	9382.17
230.384	9455.1
230.457	9457.99
230.529	9472.23
230.602	9475.6
230.674	9482.73
230.747	9530.14
230.819	9557.87
230.892	9436.76
230.964	9442.16
231.037	9478.35
231.109	9465.15
231.181	9510.75
231.254	9474.54
231.326	9460.63
231.399	9436.34
231.471	9401.28
231.544	9320.07
231.616	9361.08
231.688	9372.26
231.761	9370.29
231.833	9362.05
231.905	9286.58
231.978	9283.21
232.05	9266.41
232.122	9265.98
232.195	9242.57
232.267	9275.66
232.339	9257.64
232.412	9320.17
232.484	9293.06
232.556	9255.04
232.629	9326.76
232.701	9343.24
232.773	9354.55
232.846	9348.29
232.918	9354.46
232.99	9375.5
233.062	9415.18
233.135	9433.15
233.207	9390.53
233.279	9430.67
233.351	9459.13
233.424	9454.31
233.496	9426.77
233.568	9511.92
233.64	9481.83
233.713	9501.9
233.785	9497.14
233.857	9511.97
233.929	9466.62
234.001	9531.42
234.074	9604.58
234.146	9531.8
234.218	9521.11
234.29	9520.43
234.362	9506.95
234.434	9463.03
234.507	9427.1
234.579	9374.71
234.651	9354.92
234.723	9392.87
234.795	9409.58
234.867	9402.4
234.939	9461.06
235.012	9478.63
235.084	9474.01
235.156	9506.75
235.228	9489.03
235.3	9474.19
235.372	9480.41
235.444	9539.29
235.516	9460.14
235.588	9463.51
235.66	9477.96
235.732	9449.36
235.804	9646.96
235.876	9699.06
235.948	9759.03
236.02	9774.39
236.092	9789.84
236.164	9800.87
236.236	9793.93
236.308	9792.15
236.38	9823.84
236.452	9805.06
236.524	9827.21
236.596	9900.37
236.668	9938.8
236.74	9958.79
236.812	9987.59
236.884	10025.5
236.956	10035.28
237.028	10024.88
237.1	10007.55
237.172	10085.3
237.244	10170.61
237.316	10051.51
237.388	10027.34
237.46	10003.54
237.532	10067.07
237.604	10059.27
237.675	10130.67
237.747	10182.22
237.819	10169.75
237.891	10176.54
237.963	10170.47
238.035	10163.78
238.107	10052.28
238.178	10111.12
238.25	10115.69
238.322	10210.58
238.394	10163.22
238.466	10166.11
238.538	10213.55
238.609	10260.13
238.681	10202.02
238.753	10178.94
238.825	10202.7
238.897	10230.48
238.968	10312.65
239.04	10291.78
239.112	10410.58
239.184	10375.12
239.255	10362.59
239.327	10398.09
239.399	10422.46
239.471	10469.14
239.542	10509.42
239.614	10578.65
239.686	10492.01
239.758	10555.17
239.829	10514.83
239.901	10586.33
239.973	10600.73
240.044	10638.51
240.116	10649.83
240.188	10665.58
240.259	10682.16
240.331	10669.68
240.403	10711.01
240.474	10667.59
240.546	10660.46
240.618	10596.23
240.689	10595.45
240.761	10622.1
240.833	10689.37
240.904	10681.18
240.976	10680.46
241.048	10696.89
241.119	10729.03
241.191	10783.81
241.262	10849.02
241.334	10854.47
241.405	10853.7
241.477	10861.89
241.549	10866.23
241.62	10892.92
241.692	10937.11
241.763	10996.49
241.835	11016.68
241.906	11039.52
241.978	11005.79
242.049	11068.82
242.121	11133.82
242.192	11204.61
242.264	11168.62
242.335	11125.97
242.407	11180.23
242.478	11186.88
242.55	11209
242.621	11195.8
242.693	11193.15
242.764	11178.59
242.836	11179.07
242.907	11209.43
242.979	11236.08
243.05	11261.82
243.122	11285.05
243.193	11282.35
243.264	11211.17
243.336	11216.66
243.407	11251.12
243.479	11337.63
243.55	11356.9
243.622	11369.39
243.693	11355.55
243.764	11425.77
243.836	11395.71
243.907	11381.01
243.978	11385.25
244.05	11405.34
244.121	11360.14
244.192	11401.73
244.264	11351.03
244.335	11367.56
244.407	11323.08
244.478	11346.65
244.549	11334.36
244.62	11291.51
244.692	11294.31
244.763	11336.48
244.834	11327.42
244.906	11302.64
244.977	11325.25
245.048	11379.24
245.119	11355.52
245.191	11338.94
245.262	11276.39
245.333	11357.54
245.405	11371.18
245.476	11402.45
245.547	11421.69
245.618	11482.41
245.689	11494.6
245.761	11529.11
245.832	11531.42
245.903	11572.24
245.974	11602.85
246.045	11622.13
246.117	11708.21
246.188	11693.51
246.259	11677.94
246.33	11697.8
246.401	11715.25
246.473	11672.64
246.544	11654.9
246.615	11713.56
246.686	11720.02
246.757	11796.4
246.828	11776.31
246.899	11847.5
246.97	11818.59
247.042	11803.84
247.113	11839.65
247.184	11923.67
247.255	11925.7
247.326	11960.31
247.397	11967.58
247.468	11970.77
247.539	11980.98
247.61	11932.16
247.681	11975.53
247.752	12031.92
247.823	12004.69
247.894	12017.03
247.965	11986.04
248.037	11972.84
248.108	11916.34
248.179	11924.83
248.25	11919.67
248.321	11943.48
248.392	11894.94
248.463	11976.87
248.534	11981.6
248.605	11998.23
248.675	11977.21
248.746	11992.78
248.817	12005.89
248.888	12025.99
248.959	11971.28
249.03	11996.35
249.101	12005.27
249.172	11991.05
249.243	11911.62
249.314	11980.21
249.385	11982.04
249.456	12017.85
249.527	12007.77
249.598	12040.26
249.669	12042.04
249.739	12052.41
249.81	12068.6
249.881	12028.79
249.952	12021.13
250.023	12015.25
250.094	11958.37
250.165	11913.58
250.235	11914.79
250.306	11914.11
250.377	11877.53
250.448	11899.75
250.519	11833.19
250.59	11888.91
250.66	11889.78
250.731	11965.39
250.802	11958.64
250.873	11978.21
250.944	12004.58
251.014	12003.18
251.085	12096.17
251.156	12117.14
251.227	12168.52
251.297	12224.59
251.368	12278.43
251.439	12318.34
251.51	12375.22
251.58	12364.14
251.651	12371.94
251.722	12426.85
251.792	12374.17
251.863	12381.97
251.934	12450.9
252.005	12575.12
252.075	12586.59
252.146	12631.04
252.217	12679.63
252.287	12728.22
252.358	12734.87
252.429	12801.68
252.499	12796.96
252.57	12803.71
252.641	12858.47
252.711	12868.06
252.782	12820.82
252.852	12901.52
252.923	12904.46
252.994	12916.56
253.064	12972.37
253.135	12943.55
253.205	12916.7
253.276	12997.58
253.347	13067.14
253.417	13045.16
253.488	13018.45
253.558	13004.33
253.629	13009.58
253.699	13025.88
253.77	13055.23
253.841	13051.23
253.911	13064.54
253.982	13081.51
254.052	13108.84
254.123	13108.16
254.193	13108.5
254.264	13250.22
254.334	13209.06
254.405	13170.11
254.475	13135.88
254.546	13145.81
254.616	13216.29
254.687	13251.67
254.757	13272.3
254.827	13269.99
254.898	13286.47
254.968	13299.49
255.039	13286.04
255.109	13322.24
255.18	13293.27
255.25	13215.23
255.321	13248.68
255.391	13202.45
255.461	13285.56
255.532	13196.23
255.602	13194.59
255.673	13138.72
255.743	13097.46
255.813	13030.21
255.884	13080.06
255.954	13116.89
256.024	13182.21
256.095	13186.45
256.165	13145.57
256.235	13169.87
256.306	13154.15
256.376	13206.41
256.446	13243.14
256.517	13280.55
256.587	13314.63
256.657	13331.99
256.728	13364.52
256.798	13370.16
256.868	13370.12
256.938	13342.88
257.009	13391.91
257.079	13428.16
257.149	13527.99
257.219	13460.02
257.29	13496.75
257.36	13439.72
257.43	13479.78
257.5	13405.59
257.571	13385.01
257.641	13419.91
257.711	13374.84
257.781	13408.92
257.852	13424.78
257.922	13359.94
257.992	13360.04
258.062	13355.17
258.132	13398.89
258.202	13398.99
258.273	13406.89
258.343	13480.22
258.413	13464.65
258.483	13469.8
258.553	13438.52
258.623	13418.22
258.693	13457.51
258.764	13523.65
258.834	13596.39
258.904	13611.48
258.974	13605.17
259.044	13618.86
259.114	13655.74
259.184	13690.64
259.254	13696.57
259.324	13644.5
259.394	13692.52
259.464	13772.68
259.535	13787.05
259.605	13777.55
259.675	13768.34
259.745	13815.15
259.815	13788.54
259.885	13789.7
259.955	13906.64
260.025	13892.76
260.095	13890.59
260.165	13920.28
260.235	13982.18
260.305	13969.5
260.375	13937.97
260.445	14035.59
260.515	14103.7
260.585	14145.01
260.655	14154.9
260.725	14201.27
260.795	14236.41
260.865	14304.82
260.934	14262.54
261.004	14290.88
261.074	14295.9
261.144	14362.91
261.214	14392.98
261.284	14396.84
261.354	14442.73
261.424	14389.04
261.494	14463.37
261.564	14480.44
261.634	14506.66
261.703	14440.96
261.773	14463.09
261.843	14495.96
261.913	14478.99
261.983	14427.51
262.053	14457.59
262.123	14451.42
262.192	14406.49
262.262	14448.96
262.332	14407.45
262.402	14444.72
262.472	14446.6
262.541	14396.56
262.611	14436.95
262.681	14417.48
262.751	14458.69
262.821	14461.11
262.89	14432.33
262.96	14457.15
263.03	14533.22
