Data from 20250701_urea_2M_exp3_MAYP1162681_20-49-51-412.txt Node
Date: Tue Jul 01 20:49:51 BST 2025
User: adleo
Spectrometer: MAYP116268
Trigger mode: 0
Integration Time (sec): 4.000000E0
Scans to average: 1
Electric dark correction enabled: true
Nonlinearity correction enabled: true
Boxcar width: 10
XAxis mode: Wavelengths
Number of Pixels in Spectrum: 2068
>>>>>Begin Spectral Data<<<<<
179.565	3964.21
179.642	4175.43
179.718	4331.58
179.795	4472.49
179.871	4591.51
179.948	4659.27
180.024	4728.65
180.101	4816.57
180.177	4867.77
180.254	4952.4
180.33	5036.74
180.407	5326.28
180.483	5632.94
180.56	5942.78
180.636	6230.32
180.712	6187.23
180.789	6221.93
180.865	6266.35
180.942	6298.46
181.018	6339.02
181.095	6385.13
181.171	6404.38
181.248	6401.84
181.324	6460.82
181.4	6487.81
181.477	6529.06
181.553	6576.47
181.63	6659.17
181.706	6714.37
181.782	6743.54
181.859	6739.56
181.935	6754.78
182.011	6746.57
182.088	6805.22
182.164	6881.12
182.24	6931.82
182.317	6965.1
182.393	6962.6
182.469	7013.67
182.546	7064.02
182.622	7078.43
182.698	7066.03
182.775	7108.79
182.851	7160.83
182.927	7130.84
183.003	7115.09
183.08	7091.79
183.156	7123.55
183.232	7106.82
183.308	7063.77
183.385	7098.4
183.461	7164.76
183.537	7171.35
183.613	7210.08
183.69	7179.47
183.766	7134.75
183.842	7156
183.918	7169.36
183.995	7213.9
184.071	7218.18
184.147	7196.69
184.223	7156.5
184.299	7194.95
184.375	7157.48
184.452	7182.19
184.528	7324.16
184.604	7360.82
184.68	7405.12
184.756	7430.03
184.832	7447.72
184.908	7464.77
184.985	7456.93
185.061	7396.57
185.137	7426.81
185.213	7389.57
185.289	7396.77
185.365	7373.86
185.441	7368.76
185.517	7419.45
185.593	7408.15
185.669	7407.48
185.745	7445.55
185.822	7504.59
185.898	7476.56
185.974	7508.46
186.05	7482.16
186.126	7396.28
186.202	7373.27
186.278	7358.8
186.354	7323.94
186.43	7350.88
186.506	7347.51
186.582	7343.53
186.658	7366.06
186.734	7294.99
186.81	7299.94
186.886	7307.05
186.962	7347.37
187.038	7334.68
187.114	7306.88
187.19	7332.21
187.266	7299.49
187.341	7299.49
187.417	7272.62
187.493	7273.54
187.569	7282.43
187.645	7258.3
187.721	7218.01
187.797	7241.22
187.873	7256.46
187.949	7236.96
188.025	7209.01
188.101	7220.02
188.176	7245.68
188.252	7235.59
188.328	7267.95
188.404	7269.59
188.48	7252.82
188.556	7231.91
188.632	7227.64
188.707	7230.95
188.783	7220.37
188.859	7201.26
188.935	7161.84
189.011	7191.16
189.086	7165.69
189.162	7140.65
189.238	7131.33
189.314	7122.78
189.39	7106.35
189.465	7083.42
189.541	7146.2
189.617	7095.7
189.693	7072.06
189.768	7081.73
189.844	7168.77
189.92	7136.54
189.996	7171
190.071	7209.83
190.147	7202.92
190.223	7237.57
190.298	7205.08
190.374	7159.09
190.45	7201.46
190.526	7230.92
190.601	7209.49
190.677	7220.53
190.753	7322.03
190.828	7338.6
190.904	7393.98
190.98	7448.36
191.055	7484.08
191.131	7448.93
191.207	7522.08
191.282	7567.48
191.358	7531.92
191.433	7475.4
191.509	7523.77
191.585	7506.22
191.66	7509.39
191.736	7544.48
191.811	7513.28
191.887	7574.02
191.963	7653.58
192.038	7670.36
192.114	7671.85
192.189	7688.67
192.265	7676.51
192.34	7592.27
192.416	7584.01
192.491	7567.22
192.567	7568.86
192.642	7580.31
192.718	7584.06
192.793	7539.34
192.869	7518.77
192.944	7530.45
193.02	7560.84
193.095	7573
193.171	7598.58
193.246	7594.88
193.322	7577.86
193.397	7579.69
193.473	7528.8
193.548	7470.71
193.624	7494.28
193.699	7490.48
193.775	7547.67
193.85	7551.66
193.925	7584.21
194.001	7584.74
194.076	7556.28
194.152	7528.68
194.227	7498.53
194.302	7467.01
194.378	7485.13
194.453	7472.49
194.529	7520.14
194.604	7467.25
194.679	7444.09
194.755	7378.44
194.83	7426.55
194.905	7420.73
194.981	7454.2
195.056	7430.46
195.131	7453.91
195.207	7445.64
195.282	7409.4
195.357	7337.12
195.433	7391.82
195.508	7352.25
195.583	7376.33
195.659	7429.27
195.734	7449.81
195.809	7451.68
195.884	7481.13
195.96	7480.99
196.035	7539.97
196.11	7518.28
196.185	7561.36
196.261	7569
196.336	7673.9
196.411	7620.5
196.486	7635.93
196.561	7611.41
196.637	7642.46
196.712	7700.81
196.787	7707.6
196.862	7762.35
196.937	7799.8
197.013	7820.24
197.088	7852.74
197.163	7926.4
197.238	7989.99
197.313	7985.42
197.388	8028.13
197.464	8134.37
197.539	8172.47
197.614	8146.21
197.689	8193.26
197.764	8254.71
197.839	8333.12
197.914	8308.72
197.989	8386.96
198.065	8435.83
198.14	8614.2
198.215	8712.56
198.29	8749.34
198.365	8794.2
198.44	8836.06
198.515	8932.62
198.59	8984.13
198.665	9075.06
198.74	9106.98
198.815	9108.76
198.89	9193.33
198.965	9298.89
199.04	9282.71
199.115	9337.39
199.19	9487.63
199.265	9492.5
199.34	9518.74
199.415	9638.64
199.49	9722.55
199.565	9756.36
199.64	9848.68
199.715	9841.5
199.79	9861.58
199.865	9887.06
199.94	9881.43
200.015	9981.28
200.09	10003
200.165	10029.78
200.24	10053.1
200.315	10189.81
200.39	10241.94
200.464	10260.72
200.539	10269.4
200.614	10323.63
200.689	10406.45
200.764	10427.02
200.839	10493.28
200.914	10514.62
200.989	10472.84
201.063	10514.18
201.138	10456.83
201.213	10454.04
201.288	10382.07
201.363	10397.58
201.438	10396.95
201.512	10464.52
201.587	10406.23
201.662	10415.67
201.737	10454.22
201.812	10485.58
201.886	10376.52
201.961	10404.33
202.036	10367.87
202.111	10353.65
202.186	10256.05
202.26	10192.41
202.335	10114.65
202.41	10090.9
202.485	10026.95
202.559	9951.76
202.634	9862.32
202.709	9892.31
202.784	9820.74
202.858	9822.38
202.933	9760.4
203.008	9728.17
203.082	9651.6
203.157	9653
203.232	9502.04
203.306	9422.71
203.381	9306.88
203.456	9220.64
203.53	9141.96
203.605	9067.46
203.68	8985.35
203.754	8965
203.829	8914.3
203.904	8842.64
203.978	8800.8
204.053	8812.3
204.127	8774.72
204.202	8767.21
204.277	8702.48
204.351	8679.28
204.426	8646.25
204.5	8612.8
204.575	8491.67
204.65	8527.25
204.724	8500.33
204.799	8531.54
204.873	8526.63
204.948	8521.48
205.022	8484.49
205.097	8450.74
205.171	8494.42
205.246	8523.79
205.32	8514.84
205.395	8512.1
205.469	8486.95
205.544	8513.57
205.618	8454.05
205.693	8498.13
205.767	8458.1
205.842	8537.13
205.916	8518.95
205.991	8485.74
206.065	8509.13
206.14	8568.46
206.214	8549.87
206.289	8528.25
206.363	8573.83
206.438	8571.03
206.512	8597.07
206.586	8658.85
206.661	8686.68
206.735	8616.51
206.81	8618.05
206.884	8673
206.958	8627.29
207.033	8686.27
207.107	8706.3
207.181	8822.18
207.256	8796.28
207.33	8856.29
207.405	8894.82
207.479	8960.14
207.553	8990.17
207.628	8927.48
207.702	8967.67
207.776	8935.37
207.851	8939.36
207.925	8990.94
207.999	8987.09
208.073	8978.57
208.148	8983.14
208.222	8942.6
208.296	9059.62
208.371	9116.17
208.445	9153.01
208.519	9256.59
208.593	9295.92
208.668	9281.33
208.742	9281.86
208.816	9291.58
208.89	9343.84
208.965	9341.14
209.039	9371.29
209.113	9428.98
209.187	9508.08
209.261	9493.35
209.336	9574.53
209.41	9649.08
209.484	9646.82
209.558	9722.34
209.632	9775.3
209.707	9825.05
209.781	9902.35
209.855	9957.75
209.929	10023.15
210.003	10042.89
210.077	10036.97
210.151	10214.12
210.226	10338.34
210.3	10438.34
210.374	10522.23
210.448	10538.09
210.522	10578.13
210.596	10614.94
210.67	10646.45
210.744	10803.72
210.818	10923.12
210.892	10994.1
210.966	10972.52
211.041	11029.86
211.115	11014.68
211.189	11097.8
211.263	11156.69
211.337	11180.73
211.411	11224.73
211.485	11198.9
211.559	11237.83
211.633	11241.05
211.707	11121.47
211.781	11144.7
211.855	11016.71
211.929	10988.77
212.003	10917.53
212.077	10940.77
212.151	10977.2
212.225	11011.46
212.299	10978.97
212.373	10930.16
212.447	10916.48
212.52	11014.68
212.594	11023.45
212.668	11064.36
212.742	11010.29
212.816	10982.49
212.89	10956.18
212.964	10941.96
213.038	10946.35
213.112	10990.16
213.186	11041.61
213.26	10957.51
213.333	10785.84
213.407	10799.33
213.481	10798.56
213.555	10838.19
213.629	10792.46
213.703	10727.36
213.777	10709.77
213.85	10627.32
213.924	10746.26
213.998	10729.92
214.072	10695.46
214.146	10634.55
214.219	10606.75
214.293	10576.06
214.367	10562.09
214.441	10589.94
214.515	10537.03
214.588	10433.35
214.662	10291.09
214.736	10200.53
214.81	10218.1
214.883	10241.55
214.957	10191.57
215.031	10127.72
215.105	10027.7
215.178	9960.26
215.252	9914.98
215.326	9804.98
215.4	9715.28
215.473	9518.63
215.547	9431.44
215.621	9362.97
215.694	9351.7
215.768	9255.77
215.842	9186.78
215.915	9122.29
215.989	8997.95
216.063	8943.81
216.136	8922.53
216.21	8900.2
216.284	8917.25
216.357	8886.48
216.431	8837.05
216.504	8824.77
216.578	8878.31
216.652	8887.78
216.725	8864.82
216.799	8870.94
216.873	8856.69
216.946	8860.69
217.02	8812.44
217.093	8770.95
217.167	8664.15
217.24	8580
217.314	8537.87
217.387	8491.5
217.461	8435.77
217.535	8458.1
217.608	8386.65
217.682	8363.02
217.755	8376.25
217.829	8316.71
217.902	8295.2
217.976	8276.25
218.049	8230.3
218.123	8151.79
218.196	8150.78
218.27	8110.17
218.343	8039.13
218.417	8030.66
218.49	8009.64
218.563	8060.82
218.637	8070.06
218.71	8145.8
218.784	8174.53
218.857	8208.43
218.931	8233.05
219.004	8248.69
219.077	8270.5
219.151	8286.17
219.224	8272.41
219.298	8266.3
219.371	8308.65
219.444	8269.22
219.518	8276.34
219.591	8297.98
219.665	8408.62
219.738	8424.5
219.811	8408.87
219.885	8453.67
219.958	8489.33
220.031	8492.45
220.105	8511.66
220.178	8517.63
220.251	8488.98
220.325	8511.42
220.398	8529.46
220.471	8549.28
220.544	8582.83
220.618	8550.82
220.691	8587.2
220.764	8602.93
220.838	8637.97
220.911	8622.71
220.984	8712.2
221.057	8749.02
221.131	8771.3
221.204	8665.47
221.277	8739.13
221.35	8865.1
221.424	8862.93
221.497	8879.49
221.57	8906.67
221.643	8936.82
221.716	8988.96
221.79	8992.71
221.863	9004.7
221.936	9017.6
222.009	9030.93
222.082	9064.59
222.155	9078.36
222.229	9146.74
222.302	9182.46
222.375	9182.99
222.448	9225.98
222.521	9229.16
222.594	9235.08
222.667	9204.62
222.74	9267.25
222.814	9256.6
222.887	9235.16
222.96	9287.46
223.033	9325.6
223.106	9352.56
223.179	9383.87
223.252	9397.5
223.325	9431.49
223.398	9448.49
223.471	9480.46
223.544	9504.77
223.617	9512.91
223.69	9536.5
223.763	9489.64
223.837	9510.83
223.91	9542.9
223.983	9485.42
224.056	9453.07
224.129	9477.14
224.202	9542.6
224.275	9528.88
224.348	9498.59
224.42	9466.66
224.493	9404.79
224.566	9383.54
224.639	9402.42
224.712	9371.49
224.785	9353.14
224.858	9342.45
224.931	9321.36
225.004	9270.33
225.077	9264.21
225.15	9166.36
225.223	9166.31
225.296	9260.49
225.369	9201.08
225.442	9164.29
225.514	9188.79
225.587	9210.98
225.66	9216.57
225.733	9212.28
225.806	9228.27
225.879	9222.83
225.952	9186.49
226.025	9232.32
226.097	9285.07
226.17	9273.03
226.243	9209.11
226.316	9205.49
226.389	9218.93
226.461	9234.82
226.534	9263.32
226.607	9256.14
226.68	9347.21
226.753	9335.22
226.825	9240.7
226.898	9302.52
226.971	9309.21
227.044	9329.77
227.117	9336.36
227.189	9353.75
227.262	9394.07
227.335	9411.26
227.407	9406.93
227.48	9445.82
227.553	9467.64
227.626	9439.12
227.698	9448.12
227.771	9486.48
227.844	9464.96
227.916	9474.35
227.989	9435.39
228.062	9429.08
228.134	9521.56
228.207	9524.31
228.28	9526.28
228.352	9544.82
228.425	9555.08
228.498	9598.48
228.57	9573.54
228.643	9635.34
228.716	9627.39
228.788	9613.08
228.861	9608.79
228.934	9673.66
229.006	9685.65
229.079	9685.94
229.151	9681.7
229.224	9648.05
229.296	9677.57
229.369	9791.17
229.442	9846.28
229.514	9833.48
229.587	9883.42
229.659	9800.76
229.732	9816.75
229.804	9856.24
229.877	9937.62
229.949	9965.56
230.022	10018.22
230.094	10024.63
230.167	10014.41
230.239	9980.03
230.312	9972.71
230.384	10038.43
230.457	10034.76
230.529	10037.22
230.602	10039.68
230.674	10050.52
230.747	10095.53
230.819	10126.84
230.892	9996.49
230.964	9993.22
231.037	10019.55
231.109	10006.5
231.181	10051.19
231.254	10010.2
231.326	9993.15
231.399	9963.9
231.471	9936.63
231.544	9862.91
231.616	9905
231.688	9910.78
231.761	9897.11
231.833	9879.73
231.905	9795.23
231.978	9792.14
232.05	9778.8
232.122	9779.72
232.195	9751.92
232.267	9795.95
232.339	9772.49
232.412	9841.98
232.484	9816.25
232.556	9795.02
232.629	9868.69
232.701	9887.34
232.773	9907.81
232.846	9898.66
232.918	9910.12
232.99	9929.49
233.062	9967.5
233.135	9988.6
233.207	9945.92
233.279	9994.94
233.351	10029.95
233.424	10030.87
233.496	10002.74
233.568	10087.38
233.64	10050
233.713	10070.67
233.785	10062.43
233.857	10079.77
233.929	10030.6
234.001	10099.17
234.074	10168.75
234.146	10089.78
234.218	10089.11
234.29	10083.28
234.362	10073.32
234.434	10025.04
234.507	9990.02
234.579	9934.48
234.651	9913.86
234.723	9952.45
234.795	9966.08
234.867	9961.02
234.939	10027.31
235.012	10052.21
235.084	10060.26
235.156	10098.21
235.228	10078.41
235.3	10059.48
235.372	10071.62
235.444	10132.79
235.516	10054.49
235.588	10061.72
235.66	10080.94
235.732	10050.49
235.804	10260.47
235.876	10313.11
235.948	10377.53
236.02	10389.19
236.092	10403.93
236.164	10417.94
236.236	10415.54
236.308	10418.23
236.38	10454.46
236.452	10428.54
236.524	10447.47
236.596	10516.69
236.668	10554.08
236.74	10578.98
236.812	10613.91
236.884	10644.7
236.956	10657.66
237.028	10649.33
237.1	10633.72
237.172	10713.47
237.244	10800.2
237.316	10671.93
237.388	10658.54
237.46	10632.33
237.532	10704.12
237.604	10698.48
237.675	10780.36
237.747	10832.06
237.819	10820.89
237.891	10818.38
237.963	10818.77
238.035	10818.48
238.107	10694.58
238.178	10756.56
238.25	10762.53
238.322	10851.6
238.394	10805.1
238.466	10809
238.538	10856.56
238.609	10898.28
238.681	10845.7
238.753	10821.65
238.825	10844.64
238.897	10870.32
238.968	10958.38
239.04	10946.19
239.112	11067.52
239.184	11011.95
239.255	11004.09
239.327	11042.35
239.399	11072.61
239.471	11115.4
239.542	11150.57
239.614	11227.82
239.686	11138.37
239.758	11192.97
239.829	11160.05
239.901	11231.56
239.973	11245.44
240.044	11281.97
240.116	11295.65
240.188	11303.36
240.259	11322.54
240.331	11313.87
240.403	11354.15
240.474	11304.65
240.546	11286.72
240.618	11222.38
240.689	11229.95
240.761	11250.53
240.833	11319.16
240.904	11313.91
240.976	11314.53
241.048	11333.09
241.119	11374.54
241.191	11433.57
241.262	11507.03
241.334	11508.58
241.405	11509.83
241.477	11516.87
241.549	11528.39
241.62	11553.06
241.692	11601.4
241.763	11663.87
241.835	11683.39
241.906	11697.42
241.978	11666.09
242.049	11733.9
242.121	11805.28
242.192	11880.95
242.264	11849
242.335	11797.91
242.407	11848.71
242.478	11856.81
242.55	11881.68
242.621	11865.96
242.693	11863.22
242.764	11851.07
242.836	11853.91
242.907	11887.99
242.979	11918.69
243.05	11931.8
243.122	11964.58
243.193	11967.62
243.264	11887.56
243.336	11888.52
243.407	11929.06
243.479	12014.95
243.55	12032.88
243.622	12042.71
243.693	12042.67
243.764	12114.77
243.836	12089.71
243.907	12071.64
243.978	12079.2
244.05	12108.56
244.121	12059.78
244.192	12105
244.264	12055.83
244.335	12071.83
244.407	12020.6
244.478	12031.68
244.549	12026.04
244.62	11979.19
244.692	11978.42
244.763	12037.13
244.834	12026.47
244.906	12004.01
244.977	12025.27
245.048	12081.62
245.119	12055.21
245.191	12028.89
245.262	11964.3
245.333	12051.78
245.405	12077.04
245.476	12111.21
245.547	12129.62
245.618	12181.82
245.689	12188.81
245.761	12229.88
245.832	12239.76
245.903	12294.33
245.974	12329.85
246.045	12344.02
246.117	12428.72
246.188	12408.86
246.259	12385.91
246.33	12410.06
246.401	12426.98
246.473	12390.44
246.544	12374.82
246.615	12441.01
246.686	12449.01
246.757	12535.19
246.828	12510.32
246.899	12587.89
246.97	12555.16
247.042	12534.33
247.113	12584.95
247.184	12683.14
247.255	12678.61
247.326	12703.39
247.397	12704.45
247.468	12713.47
247.539	12734.1
247.61	12689.46
247.681	12739.97
247.752	12801.14
247.823	12780.95
247.894	12795.12
247.965	12769.77
248.037	12757.28
248.108	12698.76
248.179	12703.82
248.25	12691.29
248.321	12717.65
248.392	12667.76
248.463	12751.92
248.534	12758.05
248.605	12776.41
248.675	12747.25
248.746	12772.12
248.817	12789.86
248.888	12816.52
248.959	12758.24
249.03	12786.44
249.101	12792.32
249.172	12775.4
249.243	12692.3
249.314	12760.51
249.385	12769.72
249.456	12802.98
249.527	12794.16
249.598	12818.89
249.669	12826.74
249.739	12846.31
249.81	12867.62
249.881	12822.79
249.952	12819.61
250.023	12824.67
250.094	12769.57
250.165	12739.63
250.235	12729.27
250.306	12733.9
250.377	12700.01
250.448	12730.52
250.519	12658.94
250.59	12728.79
250.66	12730.43
250.731	12805.86
250.802	12792.17
250.873	12813
250.944	12836.09
251.014	12832.76
251.085	12935.1
251.156	12954.92
251.227	13001.77
251.297	13051.38
251.368	13111.25
251.439	13152.71
251.51	13205.2
251.58	13194.41
251.651	13191.66
251.722	13253.17
251.792	13203.28
251.863	13207.76
251.934	13278.43
252.005	13396.92
252.075	13394.17
252.146	13450.28
252.217	13507.69
252.287	13564.05
252.358	13573.74
252.429	13649.47
252.499	13641.32
252.57	13646.29
252.641	13696.9
252.711	13696.04
252.782	13648.6
252.852	13724.57
252.923	13725.1
252.994	13729.35
253.064	13785.46
253.135	13759.57
253.205	13731.76
253.276	13805.95
253.347	13870.73
253.417	13842.29
253.488	13824.89
253.558	13817.08
253.629	13808.31
253.699	13815.3
253.77	13843.16
253.841	13833.95
253.911	13840.99
253.982	13865.96
254.052	13896.38
254.123	13904.86
254.193	13918.02
254.264	14065.33
254.334	14023.59
254.405	13987.14
254.475	13953.3
254.546	13957.01
254.616	14026.67
254.687	14060.8
254.757	14087.65
254.827	14102.02
254.898	14130.65
254.968	14135.81
255.039	14121.73
255.109	14171.34
255.18	14146.66
255.25	14072.56
255.321	14109.35
255.391	14073.19
255.461	14158.08
255.532	14080.18
255.602	14074.54
255.673	14016.46
255.743	13977.56
255.813	13909.88
255.884	13961.99
255.954	14010.63
256.024	14073.58
256.095	14073.78
256.165	14034.63
256.235	14054.01
256.306	14034.01
256.376	14086.02
256.446	14131.09
256.517	14168.31
256.587	14207.01
256.657	14228.8
256.728	14253.58
256.798	14266.64
256.868	14254.35
256.938	14230.54
257.009	14271.71
257.079	14305.55
257.149	14410.39
257.219	14343.05
257.29	14382.87
257.36	14327
257.43	14364.55
257.5	14298.03
257.571	14292.92
257.641	14334.95
257.711	14302.12
257.781	14330.71
257.852	14341.17
257.922	14273.88
257.992	14275.71
258.062	14269.44
258.132	14311.96
258.202	14317.65
258.273	14323.53
258.343	14403.4
258.413	14388.51
258.483	14397.81
258.553	14369.66
258.623	14340.35
258.693	14377.71
258.764	14453.54
258.834	14531.24
258.904	14548.98
258.974	14542.48
259.044	14560.31
259.114	14584.46
259.184	14616.23
259.254	14626.06
259.324	14570.15
259.394	14620.33
259.464	14705.98
259.535	14713.7
259.605	14706.56
259.675	14698.37
259.745	14732.01
259.815	14709.74
259.885	14705.41
259.955	14817.56
260.025	14809.56
260.095	14825.76
260.165	14859.5
260.235	14921.34
260.305	14895.84
260.375	14860.27
260.445	14956.24
260.515	15019.1
260.585	15075.3
260.655	15079.16
260.725	15128.08
260.795	15166.84
260.865	15242.37
260.934	15209.89
261.004	15238.28
261.074	15242.47
261.144	15300.32
261.214	15346.54
261.284	15347.65
261.354	15389.25
261.424	15343.51
261.494	15419.05
261.564	15419.24
261.634	15445.61
261.703	15378.03
261.773	15403.43
261.843	15444.74
261.913	15436.74
261.983	15367.38
262.053	15391.09
262.123	15387.33
262.192	15346.46
262.262	15396.92
262.332	15348.53
262.402	15373.84
262.472	15388.97
262.541	15321.1
262.611	15377.64
262.681	15345.39
262.751	15392.63
