Data from 20250701_urea_2M_exp3_MAYP1162681_22-49-50-813.txt Node
Date: Tue Jul 01 22:49:50 BST 2025
User: adleo
Spectrometer: MAYP116268
Trigger mode: 0
Integration Time (sec): 4.000000E0
Scans to average: 1
Electric dark correction enabled: true
Nonlinearity correction enabled: true
Boxcar width: 10
XAxis mode: Wavelengths
Number of Pixels in Spectrum: 2068
>>>>>Begin Spectral Data<<<<<
179.565	3819.69
179.642	4021.03
179.718	4175.73
179.795	4306.67
179.871	4414.92
179.948	4477.85
180.024	4550.14
180.101	4626.88
180.177	4676.93
180.254	4759.61
180.33	4839.93
180.407	5118.7
180.483	5416.25
180.56	5716.15
180.636	5987.52
180.712	5943.2
180.789	5979.76
180.865	6023.06
180.942	6049.78
181.018	6087.4
181.095	6134.84
181.171	6153.36
181.248	6154.61
181.324	6206.32
181.4	6233.78
181.477	6273.33
181.553	6316.4
181.63	6392.36
181.706	6451.61
181.782	6479.86
181.859	6477.51
181.935	6493.07
182.011	6478.76
182.088	6535.76
182.164	6605.14
182.24	6658.18
182.317	6686.88
182.393	6681.79
182.469	6731.06
182.546	6777.55
182.622	6792.15
182.698	6774.04
182.775	6814.38
182.851	6863.04
182.927	6836
183.003	6821.59
183.08	6805.03
183.156	6841.58
183.232	6827.4
183.308	6786.43
183.385	6820.33
183.461	6879.56
183.537	6884.99
183.613	6927.36
183.69	6896.85
183.766	6855.56
183.842	6877.57
183.918	6891.16
183.995	6935.11
184.071	6945.64
184.147	6927.77
184.223	6896.99
184.299	6941.06
184.375	6899.95
184.452	6921.67
184.528	7056.53
184.604	7093.56
184.68	7133.42
184.756	7154.76
184.832	7172.64
184.908	7191.41
184.985	7181.04
185.061	7125.79
185.137	7159.53
185.213	7119.85
185.289	7124.03
185.365	7102.27
185.441	7100.06
185.517	7152.56
185.593	7140.88
185.669	7129.11
185.745	7167.51
185.822	7221.29
185.898	7191.4
185.974	7228.71
186.05	7197.23
186.126	7117.06
186.202	7095.25
186.278	7085.73
186.354	7055.46
186.43	7078.3
186.506	7076.66
186.582	7082.19
186.658	7101.1
186.734	7028.62
186.81	7038.47
186.886	7047.93
186.962	7092.17
187.038	7078.34
187.114	7047.13
187.19	7074.77
187.266	7043.98
187.341	7041.76
187.417	7013.66
187.493	7017.5
187.569	7027.79
187.645	7011.46
187.721	6975.55
187.797	7002.69
187.873	7016.68
187.949	7000.97
188.025	6973.81
188.101	6978.42
188.176	6996.15
188.252	6987.5
188.328	7012.99
188.404	7011.55
188.48	6991.48
188.556	6968.22
188.632	6963.51
188.707	6971.2
188.783	6957.69
188.859	6946.22
188.935	6906.58
189.011	6935.4
189.086	6909.7
189.162	6880.39
189.238	6870.89
189.314	6856.04
189.39	6836.54
189.465	6809.68
189.541	6859.8
189.617	6809.7
189.693	6792.41
189.768	6802.75
189.844	6885.86
189.92	6858.45
189.996	6885.26
190.071	6928.59
190.147	6920.86
190.223	6955.61
190.298	6928.35
190.374	6885.65
190.45	6923.78
190.526	6951.59
190.601	6930.79
190.677	6937.99
190.753	7034.45
190.828	7048.81
190.904	7102.73
190.98	7154.54
191.055	7195.39
191.131	7169
191.207	7243.14
191.282	7277.09
191.358	7240.58
191.433	7189.27
191.509	7236.08
191.585	7227.91
191.66	7227.48
191.736	7256.5
191.811	7229.87
191.887	7288
191.963	7366.78
192.038	7384.7
192.114	7393.26
192.189	7412.14
192.265	7405.32
192.34	7327.6
192.416	7321.98
192.491	7307.56
192.567	7312.03
192.642	7313.71
192.718	7317.03
192.793	7274.54
192.869	7256.33
192.944	7272.66
193.02	7300.4
193.095	7314.82
193.171	7337.36
193.246	7336.59
193.322	7328.23
193.397	7325.54
193.473	7267.98
193.548	7205.25
193.624	7226.74
193.699	7216.36
193.775	7271.71
193.85	7270.36
193.925	7299.35
194.001	7305.79
194.076	7279.45
194.152	7248.01
194.227	7226.76
194.302	7190.98
194.378	7200.2
194.453	7193.14
194.529	7231.6
194.604	7179.5
194.679	7156.96
194.755	7092.02
194.83	7137.71
194.905	7123.15
194.981	7153.96
195.056	7134.55
195.131	7154.54
195.207	7146.8
195.282	7115.09
195.357	7045.66
195.433	7098.71
195.508	7055.55
195.583	7076.31
195.659	7129.52
195.734	7150.67
195.809	7143.61
195.884	7174.54
195.96	7178.58
196.035	7228.98
196.11	7215.47
196.185	7258.29
196.261	7269.19
196.336	7376.13
196.411	7326.45
196.486	7350.14
196.561	7328.75
196.637	7357.72
196.712	7412.35
196.787	7421.34
196.862	7478.67
196.937	7510.97
197.013	7528.81
197.088	7567.06
197.163	7641.28
197.238	7692.29
197.313	7692.29
197.388	7742.92
197.464	7852.6
197.539	7887.8
197.614	7868.57
197.689	7909.21
197.764	7961.6
197.839	8031.52
197.914	8007.75
197.989	8077.84
198.065	8125.06
198.14	8293.33
198.215	8388.25
198.29	8428.49
198.365	8468.47
198.44	8503.44
198.515	8615.97
198.59	8674.01
198.665	8762.17
198.74	8785.62
198.815	8791.73
198.89	8867.28
198.965	8968.97
199.04	8945.95
199.115	9004.66
199.19	9146.68
199.265	9150.2
199.34	9185.58
199.415	9300.59
199.49	9373.31
199.565	9407.26
199.64	9490.5
199.715	9482.07
199.79	9502.54
199.865	9527.05
199.94	9525.8
200.015	9631.89
200.09	9636.13
200.165	9658.04
200.24	9683.33
200.315	9820.65
200.39	9876.19
200.464	9899.4
200.539	9904.22
200.614	9962.29
200.689	10040.38
200.764	10064.71
200.839	10131.1
200.914	10148.53
200.989	10112.39
201.063	10165.38
201.138	10110.36
201.213	10108.63
201.288	10047.45
201.363	10062.68
201.438	10055.74
201.512	10110.29
201.587	10051.52
201.662	10060.15
201.737	10104.27
201.812	10134.43
201.886	10024.85
201.961	10058
202.036	10017.65
202.111	10002.42
202.186	9904.79
202.26	9840.1
202.335	9765.97
202.41	9744.49
202.485	9684.74
202.559	9617.7
202.634	9521.25
202.709	9550.99
202.784	9481.7
202.858	9476.64
202.933	9414.96
203.008	9394.02
203.082	9324.83
203.157	9322.57
203.232	9175.12
203.306	9093.48
203.381	8976.95
203.456	8893.77
203.53	8813.99
203.605	8749.66
203.68	8672.43
203.754	8648.48
203.829	8601.21
203.904	8529.81
203.978	8491.15
204.053	8503.52
204.127	8460.94
204.202	8456.32
204.277	8396.13
204.351	8379.57
204.426	8347.57
204.5	8315.33
204.575	8194.53
204.65	8235.15
204.724	8204.67
204.799	8231.88
204.873	8218.07
204.948	8213.06
205.022	8170.22
205.097	8132.77
205.171	8175.24
205.246	8203.93
205.32	8196.76
205.395	8197.73
205.469	8172.3
205.544	8194.05
205.618	8137.72
205.693	8181.93
205.767	8139.7
205.842	8209.52
205.916	8182.11
205.991	8159.11
206.065	8180.57
206.14	8238.81
206.214	8217.58
206.289	8190.34
206.363	8234.26
206.438	8245.58
206.512	8276.13
206.586	8344
206.661	8379.43
206.735	8302.06
206.81	8300.52
206.884	8352.9
206.958	8305.33
207.033	8363.71
207.107	8384.65
207.181	8489.43
207.256	8466.14
207.33	8530.8
207.405	8575.49
207.479	8646.13
207.553	8663.01
207.628	8606.89
207.702	8642.06
207.776	8617.76
207.851	8630.12
207.925	8682.46
207.999	8671.15
208.073	8658.87
208.148	8667.39
208.222	8626.24
208.296	8738.02
208.371	8798.89
208.445	8833.84
208.519	8933.4
208.593	8971.04
208.668	8953.46
208.742	8965.31
208.816	8973.35
208.89	9019.87
208.965	9013.46
209.039	9036.72
209.113	9100.26
209.187	9169.62
209.261	9156.77
209.336	9228.02
209.41	9298.61
209.484	9296.92
209.558	9368.04
209.632	9416.76
209.707	9458.51
209.781	9528.51
209.855	9579.62
209.929	9632.96
210.003	9657.42
210.077	9655.45
210.151	9818.31
210.226	9939.86
210.3	10035.9
210.374	10110.34
210.448	10127.25
210.522	10164.59
210.596	10200.43
210.67	10231.11
210.744	10394.19
210.818	10511.4
210.892	10579.86
210.966	10561.46
211.041	10620.38
211.115	10611.81
211.189	10694.96
211.263	10745.74
211.337	10768.14
211.411	10816.52
211.485	10798.55
211.559	10838.82
211.633	10841.47
211.707	10735.58
211.781	10754.38
211.855	10622.99
211.929	10602.61
212.003	10535.96
212.077	10569.31
212.151	10607.04
212.225	10636.29
212.299	10593.92
212.373	10550.61
212.447	10525.46
212.52	10624.71
212.594	10630.11
212.668	10669.04
212.742	10612.13
212.816	10594.74
212.89	10573.93
212.964	10564.05
213.038	10564.87
213.112	10605.59
213.186	10650.1
213.26	10569.53
213.333	10408.1
213.407	10423.03
213.481	10416.29
213.555	10449.51
213.629	10395.78
213.703	10333.72
213.777	10322.78
213.85	10254.99
213.924	10358.64
213.998	10359.8
214.072	10318.06
214.146	10258.23
214.219	10238.76
214.293	10215.16
214.367	10205.96
214.441	10227.54
214.515	10176.66
214.588	10083.4
214.662	9947.67
214.736	9868.15
214.81	9880.04
214.883	9897.08
214.957	9848.21
215.031	9789.2
215.105	9696.23
215.178	9635.83
215.252	9597.59
215.326	9489.1
215.4	9396.34
215.473	9209.8
215.547	9120.4
215.621	9049.69
215.694	9043.09
215.768	8934.72
215.842	8863.24
215.915	8787.83
215.989	8667.47
216.063	8607.66
216.136	8585.28
216.21	8558.28
216.284	8575.47
216.357	8550.64
216.431	8507.57
216.504	8505.45
216.578	8567.98
216.652	8575.62
216.725	8544.58
216.799	8548.19
216.873	8530.58
216.946	8535.06
217.02	8498.8
217.093	8462.23
217.167	8369.22
217.24	8284.66
217.314	8250.09
217.387	8203.35
217.461	8155.68
217.535	8175.5
217.608	8108.35
217.682	8074.43
217.755	8085.74
217.829	8020.68
217.902	7997.1
217.976	7979.5
218.049	7920.87
218.123	7839.91
218.196	7838.76
218.27	7804.27
218.343	7733.49
218.417	7733.87
218.49	7709.01
218.563	7752.39
218.637	7760.67
218.71	7827.96
218.784	7862.17
218.857	7894.82
218.931	7921.69
219.004	7932.89
219.077	7955.75
219.151	7979.31
219.224	7976.38
219.298	7973.35
219.371	8018.14
219.444	7982.18
219.518	7990.02
219.591	8017.04
219.665	8126.84
219.738	8144.59
219.811	8127.04
219.885	8171.4
219.958	8200.46
220.031	8207.86
220.105	8222.35
220.178	8226.87
220.251	8204.16
220.325	8222.93
220.398	8242.56
220.471	8261.22
220.544	8299.18
220.618	8279.16
220.691	8304.56
220.764	8323.17
220.838	8352
220.911	8335.01
220.984	8418.8
221.057	8456.32
221.131	8476
221.204	8376.1
221.277	8440.07
221.35	8566.63
221.424	8555.47
221.497	8569.52
221.57	8589.82
221.643	8625.01
221.716	8674.83
221.79	8677.67
221.863	8684.02
221.936	8691.87
222.009	8706.54
222.082	8740.19
222.155	8748.32
222.229	8812.88
222.302	8847.92
222.375	8853.36
222.448	8900.68
222.521	8915.55
222.594	8914.88
222.667	8889.58
222.74	8944.25
222.814	8945.12
222.887	8919.83
222.96	8978.42
223.033	9020.31
223.106	9054.04
223.179	9087.32
223.252	9095.12
223.325	9126.02
223.398	9142.97
223.471	9172.72
223.544	9195.05
223.617	9202.18
223.69	9223.21
223.763	9187.72
223.837	9210.21
223.91	9241.31
223.983	9184.85
224.056	9145.09
224.129	9170.46
224.202	9226.04
224.275	9212.27
224.348	9181.79
224.42	9150.6
224.493	9089.51
224.566	9064.95
224.639	9084.1
224.712	9053.95
224.785	9045.96
224.858	9032.63
224.931	9017.75
225.004	8977.85
225.077	8971.01
225.15	8877.6
225.223	8871.44
225.296	8956.84
225.369	8896.48
225.442	8859.22
225.514	8880.39
225.587	8903.06
225.66	8908.4
225.733	8910.42
225.806	8922.65
225.879	8914.37
225.952	8885.79
226.025	8937.39
226.097	8988.83
226.17	8978.05
226.243	8908.41
226.316	8900.56
226.389	8911.3
226.461	8928.15
226.534	8946.82
226.607	8945.67
226.68	9032.81
226.753	9035.08
226.825	8945.05
226.898	9002.33
226.971	9001.66
227.044	9022.4
227.117	9026.3
227.189	9045.57
227.262	9078.46
227.335	9095.5
227.407	9089.58
227.48	9124.42
227.553	9134.92
227.626	9110.84
227.698	9121.28
227.771	9162.66
227.844	9141.38
227.916	9158.96
227.989	9122.03
228.062	9120.73
228.134	9210.98
228.207	9211.51
228.28	9200.29
228.352	9212.09
228.425	9220.52
228.498	9271.51
228.57	9248.06
228.643	9308.17
228.716	9312.89
228.788	9305.81
228.861	9297.19
228.934	9359.05
229.006	9363.87
229.079	9365.99
229.151	9358.47
229.224	9317.23
229.296	9343.85
229.369	9446.73
229.442	9493.11
229.514	9474.83
229.587	9516.43
229.659	9434.26
229.732	9438.94
229.804	9484.63
229.877	9570.23
229.949	9603.51
230.022	9658.15
230.094	9660.89
230.167	9646.82
230.239	9595.06
230.312	9578.98
230.384	9649.99
230.457	9653.79
230.529	9665.88
230.602	9667.42
230.674	9674.3
230.747	9726.05
230.819	9755.62
230.892	9638.06
230.964	9639.12
231.037	9669.29
231.109	9665.63
231.181	9712.73
231.254	9692.36
231.326	9673.48
231.399	9643.9
231.471	9610.66
231.544	9527.9
231.616	9574.02
231.688	9579.8
231.761	9574.13
231.833	9561.85
231.905	9477.41
231.978	9473.41
232.05	9458.92
232.122	9461.38
232.195	9439.37
232.267	9468.07
232.339	9444.9
232.412	9515.97
232.484	9490.68
232.556	9465.12
232.629	9534.69
232.701	9552.17
232.773	9559.78
232.846	9551.31
232.918	9555.88
232.99	9576.55
233.062	9619.22
233.135	9629.62
233.207	9601.06
233.279	9643.47
233.351	9678.38
233.424	9683.34
233.496	9653.87
233.568	9735.7
233.64	9701.32
233.713	9716.88
233.785	9716.06
233.857	9733.11
233.929	9676.14
234.001	9747.74
234.074	9818.76
234.146	9739.08
234.218	9731.37
234.29	9727.76
234.362	9716.88
234.434	9673.91
234.507	9635.24
234.579	9585.25
234.651	9575.52
234.723	9601.82
234.795	9620.41
234.867	9613.42
234.939	9674.74
235.012	9696.46
235.084	9701.52
235.156	9739.66
235.228	9721.74
235.3	9705.32
235.372	9716.73
235.444	9779.86
235.516	9692.28
235.588	9693.34
235.66	9718.91
235.732	9694.54
235.804	9895.53
235.876	9942.48
235.948	10006.7
236.02	10024.08
236.092	10035.68
236.164	10045.65
236.236	10045.56
236.308	10038.62
236.38	10063.38
236.452	10039.29
236.524	10058.37
236.596	10123.09
236.668	10150.07
236.74	10172.08
236.812	10199.97
236.884	10235.96
236.956	10244.25
237.028	10239.57
237.1	10230.9
237.172	10300.91
237.244	10378.28
237.316	10260.72
237.388	10240.93
237.46	10216.88
237.532	10281.15
237.604	10272.68
237.675	10350.2
237.747	10401.13
237.819	10392.99
237.891	10400.27
237.963	10390.54
238.035	10393.09
238.107	10275.75
238.178	10345.39
238.25	10357.63
238.322	10451.02
238.394	10404.91
238.466	10406.84
238.538	10461.22
238.609	10499.67
238.681	10441.12
238.753	10424.06
238.825	10441.22
238.897	10470.75
238.968	10552.67
239.04	10536.92
239.112	10653.07
239.184	10604.74
239.255	10599.05
239.327	10639.37
239.399	10663.27
239.471	10716.45
239.542	10746.08
239.614	10819.03
239.686	10728.19
239.758	10783.7
239.829	10750.44
239.901	10818
239.973	10841.17
240.044	10863.87
240.116	10880.44
240.188	10902.65
240.259	10912.39
240.331	10908
240.403	10954.21
240.474	10907.07
240.546	10895.6
240.618	10832.96
240.689	10829.88
240.761	10852.43
240.833	10914.4
240.904	10914.35
240.976	10911.56
241.048	10930.88
241.119	10968.04
241.191	11016.8
241.262	11086.36
241.334	11088.72
241.405	11095.66
241.477	11090.5
241.549	11106.79
241.62	11128.19
241.692	11168.14
241.763	11230.41
241.835	11248.53
241.906	11264.24
241.978	11232
242.049	11293.11
242.121	11361.15
242.192	11440.19
242.264	11405.15
242.335	11357.01
242.407	11403.42
242.478	11406.5
242.55	11421.01
242.621	11403.8
242.693	11407.61
242.764	11384.76
242.836	11384.66
242.907	11412.62
242.979	11448.38
243.05	11469.92
243.122	11496.96
243.193	11500.09
243.264	11423.41
243.336	11425.82
243.407	11464.77
243.479	11551.85
243.55	11577.01
243.622	11596.01
243.693	11597.02
243.764	11661.21
243.836	11646.37
243.907	11634.28
243.978	11642.13
244.05	11671.82
244.121	11623.87
244.192	11669.56
244.264	11629.17
244.335	11642.04
244.407	11597.75
244.478	11614.28
244.549	11606.57
244.62	11559.04
244.692	11555.43
244.763	11606.8
244.834	11596.83
244.906	11571.23
244.977	11589.07
245.048	11638.33
245.119	11611.15
245.191	11582.04
245.262	11515.34
245.333	11590.85
245.405	11610.47
245.476	11642.66
245.547	11659.49
245.618	11722.62
245.689	11731.97
245.761	11772.12
245.832	11785.23
245.903	11823.79
245.974	11859.46
246.045	11868.81
246.117	11954.6
246.188	11940.58
246.259	11918.31
246.33	11938.07
246.401	11948.97
246.473	11917.3
246.544	11904.28
246.615	11968.39
246.686	11973.64
246.757	12054.95
246.828	12029.98
246.899	12107.26
246.97	12072.17
247.042	12064.12
247.113	12102.59
247.184	12189.89
247.255	12176
247.326	12201.55
247.397	12209.84
247.468	12219.34
247.539	12232.98
247.61	12187.14
247.681	12233.02
247.752	12291.39
247.823	12265.7
247.894	12278.96
247.965	12248.84
248.037	12232.25
248.108	12164.63
248.179	12165.06
248.25	12157.44
248.321	12190.41
248.392	12137.48
248.463	12223.66
248.534	12224.34
248.605	12250.71
248.675	12221.25
248.746	12243.47
248.817	12261.31
248.888	12278.28
248.959	12218.07
249.03	12244.25
249.101	12259.33
249.172	12251.82
249.243	12174.12
249.314	12242.86
249.385	12258.23
249.456	12288.89
249.527	12289.66
249.598	12324.36
249.669	12335.4
249.739	12349.57
249.81	12362.78
249.881	12324.22
249.952	12317.13
250.023	12316.7
250.094	12258.8
250.165	12230.89
250.235	12228.43
250.306	12229.35
250.377	12199.66
250.448	12227.32
250.519	12159.5
250.59	12217.59
250.66	12211.81
250.731	12287.24
250.802	12285.65
250.873	12306.42
250.944	12329.13
251.014	12318.96
251.085	12413.97
251.156	12433.68
251.227	12478.66
251.297	12532.7
251.368	12578.63
251.439	12620.72
251.51	12668.1
251.58	12655.48
251.651	12647.57
251.722	12697.17
251.792	12653.21
251.863	12661.89
251.934	12720.31
252.005	12837.83
252.075	12837.93
252.146	12892.93
252.217	12947.11
252.287	12989.58
252.358	12989.73
252.429	13070.08
252.499	13062.47
252.57	13064.88
252.641	13110.24
252.711	13123.16
252.782	13072.98
252.852	13153.43
252.923	13153.82
252.994	13173.73
253.064	13226.94
253.135	13216.1
253.205	13196.29
253.276	13266.47
253.347	13330.01
253.417	13316.65
253.488	13305.13
253.558	13295.59
253.629	13282.43
253.699	13291.92
253.77	13312.8
253.841	13303.98
253.911	13315.26
253.982	13333.38
254.052	13371.41
254.123	13387.47
254.193	13388.62
254.264	13531.99
254.334	13502.05
254.405	13459
254.475	13423.09
254.546	13430.7
254.616	13492.89
254.687	13525.62
254.757	13546.35
254.827	13543.65
254.898	13566.07
254.968	13568.04
255.039	13551.7
255.109	13595.57
255.18	13569.15
255.25	13503.54
255.321	13540.37
255.391	13486
255.461	13580.77
255.532	13491.3
255.602	13484.79
255.673	13427.09
255.743	13393.68
255.813	13321.14
255.884	13383.56
255.954	13418.18
256.024	13479.98
256.095	13481.37
256.165	13441.84
256.235	13466
256.306	13454.96
256.376	13496.56
256.446	13540.18
256.517	13575.47
256.587	13620.98
256.657	13637.37
256.728	13663.88
256.798	13673.86
256.868	13679.79
256.938	13642.24
257.009	13691.99
257.079	13724.62
257.149	13833.57
257.219	13767.33
257.29	13811.25
257.36	13752.48
257.43	13792.98
257.5	13719.61
257.571	13710.06
257.641	13755.18
257.711	13717.15
257.781	13745.45
257.852	13767.04
257.922	13700.08
257.992	13701.34
258.062	13691.12
258.132	13738.21
258.202	13742.46
258.273	13757.59
258.343	13833.08
258.413	13815.05
258.483	13819.01
258.553	13788.01
258.623	13756.97
258.693	13784.68
258.764	13844.99
258.834	13914.46
258.904	13930.07
258.974	13927.47
259.044	13939.19
259.114	13965.6
259.184	14000.79
259.254	14007.16
259.324	13949.36
259.394	13998.53
259.464	14078.74
259.535	14090.6
259.605	14081.1
259.675	14069.87
259.745	14097.4
259.815	14072.14
259.885	14080.29
259.955	14199.92
260.025	14190.23
260.095	14205.41
260.165	14236.51
260.235	14301.82
260.305	14285.38
260.375	14255.59
260.445	14346.8
260.515	14411.64
260.585	14459.74
260.655	14470.06
260.725	14519.95
260.795	14558.18
260.865	14627.59
260.934	14590.14
261.004	14621.76
261.074	14631.21
261.144	14692.48
261.214	14730.85
261.284	14732.29
261.354	14772.4
261.424	14714.81
261.494	14793.53
261.564	14796.61
261.634	14816.37
261.703	14747.3
261.773	14777.96
261.843	14804.95
261.913	14796.95
261.983	14745.61
262.053	14763.88
262.123	14756.36
262.192	14713.7
262.262	14755.49
262.332	14709.22
262.402	14752.07
262.472	14758.87
262.541	14698.08
262.611	14750.81
262.681	14721.55
262.751	14761.51
262.821	14761.8
262.89	14737.17
262.96	14758.24
263.03	14840.95
