Data from 20250701_urea_2M_exp3_MAYP1162681_04-39-49-149.txt Node
Date: Wed Jul 02 04:39:49 BST 2025
User: adleo
Spectrometer: MAYP116268
Trigger mode: 0
Integration Time (sec): 4.000000E0
Scans to average: 1
Electric dark correction enabled: true
Nonlinearity correction enabled: true
Boxcar width: 10
XAxis mode: Wavelengths
Number of Pixels in Spectrum: 2068
>>>>>Begin Spectral Data<<<<<
179.565	3618.77
179.642	3805.15
179.718	3943.34
179.795	4073.44
179.871	4181.02
179.948	4239.86
180.024	4312.56
180.101	4386.97
180.177	4437.33
180.254	4510.45
180.33	4589.55
180.407	4850.17
180.483	5129.25
180.56	5415.66
180.636	5677.83
180.712	5635.79
180.789	5670.32
180.865	5713.55
180.942	5742.22
181.018	5781.36
181.095	5820.57
181.171	5838.5
181.248	5844.36
181.324	5898.34
181.4	5922.33
181.477	5960.86
181.553	6006.5
181.63	6072.97
181.706	6126.24
181.782	6155.73
181.859	6158.84
181.935	6172.96
182.011	6162.64
182.088	6215.29
182.164	6277.91
182.24	6323.92
182.317	6351.27
182.393	6343.49
182.469	6388.9
182.546	6430.85
182.622	6441.8
182.698	6433.49
182.775	6475.4
182.851	6516.97
182.927	6496.86
183.003	6486.15
183.08	6466.76
183.156	6496.81
183.232	6490.28
183.308	6453.99
183.385	6479.48
183.461	6534.79
183.537	6537.91
183.613	6581.7
183.69	6554.67
183.766	6517.87
183.842	6541.93
183.918	6560.75
183.995	6600.31
184.071	6608.48
184.147	6592.77
184.223	6559.28
184.299	6600.26
184.375	6566.22
184.452	6587.94
184.528	6715.44
184.604	6749.09
184.68	6786.25
184.756	6813.2
184.832	6828.63
184.908	6848.06
184.985	6842.88
185.061	6790.87
185.137	6820.13
185.213	6778.54
185.289	6783.73
185.365	6761.65
185.441	6754.54
185.517	6800.81
185.593	6791.35
185.669	6784.63
185.745	6821.42
185.822	6873.98
185.898	6840.87
185.974	6868.82
186.05	6843.3
186.126	6763.98
186.202	6739.2
186.278	6730.8
186.354	6692.22
186.43	6710.73
186.506	6703.48
186.582	6704.29
186.658	6725.94
186.734	6657.43
186.81	6664.73
186.886	6680.96
186.962	6721.72
187.038	6707.75
187.114	6681.98
187.19	6705.57
187.266	6675.13
187.341	6677.05
187.417	6654.2
187.493	6659.43
187.569	6670.38
187.645	6651.8
187.721	6614.76
187.797	6639.2
187.873	6654.33
187.949	6637.96
188.025	6613.45
188.101	6628.05
188.176	6642.31
188.252	6630.26
188.328	6659.43
188.404	6664.61
188.48	6642.43
188.556	6618.28
188.632	6618.13
188.707	6621.54
188.783	6611.69
188.859	6595.05
188.935	6554.79
189.011	6580.48
189.086	6559.02
189.162	6530.16
189.238	6524.21
189.314	6515.52
189.39	6498.52
189.465	6471.43
189.541	6529.93
189.617	6485.14
189.693	6462.44
189.768	6479.54
189.844	6561.65
189.92	6541.5
189.996	6565.51
190.071	6606.38
190.147	6605.27
190.223	6636.21
190.298	6607.82
190.374	6569.6
190.45	6610.49
190.526	6642.29
190.601	6625.04
190.677	6624.42
190.753	6715.98
190.828	6725
190.904	6774.38
190.98	6830.83
191.055	6868.25
191.131	6835.68
191.207	6896.95
191.282	6929.69
191.358	6894.06
191.433	6844.21
191.509	6878.24
191.585	6868.25
191.66	6871.61
191.736	6900.38
191.811	6871.7
191.887	6927.4
191.963	7002.49
192.038	7018.24
192.114	7014.88
192.189	7025.44
192.265	7020.07
192.34	6949.35
192.416	6950.31
192.491	6943.05
192.567	6943.25
192.642	6952.28
192.718	6955.5
192.793	6915.44
192.869	6901.18
192.944	6911.69
193.02	6934.76
193.095	6953.25
193.171	6974.63
193.246	6966.75
193.322	6951.61
193.397	6955.65
193.473	6909.51
193.548	6850.12
193.624	6866.99
193.699	6862.61
193.775	6917.74
193.85	6923.98
193.925	6954.83
194.001	6952.82
194.076	6921.2
194.152	6888.57
194.227	6855.52
194.302	6825.27
194.378	6842.03
194.453	6832.86
194.529	6873.99
194.604	6824.27
194.679	6798.28
194.755	6734.05
194.83	6777.26
194.905	6771.83
194.981	6795.37
195.056	6772.85
195.131	6793.55
195.207	6789.23
195.282	6757.34
195.357	6687.38
195.433	6734.54
195.508	6691.54
195.583	6716.71
195.659	6765.05
195.734	6785.18
195.809	6786.28
195.884	6815.09
195.96	6815.23
196.035	6862.45
196.11	6844.71
196.185	6885.3
196.261	6903.59
196.336	7006.59
196.411	6962.55
196.486	6984.17
196.561	6965
196.637	6991.65
196.712	7042.56
196.787	7054.24
196.862	7108.8
196.937	7148
197.013	7167.85
197.088	7204.46
197.163	7275.91
197.238	7331.04
197.313	7332.92
197.388	7379.97
197.464	7480.47
197.539	7518.14
197.614	7504.3
197.689	7549.06
197.764	7603.5
197.839	7666.47
197.914	7648.29
197.989	7715.32
198.065	7756.76
198.14	7927.58
198.215	8019.58
198.29	8056.62
198.365	8100.15
198.44	8137.47
198.515	8232.53
198.59	8288.2
198.665	8374.02
198.74	8398.47
198.815	8403.38
198.89	8478.47
198.965	8574.4
199.04	8559.62
199.115	8614.99
199.19	8748.89
199.265	8755
199.34	8791.72
199.415	8906.13
199.49	8978.64
199.565	9014.59
199.64	9097.14
199.715	9074.93
199.79	9093.52
199.865	9119.61
199.94	9112.25
200.015	9212.83
200.09	9225.39
200.165	9242.29
200.24	9263.96
200.315	9391.53
200.39	9437.08
200.464	9454.12
200.539	9459.32
200.614	9511.65
200.689	9587.55
200.764	9611.3
200.839	9667.71
200.914	9676.13
200.989	9636.58
201.063	9672.17
201.138	9613.61
201.213	9607.87
201.288	9549.52
201.363	9563.1
201.438	9557.75
201.512	9613.83
201.587	9559.07
201.662	9569.95
201.737	9610.75
201.812	9634.44
201.886	9525.46
201.961	9560.24
202.036	9519.23
202.111	9508.59
202.186	9413.88
202.26	9353.15
202.335	9278.17
202.41	9258.96
202.485	9202.69
202.559	9139.29
202.634	9057.93
202.709	9092.04
202.784	9028.02
202.858	9026.72
202.933	8967.32
203.008	8944.6
203.082	8877.31
203.157	8869.75
203.232	8729.18
203.306	8656.33
203.381	8551.3
203.456	8480.17
203.53	8405.52
203.605	8339.98
203.68	8263.44
203.754	8240.76
203.829	8192.1
203.904	8128.85
203.978	8089.92
204.053	8107.1
204.127	8064.72
204.202	8057.89
204.277	7996.04
204.351	7975.5
204.426	7957.94
204.5	7927.39
204.575	7816.1
204.65	7846.18
204.724	7822.45
204.799	7842.53
204.873	7827.66
204.948	7818.24
205.022	7775.22
205.097	7741.05
205.171	7790.95
205.246	7819.2
205.32	7816.17
205.395	7811.45
205.469	7786.66
205.544	7805.42
205.618	7745.98
205.693	7785.61
205.767	7747.15
205.842	7818.92
205.916	7798.53
205.991	7763.42
206.065	7780.88
206.14	7830.21
206.214	7815.49
206.289	7789.56
206.363	7835.72
206.438	7846.88
206.512	7875.02
206.586	7938.48
206.661	7967.84
206.735	7893.39
206.81	7892.19
206.884	7946.23
206.958	7910.08
207.033	7965.02
207.107	7991.78
207.181	8097.49
207.256	8074.88
207.33	8135.47
207.405	8177.99
207.479	8238.59
207.553	8265.23
207.628	8213.13
207.702	8252.95
207.776	8229.52
207.851	8241.78
207.925	8291.79
207.999	8274.66
208.073	8262.35
208.148	8270.62
208.222	8230.25
208.296	8336.27
208.371	8388.07
208.445	8416.75
208.519	8502.81
208.593	8538.32
208.668	8519.54
208.742	8526.33
208.816	8534.22
208.89	8577.11
208.965	8564.88
209.039	8590.25
209.113	8644.2
209.187	8712.76
209.261	8699.1
209.336	8771
209.41	8834.15
209.484	8834.88
209.558	8913.39
209.632	8961.41
209.707	9002.33
209.781	9073.66
209.855	9123.4
209.929	9179.81
210.003	9204.75
210.077	9211.25
210.151	9371.92
210.226	9494.6
210.3	9584.98
210.374	9659.98
210.448	9672.02
210.522	9710.98
210.596	9750.38
210.67	9782.45
210.744	9938.8
210.818	10055.11
210.892	10114.94
210.966	10098.33
211.041	10149.72
211.115	10136.81
211.189	10215.08
211.263	10264.36
211.337	10289.93
211.411	10338.11
211.485	10319.27
211.559	10348.6
211.633	10351.2
211.707	10240.9
211.781	10255.93
211.855	10135.69
211.929	10105.89
212.003	10045.37
212.077	10074.04
212.151	10113.84
212.225	10137.4
212.299	10099.08
212.373	10050.96
212.447	10039.5
212.52	10133.58
212.594	10139.21
212.668	10173.6
212.742	10120.42
212.816	10099.8
212.89	10076.54
212.964	10066.85
213.038	10073.07
213.112	10113.06
213.186	10161.12
213.26	10087.13
213.333	9927.76
213.407	9940.91
213.481	9946.78
213.555	9985.29
213.629	9935.66
213.703	9870.19
213.777	9857.81
213.85	9787.63
213.924	9891.5
213.998	9881.14
214.072	9844.09
214.146	9792.45
214.219	9767.93
214.293	9744.82
214.367	9739.86
214.441	9759.18
214.515	9710.33
214.588	9618.2
214.662	9491.32
214.736	9409.61
214.81	9422.84
214.883	9442.76
214.957	9393.91
215.031	9337.41
215.105	9243.99
215.178	9178.32
215.252	9139.66
215.326	9039.77
215.4	8955.41
215.473	8768.53
215.547	8680.46
215.621	8619.01
215.694	8609.72
215.768	8517.02
215.842	8451.49
215.915	8376.15
215.989	8262.27
216.063	8201.81
216.136	8177.27
216.21	8152.41
216.284	8163.48
216.357	8133.31
216.431	8089.15
216.504	8087.51
216.578	8139.19
216.652	8150.2
216.725	8126.72
216.799	8125.91
216.873	8112.1
216.946	8118.88
217.02	8087.21
217.093	8052.96
217.167	7956.09
217.24	7875.98
217.314	7841.95
217.387	7801.53
217.461	7760.08
217.535	7783.79
217.608	7728.3
217.682	7703.43
217.755	7716.22
217.829	7652.44
217.902	7634.12
217.976	7622.01
218.049	7572.53
218.123	7496.18
218.196	7490.46
218.27	7458.49
218.343	7393.08
218.417	7385.72
218.49	7364.71
218.563	7402.06
218.637	7412.88
218.71	7477.03
218.784	7506.55
218.857	7537.07
218.931	7557.78
219.004	7573.17
219.077	7589.43
219.151	7607.64
219.224	7599.86
219.298	7598.65
219.371	7644.15
219.444	7608.78
219.518	7614.98
219.591	7626.9
219.665	7731.9
219.738	7744.06
219.811	7724.12
219.885	7769.17
219.958	7803.18
220.031	7802.41
220.105	7824.1
220.178	7830.88
220.251	7810.25
220.325	7831.08
220.398	7851.62
220.471	7872.67
220.544	7897.06
220.618	7873.53
220.691	7894.55
220.764	7913.06
220.838	7934.56
220.911	7925.95
220.984	8012.93
221.057	8050.45
221.131	8075.93
221.204	7981.22
221.277	8055.65
221.35	8177.31
221.424	8170.72
221.497	8178.56
221.57	8202.16
221.643	8238.5
221.716	8286.04
221.79	8287.63
221.863	8299.81
221.936	8308.47
222.009	8317.75
222.082	8353.46
222.155	8359.81
222.229	8427.33
222.302	8458.46
222.375	8464.23
222.448	8500.13
222.521	8504.08
222.594	8500.76
222.667	8475.9
222.74	8529.49
222.814	8520.97
222.887	8504.84
222.96	8561
223.033	8611.79
223.106	8639.74
223.179	8669.93
223.252	8682.11
223.325	8715.36
223.398	8727.82
223.471	8754.1
223.544	8784.07
223.617	8795.05
223.69	8821.7
223.763	8783.14
223.837	8803.65
223.91	8837.2
223.983	8779.6
224.056	8748.67
224.129	8772.05
224.202	8831.41
224.275	8823.56
224.348	8793.77
224.42	8764.94
224.493	8707.86
224.566	8674.64
224.639	8698.56
224.712	8665.29
224.785	8648.87
224.858	8640.59
224.931	8624.66
225.004	8590.73
225.077	8586.45
225.15	8493.03
225.223	8486.77
225.296	8565.5
225.369	8510.03
225.442	8475.18
225.514	8504.81
225.587	8524.05
225.66	8526.65
225.733	8524.24
225.806	8531.46
225.879	8524.1
225.952	8488.89
226.025	8530.37
226.097	8579.15
226.17	8563.89
226.243	8502.55
226.316	8501.01
226.389	8506.93
226.461	8522.62
226.534	8546.2
226.607	8534.75
226.68	8620.13
226.753	8622.34
226.825	8541.98
226.898	8597.6
226.971	8599.71
227.044	8616.56
227.117	8618.87
227.189	8640.15
227.262	8673.17
227.335	8687.85
227.407	8684.48
227.48	8719.07
227.553	8733.51
227.626	8718.25
227.698	8723.54
227.771	8760.38
227.844	8740.99
227.916	8758.56
227.989	8724.43
228.062	8711.39
228.134	8796.84
228.207	8800.21
228.28	8787.61
228.352	8800.8
228.425	8810.04
228.498	8857.98
228.57	8832.63
228.643	8891.07
228.716	8890.16
228.788	8878.89
228.861	8877.3
228.934	8937.61
229.006	8942.62
229.079	8943.34
229.151	8929.57
229.224	8899.5
229.296	8929
229.369	9023.24
229.442	9070.96
229.514	9051.38
229.587	9104.81
229.659	9029.47
229.732	9042.56
229.804	9082.9
229.877	9160
229.949	9189.23
230.022	9238.17
230.094	9244.57
230.167	9233.97
230.239	9192.87
230.312	9182.28
230.384	9250.52
230.457	9248.5
230.529	9261.69
230.602	9266.46
230.674	9277.58
230.747	9319.59
230.819	9344.48
230.892	9229.22
230.964	9228.25
231.037	9256.49
231.109	9241.04
231.181	9282.14
231.254	9247.05
231.326	9238.38
231.399	9212.76
231.471	9187.81
231.544	9107.14
231.616	9157.44
231.688	9167.22
231.761	9156.39
231.833	9148.31
231.905	9065.52
231.978	9065.57
232.05	9049.83
232.122	9050.36
232.195	9025.04
232.267	9052.96
232.339	9035.82
232.412	9105.66
232.484	9074.74
232.556	9055.88
232.629	9122.97
232.701	9141.75
232.773	9154.32
232.846	9139.44
232.918	9149.41
232.99	9159.43
233.062	9208.64
233.135	9218.95
233.207	9181.15
233.279	9222.49
233.351	9258.11
233.424	9257.15
233.496	9233.27
233.568	9310.36
233.64	9273.58
233.713	9287.88
233.785	9292.07
233.857	9301.99
233.929	9256.01
234.001	9327.16
234.074	9389.83
234.146	9318.93
234.218	9316.48
234.29	9316.91
234.362	9311.47
234.434	9260.28
234.507	9227.59
234.579	9173.23
234.651	9149.97
234.723	9183.87
234.795	9204.53
234.867	9193.74
234.939	9263.8
235.012	9284.89
235.084	9296.21
235.156	9331.26
235.228	9316.72
235.3	9303.96
235.372	9315.8
235.444	9366.98
235.516	9286.39
235.588	9291.93
235.66	9306.95
235.732	9279.31
235.804	9468
235.876	9508.82
235.948	9568.64
236.02	9587.27
236.092	9599.01
236.164	9616.97
236.236	9611.43
236.308	9605.7
236.38	9629.78
236.452	9597.99
236.524	9608.63
236.596	9664.53
236.668	9699.54
236.74	9721.07
236.812	9743.75
236.884	9770.82
236.956	9782.23
237.028	9778.24
237.1	9762.78
237.172	9829.26
237.244	9901.5
237.316	9778.8
237.388	9770.08
237.46	9750.67
237.532	9809.62
237.604	9798.6
237.675	9865.7
237.747	9918.79
237.819	9911.42
237.891	9919.08
237.963	9912.63
238.035	9910.75
238.107	9809.48
238.178	9865.46
238.25	9876.4
238.322	9966.36
238.394	9928.45
238.466	9929.03
238.538	9972.95
238.609	10013.02
238.681	9966.38
238.753	9949.42
238.825	9976.84
238.897	10000.19
238.968	10084.52
239.04	10070.31
239.112	10188.36
239.184	10148.47
239.255	10135.94
239.327	10174.37
239.399	10197.06
239.471	10241.13
239.542	10275.96
239.614	10342
239.686	10265.83
239.758	10320.08
239.829	10280.65
239.901	10347.13
239.973	10359.95
240.044	10390.39
240.116	10405.67
240.188	10418.48
240.259	10425.8
240.331	10417.95
240.403	10455.86
240.474	10409.26
240.546	10400.97
240.618	10337.61
240.689	10336.84
240.761	10358.67
240.833	10421.79
240.904	10421.02
240.976	10423.19
241.048	10446.75
241.119	10482.41
241.191	10527.21
241.262	10588.27
241.334	10595.55
241.405	10601.14
241.477	10611.84
241.549	10620.46
241.62	10641.47
241.692	10686.71
241.763	10756.15
241.835	10773.16
241.906	10790.94
241.978	10761.22
242.049	10824.38
242.121	10891.12
242.192	10959.54
242.264	10928.75
242.335	10881.58
242.407	10924.65
242.478	10931.01
242.55	10945.76
242.621	10923.64
242.693	10920.17
242.764	10903.73
242.836	10906.86
242.907	10931.64
242.979	10960.35
243.05	10978.52
243.122	11006.28
243.193	11006.81
243.264	10929.32
243.336	10935.44
243.407	10972.46
243.479	11050.52
243.55	11067.34
243.622	11076.54
243.693	11078.81
243.764	11144.73
243.836	11122.86
243.907	11112.31
243.978	11112.74
244.05	11137.7
244.121	11092.46
244.192	11138.38
244.264	11096.46
244.335	11112.79
244.407	11061.57
244.478	11080.99
244.549	11079.69
244.62	11036.9
244.692	11036.66
244.763	11082.77
244.834	11073.37
244.906	11048.36
244.977	11073.33
245.048	11125.09
245.119	11097.48
245.191	11070.83
245.262	11009.39
245.333	11083.69
245.405	11103.74
245.476	11145.61
245.547	11158.38
245.618	11216.88
245.689	11226.18
245.761	11264.79
245.832	11270.47
245.903	11324.88
245.974	11346.28
246.045	11357.65
246.117	11431.05
246.188	11411.3
246.259	11393.18
246.33	11412.6
246.401	11423.25
246.473	11380.45
246.544	11358.23
246.615	11426.57
246.686	11431.19
246.757	11506.66
246.828	11483.43
246.899	11554.92
246.97	11521.76
247.042	11515.25
247.113	11553.62
247.184	11639.57
247.255	11635.33
247.326	11654.99
247.397	11660.44
247.468	11670.71
247.539	11677.84
247.61	11638.32
247.681	11685.88
247.752	11747.09
247.823	11718.94
247.894	11730.8
247.965	11704.83
248.037	11697.84
248.108	11635.47
248.179	11652.34
248.25	11639.18
248.321	11665.44
248.392	11618.69
248.463	11696.95
248.534	11693.87
248.605	11716.67
248.675	11696.38
248.746	11713.97
248.817	11735.56
248.888	11752
248.959	11695.37
249.03	11724.82
249.101	11735.81
249.172	11718.55
249.243	11642.26
249.314	11704.82
249.385	11716.68
249.456	11751.04
249.527	11747.14
249.598	11779.57
249.669	11771.09
249.739	11788.54
249.81	11807.77
249.881	11764.39
249.952	11755.43
250.023	11755.33
250.094	11702.98
250.165	11668.66
250.235	11661.09
250.306	11655.21
250.377	11619.88
250.448	11646.73
250.519	11581.61
250.59	11642.3
250.66	11637.53
250.731	11710.54
250.802	11713.43
250.873	11731.94
250.944	11759.61
251.014	11747.8
251.085	11835.63
251.156	11865.75
251.227	11911.69
251.297	11959.84
251.368	12011.66
251.439	12054.08
251.51	12106.13
251.58	12095.05
251.651	12089.7
251.722	12140.12
251.792	12098.52
251.863	12100.4
251.934	12164.41
252.005	12278.26
252.075	12277.06
252.146	12332.82
252.217	12380.64
252.287	12418
252.358	12426.05
252.429	12486.06
252.499	12479.46
252.57	12490.4
252.641	12537.16
252.711	12544.54
252.782	12501.88
252.852	12577.17
252.923	12570.23
252.994	12586.14
253.064	12635.3
253.135	12609.37
253.205	12597.51
253.276	12668.75
253.347	12736.86
253.417	12714.59
253.488	12690.68
253.558	12681.47
253.629	12673.81
253.699	12682.01
253.77	12709.58
253.841	12707.56
253.911	12715.08
253.982	12734.16
254.052	12762.17
254.123	12765.35
254.193	12769.79
254.264	12904.04
254.334	12863.3
254.405	12836.6
254.475	12798.37
254.546	12801.36
254.616	12868.6
254.687	12894.73
254.757	12918.11
254.827	12913.29
254.898	12930.45
254.968	12942.5
255.039	12929.87
255.109	12970.94
255.18	12950.17
255.25	12878.29
255.321	12901.67
255.391	12860.99
255.461	12944.86
255.532	12854.14
255.602	12851.06
255.673	12796.05
255.743	12754.98
255.813	12691.16
255.884	12736.72
255.954	12784.15
256.024	12845.23
256.095	12853.47
256.165	12813.99
256.235	12838.24
256.306	12830.38
256.376	12882.06
256.446	12920.91
256.517	12953.02
256.587	12992.31
256.657	13004.74
256.728	13033.57
256.798	13045.24
256.868	13044.61
256.938	13014.29
257.009	13061.34
257.079	13086.69
257.149	13182.77
257.219	13127.28
257.29	13167.24
257.36	13114.16
257.43	13146.51
257.5	13090.11
257.571	13079.94
257.641	13120.33
257.711	13088.23
257.781	13116.04
257.852	13132.34
257.922	13071.36
257.992	13073.96
258.062	13062.58
258.132	13102.84
258.202	13100.67
258.273	13103.65
258.343	13179.92
258.413	13171.24
258.483	13182.04
258.553	13154.37
258.623	13131.18
258.693	13160.63
258.764	13223.78
258.834	13291.03
258.904	13302.31
258.974	13290.31
259.044	13293.83
259.114	13317.54
259.184	13334.9
259.254	13345.41
259.324	13290.16
259.394	13333.69
259.464	13411.79
259.535	13424.22
259.605	13426.73
259.675	13424.61
259.745	13463.95
259.815	13434.54
259.885	13423.65
259.955	13532.68
260.025	13533.17
260.095	13543.29
260.165	13571.92
260.235	13631.26
260.305	13619.94
260.375	13593.57
260.445	13687.47
260.515	13761.23
260.585	13815.03
260.655	13836
260.725	13877.36
260.795	13919.15
260.865	13989.1
260.934	13952.46
261.004	13981.72
261.074	13983.41
261.144	14043.14
261.214	14082.57
261.284	14090.81
261.354	14140.56
261.424	14098.24
261.494	14166.69
261.564	14173.88
261.634	14202.56
261.703	14138.2
261.773	14157.63
261.843	14189.06
261.913	14176.58
261.983	14121.43
262.053	14132.13
262.123	14122.92
262.192	14086.48
262.262	14129.24
262.332	14080.89
262.402	14118.54
262.472	14125.62
262.541	14061.27
262.611	14108.65
262.681	14077.18
262.751	14110.58
262.821	14114.44
262.89	14085.9
262.96	14107.88
263.03	14181.88
263.1	14203.52
263.169	14225.74
263.239	14261.8
263.309	14325.04
