Data from 20250701_urea_2M_exp3_MAYP1162681_16-59-52-510.txt Node
Date: Tue Jul 01 16:59:52 BST 2025
User: adleo
Spectrometer: MAYP116268
Trigger mode: 0
Integration Time (sec): 4.000000E0
Scans to average: 1
Electric dark correction enabled: true
Nonlinearity correction enabled: true
Boxcar width: 10
XAxis mode: Wavelengths
Number of Pixels in Spectrum: 2068
>>>>>Begin Spectral Data<<<<<
179.565	4105.84
179.642	4321.76
179.718	4491.26
179.795	4642.1
179.871	4769.2
179.948	4842.11
180.024	4921.73
180.101	5010.66
180.177	5065.34
180.254	5152.1
180.33	5235.84
180.407	5534.7
180.483	5857.11
180.56	6181.78
180.636	6479.92
180.712	6432.17
180.789	6469.86
180.865	6514.05
180.942	6547.65
181.018	6587.84
181.095	6633.68
181.171	6650.87
181.248	6648.66
181.324	6707.72
181.4	6733.95
181.477	6773.87
181.553	6823.46
181.63	6901.87
181.706	6957.03
181.782	6987.52
181.859	6985.31
181.935	7009.72
182.011	6999
182.088	7060.23
182.164	7134.27
182.24	7187.45
182.317	7221.12
182.393	7213.67
182.469	7269.99
182.546	7319.83
182.622	7334.63
182.698	7321.26
182.775	7366.83
182.851	7426.33
182.927	7398.16
183.003	7381.92
183.08	7361.49
183.156	7395.04
183.232	7380.18
183.308	7342.17
183.385	7378.93
183.461	7443.67
183.537	7446.27
183.613	7491.5
183.69	7457.08
183.766	7421.1
183.842	7447.21
183.918	7462.78
183.995	7512.43
184.071	7521.43
184.147	7507.77
184.223	7474.15
184.299	7521.61
184.375	7481.95
184.452	7501.63
184.528	7630.35
184.604	7673.51
184.68	7715.81
184.756	7737.35
184.832	7756.06
184.908	7775.42
184.985	7768.93
185.061	7709.8
185.137	7739.57
185.213	7698.85
185.289	7708.32
185.365	7681.31
185.441	7673.95
185.517	7733.89
185.593	7719.9
185.669	7711.34
185.745	7748.85
185.822	7814.25
185.898	7783.52
185.974	7820.1
186.05	7795.04
186.126	7726.38
186.202	7700.04
186.278	7689.56
186.354	7655.27
186.43	7677.69
186.506	7670.05
186.582	7668.03
186.658	7689.12
186.734	7616.74
186.81	7624.33
186.886	7633.37
186.962	7675.14
187.038	7663.27
187.114	7628.48
187.19	7655.65
187.266	7617.53
187.341	7614.84
187.417	7582.67
187.493	7580.17
187.569	7584.6
187.645	7558.06
187.721	7512.99
187.797	7544.43
187.873	7558.48
187.949	7541.75
188.025	7523.33
188.101	7536.74
188.176	7557.65
188.252	7549.57
188.328	7580.08
188.404	7580.51
188.48	7557.58
188.556	7534.6
188.632	7530.71
188.707	7532.05
188.783	7519.59
188.859	7507.15
188.935	7468.16
189.011	7490.89
189.086	7468.4
189.162	7443.02
189.238	7433.89
189.314	7422.88
189.39	7401.19
189.465	7369.46
189.541	7429.81
189.617	7371.17
189.693	7344.21
189.768	7357.91
189.844	7446.47
189.92	7416.35
189.996	7447.02
190.071	7490.96
190.147	7481.83
190.223	7518.91
190.298	7495.2
190.374	7448.14
190.45	7493.17
190.526	7519.13
190.601	7499.42
190.677	7506.87
190.753	7601.31
190.828	7618.71
190.904	7675.36
190.98	7724.13
191.055	7769.81
191.131	7738.4
191.207	7816.38
191.282	7858.63
191.358	7820.4
191.433	7762.28
191.509	7810.43
191.585	7806.48
191.66	7803.64
191.736	7838.74
191.811	7800.18
191.887	7856.75
191.963	7950.14
192.038	7966.83
192.114	7974.86
192.189	7995.05
192.265	7979.73
192.34	7907.64
192.416	7899.95
192.491	7884.84
192.567	7898.8
192.642	7910.15
192.718	7907.41
192.793	7862.88
192.869	7847.01
192.944	7854.22
193.02	7885.58
193.095	7900.4
193.171	7921.22
193.246	7919.68
193.322	7906.55
193.397	7913.62
193.473	7862.96
193.548	7796.24
193.624	7817.65
193.699	7809.37
193.775	7867.21
193.85	7875.33
193.925	7902.07
194.001	7906.35
194.076	7876.68
194.152	7834.96
194.227	7803.79
194.302	7770.05
194.378	7782.8
194.453	7768.91
194.529	7815.84
194.604	7763.28
194.679	7739.38
194.755	7672.22
194.83	7722.7
194.905	7713.18
194.981	7749.88
195.056	7721.8
195.131	7739.74
195.207	7734.2
195.282	7702.71
195.357	7629.5
195.433	7686.76
195.508	7643.96
195.583	7668.96
195.659	7720.04
195.734	7742.41
195.809	7738.76
195.884	7773.6
195.96	7777.3
196.035	7836.16
196.11	7817.64
196.185	7855.1
196.261	7872.07
196.336	7980.14
196.411	7924.8
196.486	7940.91
196.561	7910.27
196.637	7939.88
196.712	8001.72
196.787	8007.78
196.862	8063.56
196.937	8101.31
197.013	8121.14
197.088	8164.38
197.163	8243.11
197.238	8302.62
197.313	8302.67
197.388	8355.16
197.464	8461.14
197.539	8497.56
197.614	8479.28
197.689	8529.32
197.764	8592.14
197.839	8664.61
197.914	8643.38
197.989	8723.22
198.065	8771.05
198.14	8958.85
198.215	9056.46
198.29	9100.77
198.365	9147.32
198.44	9191.94
198.515	9296.04
198.59	9357.91
198.665	9449.25
198.74	9476.18
198.815	9486.2
198.89	9570.79
198.965	9675.12
199.04	9662.21
199.115	9724.13
199.19	9877.31
199.265	9887.75
199.34	9922.87
199.415	10042.64
199.49	10118.39
199.565	10154.13
199.64	10247.47
199.715	10235.71
199.79	10257.15
199.865	10274.97
199.94	10278.44
200.015	10391.95
200.09	10409.44
200.165	10434.35
200.24	10456.85
200.315	10598.06
200.39	10649.13
200.464	10669.13
200.539	10672.84
200.614	10732.33
200.689	10813.91
200.764	10834.44
200.839	10898.79
200.914	10919.85
200.989	10882.98
201.063	10933.38
201.138	10871.11
201.213	10868.56
201.288	10794.65
201.363	10814.45
201.438	10812.96
201.512	10864.55
201.587	10801.51
201.662	10814.38
201.737	10848.26
201.812	10879.2
201.886	10758.36
201.961	10794.17
202.036	10749.52
202.111	10738.05
202.186	10629.54
202.26	10566.32
202.335	10483.73
202.41	10462.68
202.485	10396.64
202.559	10321.73
202.634	10223.02
202.709	10257.45
202.784	10183.79
202.858	10181.38
202.933	10119.2
203.008	10095.64
203.082	10026.09
203.157	10016.36
203.232	9855.55
203.306	9779.28
203.381	9657.5
203.456	9578.18
203.53	9493.03
203.605	9425.6
203.68	9344.09
203.754	9320.57
203.829	9273.37
203.904	9200
203.978	9155.16
204.053	9170.08
204.127	9123.77
204.202	9125.27
204.277	9055.66
204.351	9037.32
204.426	9013.29
204.5	8986.33
204.575	8860.63
204.65	8895.21
204.724	8866.5
204.799	8903.44
204.873	8887.22
204.948	8886.4
205.022	8844.01
205.097	8810.73
205.171	8856.83
205.246	8884.95
205.32	8884.09
205.395	8869.98
205.469	8836.94
205.544	8858.08
205.618	8797.09
205.693	8843.83
205.767	8797
205.842	8878.84
205.916	8859.78
205.991	8821.13
206.065	8836.34
206.14	8896.5
206.214	8874.4
206.289	8846.18
206.363	8888.83
206.438	8903.23
206.512	8931.49
206.586	9000.7
206.661	9032.87
206.735	8955.75
206.81	8953.82
206.884	9005.36
206.958	8968.11
207.033	9033.89
207.107	9054.31
207.181	9169.64
207.256	9145.32
207.33	9207.23
207.405	9247.07
207.479	9311.49
207.553	9339.64
207.628	9282.57
207.702	9323.44
207.776	9304.66
207.851	9316.12
207.925	9369.64
207.999	9351
208.073	9339.06
208.148	9347.73
208.222	9302.12
208.296	9422.35
208.371	9484.83
208.445	9531.21
208.519	9626.35
208.593	9669.54
208.668	9655.48
208.742	9662.27
208.816	9669.59
208.89	9727.54
208.965	9727.73
209.039	9760.98
209.113	9819.68
209.187	9890.57
209.261	9870.45
209.336	9938.21
209.41	10016.44
209.484	10016.25
209.558	10099.15
209.632	10145.63
209.707	10184.93
209.781	10271.01
209.855	10316.88
209.929	10379.73
210.003	10395.87
210.077	10393.37
210.151	10570.1
210.226	10699.2
210.3	10799.26
210.374	10883.46
210.448	10896.13
210.522	10935.7
210.596	10972.85
210.67	11005.81
210.744	11179.82
210.818	11299.29
210.892	11379.68
210.966	11357.03
211.041	11418.47
211.115	11406.28
211.189	11491.63
211.263	11551.14
211.337	11566.95
211.411	11625.51
211.485	11603.82
211.559	11642.65
211.633	11655.18
211.707	11535.45
211.781	11558.3
211.855	11424.46
211.929	11393.72
212.003	11321.89
212.077	11352.45
212.151	11394.77
212.225	11429.03
212.299	11389.55
212.373	11342.13
212.447	11315.96
212.52	11412.45
212.594	11418.86
212.668	11458.62
212.742	11408.64
212.816	11384.68
212.89	11371.82
212.964	11355.72
213.038	11352.2
213.112	11393.79
213.186	11438.32
213.26	11350.45
213.333	11175.96
213.407	11192.25
213.481	11192.44
213.555	11225.63
213.629	11171.69
213.703	11097.86
213.777	11089.04
213.85	11006.19
213.924	11126.93
213.998	11123.99
214.072	11091.74
214.146	11030.54
214.219	11006.82
214.293	10981.29
214.367	10972.9
214.441	10983.94
214.515	10932.71
214.588	10838.55
214.662	10699.07
214.736	10608.73
214.81	10625.54
214.883	10649.09
214.957	10592.68
215.031	10530.03
215.105	10429.65
215.178	10356.04
215.252	10315.91
215.326	10203.75
215.4	10108.65
215.473	9907.15
215.547	9808.28
215.621	9736.19
215.694	9733.21
215.768	9622.23
215.842	9550.09
215.915	9478.26
215.989	9353.85
216.063	9289.4
216.136	9266.24
216.21	9233.31
216.284	9247.28
216.357	9222.96
216.431	9173.22
216.504	9170.77
216.578	9233.18
216.652	9250.11
216.725	9231.58
216.799	9232.64
216.873	9210.88
216.946	9217.9
217.02	9170.71
217.093	9138.83
217.167	9028.01
217.24	8935.55
217.314	8906.3
217.387	8855.73
217.461	8801.58
217.535	8829.79
217.608	8763.32
217.682	8734.87
217.755	8753.21
217.829	8692.11
217.902	8672.71
217.976	8649.37
218.049	8595.76
218.123	8512.79
218.196	8512.46
218.27	8468.27
218.343	8390.19
218.417	8385.04
218.49	8364.45
218.563	8415.93
218.637	8427.19
218.71	8511.23
218.784	8537.56
218.857	8565.76
218.931	8588.22
219.004	8597.65
219.077	8612.58
219.151	8634.66
219.224	8622.58
219.298	8618.2
219.371	8674.86
219.444	8631.32
219.518	8642.97
219.591	8663.56
219.665	8773.75
219.738	8781.74
219.811	8765.14
219.885	8821.79
219.958	8858.04
220.031	8862.61
220.105	8889.72
220.178	8894
220.251	8862.37
220.325	8886.11
220.398	8906.32
220.471	8925.19
220.544	8967.12
220.618	8949.16
220.691	8978.52
220.764	8999.02
220.838	9028.97
220.911	9001.28
220.984	9098.99
221.057	9140.72
221.131	9162.86
221.204	9062.01
221.277	9142.34
221.35	9274.83
221.424	9268.77
221.497	9289.48
221.57	9315.41
221.643	9353.08
221.716	9397.87
221.79	9404.42
221.863	9418.62
221.936	9428.06
222.009	9447.12
222.082	9480.4
222.155	9487.34
222.229	9566.04
222.302	9596.91
222.375	9607.69
222.448	9650.17
222.521	9649.93
222.594	9651.28
222.667	9625.72
222.74	9684.9
222.814	9677.28
222.887	9666.83
222.96	9721.83
223.033	9755.89
223.106	9787.86
223.179	9810.75
223.252	9834.6
223.325	9866.43
223.398	9880.25
223.471	9917.77
223.544	9944.4
223.617	9954.56
223.69	9979.03
223.763	9927.86
223.837	9955.85
223.91	9983.69
223.983	9934.91
224.056	9900.96
224.129	9920.95
224.202	9981.17
224.275	9966.72
224.348	9934.98
224.42	9891.44
224.493	9827.86
224.566	9803.92
224.639	9825.26
224.712	9801.26
224.785	9783.39
224.858	9779.49
224.931	9759.06
225.004	9711.24
225.077	9710.37
225.15	9614.36
225.223	9616.05
225.296	9712.8
225.369	9653.81
225.442	9615.32
225.514	9638.19
225.587	9658.42
225.66	9675.76
225.733	9679.61
225.806	9695.27
225.879	9687.13
225.952	9659.06
226.025	9710.15
226.097	9767.15
226.17	9758.53
226.243	9688.71
226.316	9680.23
226.389	9690.63
226.461	9719.49
226.534	9747.18
226.607	9740.1
226.68	9832.16
226.753	9816.6
226.825	9723.41
226.898	9789.01
226.971	9800.23
227.044	9824.02
227.117	9832.45
227.189	9851.33
227.262	9891.03
227.335	9910.93
227.407	9905.87
227.48	9945.5
227.553	9960.82
227.626	9941.01
227.698	9940.44
227.771	9987.77
227.844	9968.93
227.916	9981.65
227.989	9940.51
228.062	9937.29
228.134	10032.54
228.207	10032.82
228.28	10032.87
228.352	10051.51
228.425	10057.3
228.498	10105.13
228.57	10079.75
228.643	10145.18
228.716	10143.16
228.788	10133.42
228.861	10132.56
228.934	10207.7
229.006	10215.26
229.079	10224.13
229.151	10211.89
229.224	10180.59
229.296	10204.43
229.369	10318.29
229.442	10369.8
229.514	10349.48
229.587	10391.58
229.659	10309.82
229.732	10327.45
229.804	10379.29
229.877	10463.33
229.949	10500.67
230.022	10564.53
230.094	10571.9
230.167	10562.55
230.239	10510.19
230.312	10499.83
230.384	10575.44
230.457	10570.09
230.529	10579.92
230.602	10582.14
230.674	10593.75
230.747	10643.26
230.819	10676.55
230.892	10550.85
230.964	10553.21
231.037	10587.21
231.109	10589.13
231.181	10637.16
231.254	10596.7
231.326	10579.35
231.399	10554
231.471	10526.63
231.544	10442.25
231.616	10492.78
231.688	10505.45
231.761	10506.99
231.833	10496.01
231.905	10403.78
231.978	10402.53
232.05	10387.64
232.122	10384.12
232.195	10357.82
232.267	10402.92
232.339	10379.64
232.412	10454.7
232.484	10427.61
232.556	10397.8
232.629	10467.35
232.701	10482.24
232.773	10498.71
232.846	10485.13
232.918	10493.99
232.99	10508.69
233.062	10550.66
233.135	10562.27
233.207	10523.29
233.279	10567.12
233.351	10606.77
233.424	10611.45
233.496	10589.67
233.568	10682.72
233.64	10649.14
233.713	10671.06
233.785	10663.4
233.857	10685.51
233.929	10628.13
234.001	10701.2
234.074	10779.72
234.146	10705.16
234.218	10714.61
234.29	10722.9
234.362	10720.29
234.434	10669.6
234.507	10631.87
234.579	10576.9
234.651	10558.92
234.723	10588.03
234.795	10608.17
234.867	10596.12
234.939	10659.05
235.012	10682.56
235.084	10687.53
235.156	10729.4
235.228	10711.33
235.3	10701.21
235.372	10714.7
235.444	10788.13
235.516	10702.92
235.588	10714.82
235.66	10737.76
235.732	10702.44
235.804	10915.1
235.876	10969.11
235.948	11043.13
236.02	11065.92
236.092	11088.18
236.164	11104.94
236.236	11108.75
236.308	11114.24
236.38	11152.17
236.452	11137.13
236.524	11158.19
236.596	11235.42
236.668	11277.15
236.74	11305.63
236.812	11337.77
236.884	11373.73
236.956	11374.01
237.028	11378.45
237.1	11361.05
237.172	11438.31
237.244	11526.27
237.316	11394.67
237.388	11377.32
237.46	11352.26
237.532	11421.37
237.604	11414.67
237.675	11499.88
237.747	11550.15
237.819	11540.37
237.891	11538.59
237.963	11525.14
238.035	11522.3
238.107	11401.99
238.178	11472.75
238.25	11486.87
238.322	11582.75
238.394	11533.78
238.466	11546.89
238.538	11598.41
238.609	11646.65
238.681	11588.9
238.753	11567.21
238.825	11596.23
238.897	11631.27
238.968	11719.04
239.04	11700.73
239.112	11823.05
239.184	11778.8
239.255	11784.63
239.327	11821.98
239.399	11854.66
239.471	11912.4
239.542	11952.98
239.614	12022.24
239.686	11928.82
239.758	11986.18
239.829	11953.35
239.901	12033.89
239.973	12058.96
240.044	12090.48
240.116	12107.21
240.188	12121.95
240.259	12138.78
240.331	12137.19
240.403	12177.77
240.474	12133.42
240.546	12124.84
240.618	12066.66
240.689	12062.42
240.761	12083.68
240.833	12158.1
240.904	12161.38
240.976	12163.12
241.048	12190.88
241.119	12237.98
241.191	12299
241.262	12381.67
241.334	12393.82
241.405	12393.58
241.477	12396.42
241.549	12408.71
241.62	12435.76
241.692	12497.12
241.763	12571.6
241.835	12592.61
241.906	12617.54
241.978	12585.96
242.049	12665.79
242.121	12732.74
242.192	12822.45
242.264	12787.45
242.335	12743.44
242.407	12799.65
242.478	12813.05
242.55	12840.14
242.621	12831.08
242.693	12830.89
242.764	12820.38
242.836	12817.48
242.907	12863.67
242.979	12896.83
243.05	12935.35
243.122	12968.42
243.193	12966.83
243.264	12882.95
243.336	12887.82
243.407	12929.32
243.479	13017.68
243.55	13034.8
243.622	13056.2
243.693	13052.92
243.764	13127.35
243.836	13101.75
243.907	13088.21
243.978	13100.79
244.05	13124.22
244.121	13070.9
244.192	13122.63
244.264	13064.64
244.335	13086.09
244.407	13031.91
244.478	13053.02
244.549	13032.92
244.62	12986.88
244.692	12989.29
244.763	13047.43
244.834	13033.3
244.906	13009.05
244.977	13036.24
245.048	13097.46
245.119	13074.52
245.191	13051.72
245.262	12988.33
245.333	13076.35
245.405	13102.23
245.476	13138.92
245.547	13157.04
245.618	13223.86
245.689	13237.16
245.761	13280.84
245.832	13286.04
245.903	13336.85
245.974	13373.73
246.045	13395.86
246.117	13495.21
246.188	13483.88
246.259	13469.61
246.33	13497.81
246.401	13520.18
246.473	13490.44
246.544	13476.6
246.615	13543.27
246.686	13555.18
246.757	13644.41
246.828	13633.46
246.899	13715.17
246.97	13677.62
247.042	13676.46
247.113	13728.91
247.184	13832.74
247.255	13834.91
247.326	13870.15
247.397	13882.01
247.468	13904.33
247.539	13920.96
247.61	13870.44
247.681	13922.6
247.752	13988.35
247.823	13967.33
247.894	13988.25
247.965	13952.24
248.037	13943.08
248.108	13886.1
248.179	13890.06
248.25	13880.03
248.321	13900.66
248.392	13847.54
248.463	13940.29
248.534	13931.32
248.605	13949.98
248.675	13923.18
248.746	13943.62
248.817	13965.02
248.888	13992.36
248.959	13925.3
249.03	13958.56
249.101	13964.78
249.172	13945.74
249.243	13860.99
249.314	13932.29
249.385	13929.83
249.456	13974.76
249.527	13974.47
249.598	14002.86
249.669	14010.05
249.739	14026.24
249.81	14046.78
249.881	14003.49
249.952	14000.74
250.023	14010.43
250.094	13951.04
250.165	13911.66
250.235	13908.05
250.306	13907.81
250.377	13869.96
250.448	13898.84
250.519	13825.95
250.59	13900.04
250.66	13904.04
250.731	13986.86
250.802	13984.36
250.873	14015.16
250.944	14046.49
251.014	14031.79
251.085	14130.85
251.156	14162.09
251.227	14220.94
251.297	14282.6
251.368	14341.31
251.439	14386.82
251.51	14443.84
251.58	14431.26
251.651	14426.73
251.722	14484.57
251.792	14439.16
251.863	14459.17
251.934	14535.67
252.005	14666.11
252.075	14676.96
252.146	14731.24
252.217	14793.76
252.287	14850.11
252.358	14854.49
252.429	14926.22
252.499	14931.96
252.57	14950.56
252.641	15005.85
252.711	15015.15
252.782	14967.43
252.852	15056.36
252.923	15057.96
252.994	15070.44
253.064	15132.43
253.135	15118.31
253.205	15102.88
253.276	15194.52
253.347	15252.75
253.417	15221.56
253.488	15196.79
253.558	15182.81
253.629	15188.5
253.699	15194.33
253.77	15222.67
253.841	15224.55
253.911	15240.41
253.982	15255.35
254.052	15286.97
254.123	15293.14
254.193	15295.45
254.264	15436.77
254.334	15400.14
254.405	15365.29
254.475	15336.9
254.546	15341.57
254.616	15414.84
254.687	15451.53
254.757	15467.72
254.827	15478.18
254.898	15512.69
254.968	15520.36
255.039	15504.11
255.109	15548.12
255.18	15525.56
255.25	15448.25
255.321	15478.76
255.391	15432.25
255.461	15527.98
255.532	15443.19
255.602	15434.71
255.673	15381.54
255.743	15358.22
255.813	15279.36
255.884	15337.39
255.954	15383.18
256.024	15458.95
256.095	15460.93
256.165	15423.09
256.235	15447.48
256.306	15429.6
256.376	15482.33
256.446	15533.8
256.517	15577.38
256.587	15627.21
256.657	15643.36
256.728	15671.71
256.798	15684.33
256.868	15686.12
256.938	15656.81
257.009	15705.45
257.079	15753.94
257.149	15869.57
257.219	15795.83
257.29	15844.56
257.36	15785.51
257.43	15825.18
257.5	15765.7
257.571	15759.73
257.641	15803.78
257.711	15764.84
257.781	15801.09
257.852	15818.29
257.922	15751.68
257.992	15751.63
258.062	15736.26
258.132	15794.19
258.202	15804.99
258.273	15825.81
258.343	15905.14
258.413	15889.53
258.483	15893.53
258.553	15857.33
258.623	15825.57
258.693	15867.94
258.764	15940.96
258.834	16013.12
258.904	16033.31
258.974	16016.54
259.044	16030.8
259.114	16056.15
259.184	16098.86
259.254	16109.27
259.324	16054.32
259.394	16106.96
259.464	16195.54
259.535	16213.96
259.605	16200.22
259.675	16192.46
259.745	16226.34
259.815	16205.42
259.885	16206.2
259.955	16330.53
260.025	16326
260.095	16339.93
260.165	16377.77
260.235	16440.71
260.305	16429.52
260.375	16396.12
260.445	16495.66
260.515	16568.09
260.585	16629.06
260.655	16635.52
260.725	16685.98
260.795	16732.11
260.865	16814.71
260.934	16785.02
261.004	16820.69
261.074	16832.06
261.144	16898.82
261.214	16944.7
261.284	16943.11
261.354	16995.84
261.424	16952.75
261.494	17027.27
261.564	17031.85
261.634	17055.94
261.703	16992.23
261.773	17022.16
261.843	17056.48
261.913	17048.77
261.983	16983.46
262.053	17007.7
262.123	16996.81
262.192	16951.84
262.262	16996.28
