Data from 20250701_urea_2M_exp3_MAYP1162681_18-39-52-060.txt Node
Date: Tue Jul 01 18:39:52 BST 2025
User: adleo
Spectrometer: MAYP116268
Trigger mode: 0
Integration Time (sec): 4.000000E0
Scans to average: 1
Electric dark correction enabled: true
Nonlinearity correction enabled: true
Boxcar width: 10
XAxis mode: Wavelengths
Number of Pixels in Spectrum: 2068
>>>>>Begin Spectral Data<<<<<
179.565	4031.3
179.642	4244.61
179.718	4403.55
179.795	4547.56
179.871	4674.51
179.948	4743.72
180.024	4820.13
180.101	4910
180.177	4967.97
180.254	5056.84
180.33	5144.5
180.407	5440.82
180.483	5749.55
180.56	6069.9
180.636	6360.55
180.712	6319.82
180.789	6356.98
180.865	6403.23
180.942	6435.58
181.018	6476.58
181.095	6531.44
181.171	6547.58
181.248	6548.25
181.324	6609.26
181.4	6638.56
181.477	6677.42
181.553	6724.5
181.63	6806.55
181.706	6862.38
181.782	6889.59
181.859	6883.83
181.935	6901.99
182.011	6885.52
182.088	6950.62
182.164	7019.79
182.24	7073.82
182.317	7104.8
182.393	7098.31
182.469	7150.78
182.546	7198.93
182.622	7215.84
182.698	7198.49
182.775	7236.4
182.851	7289.31
182.927	7265.33
183.003	7250.72
183.08	7227.28
183.156	7267.11
183.232	7252.98
183.308	7210.88
183.385	7244.13
183.461	7309.83
183.537	7309.35
183.613	7356.06
183.69	7324.15
183.766	7278.51
183.842	7302.4
183.918	7324.32
183.995	7370.98
184.071	7380.89
184.147	7362.67
184.223	7322.81
184.299	7369.01
184.375	7333.69
184.452	7354.9
184.528	7482.99
184.604	7527.1
184.68	7575.5
184.756	7596.37
184.832	7607.72
184.908	7626.26
184.985	7624.92
185.061	7563.59
185.137	7590.94
185.213	7554.7
185.289	7560.37
185.365	7541.87
185.441	7533.6
185.517	7582.57
185.593	7571.41
185.669	7567.18
185.745	7603.1
185.822	7659.84
185.898	7625.02
185.974	7659.23
186.05	7629.22
186.126	7554.41
186.202	7521.64
186.278	7503.7
186.354	7465.81
186.43	7497.17
186.506	7494.92
186.582	7492.61
186.658	7518.12
186.734	7451.9
186.81	7454.5
186.886	7465.89
186.962	7506.6
187.038	7493.62
187.114	7459.08
187.19	7488.46
187.266	7450.78
187.341	7447.41
187.417	7427.61
187.493	7425.11
187.569	7439.77
187.645	7421.94
187.721	7375.44
187.797	7405.86
187.873	7421.63
187.949	7404.67
188.025	7375.09
188.101	7377.64
188.176	7394.12
188.252	7382.49
188.328	7408.62
188.404	7409.68
188.48	7389.69
188.556	7367.62
188.632	7368.01
188.707	7375.41
188.783	7359.11
188.859	7341.29
188.935	7304.46
189.011	7330.61
189.086	7312.11
189.162	7282.35
189.238	7273.18
189.314	7270.29
189.39	7248.52
189.465	7226.93
189.541	7288.61
189.617	7233.78
189.693	7219.18
189.768	7233.56
189.844	7319.84
189.92	7293.76
189.996	7324.38
190.071	7368.31
190.147	7362.06
190.223	7400.72
190.298	7373.03
190.374	7331.36
190.45	7376.18
190.526	7406.09
190.601	7383.16
190.677	7389.98
190.753	7487.97
190.828	7502.68
190.904	7554.75
190.98	7609.62
191.055	7639.14
191.131	7603.45
191.207	7682.48
191.282	7717.51
191.358	7676.17
191.433	7618.78
191.509	7669.46
191.585	7660.71
191.66	7659.7
191.736	7690.28
191.811	7656.18
191.887	7716.17
191.963	7797.96
192.038	7814.59
192.114	7819.35
192.189	7835.07
192.265	7818.02
192.34	7737.91
192.416	7729.11
192.491	7715.16
192.567	7725.31
192.642	7739.55
192.718	7745.13
192.793	7698.82
192.869	7687.67
192.944	7699.92
193.02	7735.18
193.095	7748.26
193.171	7773.55
193.246	7771.29
193.322	7764.41
193.397	7766.72
193.473	7715.44
193.548	7652
193.624	7673.99
193.699	7664.51
193.775	7722.87
193.85	7731.47
193.925	7762.53
194.001	7766.76
194.076	7735.46
194.152	7694.04
194.227	7665.52
194.302	7624.63
194.378	7642.03
194.453	7628.96
194.529	7671.37
194.604	7616.26
194.679	7593.19
194.755	7523.26
194.83	7570.98
194.905	7561.27
194.981	7592.19
195.056	7562.15
195.131	7578.64
195.207	7569.26
195.282	7538.79
195.357	7472.5
195.433	7528.46
195.508	7486.87
195.583	7510.95
195.659	7564.43
195.734	7588.38
195.809	7580.78
195.884	7621.2
195.96	7619.42
196.035	7677.21
196.11	7662.44
196.185	7698.07
196.261	7712.4
196.336	7826.45
196.411	7767.14
196.486	7787.28
196.561	7761.31
196.637	7795.92
196.712	7860.63
196.787	7874.97
196.862	7932.04
196.937	7966.23
197.013	7987.74
197.088	8022.17
197.163	8102
197.238	8163.53
197.313	8168.43
197.388	8219.85
197.464	8327.51
197.539	8367.29
197.614	8339.44
197.689	8384.52
197.764	8446.6
197.839	8518.1
197.914	8487.73
197.989	8571.07
198.065	8616.4
198.14	8797.53
198.215	8896.15
198.29	8935.63
198.365	8980.69
198.44	9015.63
198.515	9112.98
198.59	9170.85
198.665	9266.7
198.74	9289.19
198.815	9297.62
198.89	9374.88
198.965	9488.16
199.04	9475.97
199.115	9532.49
199.19	9689.79
199.265	9705.33
199.34	9741.12
199.415	9859.73
199.49	9940.9
199.565	9970.28
199.64	10060.73
199.715	10048.34
199.79	10063.37
199.865	10090.06
199.94	10082.98
200.015	10198.31
200.09	10215.51
200.165	10232.08
200.24	10251.16
200.315	10395.64
200.39	10443.38
200.464	10466.89
200.539	10465.97
200.614	10520.17
200.689	10599.23
200.764	10620.39
200.839	10680.4
200.914	10696.59
200.989	10659.19
201.063	10713.2
201.138	10657.01
201.213	10654.7
201.288	10582.67
201.363	10600.69
201.438	10598.33
201.512	10657.09
201.587	10597.39
201.662	10612.08
201.737	10652.37
201.812	10688.75
201.886	10576.69
201.961	10614.28
202.036	10568.71
202.111	10559.27
202.186	10453.37
202.26	10394.92
202.335	10313.64
202.41	10298.32
202.485	10241.05
202.559	10174.19
202.634	10075.25
202.709	10106.73
202.784	10035.16
202.858	10035.59
202.933	9976.01
203.008	9951.58
203.082	9879.92
203.157	9868.65
203.232	9714.11
203.306	9639.15
203.381	9519.84
203.456	9433.64
203.53	9345.22
203.605	9277.36
203.68	9192.06
203.754	9169.78
203.829	9112.19
203.904	9038.1
203.978	8985.71
204.053	8997.51
204.127	8945.9
204.202	8941.76
204.277	8879.15
204.351	8858.64
204.426	8833.94
204.5	8799.91
204.575	8676.05
204.65	8710.72
204.724	8688.37
204.799	8722.42
204.873	8709.81
204.948	8707.84
205.022	8666.36
205.097	8632.8
205.171	8676.83
205.246	8707.45
205.32	8701.77
205.395	8699.51
205.469	8670.99
205.544	8693.38
205.618	8630.57
205.693	8673.51
205.767	8629.38
205.842	8703.75
205.916	8680.41
205.991	8646.62
206.065	8670.45
206.14	8722.52
206.214	8707.3
206.289	8675.24
206.363	8716.92
206.438	8723.61
206.512	8751.73
206.586	8821.02
206.661	8855.22
206.735	8780.61
206.81	8783.98
206.884	8833.1
206.958	8791.44
207.033	8851.33
207.107	8875.65
207.181	8993.09
207.256	8968.68
207.33	9036.74
207.405	9088.77
207.479	9152.36
207.553	9176.32
207.628	9111.99
207.702	9154.78
207.776	9127.24
207.851	9138.7
207.925	9192.98
207.999	9179.12
208.073	9161.64
208.148	9165.44
208.222	9118.98
208.296	9236.01
208.371	9292.28
208.445	9335.85
208.519	9442.34
208.593	9483.6
208.668	9470.74
208.742	9477.44
208.816	9483.46
208.89	9532.64
208.965	9524.45
209.039	9557.49
209.113	9621.88
209.187	9701.37
209.261	9685.34
209.336	9761.82
209.41	9840.62
209.484	9842.16
209.558	9924.38
209.632	9978.79
209.707	10022.33
209.781	10107.25
209.855	10157.3
209.929	10217.31
210.003	10235.85
210.077	10227.42
210.151	10404.24
210.226	10528.28
210.3	10624.91
210.374	10712.09
210.448	10725.58
210.522	10760.95
210.596	10799.98
210.67	10835.25
210.744	11000
210.818	11119.61
210.892	11187.65
210.966	11169.25
211.041	11221.05
211.115	11207.51
211.189	11286.49
211.263	11345.18
211.337	11365.47
211.411	11419.21
211.485	11400.55
211.559	11441.51
211.633	11447.14
211.707	11329.78
211.781	11357.44
211.855	11229.2
211.929	11202.27
212.003	11127.03
212.077	11156.04
212.151	11197.01
212.225	11224.05
212.299	11183.85
212.373	11135.95
212.447	11119.51
212.52	11217.63
212.594	11226.07
212.668	11261.97
212.742	11209.63
212.816	11188.76
212.89	11167.27
212.964	11152.38
213.038	11153.63
213.112	11192.86
213.186	11243.26
213.26	11157.47
213.333	10983.42
213.407	10994.02
213.481	10997.49
213.555	11037.61
213.629	10986.04
213.703	10912.6
213.777	10907.2
213.85	10829.9
213.924	10946.63
213.998	10934.73
214.072	10892.79
214.146	10832.46
214.219	10816.56
214.293	10792.47
214.367	10785
214.441	10803.65
214.515	10751.5
214.588	10654.8
214.662	10518.36
214.736	10427.84
214.81	10440.55
214.883	10460.1
214.957	10405.63
215.031	10336.39
215.105	10236.69
215.178	10173.19
215.252	10134.46
215.326	10015.67
215.4	9926.21
215.473	9733.39
215.547	9642.58
215.621	9573.38
215.694	9567.65
215.768	9463.52
215.842	9393.41
215.915	9310.71
215.989	9189.34
216.063	9126.77
216.136	9101.82
216.21	9074.1
216.284	9087.54
216.357	9063.17
216.431	9014.55
216.504	9011.52
216.578	9072.33
216.652	9078.35
216.725	9050.85
216.799	9056.83
216.873	9045.32
216.946	9046.57
217.02	8995.53
217.093	8960.29
217.167	8859.16
217.24	8772.58
217.314	8732.6
217.387	8683.01
217.461	8637
217.535	8660.2
217.608	8591.28
217.682	8560.14
217.755	8572.51
217.829	8509.55
217.902	8488.37
217.976	8470.95
218.049	8422.3
218.123	8343.58
218.196	8348.83
218.27	8304.36
218.343	8221.09
218.417	8207.19
218.49	8187.84
218.563	8236.39
218.637	8248.03
218.71	8317.28
218.784	8344.86
218.857	8375.27
218.931	8401.33
219.004	8410.71
219.077	8430.94
219.151	8457.63
219.224	8451.43
219.298	8447.91
219.371	8504.61
219.444	8465.65
219.518	8471.62
219.591	8491.1
219.665	8601.33
219.738	8616.39
219.811	8604.37
219.885	8656.92
219.958	8692.05
220.031	8695.03
220.105	8717.52
220.178	8716.5
220.251	8693.4
220.325	8716.55
220.398	8739.37
220.471	8760.54
220.544	8798.47
220.618	8769.53
220.691	8795.57
220.764	8814.68
220.838	8846.01
220.911	8824.2
220.984	8917.13
221.057	8959.58
221.131	8978.69
221.204	8874.33
221.277	8953.01
221.35	9080.44
221.424	9076.01
221.497	9089.35
221.57	9115.48
221.643	9148.71
221.716	9200.76
221.79	9202.54
221.863	9209.57
221.936	9219.1
222.009	9232.82
222.082	9263.93
222.155	9276.21
222.229	9344.84
222.302	9372.13
222.375	9377.33
222.448	9419.76
222.521	9424.43
222.594	9423.9
222.667	9398.63
222.74	9459.05
222.814	9443.74
222.887	9428.85
222.96	9484.81
223.033	9526.76
223.106	9556.7
223.179	9592.35
223.252	9606.85
223.325	9650.91
223.398	9667.1
223.471	9696.18
223.544	9721.84
223.617	9730.56
223.69	9752.76
223.763	9709.55
223.837	9735.61
223.91	9764.75
223.983	9707.16
224.056	9669.84
224.129	9692.33
224.202	9754.77
224.275	9739.02
224.348	9711.52
224.42	9672.99
224.493	9614.14
224.566	9594.44
224.639	9618.37
224.712	9586.72
224.785	9575.21
224.858	9553.25
224.931	9535.48
225.004	9494.16
225.077	9486.84
225.15	9395.76
225.223	9402.07
225.296	9494.95
225.369	9439.92
225.442	9409.58
225.514	9429.55
225.587	9450.01
225.66	9456.18
225.733	9454.59
225.806	9463.07
225.879	9449.34
225.952	9419.16
226.025	9464.13
226.097	9516.6
226.17	9497.43
226.243	9426.32
226.316	9423.05
226.389	9436.34
226.461	9466.39
226.534	9487.14
226.607	9476.07
226.68	9564.8
226.753	9551.12
226.825	9457.75
226.898	9515.72
226.971	9519.38
227.044	9547.94
227.117	9555.79
227.189	9583.97
227.262	9623.52
227.335	9641.72
227.407	9641.48
227.48	9677.93
227.553	9694.26
227.626	9672.76
227.698	9678.59
227.771	9725.67
227.844	9701.73
227.916	9712.48
227.989	9667.59
228.062	9663.74
228.134	9764.7
228.207	9765.04
228.28	9760.22
228.352	9772.36
228.425	9780.55
228.498	9828.81
228.57	9801.51
228.643	9863.46
228.716	9858.07
228.788	9847.18
228.861	9847.85
228.934	9922.89
229.006	9927.85
229.079	9936.43
229.151	9922.26
229.224	9893.86
229.296	9918.95
229.369	10027.55
229.442	10085.46
229.514	10061.77
229.587	10117.02
229.659	10037.34
229.732	10056.99
229.804	10106.22
229.877	10199.98
229.949	10233.56
230.022	10289.71
230.094	10295.05
230.167	10286.33
230.239	10239.13
230.312	10225.59
230.384	10300.66
230.457	10293.77
230.529	10308.66
230.602	10305.67
230.674	10322.82
230.747	10369.96
230.819	10402.72
230.892	10279.2
230.964	10278.38
231.037	10319.11
231.109	10303.65
231.181	10343.72
231.254	10305.04
231.326	10288.33
231.399	10257.58
231.471	10233.82
231.544	10147
231.616	10193.91
231.688	10197.18
231.761	10189.82
231.833	10172.14
231.905	10079.53
231.978	10075.68
232.05	10060.89
232.122	10061.28
232.195	10033.14
232.267	10073.18
232.339	10045.62
232.412	10110.74
232.484	10082.02
232.556	10054.77
232.629	10128.35
232.701	10147.96
232.773	10161.35
232.846	10154.89
232.918	10167.33
232.99	10179.52
233.062	10230.01
233.135	10249.81
233.207	10216.32
233.279	10266.41
233.351	10313.19
233.424	10318.44
233.496	10288.71
233.568	10376.11
233.64	10342.78
233.713	10358.68
233.785	10350.1
233.857	10372.31
233.929	10325.15
234.001	10393.2
234.074	10463.52
234.146	10385.75
234.218	10386.42
234.29	10389.12
234.362	10379.53
234.434	10326.58
234.507	10288.71
234.579	10233.07
234.651	10214.33
234.723	10251.28
234.795	10266.94
234.867	10257.83
234.939	10326.78
235.012	10353.8
235.084	10364.6
235.156	10403.9
235.228	10392
235.3	10381.6
235.372	10390.56
235.444	10456.08
235.516	10375.36
235.588	10388.95
235.66	10416.84
235.732	10389.23
235.804	10602.99
235.876	10648.56
235.948	10719.2
236.02	10734.91
236.092	10747.53
236.164	10762.17
236.236	10762.41
236.308	10762.27
236.38	10786.84
236.452	10766.94
236.524	10780.53
236.596	10845.02
236.668	10877.11
236.74	10900.48
236.812	10927.37
236.884	10971.13
236.956	10977.73
237.028	10970.26
237.1	10947.86
237.172	11021.16
237.244	11103.18
237.316	10974.04
237.388	10956.55
237.46	10934.91
237.532	11006.42
237.604	11005.12
237.675	11080.49
237.747	11128.35
237.819	11120.06
237.891	11128.2
237.963	11113.75
238.035	11121.12
238.107	11004.05
238.178	11082.62
238.25	11088.4
238.322	11187.06
238.394	11130.49
238.466	11144.56
238.538	11198.72
238.609	11247.39
238.681	11190.27
238.753	11170.22
238.825	11192.01
238.897	11226.56
238.968	11314.62
239.04	11299.39
239.112	11426.86
239.184	11387.19
239.255	11385.07
239.327	11416.05
239.399	11443.48
239.471	11493.11
239.542	11526.46
239.614	11604.63
239.686	11506.98
239.758	11572.86
239.829	11537.77
239.901	11613.29
239.973	11619.75
240.044	11658.5
240.116	11671.61
240.188	11686.64
240.259	11701.97
240.331	11693.92
240.403	11736.57
240.474	11684.03
240.546	11670.63
240.618	11600.36
240.689	11602.28
240.761	11624.79
240.833	11705.43
240.904	11706.78
240.976	11713
241.048	11743.17
241.119	11774.7
241.191	11834.31
241.262	11902.33
241.334	11907.63
241.405	11919.92
241.477	11931.49
241.549	11935.11
241.62	11963.01
241.692	12014.01
241.763	12088.49
241.835	12112.78
241.906	12131.82
241.978	12099.33
242.049	12177.22
242.121	12246.05
242.192	12321.1
242.264	12285.68
242.335	12232.99
242.407	12280.42
242.478	12284.71
242.55	12304.43
242.621	12295.85
242.693	12296.14
242.764	12285.58
242.836	12288.81
242.907	12319.47
242.979	12351.81
243.05	12380.88
243.122	12410.33
243.193	12413.65
243.264	12330.74
243.336	12339.71
243.407	12379.91
243.479	12473.76
243.55	12495.6
243.622	12511.85
243.693	12509.97
243.764	12588.54
243.836	12567.47
243.907	12559.76
243.978	12566.94
244.05	12595.87
244.121	12547.33
244.192	12592.35
244.264	12540.39
244.335	12550.46
244.407	12501.44
244.478	12527.76
244.549	12518.69
244.62	12472.51
244.692	12469.72
244.763	12517.15
244.834	12494.83
244.906	12471.16
244.977	12492.52
245.048	12546.08
245.119	12526.41
245.191	12502.35
245.262	12434.15
245.333	12520.67
245.405	12541.68
245.476	12573.35
245.547	12593.84
245.618	12644.74
245.689	12661.04
245.761	12706.97
245.832	12718.11
245.903	12771.09
245.974	12797.17
246.045	12815.97
246.117	12901.87
246.188	12887.79
246.259	12870.97
246.33	12900.18
246.401	12918.55
246.473	12884.37
246.544	12862.97
246.615	12925.39
246.686	12936.96
246.757	13025.9
246.828	13004.45
246.899	13080.81
246.97	13056.17
247.042	13043.35
247.113	13098.06
247.184	13188.35
247.255	13181.75
247.326	13218.72
247.397	13224.94
247.468	13233.38
247.539	13251.17
247.61	13213.52
247.681	13266.06
247.752	13333.07
247.823	13310.65
247.894	13326.03
247.965	13300.82
248.037	13298.5
248.108	13241.33
248.179	13253.24
248.25	13244.37
248.321	13271.12
248.392	13220.36
248.463	13314.22
248.534	13317.21
248.605	13340.34
248.675	13315.04
248.746	13340.54
248.817	13362.52
248.888	13388.84
248.959	13333.89
249.03	13356.88
249.101	13363.34
249.172	13348.83
249.243	13263.94
249.314	13331.96
249.385	13334.56
249.456	13367.49
249.527	13361.8
249.598	13390.19
249.669	13393.28
249.739	13403.59
249.81	13424.32
249.881	13387.93
249.952	13376.89
250.023	13377.08
250.094	13320.05
250.165	13281.3
250.235	13272.86
250.306	13272.76
250.377	13235.64
250.448	13269.58
250.519	13208.36
250.59	13274.21
250.66	13274.59
250.731	13357.41
250.802	13358.95
250.873	13387.15
250.944	13412.75
251.014	13410.44
251.085	13508.73
251.156	13529.84
251.227	13585.42
251.297	13644.33
251.368	13702.85
251.439	13740.36
251.51	13796.33
251.58	13785
251.651	13788.71
251.722	13852.05
251.792	13793.67
251.863	13795.65
251.934	13868.15
252.005	13990.69
252.075	13997.92
252.146	14050.23
252.217	14108.07
252.287	14154.93
252.358	14161.19
252.429	14239.43
252.499	14226.37
252.57	14235.72
252.641	14291.64
252.711	14302.53
252.782	14247.38
252.852	14330.39
252.923	14339.21
252.994	14347.65
253.064	14404.15
253.135	14382.5
253.205	14366.69
253.276	14454.81
253.347	14517.91
253.417	14489.47
253.488	14471.49
253.558	14457.22
253.629	14453.32
253.699	14462.91
253.77	14490.87
253.841	14489.42
253.911	14501.67
253.982	14522.68
254.052	14560.23
254.123	14567.22
254.193	14566.84
254.264	14715.3
254.334	14672.49
254.405	14633.54
254.475	14607.27
254.546	14613.64
254.616	14687.34
254.687	14710.19
254.757	14735.35
254.827	14743.26
254.898	14768.13
254.968	14771.07
255.039	14760.52
255.109	14810.07
255.18	14783.75
255.25	14708.22
255.321	14741.28
255.391	14689.03
255.461	14777.1
255.532	14677.42
255.602	14672.26
255.673	14612.97
255.743	14574.8
255.813	14507.26
255.884	14564.24
255.954	14599.38
256.024	14670.33
256.095	14671.68
256.165	14638.28
256.235	14661.08
256.306	14646.66
256.376	14697.52
256.446	14742.49
256.517	14777.05
256.587	14818.41
256.657	14838.51
256.728	14861.27
256.798	14872.35
256.868	14875.73
256.938	14844.59
257.009	14899.93
257.079	14942.92
257.149	15056.3
257.219	14992.04
257.29	15034.8
257.36	14978.93
257.43	15021.98
257.5	14951.84
257.571	14944.52
257.641	14987.42
257.711	14954.64
257.781	14993.54
257.852	15008.77
257.922	14941.53
257.992	14943.75
258.062	14937.91
258.132	14986.84
258.202	14998.79
258.273	15014.51
258.343	15095.92
258.413	15086.71
258.483	15096.98
258.553	15061.07
258.623	15030.17
258.693	15074.67
258.764	15146.1
258.834	15215.13
258.904	15235.9
258.974	15225.97
259.044	15234.22
259.114	15262.03
259.184	15287.67
259.254	15297.55
259.324	15244.1
259.394	15300.79
259.464	15387.35
259.535	15390.15
259.605	15383.55
259.675	15373.91
259.745	15415.98
259.815	15388.56
259.885	15386.87
259.955	15509.48
260.025	15506.78
260.095	15521.48
260.165	15546.26
260.235	15610.41
260.305	15601.44
260.375	15571.03
260.445	15675.15
260.515	15747.3
260.585	15799.26
260.655	15814.49
260.725	15863.37
260.795	15908.19
260.865	15979
260.934	15950.9
261.004	15988.4
261.074	15994.81
261.144	16062.48
261.214	16098.58
261.284	16098.92
261.354	16139.8
261.424	16084.71
261.494	16156.68
261.564	16166.32
261.634	16193.74
261.703	16123.32
261.773	16147.52
261.843	16175.77
261.913	16157.84
261.983	16100.29
262.053	16118.12
262.123	16110.36
262.192	16068.67
262.262	16107.42
262.332	16054.06
262.402	16080.04
