Data from 20250701_urea_2M_exp3_MAYP1162681_00-39-50-342.txt Node
Date: Wed Jul 02 00:39:50 BST 2025
User: adleo
Spectrometer: MAYP116268
Trigger mode: 0
Integration Time (sec): 4.000000E0
Scans to average: 1
Electric dark correction enabled: true
Nonlinearity correction enabled: true
Boxcar width: 10
XAxis mode: Wavelengths
Number of Pixels in Spectrum: 2068
>>>>>Begin Spectral Data<<<<<
179.565	3704.39
179.642	3897.04
179.718	4046.88
179.795	4178.33
179.871	4290.92
179.948	4354.13
180.024	4425.53
180.101	4509.31
180.177	4561.16
180.254	4640.06
180.33	4719.36
180.407	4987.37
180.483	5276.33
180.56	5572.92
180.636	5838.82
180.712	5795.77
180.789	5836.88
180.865	5874.75
180.942	5904.58
181.018	5941.42
181.095	5989.85
181.171	6006.5
181.248	6006.12
181.324	6062.14
181.4	6087.77
181.477	6125.73
181.553	6171.24
181.63	6241.85
181.706	6291.68
181.782	6320.65
181.859	6322.19
181.935	6336.44
182.011	6325.84
182.088	6377.25
182.164	6442.88
182.24	6491.67
182.317	6523.3
182.393	6514.08
182.469	6565.55
182.546	6610.35
182.622	6626.43
182.698	6615
182.775	6654.81
182.851	6708.73
182.927	6679.1
183.003	6665.32
183.08	6647.08
183.156	6678.1
183.232	6669.02
183.308	6629.02
183.385	6656.48
183.461	6713.49
183.537	6723.67
183.613	6765.89
183.69	6740.05
183.766	6696.99
183.842	6722.69
183.918	6739.64
183.995	6787.71
184.071	6797.23
184.147	6781.38
184.223	6744.04
184.299	6781.95
184.375	6747.04
184.452	6770.69
184.528	6902.77
184.604	6937.97
184.68	6980.71
184.756	7007.53
184.832	7019.2
184.908	7041.67
184.985	7033.41
185.061	6979.04
185.137	7004.89
185.213	6965.65
185.289	6969.54
185.365	6948.89
185.441	6942.74
185.517	6991.34
185.593	6973.46
185.669	6963.52
185.745	6992.63
185.822	7053.99
185.898	7028.47
185.974	7059.73
186.05	7030.85
186.126	6957.61
186.202	6936
186.278	6921.2
186.354	6883.58
186.43	6907.37
186.506	6898.97
186.582	6903.68
186.658	6929.17
186.734	6862.13
186.81	6867.65
186.886	6879.85
186.962	6926.06
187.038	6913.57
187.114	6887.51
187.19	6910.43
187.266	6881.9
187.341	6892.43
187.417	6861.93
187.493	6863.17
187.569	6870.14
187.645	6849.15
187.721	6805.08
187.797	6829.96
187.873	6843.46
187.949	6829.54
188.025	6808.05
188.101	6817.32
188.176	6829.47
188.252	6812.71
188.328	6838.58
188.404	6841.27
188.48	6822.44
188.556	6797.08
188.632	6796.69
188.707	6797.03
188.783	6794.53
188.859	6777.35
188.935	6735.16
189.011	6761.19
189.086	6736.65
189.162	6710.48
189.238	6703.18
189.314	6696.12
189.39	6681.18
189.465	6659.28
189.541	6711.83
189.617	6663.28
189.693	6644.32
189.768	6657.48
189.844	6740.96
189.92	6712.89
189.996	6745.75
190.071	6783.21
190.147	6778.55
190.223	6811.23
190.298	6785.09
190.374	6739.31
190.45	6776.95
190.526	6805.58
190.601	6789.88
190.677	6791.41
190.753	6888.62
190.828	6903.55
190.904	6952.71
190.98	7002.78
191.055	7035.59
191.131	7007.77
191.207	7080.64
191.282	7113.01
191.358	7083.32
191.433	7032.98
191.509	7077.48
191.585	7064.79
191.66	7067.73
191.736	7094.34
191.811	7060.9
191.887	7115.07
191.963	7199.74
192.038	7219.25
192.114	7219.2
192.189	7234.04
192.265	7228.04
192.34	7148.41
192.416	7145
192.491	7134.19
192.567	7140.24
192.642	7144.28
192.718	7144.52
192.793	7096.8
192.869	7086.33
192.944	7097.81
193.02	7124.39
193.095	7140.87
193.171	7158.36
193.246	7157.45
193.322	7145.01
193.397	7148.66
193.473	7102.03
193.548	7033.78
193.624	7055.74
193.699	7052.19
193.775	7106.28
193.85	7108.82
193.925	7143.47
194.001	7138.33
194.076	7107.2
194.152	7070.62
194.227	7052.84
194.302	7020.52
194.378	7039.83
194.453	7028.11
194.529	7066.61
194.604	7015.33
194.679	6989.68
194.755	6927.49
194.83	6971.06
194.905	6963.56
194.981	6992.06
195.056	6964.11
195.131	6983.94
195.207	6969.91
195.282	6939.21
195.357	6869.71
195.433	6925.43
195.508	6879.98
195.583	6904.28
195.659	6953.59
195.734	6974.83
195.809	6969.31
195.884	6997.15
195.96	6993.41
196.035	7045.77
196.11	7031.5
196.185	7072.77
196.261	7087.32
196.336	7193.75
196.411	7142.55
196.486	7169.36
196.561	7144.13
196.637	7178.81
196.712	7233.76
196.787	7246.65
196.862	7300.17
196.937	7336.74
197.013	7353.38
197.088	7391.82
197.163	7467.13
197.238	7525.44
197.313	7527.41
197.388	7574.43
197.464	7677.44
197.539	7717.39
197.614	7696.58
197.689	7737.5
197.764	7790.6
197.839	7858.78
197.914	7838.29
197.989	7916.63
198.065	7958.18
198.14	8132
198.215	8221.85
198.29	8266.41
198.365	8312.16
198.44	8349.35
198.515	8445.25
198.59	8495.48
198.665	8581.03
198.74	8603.32
198.815	8612.32
198.89	8687.86
198.965	8791.12
199.04	8782.12
199.115	8838.85
199.19	8982.25
199.265	8990.67
199.34	9026.82
199.415	9137.97
199.49	9209.53
199.565	9238.31
199.64	9317.12
199.715	9304.88
199.79	9323.81
199.865	9340.27
199.94	9334.26
200.015	9433.45
200.09	9449.44
200.165	9470.68
200.24	9491.34
200.315	9619.78
200.39	9664.14
200.464	9686.77
200.539	9686.96
200.614	9736.27
200.689	9812.27
200.764	9830.24
200.839	9896.1
200.914	9917.48
200.989	9884.38
201.063	9936.64
201.138	9877.3
201.213	9881.1
201.288	9818.06
201.363	9837.57
201.438	9842.38
201.512	9894.43
201.587	9842.84
201.662	9850.59
201.737	9895.43
201.812	9926.02
201.886	9822.57
201.961	9855.38
202.036	9810.99
202.111	9796.54
202.186	9696.38
202.26	9638.87
202.335	9566.19
202.41	9542.45
202.485	9478.13
202.559	9414.28
202.634	9317.2
202.709	9359.21
202.784	9290.36
202.858	9286.9
202.933	9222.62
203.008	9197.25
203.082	9134.77
203.157	9125.62
203.232	8984.44
203.306	8905.66
203.381	8793.1
203.456	8718.49
203.53	8639.25
203.605	8576.1
203.68	8498.54
203.754	8478.69
203.829	8419.44
203.904	8350.64
203.978	8304.48
204.053	8315.98
204.127	8267.78
204.202	8266.53
204.277	8199.51
204.351	8181.76
204.426	8158.08
204.5	8127.34
204.575	8005.4
204.65	8044.43
204.724	8016.42
204.799	8044.68
204.873	8029.52
204.948	8027.11
205.022	7986.77
205.097	7956.88
205.171	8006.51
205.246	8039.38
205.32	8035.97
205.395	8040.92
205.469	8013.96
205.544	8039.52
205.618	7979.73
205.693	8023.12
205.767	7979.78
205.842	8046.85
205.916	8021.17
205.991	7985.05
206.065	8007.61
206.14	8064.45
206.214	8040.81
206.289	8018.15
206.363	8057.64
206.438	8068.37
206.512	8093.1
206.586	8156.39
206.661	8187.63
206.735	8112.29
206.81	8111.23
206.884	8168.27
206.958	8124.22
207.033	8183.69
207.107	8199
207.181	8310.5
207.256	8287.45
207.33	8347.63
207.405	8389.38
207.479	8456.25
207.553	8483.28
207.628	8424.33
207.702	8461.85
207.776	8440.73
207.851	8451.75
207.925	8502.05
207.999	8493.78
208.073	8480.79
208.148	8487.52
208.222	8446.85
208.296	8552.9
208.371	8610.3
208.445	8643.8
208.519	8742.1
208.593	8778.72
208.668	8769.53
208.742	8776.22
208.816	8775.45
208.89	8830.1
208.965	8825.24
209.039	8852.63
209.113	8915.69
209.187	8988.21
209.261	8975.41
209.336	9037.36
209.41	9105.38
209.484	9102.64
209.558	9175.82
209.632	9232.38
209.707	9275.61
209.781	9349.22
209.855	9402.82
209.929	9458.67
210.003	9478.6
210.077	9474.22
210.151	9638.28
210.226	9766.22
210.3	9861.59
210.374	9947.03
210.448	9957.53
210.522	9998.29
210.596	10030.37
210.67	10057.97
210.744	10218.43
210.818	10328.59
210.892	10404.52
210.966	10385.4
211.041	10444.8
211.115	10429.77
211.189	10501.11
211.263	10548.85
211.337	10568.41
211.411	10616.4
211.485	10593.99
211.559	10628.48
211.633	10631.13
211.707	10523.03
211.781	10536.34
211.855	10407.41
211.929	10376.44
212.003	10309.99
212.077	10336.64
212.151	10375.43
212.225	10408.91
212.299	10371.85
212.373	10325.7
212.447	10305.99
212.52	10400.56
212.594	10401
212.668	10436.16
212.742	10389.09
212.816	10370.93
212.89	10350.46
212.964	10340.62
213.038	10341.35
213.112	10377.44
213.186	10426.66
213.26	10344.19
213.333	10186.96
213.407	10204
213.481	10207.47
213.555	10239.96
213.629	10189.13
213.703	10122.12
213.777	10105.78
213.85	10024.17
213.924	10133.88
213.998	10120.25
214.072	10086.42
214.146	10034.44
214.219	10017.96
214.293	9996.96
214.367	9989.74
214.441	10014.31
214.515	9964.15
214.588	9877.79
214.662	9753.73
214.736	9672.58
214.81	9687.84
214.883	9700.74
214.957	9650.96
215.031	9592.96
215.105	9498.75
215.178	9435.82
215.252	9397.64
215.326	9293.92
215.4	9210.91
215.473	9025.2
215.547	8940.06
215.621	8870.6
215.694	8864.39
215.768	8761.95
215.842	8691.35
215.915	8615.27
215.989	8496.22
216.063	8429.54
216.136	8402.77
216.21	8374.15
216.284	8382.72
216.357	8357.36
216.431	8312.08
216.504	8304.24
216.578	8359.78
216.652	8371.41
216.725	8351.64
216.799	8356.3
216.873	8339.32
216.946	8344.66
217.02	8308.17
217.093	8273.63
217.167	8181.5
217.24	8093.77
217.314	8062.86
217.387	8014.21
217.461	7968.04
217.535	7991.18
217.608	7933.03
217.682	7909.55
217.755	7924.85
217.829	7864.57
217.902	7843.26
217.976	7826.82
218.049	7779.11
218.123	7702.99
218.196	7700
218.27	7656.58
218.343	7586.67
218.417	7581.29
218.49	7563.31
218.563	7607.2
218.637	7618.8
218.71	7686.9
218.784	7715.62
218.857	7746.82
218.931	7771.18
219.004	7786.42
219.077	7799.32
219.151	7823.07
219.224	7812.68
219.298	7808.21
219.371	7857.52
219.444	7824.59
219.518	7833.58
219.591	7852.57
219.665	7960.09
219.738	7977.36
219.811	7960.06
219.885	8006.76
219.958	8039.57
220.031	8041.25
220.105	8059.39
220.178	8066.22
220.251	8039.32
220.325	8061.89
220.398	8076.08
220.471	8096.75
220.544	8123.12
220.618	8100.16
220.691	8118.63
220.764	8135.8
220.838	8158.27
220.911	8136.28
220.984	8226.56
221.057	8261.05
221.131	8281.06
221.204	8181.95
221.277	8247.74
221.35	8370.23
221.424	8364.84
221.497	8374.71
221.57	8404.62
221.643	8437.45
221.716	8482.45
221.79	8488.37
221.863	8505.12
221.936	8515.94
222.009	8533.21
222.082	8567.29
222.155	8577.92
222.229	8650.9
222.302	8684.97
222.375	8686.03
222.448	8727.94
222.521	8725.3
222.594	8729.92
222.667	8706.49
222.74	8761.3
222.814	8750.18
222.887	8736.6
222.96	8787.04
223.033	8828.59
223.106	8849.19
223.179	8878.13
223.252	8896.14
223.325	8931.85
223.398	8941.67
223.471	8971.22
223.544	8993.07
223.617	9006.45
223.69	9031.38
223.763	8991.51
223.837	9011.69
223.91	9049.38
223.983	9000.34
224.056	8966.99
224.129	8985.14
224.202	9042.29
224.275	9025.11
224.348	9005.95
224.42	8973.31
224.493	8917.33
224.566	8892.68
224.639	8917.42
224.712	8889.97
224.785	8874.27
224.858	8858.39
224.931	8842.83
225.004	8809.67
225.077	8808.09
225.15	8725.27
225.223	8722.91
225.296	8808.25
225.369	8747.91
225.442	8713.82
225.514	8729.99
225.587	8747.89
225.66	8756.84
225.733	8753.38
225.806	8768.39
225.879	8761.08
225.952	8731.68
226.025	8773.5
226.097	8824.55
226.17	8811.12
226.243	8742.98
226.316	8732.78
226.389	8739.42
226.461	8754.92
226.534	8771.81
226.607	8760.79
226.68	8836.96
226.753	8828.01
226.825	8736.8
226.898	8799.74
226.971	8802.25
227.044	8824.82
227.117	8834.35
227.189	8849.85
227.262	8889.57
227.335	8907.43
227.407	8899.45
227.48	8927.59
227.553	8945.55
227.626	8928.98
227.698	8933.17
227.771	8977.82
227.844	8960.54
227.916	8973.01
227.989	8941.76
228.062	8931.13
228.134	9016.93
228.207	9017.22
228.28	9016.21
228.352	9030.89
228.425	9034.17
228.498	9082.8
228.57	9062.68
228.643	9124.32
228.716	9127.4
228.788	9117.91
228.861	9109.68
228.934	9172.6
229.006	9184.44
229.079	9180.83
229.151	9171.67
229.224	9138.04
229.296	9167.69
229.369	9269.51
229.442	9319.21
229.514	9295.78
229.587	9348.39
229.659	9275.73
229.732	9288.73
229.804	9328.35
229.877	9406.47
229.949	9446.11
230.022	9492.75
230.094	9499.1
230.167	9485.13
230.239	9441.9
230.312	9424.18
230.384	9496.96
230.457	9491.52
230.529	9501.77
230.602	9506.73
230.674	9505.96
230.747	9554.62
230.819	9578.02
230.892	9461.92
230.964	9465.29
231.037	9493.58
231.109	9479.33
231.181	9514.62
231.254	9478.89
231.326	9467.82
231.399	9440.6
231.471	9401.1
231.544	9321.53
231.616	9359.85
231.688	9363.08
231.761	9349.94
231.833	9340.36
231.905	9255.4
231.978	9255.84
232.05	9237.98
232.122	9239.95
232.195	9220.93
232.267	9253.92
232.339	9226.18
232.412	9290.64
232.484	9265.3
232.556	9242.4
232.629	9310.75
232.701	9331.51
232.773	9349.47
232.846	9338.83
232.918	9346.53
232.99	9367.53
233.062	9411.98
233.135	9431.05
233.207	9396.81
233.279	9440.85
233.351	9477.35
233.424	9482.5
233.496	9455.15
233.568	9537.6
233.64	9503.94
233.713	9521.76
233.785	9512.32
233.857	9534.28
233.929	9481.94
234.001	9550.65
234.074	9616.79
234.146	9548.91
234.218	9547.71
234.29	9544.24
234.362	9530.53
234.434	9480.44
234.507	9441.43
234.579	9392.51
234.651	9372.95
234.723	9406.52
234.795	9430.16
234.867	9417.79
234.939	9475.53
235.012	9499.46
235.084	9502.11
235.156	9534.32
235.228	9511.74
235.3	9502.49
235.372	9512.66
235.444	9571.01
235.516	9481.89
235.588	9495.09
235.66	9511.22
235.732	9484.1
235.804	9677.14
235.876	9721.14
235.948	9790.27
236.02	9810.73
236.092	9820.41
236.164	9832.35
236.236	9829.12
236.308	9823.49
236.38	9853.35
236.452	9832.63
236.524	9846.65
236.596	9911.76
236.668	9947.4
236.74	9972.92
236.812	10001.96
236.884	10034.19
236.956	10045.56
237.028	10042.24
237.1	10020.66
237.172	10093.7
237.244	10176.32
237.316	10063.15
237.388	10046.44
237.46	10025.04
237.532	10087.62
237.604	10082.61
237.675	10153.48
237.747	10201.51
237.819	10195.64
237.891	10197.52
237.963	10183.98
238.035	10188.03
238.107	10080.96
238.178	10143.08
238.25	10153.29
238.322	10243.31
238.394	10194.03
238.466	10199.71
238.538	10252.5
238.609	10295.7
238.681	10230.81
238.753	10205.12
238.825	10226.08
238.897	10260.18
238.968	10339.5
239.04	10321.19
239.112	10437.49
239.184	10397.93
239.255	10392.58
239.327	10421.43
239.399	10444.84
239.471	10496.72
239.542	10524.86
239.614	10592.02
239.686	10511.55
239.758	10564.78
239.829	10533.41
239.901	10605.09
239.973	10620.9
240.044	10650.14
240.116	10664.69
240.188	10688.06
240.259	10702.27
240.331	10687.09
240.403	10720.33
240.474	10670.02
240.546	10659.08
240.618	10596.1
240.689	10597.74
240.761	10618.41
240.833	10689.3
240.904	10690.45
240.976	10688.29
241.048	10707.17
241.119	10741.83
241.191	10785.14
241.262	10854.11
241.334	10850.78
241.405	10852.04
241.477	10847.31
241.549	10863.51
241.62	10887.41
241.692	10933.38
241.763	10991.69
241.835	11012.03
241.906	11032.7
241.978	11006.64
242.049	11075.69
242.121	11135.97
242.192	11207.87
242.264	11173.27
242.335	11127.01
242.407	11173.56
242.478	11180.98
242.55	11202.14
242.621	11186.37
242.693	11193.8
242.764	11176.44
242.836	11180.3
242.907	11209.26
242.979	11250.66
243.05	11262.22
243.122	11284.88
243.193	11287.53
243.264	11213.74
243.336	11215.57
243.407	11249.12
243.479	11332.2
243.55	11353.31
243.622	11370.28
243.693	11365.89
243.764	11433.89
243.836	11411.29
243.907	11403.44
243.978	11405.61
244.05	11436.93
244.121	11389.71
244.192	11428.6
244.264	11382.09
244.335	11397.18
244.407	11351.01
244.478	11363.64
244.549	11362.53
244.62	11317.47
244.692	11304.94
244.763	11345.46
244.834	11340.31
244.906	11319.63
244.977	11341.85
245.048	11391.12
245.119	11367.65
245.191	11342.97
245.262	11278.3
245.333	11357.08
245.405	11372.27
245.476	11407.88
245.547	11422.77
245.618	11477.23
245.689	11485.09
245.761	11528.32
245.832	11531.84
245.903	11578.15
245.974	11604.08
246.045	11611.5
246.117	11702.5
246.188	11696.19
246.259	11686.02
246.33	11701.59
246.401	11711.51
246.473	11673.48
246.544	11654.1
246.615	11712.76
246.686	11720.67
246.757	11799.8
246.828	11777.24
246.899	11848.83
246.97	11819.04
247.042	11808.2
247.113	11850.28
247.184	11936.81
247.255	11924.23
247.326	11954.4
247.397	11964.72
247.468	11968.91
247.539	11983.37
247.61	11936.23
247.681	11982.74
247.752	12042.31
247.823	12015.37
247.894	12038.5
247.965	12012.43
248.037	11998.6
248.108	11943.79
248.179	11948.95
248.25	11935.98
248.321	11962.2
248.392	11912.74
248.463	11986.97
248.534	11975.64
248.605	11998.01
248.675	11971.3
248.746	11993.76
248.817	12013.67
248.888	12029.53
248.959	11981.96
249.03	12009.34
249.101	12018.11
249.172	11997.63
249.243	11920.27
249.314	11990.83
249.385	11992.23
249.456	12022.45
249.527	12022.35
249.598	12049.54
249.669	12053.1
249.739	12070.84
249.81	12084.92
249.881	12042.12
249.952	12042.36
250.023	12040.14
250.094	11986.1
250.165	11957.57
250.235	11953.71
250.306	11956.6
250.377	11922.86
250.448	11950.43
250.519	11880.78
250.59	11934.82
250.66	11937.71
250.731	12009.62
250.802	12003.4
250.873	12027.41
250.944	12048.42
251.014	12032.42
251.085	12123
251.156	12148.25
251.227	12200.31
251.297	12249.63
251.368	12307.9
251.439	12348.68
251.51	12415.25
251.58	12398.19
251.651	12395.54
251.722	12443.31
251.792	12387.35
251.863	12398.58
251.934	12464.91
252.005	12589.17
252.075	12596.84
252.146	12652.22
252.217	12702.06
252.287	12751.62
252.358	12752.25
252.429	12827.98
252.499	12827.88
252.57	12837.23
252.641	12883.22
252.711	12891.61
252.782	12853.04
252.852	12930.41
252.923	12932.25
252.994	12941.26
253.064	12993.9
253.135	12971.58
253.205	12959.24
253.276	13034.05
253.347	13095.8
253.417	13070.2
253.488	13041.37
253.558	13025.95
253.629	13022.81
253.699	13035.01
253.77	13060.85
253.841	13059.21
253.911	13062.2
253.982	13082.64
254.052	13106.07
254.123	13117.92
254.193	13122.79
254.264	13258.54
254.334	13215.44
254.405	13181.51
254.475	13147.13
254.546	13158.8
254.616	13224.36
254.687	13253.57
254.757	13277.24
254.827	13276.42
254.898	13297.25
254.968	13309.97
255.039	13295.9
255.109	13322.65
255.18	13292.96
255.25	13220.12
255.321	13250.58
255.391	13212.93
255.461	13292.43
255.532	13213.99
255.602	13209.42
255.673	13148.97
255.743	13110.16
255.813	13042.96
255.884	13093
255.954	13126.36
256.024	13193.95
256.095	13197.08
256.165	13159.62
256.235	13183.15
256.306	13165.46
256.376	13215.83
256.446	13252.61
256.517	13291.23
256.587	13338.86
256.657	13364.4
256.728	13386.92
256.798	13394.2
256.868	13389.42
256.938	13359.25
257.009	13409.86
257.079	13439.56
257.149	13543.06
257.219	13475.37
257.29	13519.96
257.36	13459.13
257.43	13505.21
257.5	13436.71
257.571	13425.04
257.641	13466.84
257.711	13427.17
257.781	13461.05
257.852	13474.46
257.922	13411.21
257.992	13411.16
258.062	13404.51
258.132	13445
258.202	13450.21
258.273	13467.56
258.343	13544.79
258.413	13539.68
258.483	13540.35
258.553	13506.66
258.623	13471.13
258.693	13511.53
258.764	13574.1
258.834	13646.7
258.904	13664.97
258.974	13653.4
259.044	13671.67
259.114	13693.65
259.184	13721.51
259.254	13728.36
259.324	13673.93
259.394	13727.35
259.464	13809.54
259.535	13820.05
259.605	13808.38
259.675	13803.75
259.745	13833.98
259.815	13805.68
259.885	13798.5
259.955	13912.79
260.025	13907.39
260.095	13929.03
260.165	13953.86
260.235	14019.99
260.305	14009.82
260.375	13973.14
260.445	14065.84
260.515	14123.93
260.585	14174.59
260.655	14191.61
260.725	14240.2
260.795	14278.86
260.865	14339.84
260.934	14305.42
261.004	14323.16
261.074	14335.4
261.144	14394.07
261.214	14426.51
261.284	14437.26
261.354	14484.75
261.424	14437.12
261.494	14506.11
261.564	14508.04
261.634	14535.95
261.703	14464.8
261.773	14486.1
261.843	14515.7
261.913	14510.26
261.983	14460.17
262.053	14480.8
262.123	14474.39
262.192	14440.21
262.262	14480.85
262.332	14438.14
262.402	14470.92
262.472	14490.05
262.541	14419.29
262.611	14465.13
262.681	14448.26
262.751	14478.48
262.821	14477.09
262.89	14448.16
262.96	14475.45
263.03	14551.51
263.1	14574.02
263.169	14593.88
