Data from 20250701_urea_2M_exp3_MAYP1162681_03-09-49-557.txt Node
Date: Wed Jul 02 03:09:49 BST 2025
User: adleo
Spectrometer: MAYP116268
Trigger mode: 0
Integration Time (sec): 4.000000E0
Scans to average: 1
Electric dark correction enabled: true
Nonlinearity correction enabled: true
Boxcar width: 10
XAxis mode: Wavelengths
Number of Pixels in Spectrum: 2068
>>>>>Begin Spectral Data<<<<<
179.565	3652.1
179.642	3841.39
179.718	3990.24
179.795	4124.3
179.871	4238.27
179.948	4300.49
180.024	4368.48
180.101	4445.36
180.177	4500.04
180.254	4578.57
180.33	4654.08
180.407	4919.45
180.483	5209.86
180.56	5494.64
180.636	5760.16
180.712	5721.48
180.789	5751.18
180.865	5795.32
180.942	5822.6
181.018	5864.66
181.095	5912.76
181.171	5930.22
181.248	5935.74
181.324	5988.39
181.4	6016.37
181.477	6053.52
181.553	6098.74
181.63	6171.63
181.706	6230.58
181.782	6254.03
181.859	6253.02
181.935	6276.35
182.011	6263.87
182.088	6314.33
182.164	6388.73
182.24	6433.93
182.317	6464.59
182.393	6456.86
182.469	6506.93
182.546	6556.77
182.622	6572.56
182.698	6561.08
182.775	6604.29
182.851	6655.48
182.927	6630.75
183.003	6612.32
183.08	6589.85
183.156	6620.82
183.232	6610.35
183.308	6562.15
183.385	6590.99
183.461	6649.15
183.537	6650.06
183.613	6692.61
183.69	6666.62
183.766	6625.01
183.842	6651.52
183.918	6667.75
183.995	6719.09
184.071	6726.25
184.147	6708.04
184.223	6666.15
184.299	6701.27
184.375	6658.82
184.452	6676.51
184.528	6800.79
184.604	6839.54
184.68	6878.77
184.756	6901.3
184.832	6914.37
184.908	6936.35
184.985	6932.7
185.061	6876.13
185.137	6907.07
185.213	6867.55
185.289	6869.56
185.365	6846.57
185.441	6841.28
185.517	6890.74
185.593	6871.86
185.669	6864.79
185.745	6900.92
185.822	6963.71
185.898	6934.5
185.974	6966.95
186.05	6945.52
186.126	6870.76
186.202	6844.44
186.278	6834.88
186.354	6804.95
186.43	6824.42
186.506	6818.66
186.582	6818.99
186.658	6843.09
186.734	6774.47
186.81	6784.98
186.886	6792.38
186.962	6833.39
187.038	6814.46
187.114	6785.19
187.19	6813.49
187.266	6782.76
187.341	6781.6
187.417	6748.85
187.493	6749.42
187.569	6762.59
187.645	6736.22
187.721	6700.76
187.797	6726.55
187.873	6740.62
187.949	6726.12
188.025	6712.33
188.101	6720.82
188.176	6738.79
188.252	6724.67
188.328	6749.43
188.404	6746.17
188.48	6726.58
188.556	6705.73
188.632	6705.88
188.707	6707.17
188.783	6696.12
188.859	6680.77
188.935	6642.48
189.011	6672.3
189.086	6651.66
189.162	6622.31
189.238	6615.73
189.314	6603.92
189.39	6589.23
189.465	6563.96
189.541	6611.81
189.617	6557.74
189.693	6546.55
189.768	6556.16
189.844	6641.89
189.92	6615.69
189.996	6648.59
190.071	6691.38
190.147	6681.44
190.223	6716.7
190.298	6696.62
190.374	6649.75
190.45	6687.19
190.526	6714.14
190.601	6695.6
190.677	6699.44
190.753	6795.87
190.828	6806.77
190.904	6858.7
190.98	6907.04
191.055	6944.51
191.131	6919.42
191.207	6988.78
191.282	7018.31
191.358	6987.38
191.433	6939.25
191.509	6980.67
191.585	6968.61
191.66	6969.57
191.736	7002.28
191.811	6973.31
191.887	7024.21
191.963	7109.73
192.038	7128.56
192.114	7133.46
192.189	7147.49
192.265	7138.85
192.34	7060.38
192.416	7055.44
192.491	7040.39
192.567	7045.58
192.642	7049.96
192.718	7049.72
192.793	7005.61
192.869	6991.06
192.944	7000.61
193.02	7019.65
193.095	7032.95
193.171	7054.33
193.246	7054.62
193.322	7041.94
193.397	7041.41
193.473	6993.73
193.548	6924.77
193.624	6941.64
193.699	6936.83
193.775	6987.93
193.85	6991.87
193.925	7021.37
194.001	7025.07
194.076	7001.19
194.152	6968.75
194.227	6945.16
194.302	6913.71
194.378	6928.07
194.453	6918.85
194.529	6959.02
194.604	6910.54
194.679	6891.33
194.755	6826.65
194.83	6862.46
194.905	6853.77
194.981	6888.75
195.056	6857.78
195.131	6884.68
195.207	6882.42
195.282	6848.27
195.357	6781.47
195.433	6837.62
195.508	6801.59
195.583	6822.33
195.659	6868.61
195.734	6889.9
195.809	6887.6
195.884	6916.98
195.96	6921.83
196.035	6969.58
196.11	6954.15
196.185	6997.63
196.261	7008.29
196.336	7114.66
196.411	7068.95
196.486	7088.3
196.561	7060.34
196.637	7099.09
196.712	7153.61
196.787	7158.56
196.862	7211.31
196.937	7246.86
197.013	7259.65
197.088	7292.85
197.163	7367.19
197.238	7429.55
197.313	7431.66
197.388	7480.31
197.464	7582.16
197.539	7615.37
197.614	7594.09
197.689	7633.61
197.764	7689.54
197.839	7757.76
197.914	7736.31
197.989	7807.04
198.065	7854.97
198.14	8023.64
198.215	8107.94
198.29	8140.38
198.365	8184.58
198.44	8224.02
198.515	8317.55
198.59	8373.55
198.665	8461.64
198.74	8484.51
198.815	8485.04
198.89	8559.71
198.965	8653.09
199.04	8640.14
199.115	8694.93
199.19	8839.18
199.265	8845.58
199.34	8875.71
199.415	8991.96
199.49	9064.62
199.565	9098.84
199.64	9178.8
199.715	9167.19
199.79	9190.44
199.865	9214.61
199.94	9211.87
200.015	9311.87
200.09	9328.78
200.165	9351.6
200.24	9368.93
200.315	9497.42
200.39	9547.12
200.464	9564.26
200.539	9573.7
200.614	9624.64
200.689	9701.45
200.764	9722.07
200.839	9791.05
200.914	9807.18
200.989	9769.12
201.063	9815.6
201.138	9759.49
201.213	9757.37
201.288	9697.22
201.363	9714.41
201.438	9715.42
201.512	9772.66
201.587	9718.43
201.662	9732.78
201.737	9761.73
201.812	9795.68
201.886	9690.31
201.961	9716.76
202.036	9680.08
202.111	9669.24
202.186	9574.47
202.26	9516.82
202.335	9443.42
202.41	9419.92
202.485	9363.7
202.559	9296.15
202.634	9207.07
202.709	9240.9
202.784	9180.91
202.858	9176
202.933	9113.08
203.008	9084.73
203.082	9016.32
203.157	9011.8
203.232	8866.06
203.306	8801.2
203.381	8684.37
203.456	8606.88
203.53	8534.29
203.605	8473.3
203.68	8395.46
203.754	8370.99
203.829	8316.8
203.904	8250.27
203.978	8213.55
204.053	8224.86
204.127	8182.62
204.202	8174.06
204.277	8107.92
204.351	8080.17
204.426	8058.22
204.5	8031.04
204.575	7915.28
204.65	7943.96
204.724	7918.21
204.799	7950.21
204.873	7940.64
204.948	7936.79
205.022	7901.17
205.097	7868.53
205.171	7907.39
205.246	7933.76
205.32	7932.41
205.395	7935.59
205.469	7907.67
205.544	7921.14
205.618	7869.24
205.693	7909.5
205.767	7866.66
205.842	7944.39
205.916	7928.24
205.991	7892.26
206.065	7914.63
206.14	7972.71
206.214	7959.62
206.289	7932.44
206.363	7966.2
206.438	7968.84
206.512	7997.32
206.586	8057.24
206.661	8088.81
206.735	8013.44
206.81	8012.14
206.884	8057.97
206.958	8014.02
207.033	8066.65
207.107	8088.41
207.181	8192.5
207.256	8168.93
207.33	8236.6
207.405	8278.25
207.479	8339.4
207.553	8370.23
207.628	8315.12
207.702	8354.66
207.776	8328.63
207.851	8337.78
207.925	8390.91
207.999	8380.47
208.073	8373.45
208.148	8384.52
208.222	8346.59
208.296	8462.39
208.371	8519.78
208.445	8563.96
208.519	8662.25
208.593	8704.93
208.668	8689.58
208.742	8695.02
208.816	8700.26
208.89	8742.44
208.965	8733.72
209.039	8762.9
209.113	8816.42
209.187	8884.85
209.261	8866.56
209.336	8936.26
209.41	9006.44
209.484	9007.89
209.558	9078.99
209.632	9119.56
209.707	9152.63
209.781	9221.76
209.855	9269.2
209.929	9328.41
210.003	9341.85
210.077	9333.8
210.151	9494.96
210.226	9613.94
210.3	9708.28
210.374	9793.58
210.448	9807.65
210.522	9842.09
210.596	9881.39
210.67	9913.23
210.744	10079.18
210.818	10188.75
210.892	10256.29
210.966	10236.4
211.041	10282.93
211.115	10272.39
211.189	10350.56
211.263	10407.88
211.337	10429.7
211.411	10476.87
211.485	10450.75
211.559	10489.38
211.633	10500.07
211.707	10397.28
211.781	10421.81
211.855	10296.6
211.929	10258.31
212.003	10193.56
212.077	10224.92
212.151	10251.09
212.225	10281.34
212.299	10232.81
212.373	10194.61
212.447	10180.3
212.52	10279.45
212.594	10291.88
212.668	10327.23
212.742	10278.24
212.816	10258.44
212.89	10241.34
212.964	10223.27
213.038	10229.68
213.112	10271.5
213.186	10312.3
213.26	10226.55
213.333	10064.37
213.407	10075.3
213.481	10082.33
213.555	10114.53
213.629	10060.81
213.703	10002.28
213.777	9984.74
213.85	9907.13
213.924	10010.92
213.998	9995.84
214.072	9956.61
214.146	9899.87
214.219	9881.66
214.293	9863.5
214.367	9856.28
214.441	9873.76
214.515	9828.67
214.588	9735.43
214.662	9603.66
214.736	9523.39
214.81	9543.94
214.883	9565.45
214.957	9515.35
215.031	9460.63
215.105	9373.74
215.178	9311.87
215.252	9275.37
215.326	9180.43
215.4	9099.49
215.473	8917.83
215.547	8833.28
215.621	8761.66
215.694	8758.62
215.768	8661.58
215.842	8595.84
215.915	8523.77
215.989	8409.11
216.063	8350.47
216.136	8325.35
216.21	8298.75
216.284	8313.48
216.357	8283.11
216.431	8237.89
216.504	8232.93
216.578	8288.85
216.652	8295.82
216.725	8272.34
216.799	8274.46
216.873	8255.37
216.946	8260.99
217.02	8221.86
217.093	8190.78
217.167	8096.99
217.24	8013.98
217.314	7980.42
217.387	7930.14
217.461	7881.28
217.535	7903.07
217.608	7839.69
217.682	7818.81
217.755	7830.02
217.829	7766.23
217.902	7747.71
217.976	7726.6
218.049	7684.05
218.123	7603.55
218.196	7599.18
218.27	7564.02
218.343	7491.39
218.417	7483.6
218.49	7459.56
218.563	7502.64
218.637	7506.82
218.71	7573.76
218.784	7595.35
218.857	7627.32
218.931	7649.04
219.004	7659.81
219.077	7682.09
219.151	7704.1
219.224	7692.52
219.298	7694.87
219.371	7745.28
219.444	7704.33
219.518	7716.5
219.591	7730.2
219.665	7835.69
219.738	7855.45
219.811	7841.56
219.885	7883.39
219.958	7916.3
220.031	7925.14
220.105	7948.18
220.178	7960.45
220.251	7943.66
220.325	7969.64
220.398	7987.44
220.471	8009.55
220.544	8046.74
220.618	8018.64
220.691	8043.6
220.764	8063.22
220.838	8084.39
220.911	8069.13
220.984	8157.8
221.057	8194.31
221.131	8217.83
221.204	8125.85
221.277	8193.75
221.35	8317.4
221.424	8318.41
221.497	8328.04
221.57	8350.78
221.643	8387.22
221.716	8434.48
221.79	8432.27
221.863	8445.02
221.936	8447.86
222.009	8457.38
222.082	8490.55
222.155	8495.89
222.229	8560.1
222.302	8588.72
222.375	8595.6
222.448	8636.37
222.521	8639.79
222.594	8635.07
222.667	8609.73
222.74	8657.98
222.814	8647.49
222.887	8624.23
222.96	8674.82
223.033	8718.29
223.106	8747.92
223.179	8764.83
223.252	8774.55
223.325	8806.26
223.398	8816.61
223.471	8845.44
223.544	8867.76
223.617	8877.92
223.69	8909.44
223.763	8872.37
223.837	8894.18
223.91	8924.02
223.983	8874.41
224.056	8845.25
224.129	8868.73
224.202	8924.15
224.275	8915.49
224.348	8892.09
224.42	8860.32
224.493	8798.91
224.566	8773.35
224.639	8788.6
224.712	8759.86
224.785	8746.04
224.858	8735.79
224.931	8722.16
225.004	8686.89
225.077	8689.25
225.15	8599.61
225.223	8590.75
225.296	8671.9
225.369	8617.86
225.442	8582.86
225.514	8602.73
225.587	8620.68
225.66	8631.42
225.733	8630.69
225.806	8640.18
225.879	8636.09
225.952	8606.55
226.025	8652.94
226.097	8706.15
226.17	8698.02
226.243	8639.89
226.316	8636.81
226.389	8641.33
226.461	8659.1
226.534	8677.53
226.607	8668.48
226.68	8751.23
226.753	8741.13
226.825	8656.04
226.898	8710.36
226.971	8713.93
227.044	8729.9
227.117	8738.33
227.189	8754.99
227.262	8794.66
227.335	8817.53
227.407	8810.69
227.48	8839.03
227.553	8853.95
227.626	8828.67
227.698	8830.54
227.771	8869.51
227.844	8845.35
227.916	8865.23
227.989	8829.85
228.062	8831.44
228.134	8915.45
228.207	8910.11
228.28	8910.59
228.352	8925.51
228.425	8933.94
228.498	8977.65
228.57	8958.4
228.643	9017.43
228.716	9018.2
228.788	9000.19
228.861	8990.32
228.934	9048.96
229.006	9062.09
229.079	9066.14
229.151	9059.45
229.224	9024.9
229.296	9048.82
229.369	9150.05
229.442	9197.77
229.514	9178.91
229.587	9220.6
229.659	9149.58
229.732	9168.93
229.804	9209.22
229.877	9291.92
229.949	9323.75
230.022	9377.56
230.094	9380.06
230.167	9364.84
230.239	9319.45
230.312	9313.72
230.384	9382.6
230.457	9378.65
230.529	9386.64
230.602	9387.22
230.674	9395.74
230.747	9440.2
230.819	9465.87
230.892	9355.26
230.964	9361.62
231.037	9393.19
231.109	9382.35
231.181	9418.94
231.254	9382.3
231.326	9365.74
231.399	9338.76
231.471	9314.53
231.544	9233.04
231.616	9273.23
231.688	9282.58
231.761	9275.26
231.833	9261.74
231.905	9176.88
231.978	9176.88
232.05	9162.53
232.122	9166.24
232.195	9137.88
232.267	9170.29
232.339	9153.33
232.412	9214.81
232.484	9188.17
232.556	9156.12
232.629	9224.81
232.701	9243.01
232.773	9254.71
232.846	9250.38
232.918	9255.49
232.99	9270.08
233.062	9310.86
233.135	9327.19
233.207	9283.56
233.279	9328.37
233.351	9365.15
233.424	9369.1
233.496	9346.18
233.568	9432.24
233.64	9397.48
233.713	9412.12
233.785	9416.59
233.857	9428.3
233.929	9381.84
234.001	9442.35
234.074	9512.48
234.146	9439.46
234.218	9443.79
234.29	9448.85
234.362	9433.3
234.434	9384.9
234.507	9343.54
234.579	9292.88
234.651	9272.08
234.723	9310.65
234.795	9323.41
234.867	9309.35
234.939	9370.56
235.012	9385.82
235.084	9384.08
235.156	9420.82
235.228	9407.34
235.3	9389.76
235.372	9404.3
235.444	9465.5
235.516	9387.03
235.588	9398.35
235.66	9414.96
235.732	9380.96
235.804	9570.67
235.876	9617.46
235.948	9681.57
236.02	9700.06
236.092	9714.93
236.164	9731.88
236.236	9726.97
236.308	9726.1
236.38	9758.08
236.452	9733.76
236.524	9753.45
236.596	9818.12
236.668	9850.06
236.74	9873.12
236.812	9900.53
236.884	9928.76
236.956	9932.37
237.028	9925.58
237.1	9900.87
237.172	9975.74
237.244	10057.24
237.316	9942.91
237.388	9925.77
237.46	9910.26
237.532	9968.06
237.604	9959.39
237.675	10031.37
237.747	10077.81
237.819	10067.4
237.891	10071.69
237.963	10060.04
238.035	10054.69
238.107	9944.21
238.178	10004.3
238.25	10015.72
238.322	10104.76
238.394	10064.93
238.466	10073.69
238.538	10120.94
238.609	10166.98
238.681	10105.41
238.753	10078.57
238.825	10097.56
238.897	10129.73
238.968	10205.48
239.04	10191.66
239.112	10305.82
239.184	10259.95
239.255	10262.12
239.327	10298.91
239.399	10321.55
239.471	10372.18
239.542	10410.43
239.614	10476.37
239.686	10391.19
239.758	10444.67
239.829	10409.24
239.901	10471
239.973	10481.22
240.044	10510.27
240.116	10517.54
240.188	10542.54
240.259	10557.87
240.331	10550.97
240.403	10587.88
240.474	10538.19
240.546	10531.25
240.618	10470.35
240.689	10474.25
240.761	10487.26
240.833	10551.2
240.904	10544.46
240.976	10544.8
241.048	10561.13
241.119	10598.77
241.191	10654.56
241.262	10713.6
241.334	10719.62
241.405	10728.44
241.477	10735.57
241.549	10741.98
241.62	10773.01
241.692	10814.64
241.763	10878.01
241.835	10896.23
241.906	10911.46
241.978	10885.01
242.049	10956.22
242.121	11018.77
242.192	11087.92
242.264	11057.75
242.335	11012.6
242.407	11067.78
242.478	11074.04
242.55	11096.16
242.621	11082.71
242.693	11079.53
242.764	11073.6
242.836	11072.4
242.907	11096.45
242.979	11129.36
243.05	11152.93
243.122	11174.52
243.193	11168.4
243.264	11094.28
243.336	11096.45
243.407	11130.33
243.479	11209.26
243.55	11221.07
243.622	11233.6
243.693	11232.49
243.764	11295.52
243.836	11270.91
243.907	11258.95
243.978	11265.07
244.05	11287.29
244.121	11239.06
244.192	11282.91
244.264	11233.32
244.335	11248.74
244.407	11204.55
244.478	11215.44
244.549	11211.87
244.62	11170.96
244.692	11168.94
244.763	11213.7
244.834	11201.61
244.906	11179.58
244.977	11204.93
245.048	11255.74
245.119	11231.93
245.191	11206.34
245.262	11145.24
245.333	11226
245.405	11236.98
245.476	11268.69
245.547	11290
245.618	11351.34
245.689	11359.3
245.761	11397.47
245.832	11403.3
245.903	11447.54
245.974	11478.48
246.045	11496.07
246.117	11582.25
246.188	11566.97
246.259	11549.29
246.33	11570.4
246.401	11582.78
246.473	11541.18
246.544	11522.29
246.615	11586.68
246.686	11590.15
246.757	11666.05
246.828	11641.81
246.899	11722.79
246.97	11687.08
247.042	11674.4
247.113	11713.83
247.184	11805.95
247.255	11806.39
247.326	11834.39
247.397	11846.34
247.468	11851.41
247.539	11857.05
247.61	11805.33
247.681	11854.05
247.752	11911.55
247.823	11888.17
247.894	11900.61
247.965	11878.25
248.037	11869.67
248.108	11812.55
248.179	11826.38
248.25	11823.68
248.321	11854.19
248.392	11800.15
248.463	11888.54
248.534	11885.75
248.605	11896.31
248.675	11866.13
248.746	11884.35
248.817	11902.14
248.888	11917.75
248.959	11861.07
249.03	11890.38
249.101	11902.62
249.172	11892.45
249.243	11816.5
249.314	11884.99
249.385	11901.33
249.456	11931.79
249.527	11924.46
249.598	11951.31
249.669	11945.76
249.739	11958.2
249.81	11974.11
249.881	11931.6
249.952	11921.38
250.023	11921.71
250.094	11879.15
250.165	11846.85
250.235	11836.25
250.306	11840.97
250.377	11805.31
250.448	11831.09
250.519	11762.02
250.59	11813.94
250.66	11804.3
250.731	11880.35
250.802	11872.83
250.873	11888.64
250.944	11907.44
251.014	11896.74
251.085	11981.04
251.156	12007.17
251.227	12049.44
251.297	12099.96
251.368	12151.29
251.439	12186.43
251.51	12234.45
251.58	12218.11
251.651	12212.56
251.722	12267.66
251.792	12217.96
251.863	12230.78
251.934	12297.69
252.005	12418.05
252.075	12431.93
252.146	12490.35
252.217	12529.54
252.287	12572.68
252.358	12579.82
252.429	12651.59
252.499	12646
252.57	12658.25
252.641	12711.85
252.711	12719.85
252.782	12668.61
252.852	12746.99
252.923	12753.07
252.994	12771.58
253.064	12822.19
253.135	12800.45
253.205	12773.12
253.276	12835.49
253.347	12898.54
253.417	12873.09
253.488	12854.34
253.558	12835.2
253.629	12831.49
253.699	12853.95
253.77	12876.37
253.841	12868.27
253.911	12877.14
253.982	12902.3
254.052	12935.42
254.123	12931.18
254.193	12933.97
254.264	13077.96
254.334	13037.66
254.405	13004.54
254.475	12965.74
254.546	12977.07
254.616	13041.28
254.687	13085.87
254.757	13118.07
254.827	13113.49
254.898	13142.6
254.968	13148.15
255.039	13131.04
255.109	13171.87
255.18	13144.58
255.25	13078.44
255.321	13117.25
255.391	13071.16
255.461	13154.65
255.532	13071.79
255.602	13071.74
255.673	13023.49
255.743	12986.18
255.813	12920.86
255.884	12973.21
255.954	13005.8
256.024	13062.2
256.095	13069.58
256.165	13028.94
256.235	13049.33
256.306	13032.07
256.376	13077.19
256.446	13112.24
256.517	13152.73
256.587	13187.2
256.657	13209.57
256.728	13233.19
256.798	13237.33
256.868	13242.88
256.938	13209.57
257.009	13252.76
257.079	13282.41
257.149	13377.42
257.219	13309.93
257.29	13351
257.36	13286.02
257.43	13333.21
257.5	13269.92
257.571	13258.16
257.641	13292
257.711	13255.94
257.781	13285.83
257.852	13310.46
257.922	13248.85
257.992	13249.33
258.062	13245.19
258.132	13288.86
258.202	13292.19
258.273	13299.13
258.343	13374.19
258.413	13361.03
258.483	13367.58
258.553	13345.41
258.623	13315.04
258.693	13354.47
258.764	13411.88
258.834	13486.27
258.904	13496.39
258.974	13489.3
259.044	13500
259.114	13526.66
259.184	13556.07
259.254	13569.66
259.324	13512.73
259.394	13565.37
259.464	13648.38
259.535	13652.87
259.605	13639.37
259.675	13636.67
259.745	13676.3
259.815	13650.7
259.885	13652.72
259.955	13766.82
260.025	13754.96
260.095	13769.86
260.165	13795.84
260.235	13863.33
260.305	13845.1
260.375	13816.13
260.445	13904.59
260.515	13970.68
260.585	14023.66
260.655	14032.96
260.725	14074.71
260.795	14109.42
260.865	14178.01
260.934	14144.03
261.004	14172.81
261.074	14178.93
261.144	14235.77
261.214	14270.91
261.284	14275.15
261.354	14316.03
261.424	14262.04
261.494	14332.52
261.564	14345.05
261.634	14367.61
261.703	14303.16
261.773	14326.59
261.843	14361.01
261.913	14350.5
261.983	14291.35
262.053	14308.56
262.123	14303.16
262.192	14260.93
262.262	14299.84
262.332	14244.64
262.402	14276.6
262.472	14287.35
262.541	14227
262.611	14270.96
262.681	14243.72
262.751	14274
262.821	14275.4
262.89	14251.1
262.96	14276.36
263.03	14349.92
263.1	14373.06
263.169	14388.77
263.239	14421.55
