Data from 20250701_urea_2M_exp3_MAYP1162681_23-59-50-501.txt Node
Date: Tue Jul 01 23:59:50 BST 2025
User: adleo
Spectrometer: MAYP116268
Trigger mode: 0
Integration Time (sec): 4.000000E0
Scans to average: 1
Electric dark correction enabled: true
Nonlinearity correction enabled: true
Boxcar width: 10
XAxis mode: Wavelengths
Number of Pixels in Spectrum: 2068
>>>>>Begin Spectral Data<<<<<
179.565	3731.14
179.642	3932.85
179.718	4081.91
179.795	4218.31
179.871	4339.95
179.948	4405.91
180.024	4477.38
180.101	4554
180.177	4605.86
180.254	4684.91
180.33	4766.23
180.407	5035.93
180.483	5330.12
180.56	5623.16
180.636	5891.51
180.712	5856.23
180.789	5889.09
180.865	5930.36
180.942	5959.57
181.018	5996.46
181.095	6044.42
181.171	6063.95
181.248	6060.78
181.324	6110.95
181.4	6136.67
181.477	6170.71
181.553	6213.11
181.63	6283.91
181.706	6343.11
181.782	6365.5
181.859	6363.68
181.935	6377.27
182.011	6367.71
182.088	6426.4
182.164	6496.05
182.24	6544.52
182.317	6569.67
182.393	6565.83
182.469	6616.62
182.546	6666.85
182.622	6681.02
182.698	6668.63
182.775	6705.17
182.851	6757.9
182.927	6736.86
183.003	6723.66
183.08	6701
183.156	6735.58
183.232	6723.76
183.308	6680.97
183.385	6712.55
183.461	6770.81
183.537	6778.83
183.613	6820.29
183.69	6781.95
183.766	6744.71
183.842	6774.92
183.918	6798.17
183.995	6838.75
184.071	6845.57
184.147	6825.68
184.223	6786.42
184.299	6826.74
184.375	6789.47
184.452	6811.24
184.528	6943.39
184.604	6979.75
184.68	7017.35
184.756	7040.95
184.832	7057.09
184.908	7072.55
184.985	7071.39
185.061	7018.13
185.137	7039.56
185.213	7000.89
185.289	7012.17
185.365	6986.05
185.441	6975.82
185.517	7017.45
185.593	7008.17
185.669	7001.3
185.745	7033.88
185.822	7096.82
185.898	7066.6
185.974	7100.69
186.05	7070.41
186.126	6988.23
186.202	6963.45
186.278	6954.41
186.354	6920.49
186.43	6940.15
186.506	6938.61
186.582	6937.27
186.658	6961.56
186.734	6895.44
186.81	6904.75
186.886	6912.68
186.962	6956.1
187.038	6943.37
187.114	6919.33
187.19	6946.86
187.266	6915.93
187.341	6918.82
187.417	6886.39
187.493	6889.71
187.569	6901.43
187.645	6883.85
187.721	6850.6
187.797	6874.42
187.873	6886.96
187.949	6869.91
188.025	6848.24
188.101	6855.68
188.176	6874.32
188.252	6855.25
188.328	6888.23
188.404	6885.68
188.48	6863.59
188.556	6836.02
188.632	6835.34
188.707	6836.11
188.783	6822.65
188.859	6811.76
188.935	6773.22
189.011	6803.34
189.086	6780.82
189.162	6749.54
189.238	6739.17
189.314	6724.28
189.39	6708.24
189.465	6690.03
189.541	6745.48
189.617	6694.34
189.693	6679.74
189.768	6687.81
189.844	6776.34
189.92	6748.07
189.996	6779.05
190.071	6816.08
190.147	6813.54
190.223	6846.02
190.298	6816.52
190.374	6776.85
190.45	6813.44
190.526	6841.06
190.601	6821.08
190.677	6825.35
190.753	6919.43
190.828	6936.58
190.904	6988.18
190.98	7033.54
191.055	7067.08
191.131	7036.76
191.207	7109.33
191.282	7140.17
191.358	7111.39
191.433	7059.32
191.509	7097.29
191.585	7090.03
191.66	7097.29
191.736	7125.49
191.811	7092.91
191.887	7156.31
191.963	7231.61
192.038	7248.76
192.114	7253.28
192.189	7269.04
192.265	7260.49
192.34	7186.44
192.416	7175.78
192.491	7166.21
192.567	7178.18
192.642	7183.71
192.718	7186.55
192.793	7148.1
192.869	7132.83
192.944	7146.03
193.02	7170.5
193.095	7192.03
193.171	7207.16
193.246	7205.38
193.322	7201.88
193.397	7201.54
193.473	7146.54
193.548	7092.04
193.624	7111.56
193.699	7104.68
193.775	7159.3
193.85	7161.99
193.925	7192.03
194.001	7196.59
194.076	7173.14
194.152	7138.24
194.227	7113.77
194.302	7080.16
194.378	7094.28
194.453	7089.48
194.529	7124.13
194.604	7075.6
194.679	7053.26
194.755	6991.97
194.83	7034.15
194.905	7023.19
194.981	7058.56
195.056	7035.79
195.131	7051.12
195.207	7045.64
195.282	7014.7
195.357	6951.58
195.433	7006.64
195.508	6964.4
195.583	6987.41
195.659	7029.13
195.734	7052.68
195.809	7052.73
195.884	7079.76
195.96	7078.37
196.035	7124.98
196.11	7110.84
196.185	7148.85
196.261	7160.33
196.336	7267.44
196.411	7219.99
196.486	7241.9
196.561	7216.52
196.637	7251.35
196.712	7313.14
196.787	7317.7
196.862	7369.65
196.937	7404.73
197.013	7420.31
197.088	7455.1
197.163	7531.14
197.238	7591.04
197.313	7586.72
197.388	7629.26
197.464	7732.43
197.539	7769.44
197.614	7749.21
197.689	7794.31
197.764	7853.96
197.839	7920.65
197.914	7896.02
197.989	7967.01
198.065	8008.71
198.14	8179.94
198.215	8270.23
198.29	8306.86
198.365	8352.85
198.44	8389.65
198.515	8478.72
198.59	8530.78
198.665	8622.83
198.74	8648.78
198.815	8651.14
198.89	8732.7
198.965	8838.51
199.04	8830.18
199.115	8881.91
199.19	9021.8
199.265	9029.5
199.34	9064.83
199.415	9181.23
199.49	9253.51
199.565	9285.72
199.64	9370.12
199.715	9362.31
199.79	9377.86
199.865	9398.33
199.94	9393.61
200.015	9496.37
200.09	9513.04
200.165	9537.98
200.24	9559.22
200.315	9688.83
200.39	9737.61
200.464	9754.23
200.539	9754.42
200.614	9801.9
200.689	9884.69
200.764	9911.09
200.839	9974.35
200.914	9984.8
200.989	9942.98
201.063	9992.5
201.138	9938.59
201.213	9935.89
201.288	9868.22
201.363	9888.98
201.438	9889.22
201.512	9944.11
201.587	9884.43
201.662	9902.83
201.737	9943.43
201.812	9974.51
201.886	9865.08
201.961	9902.37
202.036	9865.05
202.111	9859.37
202.186	9765.46
202.26	9704.62
202.335	9631.89
202.41	9605.88
202.485	9555.86
202.559	9491.44
202.634	9399.99
202.709	9431.27
202.784	9365.02
202.858	9364.01
202.933	9299.69
203.008	9273.2
203.082	9206.43
203.157	9206
203.232	9055.57
203.306	8982.18
203.381	8868.59
203.456	8790.42
203.53	8705.4
203.605	8636.18
203.68	8554.67
203.754	8530
203.829	8479.61
203.904	8411.09
203.978	8370.47
204.053	8382.26
204.127	8339.73
204.202	8339.63
204.277	8279.74
204.351	8256.35
204.426	8233.83
204.5	8210.5
204.575	8092.92
204.65	8126.66
204.724	8101.48
204.799	8129.07
204.873	8110.88
204.948	8103.71
205.022	8068.42
205.097	8038.48
205.171	8086.24
205.246	8109.34
205.32	8105.39
205.395	8098.95
205.469	8068.76
205.544	8088.35
205.618	8024.56
205.693	8065.11
205.767	8016.78
205.842	8087.65
205.916	8067.26
205.991	8030.27
206.065	8044.65
206.14	8099.91
206.214	8085.33
206.289	8053.66
206.363	8091.9
206.438	8107.11
206.512	8131.79
206.586	8191.29
206.661	8223.15
206.735	8149.79
206.81	8156.72
206.884	8212.65
206.958	8171.1
207.033	8227.93
207.107	8257.4
207.181	8363.61
207.256	8338.49
207.33	8405.84
207.405	8444.17
207.479	8513.02
207.553	8541.69
207.628	8487.11
207.702	8525.21
207.776	8505.72
207.851	8524.05
207.925	8575.9
207.999	8563.43
208.073	8554.82
208.148	8559.63
208.222	8522.67
208.296	8632.18
208.371	8684.87
208.445	8722.12
208.519	8820.52
208.593	8857.28
208.668	8839.47
208.742	8848.19
208.816	8862.43
208.89	8907.59
208.965	8906
209.039	8925.89
209.113	8981.15
209.187	9053.92
209.261	9041.17
209.336	9110.01
209.41	9171.92
209.484	9170.72
209.558	9245.74
209.632	9294.16
209.707	9336.91
209.781	9407.54
209.855	9460.81
209.929	9519.93
210.003	9531.3
210.077	9532.07
210.151	9694.39
210.226	9807.35
210.3	9898.62
210.374	9973.53
210.448	9985.77
210.522	10021.51
210.596	10062.74
210.67	10098.73
210.744	10259.24
210.818	10371.34
210.892	10433.3
210.966	10416.88
211.041	10472.61
211.115	10461.29
211.189	10543
211.263	10602.25
211.337	10626.82
211.411	10669.03
211.485	10645.46
211.559	10684.05
211.633	10690.69
211.707	10588.43
211.781	10616.57
211.855	10490.01
211.929	10460.87
212.003	10394.13
212.077	10428.01
212.151	10464.1
212.225	10491.08
212.299	10445.3
212.373	10400.54
212.447	10382.95
212.52	10478.88
212.594	10486.25
212.668	10522
212.742	10468.47
212.816	10438.88
212.89	10408.83
212.964	10395.86
213.038	10403.09
213.112	10446.65
213.186	10493.14
213.26	10411.42
213.333	10247.4
213.407	10258.18
213.481	10261.07
213.555	10301.56
213.629	10249.09
213.703	10182.12
213.777	10166.41
213.85	10099.88
213.924	10207.18
213.998	10202.12
214.072	10165.6
214.146	10110.87
214.219	10086.44
214.293	10066.89
214.367	10064.72
214.441	10095.02
214.515	10050.21
214.588	9956.48
214.662	9820.42
214.736	9733.54
214.81	9749.47
214.883	9766.85
214.957	9726.36
215.031	9664.85
215.105	9562.94
215.178	9496
215.252	9457
215.326	9352.61
215.4	9261.88
215.473	9076.16
215.547	8981.82
215.621	8917.7
215.694	8909.47
215.768	8812.75
215.842	8742.24
215.915	8664.24
215.989	8546.48
216.063	8486.82
216.136	8462.13
216.21	8438.22
216.284	8447.17
216.357	8421.09
216.431	8379.56
216.504	8370.18
216.578	8432.03
216.652	8449.86
216.725	8424.65
216.799	8428.79
216.873	8412.53
216.946	8420.7
217.02	8376.04
217.093	8346.6
217.167	8246.62
217.24	8164.9
217.314	8125.09
217.387	8075.53
217.461	8035.65
217.535	8058.16
217.608	7993.71
217.682	7963.02
217.755	7979.66
217.829	7919.91
217.902	7903.89
217.976	7880.71
218.049	7835.26
218.123	7755.38
218.196	7749.23
218.27	7709.5
218.343	7638.83
218.417	7634.35
218.49	7608.58
218.563	7657.14
218.637	7663.15
218.71	7728.56
218.784	7758
218.857	7789.44
218.931	7811.07
219.004	7820.4
219.077	7835.13
219.151	7858.35
219.224	7853.06
219.298	7843.87
219.371	7891.69
219.444	7846.45
219.518	7855.63
219.591	7874.48
219.665	7974.69
219.738	7988.2
219.811	7971.14
219.885	8018.47
219.958	8047.86
220.031	8053.68
220.105	8067.53
220.178	8076.29
220.251	8050.59
220.325	8071.48
220.398	8095.39
220.471	8119.86
220.544	8150.8
220.618	8127.75
220.691	8147.13
220.764	8166.32
220.838	8199.91
220.911	8186.1
220.984	8275.8
221.057	8312.6
221.131	8339.49
221.204	8242.6
221.277	8314.45
221.35	8446.63
221.424	8445.71
221.497	8460.44
221.57	8483.96
221.643	8525.11
221.716	8574.01
221.79	8578.49
221.863	8585.52
221.936	8589.65
222.009	8599.47
222.082	8631.09
222.155	8643.27
222.229	8720.87
222.302	8748.25
222.375	8754.41
222.448	8789.54
222.521	8792.62
222.594	8796.67
222.667	8768.09
222.74	8825.69
222.814	8819.77
222.887	8798.43
222.96	8843.44
223.033	8890.24
223.106	8913.29
223.179	8939.49
223.252	8947.14
223.325	8987.33
223.398	9003.22
223.471	9027.14
223.544	9051.87
223.617	9065.31
223.69	9086.92
223.763	9039.92
223.837	9065.82
223.91	9090.85
223.983	9038.88
224.056	9006.92
224.129	9028.06
224.202	9081.85
224.275	9076.36
224.348	9045.79
224.42	9012.19
224.493	8957.31
224.566	8930.63
224.639	8952.97
224.712	8927.4
224.785	8917.19
224.858	8903.66
224.931	8885.37
225.004	8850.43
225.077	8843.59
225.15	8752.21
225.223	8749.23
225.296	8835.49
225.369	8780.23
225.442	8744.42
225.514	8767.61
225.587	8788.25
225.66	8793.64
225.733	8789.65
225.806	8797.11
225.879	8788.74
225.952	8753.08
226.025	8799.96
226.097	8847.45
226.17	8835.75
226.243	8764.87
226.316	8757.46
226.389	8762.65
226.461	8781.77
226.534	8806.84
226.607	8804.38
226.68	8887.15
226.753	8884.4
226.825	8792.17
226.898	8847.28
226.971	8856.91
227.044	8875.58
227.117	8881.5
227.189	8902.54
227.262	8940.34
227.335	8957.87
227.407	8953.82
227.48	8989.24
227.553	8994.58
227.626	8975.7
227.698	8981.09
227.771	9024.63
227.844	9012.45
227.916	9030.94
227.989	8998.44
228.062	8991.71
228.134	9085.37
228.207	9090.95
228.28	9081.47
228.352	9098.46
228.425	9101.45
228.498	9142.52
228.57	9121.92
228.643	9176.29
228.716	9165.93
228.788	9152.35
228.861	9146.62
228.934	9204.78
229.006	9212.96
229.079	9217.15
229.151	9201.35
229.224	9170.5
229.296	9196.4
229.369	9300.06
229.442	9349.09
229.514	9331.38
229.587	9377.41
229.659	9293.85
229.732	9302.66
229.804	9341.95
229.877	9422.63
229.949	9455.67
230.022	9506.73
230.094	9509.77
230.167	9501.14
230.239	9466.43
230.312	9459.36
230.384	9532.1
230.457	9529.74
230.529	9540.23
230.602	9552.22
230.674	9569.42
230.747	9614.8
230.819	9646.25
230.892	9518.82
230.964	9512.61
231.037	9544.85
231.109	9534.02
231.181	9569.11
231.254	9536.37
231.326	9526.21
231.399	9495.13
231.471	9468.26
231.544	9388.78
231.616	9436.25
231.688	9438.37
231.761	9426.92
231.833	9419.6
231.905	9328.52
231.978	9331.26
232.05	9318.41
232.122	9319.66
232.195	9294.42
232.267	9333.19
232.339	9310.7
232.412	9377.47
232.484	9350.02
232.556	9317.39
232.629	9387.38
232.701	9414.88
232.773	9425.81
232.846	9417.39
232.918	9436.61
232.99	9453.66
233.062	9497.1
233.135	9512.99
233.207	9486.7
233.279	9532.47
233.351	9561.75
233.424	9569.69
233.496	9548.99
233.568	9629.66
233.64	9592
233.713	9607.65
233.785	9593.54
233.857	9606.35
233.929	9553.1
234.001	9623
234.074	9693.43
234.146	9623.15
234.218	9614.91
234.29	9611.78
234.362	9595.95
234.434	9544.6
234.507	9512.72
234.579	9463.12
234.651	9436
234.723	9465.09
234.795	9485.03
234.867	9477.04
234.939	9534.88
235.012	9548.94
235.084	9551.88
235.156	9582.89
235.228	9564.3
235.3	9558.04
235.372	9572.92
235.444	9636.48
235.516	9559.16
235.588	9560.8
235.66	9577.17
235.732	9552.17
235.804	9755.04
235.876	9808.2
235.948	9869.43
236.02	9883.77
236.092	9895.04
236.164	9909.05
236.236	9910.55
236.308	9909.34
236.38	9936.6
236.452	9918.63
236.524	9938.81
236.596	10008.31
236.668	10046.17
236.74	10069.14
236.812	10094.38
236.884	10126.61
236.956	10138.75
237.028	10136.01
237.1	10124.45
237.172	10194.12
237.244	10273.22
237.316	10150.02
237.388	10127.24
237.46	10103.72
237.532	10160.09
237.604	10154.07
237.675	10231.44
237.747	10269.12
237.819	10261.07
237.891	10268.11
237.963	10254.43
238.035	10253.18
238.107	10131.32
238.178	10198.64
238.25	10204.13
238.322	10299.55
238.394	10251.66
238.466	10251.85
238.538	10295.01
238.609	10337.54
238.681	10281.75
238.753	10262.33
238.825	10286.33
238.897	10314.02
238.968	10395.95
239.04	10378.65
239.112	10493.4
239.184	10457.12
239.255	10459.14
239.327	10492.86
239.399	10516.42
239.471	10568.98
239.542	10607.18
239.614	10682.09
239.686	10586.4
239.758	10641.95
239.829	10596.02
239.901	10663.71
239.973	10684.18
240.044	10716.8
240.116	10725.52
240.188	10743.01
240.259	10751.2
240.331	10743.16
240.403	10788.4
240.474	10741.89
240.546	10736.97
240.618	10677.99
240.689	10677.27
240.761	10694.33
240.833	10760.35
240.904	10757.21
240.976	10758.76
241.048	10778.37
241.119	10813.17
241.191	10870.88
241.262	10936
241.334	10950.31
241.405	10956.05
241.477	10949.78
241.549	10958.46
241.62	10990.89
241.692	11037.05
241.763	11103.71
241.835	11121.01
241.906	11135.56
241.978	11100.77
242.049	11165.68
242.121	11225.77
242.192	11295.84
242.264	11265.24
242.335	11216.81
242.407	11267.27
242.478	11266.93
242.55	11281.05
242.621	11268.47
242.693	11259.32
242.764	11245.63
242.836	11246.35
242.907	11277.24
242.979	11312.76
243.05	11330.59
243.122	11356.62
243.193	11356.09
243.264	11283.89
243.336	11291.41
243.407	11330.74
243.479	11424.67
243.55	11443.7
243.622	11460.33
243.693	11453.1
243.764	11523.8
243.836	11499.47
243.907	11485.4
243.978	11492
244.05	11518.03
244.121	11469.69
244.192	11517.31
244.264	11470.56
244.335	11483.04
244.407	11432.24
244.478	11451.23
244.549	11449.3
244.62	11401.35
244.692	11398.7
244.763	11443.32
244.834	11431.61
244.906	11411.27
244.977	11426.07
245.048	11482.28
245.119	11455.67
245.191	11430.66
245.262	11364.3
245.333	11443.23
245.405	11462.07
245.476	11496.05
245.547	11518.22
245.618	11575.86
245.689	11590.13
245.761	11625.46
245.832	11630.81
245.903	11677.55
245.974	11707.15
246.045	11719.54
246.117	11804.22
246.188	11794.24
246.259	11771.21
246.33	11786.53
246.401	11795.07
246.473	11757.23
246.544	11737.94
246.615	11803.4
246.686	11815.45
246.757	11891.12
246.828	11870.49
246.899	11943.47
246.97	11911.76
247.042	11898.79
247.113	11943.96
247.184	12029.38
247.255	12032.46
247.326	12062.44
247.397	12067.65
247.468	12076.95
247.539	12094.93
247.61	12046.87
247.681	12088.85
247.752	12152.38
247.823	12132.33
247.894	12147.8
247.965	12125.29
248.037	12114.21
248.108	12052.17
248.179	12059.5
248.25	12049.95
248.321	12084.99
248.392	12037.46
248.463	12123.79
248.534	12119.16
248.605	12138.44
248.675	12119.55
248.746	12138.3
248.817	12151.89
248.888	12176.23
248.959	12121.43
249.03	12144.33
249.101	12158.16
249.172	12143.41
249.243	12065.96
249.314	12126.69
249.385	12132.04
249.456	12161.63
249.527	12152.47
249.598	12184.29
249.669	12183.13
249.739	12204.48
249.81	12211.86
249.881	12172.09
249.952	12159.61
250.023	12156.33
250.094	12097.95
250.165	12060.35
250.235	12055.63
250.306	12067.01
250.377	12025.46
250.448	12053.03
250.519	11989.64
250.59	12048.07
250.66	12046.33
250.731	12124.46
250.802	12121.18
250.873	12143.98
250.944	12167.55
251.014	12153.57
251.085	12246.95
251.156	12278.42
251.227	12322.24
251.297	12372.42
251.368	12428.48
251.439	12467.91
251.51	12519.3
251.58	12507.92
251.651	12504.31
251.722	12560.18
251.792	12497.08
251.863	12507.25
251.934	12570.06
252.005	12689.65
252.075	12691.1
252.146	12743.78
252.217	12789.19
252.287	12841.35
252.358	12845.45
252.429	12911.83
252.499	12913.08
252.57	12920.36
252.641	12967.12
252.711	12973.05
252.782	12932.41
252.852	13004.77
252.923	13007.86
252.994	13029.02
253.064	13077.75
253.135	13057.6
253.205	13040.34
253.276	13119.01
253.347	13188.33
253.417	13160.8
253.488	13129.81
253.558	13114.72
253.629	13111.68
253.699	13122.77
253.77	13150.68
253.841	13150.01
253.911	13157.62
253.982	13179.41
254.052	13203.71
254.123	13203.13
254.193	13211.37
254.264	13352.76
254.334	13319.69
254.405	13285.75
254.475	13251.28
254.546	13260.35
254.616	13326.97
254.687	13354.44
254.757	13378.93
254.827	13374.79
254.898	13398.79
254.968	13410.99
255.039	13400.48
255.109	13436.44
255.18	13414.51
255.25	13335.02
255.321	13364.76
255.391	13331.21
255.461	13411.76
255.532	13333.38
255.602	13331.45
255.673	13278.9
255.743	13236.53
255.813	13159.74
255.884	13206.21
255.954	13242.85
256.024	13309.18
256.095	13312.17
256.165	13279.97
256.235	13298.38
256.306	13283.49
256.376	13337.29
256.446	13379.32
256.517	13412.73
256.587	13459.15
256.657	13474.87
256.728	13501
256.798	13508.85
256.868	13502.78
256.938	13474.92
257.009	13514.83
257.079	13554.41
257.149	13648.27
257.219	13580.68
257.29	13625.8
257.36	13572.58
257.43	13609.55
257.5	13540.23
257.571	13533.15
257.641	13566.02
257.711	13533.77
257.781	13575.52
257.852	13588.15
257.922	13521
257.992	13526.54
258.062	13520.61
258.132	13559.52
258.202	13566.26
258.273	13578.27
258.343	13656.75
258.413	13643.63
258.483	13651.64
258.553	13615.58
258.623	13593.02
258.693	13628.59
258.764	13694.97
258.834	13766.18
258.904	13782.03
258.974	13779.38
259.044	13784.4
259.114	13807.2
259.184	13836.99
259.254	13841.71
259.324	13787.19
259.394	13842.34
259.464	13916.58
259.535	13919.76
259.605	13920
259.675	13911.13
259.745	13938.75
259.815	13911.32
259.885	13917.64
259.955	14026.87
260.025	14019.63
260.095	14031.98
260.165	14068.52
260.235	14124.14
260.305	14112.72
260.375	14084.42
260.445	14173.22
260.515	14234.63
260.585	14284.96
260.655	14294.89
260.725	14329.21
260.795	14367
260.865	14435.16
260.934	14412.89
261.004	14451.7
261.074	14459.07
261.144	14517.98
261.214	14560.4
261.284	14567.63
261.354	14600.17
261.424	14565.32
261.494	14634.93
261.564	14638.07
261.634	14660.63
261.703	14597.09
261.773	14621.2
261.843	14652.63
261.913	14645.73
261.983	14595.31
262.053	14618.3
262.123	14620.38
262.192	14587.79
262.262	14632.67
262.332	14582.05
262.402	14611.26
262.472	14609.19
262.541	14543.87
262.611	14597.09
262.681	14574.39
262.751	14613.72
262.821	14621.67
262.89	14584.99
262.96	14608.37
263.03	14689.69
263.1	14706.61
263.169	14723.91
