Data from 20250701_urea_2M_exp3_MAYP1162681_15-19-49-014.txt Node
Date: Tue Jul 01 15:19:49 BST 2025
User: adleo
Spectrometer: MAYP116268
Trigger mode: 0
Integration Time (sec): 4.000000E0
Scans to average: 1
Electric dark correction enabled: true
Nonlinearity correction enabled: true
Boxcar width: 10
XAxis mode: Wavelengths
Number of Pixels in Spectrum: 2068
>>>>>Begin Spectral Data<<<<<
179.565	4187.63
179.642	4410.95
179.718	4585.17
179.795	4733.06
179.871	4866.4
179.948	4937.28
180.024	5016.29
180.101	5106.86
180.177	5166.41
180.254	5259.08
180.33	5347.63
180.407	5655.8
180.483	5981.39
180.56	6308.66
180.636	6611.26
180.712	6571.04
180.789	6607.69
180.865	6654.58
180.942	6685.6
181.018	6727
181.095	6780.82
181.171	6799.26
181.248	6801.38
181.324	6857.65
181.4	6884.7
181.477	6919.73
181.553	6976.97
181.63	7061.06
181.706	7117.72
181.782	7146.05
181.859	7141.34
181.935	7156.53
182.011	7143.41
182.088	7202.86
182.164	7283.17
182.24	7338.41
182.317	7370.56
182.393	7364.79
182.469	7411.55
182.546	7459.81
182.622	7479.23
182.698	7465.91
182.775	7511.63
182.851	7564.6
182.927	7531.48
183.003	7517.21
183.08	7497.55
183.156	7526.59
183.232	7514.47
183.308	7473.27
183.385	7503.93
183.461	7564.89
183.537	7575.23
183.613	7619.07
183.69	7587.73
183.766	7543.56
183.842	7563.62
183.918	7579.67
183.995	7625.1
184.071	7640.97
184.147	7622.99
184.223	7581.72
184.299	7622.84
184.375	7578.9
184.452	7597.13
184.528	7738.71
184.604	7778.85
184.68	7822.4
184.756	7846.26
184.832	7859.54
184.908	7878.18
184.985	7876.84
185.061	7824.04
185.137	7855.31
185.213	7816.75
185.289	7830.49
185.365	7807.9
185.441	7808.33
185.517	7866.74
185.593	7851.16
185.669	7842.36
185.745	7877.08
185.822	7940.33
185.898	7914.16
185.974	7948.92
186.05	7922.89
186.126	7844.17
186.202	7820.75
186.278	7808.2
186.354	7772.47
186.43	7796.19
186.506	7790.76
186.582	7790.47
186.658	7813.3
186.734	7731.87
186.81	7745.04
186.886	7746.24
186.962	7789.32
187.038	7775.47
187.114	7741.4
187.19	7773.67
187.266	7739.49
187.341	7745.89
187.417	7713.72
187.493	7710.55
187.569	7722.62
187.645	7709.21
187.721	7666.83
187.797	7694.71
187.873	7715.06
187.949	7693.62
188.025	7671.06
188.101	7681.82
188.176	7696.49
188.252	7686.58
188.328	7719.83
188.404	7714.4
188.48	7693.78
188.556	7666.75
188.632	7660.45
188.707	7667.19
188.783	7649.48
188.859	7626.66
188.935	7586.36
189.011	7615.54
189.086	7589.06
189.162	7560.21
189.238	7546.17
189.314	7534.82
189.39	7509.49
189.465	7479.05
189.541	7542.71
189.617	7484.69
189.693	7465.18
189.768	7483.6
189.844	7565.14
189.92	7534.73
189.996	7567.81
190.071	7611.9
190.147	7608.2
190.223	7642.63
190.298	7609.3
190.374	7565.99
190.45	7616.59
190.526	7643.47
190.601	7622.61
190.677	7635.39
190.753	7733.45
190.828	7747.06
190.904	7807.04
190.98	7869.18
191.055	7907.61
191.131	7870.66
191.207	7949.47
191.282	7984.71
191.358	7945.9
191.433	7893.11
191.509	7944.44
191.585	7936.26
191.66	7938.04
191.736	7966.99
191.811	7932.65
191.887	7995.1
191.963	8087.78
192.038	8103.56
192.114	8108.03
192.189	8125.58
192.265	8113.28
192.34	8039.5
192.416	8035.51
192.491	8014.05
192.567	8022.71
192.642	8033.2
192.718	8040.32
192.793	7998.32
192.869	7982.31
192.944	7988.85
193.02	8013.87
193.095	8028.06
193.171	8045.08
193.246	8045.81
193.322	8029.79
193.397	8034.21
193.473	7981.09
193.548	7910.95
193.624	7937.07
193.699	7929.71
193.775	7988.9
193.85	7990.82
193.925	8019.16
194.001	8013.49
194.076	7990.64
194.152	7952.87
194.227	7920.11
194.302	7881.51
194.378	7892.14
194.453	7882.71
194.529	7933.65
194.604	7885.84
194.679	7861.08
194.755	7793.67
194.83	7835.45
194.905	7832.27
194.981	7867.77
195.056	7841.71
195.131	7860.42
195.207	7850.7
195.282	7815.31
195.357	7745.25
195.433	7803.54
195.508	7756.21
195.583	7785.44
195.659	7834.85
195.734	7856.69
195.809	7853.91
195.884	7888.61
195.96	7888.71
196.035	7943.34
196.11	7923.66
196.185	7961.8
196.261	7976.27
196.336	8090.6
196.411	8041.85
196.486	8065.75
196.561	8034.87
196.637	8067.95
196.712	8133.45
196.787	8150.01
196.862	8207
196.937	8240.62
197.013	8265.31
197.088	8304.79
197.163	8380.7
197.238	8445.95
197.313	8443.01
197.388	8498.1
197.464	8612.52
197.539	8653.03
197.614	8633.31
197.689	8681
197.764	8745.17
197.839	8820.87
197.914	8796.22
197.989	8876.99
198.065	8927.58
198.14	9117.84
198.215	9215.66
198.29	9256.36
198.365	9292.95
198.44	9333.29
198.515	9437.73
198.59	9492.63
198.665	9592.21
198.74	9625.97
198.815	9626.5
198.89	9710.91
198.965	9817.46
199.04	9801.08
199.115	9860.36
199.19	10011.57
199.265	10017.54
199.34	10055.16
199.415	10177.3
199.49	10256.95
199.565	10290
199.64	10376.85
199.715	10367.74
199.79	10388.89
199.865	10412.89
199.94	10414.76
200.015	10529.82
200.09	10549.43
200.165	10567.35
200.24	10592.02
200.315	10734.35
200.39	10786.34
200.464	10809.08
200.539	10812.55
200.614	10870.36
200.689	10958.4
200.764	10989.44
200.839	11056.54
200.914	11068.68
200.989	11030.32
201.063	11081.44
201.138	11021.24
201.213	11021.92
201.288	10947.23
201.363	10966.02
201.438	10963.27
201.512	11021.52
201.587	10959.21
201.662	10973.81
201.737	11016.7
201.812	11047.49
201.886	10927.38
201.961	10963.09
202.036	10921.13
202.111	10910.96
202.186	10796.96
202.26	10735.95
202.335	10648.2
202.41	10636.64
202.485	10578.35
202.559	10506.56
202.634	10406.64
202.709	10436.01
202.784	10371.5
202.858	10371.74
202.933	10303.05
203.008	10275.54
203.082	10196.3
203.157	10191.53
203.232	10032.87
203.306	9956.16
203.381	9835.05
203.456	9750.71
203.53	9666.9
203.605	9593.83
203.68	9509.57
203.754	9488.31
203.829	9422.22
203.904	9352.74
203.978	9301.59
204.053	9312.91
204.127	9261.73
204.202	9257.93
204.277	9194.04
204.351	9163.46
204.426	9142.13
204.5	9110.83
204.575	8981.62
204.65	9021.16
204.724	8992.69
204.799	9023.67
204.873	9005.13
204.948	8996.32
205.022	8955.51
205.097	8923.19
205.171	8968.43
205.246	8993.19
205.32	8991.79
205.395	8995.07
205.469	8961.29
205.544	8981.52
205.618	8921.39
205.693	8966.02
205.767	8922.41
205.842	9001.27
205.916	8974.61
205.991	8931.14
206.065	8953.91
206.14	9024.33
206.214	9008.19
206.289	8981.8
206.363	9023.73
206.438	9035.58
206.512	9067.6
206.586	9134.12
206.661	9171.11
206.735	9095.42
206.81	9099.32
206.884	9159.3
206.958	9111.07
207.033	9169.97
207.107	9193.72
207.181	9308.67
207.256	9288.06
207.33	9356.09
207.405	9404.61
207.479	9475.43
207.553	9501.81
207.628	9438.72
207.702	9472.32
207.776	9448.73
207.851	9460.96
207.925	9515.49
207.999	9498.25
208.073	9483.22
208.148	9491.99
208.222	9447.15
208.296	9566.13
208.371	9631.66
208.445	9669.04
208.519	9773.13
208.593	9822.5
208.668	9811.18
208.742	9825.34
208.816	9827.7
208.89	9881.71
208.965	9875.78
209.039	9900.02
209.113	9972.17
209.187	10051.87
209.261	10041.96
209.336	10110.16
209.41	10179.48
209.484	10177.22
209.558	10262.43
209.632	10316.04
209.707	10358.72
209.781	10437.44
209.855	10495.36
209.929	10555.27
210.003	10573.29
210.077	10570.25
210.151	10741.59
210.226	10866.27
210.3	10959.73
210.374	11052.8
210.448	11061.91
210.522	11097.43
210.596	11145.76
210.67	11171.2
210.744	11348.26
210.818	11466.06
210.892	11544.71
210.966	11520.81
211.041	11591.47
211.115	11578.98
211.189	11660.38
211.263	11722.41
211.337	11745.68
211.411	11791.18
211.485	11766.26
211.559	11809.06
211.633	11826.55
211.707	11715.24
211.781	11742.34
211.855	11608.93
211.929	11572.79
212.003	11501.2
212.077	11533.01
212.151	11572.15
212.225	11607.38
212.299	11562.36
212.373	11514.16
212.447	11490.16
212.52	11599.32
212.594	11597.68
212.668	11642.79
212.742	11589.34
212.816	11564.95
212.89	11537.34
212.964	11533.92
213.038	11538.54
213.112	11580.58
213.186	11623.85
213.26	11536.21
213.333	11358.05
213.407	11371.26
213.481	11374.39
213.555	11411.62
213.629	11360.68
213.703	11286.36
213.777	11272.09
213.85	11191.17
213.924	11299.33
213.998	11300.72
214.072	11260.43
214.146	11197.34
214.219	11166.59
214.293	11144.62
214.367	11130.4
214.441	11154.55
214.515	11097.63
214.588	10998.36
214.662	10854.04
214.736	10762.69
214.81	10774.97
214.883	10797.03
214.957	10742.69
215.031	10685.09
215.105	10584.98
215.178	10513.48
215.252	10474.46
215.326	10357
215.4	10263.33
215.473	10068.47
215.547	9964.64
215.621	9892.26
215.694	9887.49
215.768	9780.7
215.842	9703.4
215.915	9626.22
215.989	9502.91
216.063	9436.42
216.136	9411.09
216.21	9389.37
216.284	9401.22
216.357	9375.7
216.431	9327.83
216.504	9326.25
216.578	9380.72
216.652	9392.6
216.725	9366.17
216.799	9366.89
216.873	9352.25
216.946	9361.06
217.02	9323.05
217.093	9293.63
217.167	9186.55
217.24	9095.05
217.314	9058.53
217.387	9007.58
217.461	8959.2
217.535	8978.55
217.608	8908.61
217.682	8883.91
217.755	8895.32
217.829	8828.01
217.902	8809.95
217.976	8787.53
218.049	8734.72
218.123	8653.82
218.196	8646.36
218.27	8608.77
218.343	8538.62
218.417	8531.73
218.49	8503.58
218.563	8546.94
218.637	8553.73
218.71	8631.47
218.784	8661.31
218.857	8693.55
218.931	8724.05
219.004	8738.78
219.077	8760.25
219.151	8781.95
219.224	8767.13
219.298	8761.11
219.371	8812.33
219.444	8771.39
219.518	8783.03
219.591	8803.68
219.665	8918.02
219.738	8940.2
219.811	8919.95
219.885	8964.58
219.958	9004.97
220.031	9009.3
220.105	9035.83
220.178	9040.36
220.251	9018.01
220.325	9047.44
220.398	9076.18
220.471	9096.06
220.544	9132.31
220.618	9117.67
220.691	9151.56
220.764	9173.12
220.838	9205.77
220.911	9193.25
220.984	9290.69
221.057	9329.59
221.131	9354.76
221.204	9252.02
221.277	9326.86
221.35	9461.78
221.424	9463.37
221.497	9476.38
221.57	9503.62
221.643	9535.36
221.716	9590.99
221.79	9596.82
221.863	9609.58
221.936	9614.11
222.009	9635.24
222.082	9668.81
222.155	9672.14
222.229	9738.95
222.302	9774.73
222.375	9782.87
222.448	9827.23
222.521	9830.02
222.594	9836.24
222.667	9804.37
222.74	9865.05
222.814	9861.63
222.887	9846.25
222.96	9899.05
223.033	9948.91
223.106	9980.5
223.179	10021.46
223.252	10031.34
223.325	10070.16
223.398	10086.78
223.471	10123.34
223.544	10144.24
223.617	10161.15
223.69	10191.44
223.763	10160.32
223.837	10185.95
223.91	10218.66
223.983	10172.66
224.056	10130.76
224.129	10155.18
224.202	10223.26
224.275	10210.93
224.348	10178.03
224.42	10145.71
224.493	10085.74
224.566	10058.51
224.639	10084.96
224.712	10047.13
224.785	10039.71
224.858	10025.17
224.931	10005.32
225.004	9959.85
225.077	9962.16
225.15	9865.41
225.223	9859.92
225.296	9951.14
225.369	9887.38
225.442	9853.37
225.514	9871.14
225.587	9903.31
225.66	9913.76
225.733	9913.04
225.806	9930.14
225.879	9927.63
225.952	9894.5
226.025	9948.02
226.097	10000.88
226.17	9989.7
226.243	9925.84
226.316	9919.53
226.389	9925.26
226.461	9955.23
226.534	9980.95
226.607	9970.16
226.68	10065.61
226.753	10065.99
226.825	9969.61
226.898	10041.33
226.971	10048.94
227.044	10066.71
227.117	10076.83
227.189	10099.04
227.262	10143.37
227.335	10156.57
227.407	10154.4
227.48	10192.16
227.553	10201.94
227.626	10185.94
227.698	10199.86
227.771	10241.61
227.844	10224.51
227.916	10254.38
227.989	10213.72
228.062	10217.43
228.134	10328.06
228.207	10331.91
228.28	10327.14
228.352	10343.38
228.425	10351.91
228.498	10405
228.57	10392.24
228.643	10457.77
228.716	10459.22
228.788	10442.06
228.861	10442.35
228.934	10515.72
229.006	10532.06
229.079	10551.09
229.151	10540.49
229.224	10501.33
229.296	10535.77
229.369	10655.34
229.442	10707.53
229.514	10686.24
229.587	10735.29
229.659	10647.44
229.732	10662.86
229.804	10701.64
229.877	10803.62
229.949	10840.92
230.022	10896.59
230.094	10896.4
230.167	10884.01
230.239	10843.68
230.312	10835.16
230.384	10923.45
230.457	10921.04
230.529	10920.99
230.602	10915.21
230.674	10923.88
230.747	10984.34
230.819	11024.14
230.892	10889.99
230.964	10889.55
231.037	10928.33
231.109	10915.94
231.181	10955.16
231.254	10915.65
231.326	10906.74
231.399	10871.17
231.471	10836.56
231.544	10744.95
231.616	10796.21
231.688	10805.56
231.761	10792.7
231.833	10787.59
231.905	10692.65
231.978	10690.05
232.05	10686.53
232.122	10697.18
232.195	10675.88
232.267	10714.63
232.339	10691.3
232.412	10766.85
232.484	10741.93
232.556	10714.33
232.629	10791.83
232.701	10821.8
232.773	10847.58
232.846	10847.39
232.918	10858.42
232.99	10884.69
233.062	10948.44
233.135	10968.88
233.207	10933.45
233.279	10988.96
233.351	11031.94
233.424	11040.37
233.496	11017.29
233.568	11113.09
233.64	11074.79
233.713	11096.86
233.785	11094.49
233.857	11110.88
233.929	11061.88
234.001	11135.91
234.074	11213.77
234.146	11140.8
234.218	11141.81
234.29	11144.7
234.362	11137.09
234.434	11089.95
234.507	11059.26
234.579	10999.31
234.651	10979.79
234.723	11020.75
234.795	11038.68
234.867	11034.44
234.939	11103.94
235.012	11132.13
235.084	11136.9
235.156	11177.66
235.228	11164.46
235.3	11143.88
235.372	11158.87
235.444	11223.78
235.516	11143.33
235.588	11153.7
235.66	11179.04
235.732	11149.07
235.804	11359.37
235.876	11408.43
235.948	11476.87
236.02	11495.37
236.092	11515.18
236.164	11536.28
236.236	11532.91
236.308	11536.33
236.38	11569.68
236.452	11550.6
236.524	11575.27
236.596	11649.65
236.668	11691.25
236.74	11722.77
236.812	11761.32
236.884	11805.67
236.956	11822.78
237.028	11820.76
237.1	11809.96
237.172	11889.25
237.244	11980.15
237.316	11861.52
237.388	11847.64
237.46	11829.13
237.532	11901.19
237.604	11902.35
237.675	11991.13
237.747	12048.64
237.819	12042.81
237.891	12050.09
237.963	12039.19
238.035	12038.71
238.107	11921.87
238.178	12000.58
238.25	12010.03
238.322	12117.91
238.394	12067.79
238.466	12074.77
238.538	12130.01
238.609	12177.2
238.681	12126.82
238.753	12109.42
238.825	12133.28
238.897	12172.56
238.968	12277.41
239.04	12260.63
239.112	12391.55
239.184	12353.42
239.255	12357.51
239.327	12402.34
239.399	12431.41
239.471	12491.71
239.542	12535.09
239.614	12611.87
239.686	12520.43
239.758	12586.71
239.829	12545.49
239.901	12617.31
239.973	12645.61
240.044	12688.08
240.116	12708.42
240.188	12727.65
240.259	12740.14
240.331	12733.29
240.403	12783.38
240.474	12727.07
240.546	12716.85
240.618	12655.82
240.689	12654.57
240.761	12680.79
240.833	12760.09
240.904	12763.56
240.976	12774.22
241.048	12799.62
241.119	12847.44
241.191	12903.12
241.262	12980.25
241.334	12991.72
241.405	13014.91
241.477	13014.09
241.549	13022.77
241.62	13059.11
241.692	13115.9
241.763	13199.83
241.835	13228.85
241.906	13247.41
241.978	13225.23
242.049	13302.36
242.121	13376.16
242.192	13458.21
242.264	13425.14
242.335	13378.81
242.407	13435.99
242.478	13437.72
242.55	13463.99
242.621	13454.02
242.693	13464.62
242.764	13453.15
242.836	13464.28
242.907	13499.19
242.979	13545.99
243.05	13579.35
243.122	13615.75
243.193	13617.48
243.264	13534.81
243.336	13547.63
243.407	13596.18
243.479	13684.06
243.55	13711.29
243.622	13722.28
243.693	13725.61
243.764	13802.64
243.836	13778.3
243.907	13770.59
243.978	13785.1
244.05	13820.63
244.121	13775.75
244.192	13828.05
244.264	13789.05
244.335	13806.31
244.407	13757.62
244.478	13783.46
244.549	13779.84
244.62	13732.31
244.692	13738.96
244.763	13796.57
244.834	13788.13
244.906	13767.31
244.977	13801.25
245.048	13870.75
245.119	13853.69
245.191	13832.72
245.262	13774.25
245.333	13865.21
245.405	13894.38
245.476	13932.31
245.547	13952.8
245.618	14014.7
245.689	14037.21
245.761	14076.93
245.832	14094.19
245.903	14148.08
245.974	14184.96
246.045	14208.92
246.117	14303.64
246.188	14294.58
246.259	14283.4
246.33	14308.17
246.401	14326.11
246.473	14297.38
246.544	14291.3
246.615	14373.54
246.686	14386.36
246.757	14478.44
246.828	14470.1
246.899	14553.15
246.97	14526.11
247.042	14523.31
247.113	14581.54
247.184	14679.34
247.255	14684.5
247.326	14712.41
247.397	14726.58
247.468	14739.26
247.539	14763.89
247.61	14728.46
247.681	14774.11
247.752	14845.55
247.823	14826.56
247.894	14855.91
247.965	14827.71
248.037	14816.24
248.108	14754.3
248.179	14771.46
248.25	14764.71
248.321	14796.19
248.392	14752.09
248.463	14849.56
248.534	14851.82
248.605	14873.37
248.675	14848.64
248.746	14867.68
248.817	14894.1
248.888	14917.33
248.959	14859.49
249.03	14886.24
249.101	14895.64
249.172	14892.84
249.243	14807.91
249.314	14882.28
249.385	14887.68
249.456	14928.71
249.527	14930.78
249.598	14957.63
249.669	14960.47
249.739	14974.74
249.81	14989.06
249.881	14941.67
249.952	14932.56
250.023	14930.2
250.094	14881.18
250.165	14841.66
250.235	14842.28
250.306	14848.07
250.377	14813.12
250.448	14840.55
250.519	14769.69
250.59	14836.35
250.66	14836.54
250.731	14921.38
250.802	14924.04
250.873	14949.92
250.944	14975.18
251.014	14962.21
251.085	15072.54
251.156	15108.6
251.227	15173.19
251.297	15226.83
251.368	15293.45
251.439	15339.38
251.51	15408.7
251.58	15396.6
251.651	15406.72
251.722	15478.15
251.792	15428.84
251.863	15444.27
251.934	15526.84
252.005	15660.74
252.075	15664.55
252.146	15721.57
252.217	15782.45
252.287	15833.3
252.358	15845.45
252.429	15926.47
252.499	15929.46
252.57	15934.9
252.641	15988.07
252.711	16001.61
252.782	15962.52
252.852	16044.89
252.923	16054.87
252.994	16069.47
253.064	16128.32
253.135	16109.28
253.205	16082.97
253.276	16168.67
253.347	16246.42
253.417	16220.29
253.488	16188.2
253.558	16178.17
253.629	16185.21
253.699	16197.3
253.77	16226.51
253.841	16223.04
253.911	16244.34
253.982	16259.77
254.052	16302.27
254.123	16314.37
254.193	16316.97
254.264	16468.93
254.334	16445.32
254.405	16413.5
254.475	16387.57
254.546	16406.42
254.616	16474.72
254.687	16510.62
254.757	16535.98
254.827	16542
254.898	16570.24
254.968	16597.86
255.039	16590.54
255.109	16636.95
255.18	16613.96
255.25	16543.64
255.321	16576.75
255.391	16518.58
255.461	16609.63
255.532	16524.13
255.602	16519.89
255.673	16463.79
255.743	16431.45
255.813	16344.98
255.884	16403.11
255.954	16443.59
256.024	16512.12
256.095	16524.61
256.165	16497.09
256.235	16520.7
256.306	16507.45
256.376	16571.16
256.446	16615.06
256.517	16662.88
256.587	16706.4
256.657	16735.94
256.728	16766.84
256.798	16787.75
256.868	16811.71
256.938	16794.02
257.009	16848.29
257.079	16892.14
257.149	17001.93
257.219	16934.9
257.29	16995.48
257.36	16937.31
257.43	16992.73
257.5	16923.48
257.571	16904.44
257.641	16948.06
257.711	16928.01
257.781	16964.3
257.852	16976.01
257.922	16911.14
257.992	16918.9
258.062	16923.33
258.132	16974.03
258.202	16983.87
258.273	17000.93
258.343	17070.42
258.413	17061.7
258.483	17069.41
258.553	17034.03
258.623	17012.39
258.693	17058.04
258.764	17128.16
258.834	17207.59
258.904	17221.61
258.974	17214.33
259.044	17240.84
259.114	17281.18
259.184	17309.22
259.254	17320.89
259.324	17271.1
259.394	17327.2
259.464	17413.71
259.535	17420.26
259.605	17419.78
259.675	17419.01
259.745	17466.38
259.815	17454.81
259.885	17457.22
259.955	17579.48
260.025	17575.44
260.095	17588.11
260.165	17623.39
260.235	17702.76
260.305	17687.14
260.375	17658.08
260.445	17765.94
260.515	17839.77
260.585	17898.85
260.655	17913.79
260.725	17966.9
260.795	18008.63
260.865	18087.86
260.934	18053.79
261.004	18089.79
261.074	18091.38
261.144	18159.57
261.214	18197.3
261.284	18189.88
261.354	18227.81
261.424	18179.81
261.494	18269.64
261.564	18279.86
261.634	18309.69
261.703	18224.97
261.773	18259.24
261.843	18294.51
261.913	18289.74
261.983	18229.26
262.053	18245.93
