Data from 20250701_urea_2M_exp3_MAYP1162681_03-29-49-449.txt Node
Date: Wed Jul 02 03:29:49 BST 2025
User: adleo
Spectrometer: MAYP116268
Trigger mode: 0
Integration Time (sec): 4.000000E0
Scans to average: 1
Electric dark correction enabled: true
Nonlinearity correction enabled: true
Boxcar width: 10
XAxis mode: Wavelengths
Number of Pixels in Spectrum: 2068
>>>>>Begin Spectral Data<<<<<
179.565	3640.55
179.642	3834.09
179.718	3981.34
179.795	4111.16
179.871	4229.78
179.948	4290.15
180.024	4359.29
180.101	4441.22
180.177	4493.91
180.254	4574.11
180.33	4649.8
180.407	4913.63
180.483	5197.03
180.56	5488.05
180.636	5751.8
180.712	5711.97
180.789	5747.32
180.865	5788.53
180.942	5815.1
181.018	5855.82
181.095	5905.07
181.171	5928.14
181.248	5929.53
181.324	5981.66
181.4	6008
181.477	6041.21
181.553	6088.06
181.63	6156.92
181.706	6209.58
181.782	6235.62
181.859	6229.91
181.935	6248.97
182.011	6240.42
182.088	6296.3
182.164	6359.27
182.24	6407.78
182.317	6441.89
182.393	6435.56
182.469	6481.69
182.546	6528.54
182.622	6543.13
182.698	6526.66
182.775	6559.89
182.851	6612.13
182.927	6591.48
183.003	6573
183.08	6551.74
183.156	6583.43
183.232	6570.17
183.308	6528.21
183.385	6558.16
183.461	6618.9
183.537	6620.2
183.613	6662.37
183.69	6631.68
183.766	6596.51
183.842	6618.84
183.918	6636.51
183.995	6680.3
184.071	6691.88
184.147	6676.51
184.223	6638.17
184.299	6680.44
184.375	6646.16
184.452	6660.82
184.528	6786.79
184.604	6829.66
184.68	6868.22
184.756	6890.56
184.832	6911.07
184.908	6936.95
184.985	6929.5
185.061	6871.88
185.137	6900.61
185.213	6861.8
185.289	6867.56
185.365	6840.24
185.441	6837.55
185.517	6881.34
185.593	6867.55
185.669	6863.27
185.745	6894.12
185.822	6943.89
185.898	6915.06
185.974	6946.65
186.05	6923.15
186.126	6844.54
186.202	6817.99
186.278	6807.23
186.354	6770.77
186.43	6792.01
186.506	6779.77
186.582	6779.43
186.658	6809.77
186.734	6746.49
186.81	6754.46
186.886	6763
186.962	6805.21
187.038	6788.02
187.114	6757.73
187.19	6783.92
187.266	6750.21
187.341	6748.38
187.417	6730.9
187.493	6730.52
187.569	6737.1
187.645	6715.3
187.721	6683.58
187.797	6712.44
187.873	6725.03
187.949	6710.34
188.025	6688.28
188.101	6699.23
188.176	6723.33
188.252	6707.83
188.328	6732.59
188.404	6732.44
188.48	6717.61
188.556	6699.02
188.632	6703.96
188.707	6711.8
188.783	6704.25
188.859	6690.24
188.935	6653.11
189.011	6677.32
189.086	6660.18
189.162	6632.66
189.238	6621.33
189.314	6603.23
189.39	6581.57
189.465	6559.52
189.541	6618.41
189.617	6569.68
189.693	6549.33
189.768	6556.92
189.844	6635.49
189.92	6613.7
189.996	6638.48
190.071	6671.91
190.147	6667.01
190.223	6694.15
190.298	6666.29
190.374	6622.06
190.45	6660.13
190.526	6693.55
190.601	6678.86
190.677	6680.63
190.753	6781.53
190.828	6799.72
190.904	6854.92
190.98	6911.62
191.055	6950.19
191.131	6916.56
191.207	6985.76
191.282	7019.61
191.358	6985.94
191.433	6936.77
191.509	6976.03
191.585	6968.63
191.66	6973.53
191.736	6996.35
191.811	6967.91
191.887	7025.72
191.963	7103.32
192.038	7123.83
192.114	7128.16
192.189	7136.42
192.265	7127.49
192.34	7046.95
192.416	7041.96
192.491	7026.05
192.567	7026.68
192.642	7029.32
192.718	7033.69
192.793	6989.92
192.869	6975.61
192.944	6981.9
193.02	7005.83
193.095	7017.31
193.171	7037.2
193.246	7038.65
193.322	7027.84
193.397	7030.53
193.473	6975.54
193.548	6913.07
193.624	6929.17
193.699	6920.14
193.775	6973.98
193.85	6975.94
193.925	7005.16
194.001	7005.69
194.076	6983.25
194.152	6952.59
194.227	6931.35
194.302	6894.09
194.378	6908.5
194.453	6901.34
194.529	6943.14
194.604	6898.08
194.679	6877.66
194.755	6812.12
194.83	6852.41
194.905	6848.71
194.981	6875.47
195.056	6857.95
195.131	6876.44
195.207	6868.55
195.282	6840.79
195.357	6773.61
195.433	6824.95
195.508	6785.8
195.583	6809.14
195.659	6856.33
195.734	6878.1
195.809	6874.4
195.884	6908.34
195.96	6908.44
196.035	6955.18
196.11	6941.58
196.185	6977.9
196.261	6993.89
196.336	7100.45
196.411	7048.39
196.486	7063.76
196.561	7040.55
196.637	7068.12
196.712	7128.79
196.787	7142.97
196.862	7192.93
196.937	7228.92
197.013	7248.24
197.088	7283.46
197.163	7354.48
197.238	7410.63
197.313	7410.44
197.388	7451
197.464	7551.94
197.539	7587.89
197.614	7567.8
197.689	7607.85
197.764	7658.01
197.839	7722.58
197.914	7700.36
197.989	7777.1
198.065	7823.88
198.14	7989.54
198.215	8076.64
198.29	8107.68
198.365	8145.97
198.44	8181.51
198.515	8276.67
198.59	8328.3
198.665	8414.36
198.74	8441.22
198.815	8445.03
198.89	8515.22
198.965	8616.96
199.04	8598.63
199.115	8654.24
199.19	8789.1
199.265	8799.78
199.34	8836.55
199.415	8945.13
199.49	9014.23
199.565	9046.04
199.64	9123.88
199.715	9117.76
199.79	9144.09
199.865	9169.13
199.94	9166.67
200.015	9272.46
200.09	9286.81
200.165	9306.21
200.24	9324.99
200.315	9455.21
200.39	9506.02
200.464	9528.79
200.539	9530.67
200.614	9588.3
200.689	9665.06
200.764	9690.69
200.839	9750.28
200.914	9771.28
200.989	9739.1
201.063	9787.3
201.138	9728.74
201.213	9734.13
201.288	9670.13
201.363	9684
201.438	9680.1
201.512	9733.34
201.587	9675.01
201.662	9690.48
201.737	9735.36
201.812	9763.93
201.886	9656.24
201.961	9687.55
202.036	9647.98
202.111	9645.67
202.186	9542.58
202.26	9486.76
202.335	9418.52
202.41	9400.41
202.485	9342.02
202.559	9273.51
202.634	9182.95
202.709	9212.3
202.784	9143.89
202.858	9141.24
202.933	9080.49
203.008	9058.92
203.082	8998.85
203.157	8998.37
203.232	8848.98
203.306	8769.91
203.381	8664.2
203.456	8589.6
203.53	8508.54
203.605	8440.92
203.68	8359.61
203.754	8345.86
203.829	8294.27
203.904	8224.42
203.978	8176.87
204.053	8188.37
204.127	8145.61
204.202	8142.58
204.277	8084.19
204.351	8062.16
204.426	8035.93
204.5	8004.38
204.575	7891.92
204.65	7918.97
204.724	7886
204.799	7914.54
204.873	7904.96
204.948	7897.65
205.022	7856.02
205.097	7829.41
205.171	7870.08
205.246	7901.7
205.32	7898.43
205.395	7896.74
205.469	7864.84
205.544	7887.5
205.618	7830.41
205.693	7869.75
205.767	7830.27
205.842	7904.3
205.916	7882.28
205.991	7853.38
206.065	7877.57
206.14	7930.32
206.214	7915.89
206.289	7893.13
206.363	7935.21
206.438	7941.42
206.512	7969.94
206.586	8032.26
206.661	8061.47
206.735	7991.31
206.81	7988.71
206.884	8035.78
206.958	7992.08
207.033	8055.53
207.107	8078.25
207.181	8186.23
207.256	8166.21
207.33	8227.68
207.405	8264.81
207.479	8334.22
207.553	8354.37
207.628	8300.23
207.702	8336.88
207.776	8309.6
207.851	8315.62
207.925	8366.35
207.999	8353.02
208.073	8337.63
208.148	8342.3
208.222	8299.61
208.296	8409.48
208.371	8459.5
208.445	8499.26
208.519	8595.71
208.593	8634.83
208.668	8624.58
208.742	8632
208.816	8640.8
208.89	8686.34
208.965	8681.14
209.039	8706.52
209.113	8767.83
209.187	8833.18
209.261	8817.35
209.336	8885.26
209.41	8954.96
209.484	8952.89
209.558	9030.93
209.632	9080.06
209.707	9127.04
209.781	9193.18
209.855	9245.91
209.929	9300.78
210.003	9310.99
210.077	9307.43
210.151	9471.1
210.226	9583.81
210.3	9672.47
210.374	9749.63
210.448	9763.89
210.522	9799.15
210.596	9832.33
210.67	9857.04
210.744	10014.55
210.818	10126.24
210.892	10193.44
210.966	10175.48
211.041	10229
211.115	10210.36
211.189	10291.76
211.263	10342.39
211.337	10370.47
211.411	10419.9
211.485	10406.84
211.559	10446.77
211.633	10453.85
211.707	10344.65
211.781	10367.64
211.855	10243.73
211.929	10216.47
212.003	10149.07
212.077	10176.82
212.151	10210.93
212.225	10239.6
212.299	10195.84
212.373	10156.53
212.447	10143.66
212.52	10245.8
212.594	10251
212.668	10287.41
212.742	10231.72
212.816	10205.56
212.89	10180.42
212.964	10161.29
213.038	10164.86
213.112	10207.79
213.186	10251.52
213.26	10166.25
213.333	10011.73
213.407	10025.41
213.481	10023.58
213.555	10056.5
213.629	10012.03
213.703	9951.04
213.777	9941.31
213.85	9872.67
213.924	9976.4
213.998	9965.61
214.072	9923.4
214.146	9873.83
214.219	9856.34
214.293	9839.15
214.367	9834.19
214.441	9859.14
214.515	9818.24
214.588	9725.86
214.662	9595.98
214.736	9512.34
214.81	9527.84
214.883	9544.2
214.957	9496.26
215.031	9440.87
215.105	9352.45
215.178	9288.12
215.252	9253.98
215.326	9155.96
215.4	9074.78
215.473	8888.6
215.547	8801.3
215.621	8739.12
215.694	8732.62
215.768	8633.8
215.842	8565.52
215.915	8500.47
215.989	8385.96
216.063	8326.93
216.136	8302.05
216.21	8274.15
216.284	8291.53
216.357	8266.85
216.431	8219.6
216.504	8210.17
216.578	8262.91
216.652	8267.19
216.725	8245.25
216.799	8247.61
216.873	8228.99
216.946	8235.53
217.02	8203.61
217.093	8169.99
217.167	8071.37
217.24	7987.02
217.314	7954.72
217.387	7907.9
217.461	7853.46
217.535	7871.93
217.608	7808.06
217.682	7779.15
217.755	7797
217.829	7732.1
217.902	7711.09
217.976	7692.82
218.049	7645.51
218.123	7574.49
218.196	7576.17
218.27	7541.02
218.343	7465.4
218.417	7458.09
218.49	7432.57
218.563	7469.58
218.637	7479.49
218.71	7542.73
218.784	7569.13
218.857	7600.09
218.931	7624.5
219.004	7642.43
219.077	7663.31
219.151	7682.87
219.224	7679.22
219.298	7667.58
219.371	7721.21
219.444	7689.3
219.518	7697.52
219.591	7724
219.665	7825.45
219.738	7839.83
219.811	7817.96
219.885	7866.05
219.958	7900.87
220.031	7906.74
220.105	7928.29
220.178	7931.42
220.251	7909.19
220.325	7931.56
220.398	7954.22
220.471	7972.54
220.544	8005.29
220.618	7977.97
220.691	8000.91
220.764	8021.25
220.838	8055.02
220.911	8027.64
220.984	8110.55
221.057	8151.34
221.131	8167.06
221.204	8071.87
221.277	8145.97
221.35	8270.62
221.424	8263.74
221.497	8277.02
221.57	8297.46
221.643	8328.84
221.716	8377.92
221.79	8384.03
221.863	8393.9
221.936	8403.42
222.009	8423.96
222.082	8449.66
222.155	8462.8
222.229	8528.49
222.302	8552.94
222.375	8557.07
222.448	8604.23
222.521	8606.25
222.594	8603.08
222.667	8576.82
222.74	8624.07
222.814	8616.41
222.887	8599.65
222.96	8653.7
223.033	8689.95
223.106	8716.22
223.179	8747.13
223.252	8757.53
223.325	8786.98
223.398	8798.92
223.471	8822.07
223.544	8839.2
223.617	8854.51
223.69	8881.84
223.763	8848.38
223.837	8872.54
223.91	8899.5
223.983	8847.15
224.056	8813.13
224.129	8833.29
224.202	8892.94
224.275	8888.32
224.348	8854.53
224.42	8821.66
224.493	8762.36
224.566	8741.13
224.639	8761.92
224.712	8737.22
224.785	8728.41
224.858	8719.36
224.931	8702.17
225.004	8667.38
225.077	8662.14
225.15	8574.47
225.223	8564.03
225.296	8646.43
225.369	8589.93
225.442	8554.89
225.514	8576.78
225.587	8598.43
225.66	8606.32
225.733	8610.32
225.806	8621.58
225.879	8616.39
225.952	8586.17
226.025	8634.59
226.097	8683.17
226.17	8676.87
226.243	8602.87
226.316	8594.78
226.389	8603.06
226.461	8626.55
226.534	8643.01
226.607	8636.17
226.68	8717
226.753	8709.45
226.825	8619.49
226.898	8677.52
226.971	8682.48
227.044	8701.97
227.117	8707.65
227.189	8727.63
227.262	8760.71
227.335	8779.82
227.407	8772.22
227.48	8799.35
227.553	8813.22
227.626	8795.83
227.698	8800.11
227.771	8845.38
227.844	8825.98
227.916	8841.38
227.989	8807.74
228.062	8802.88
228.134	8889.11
228.207	8889.25
228.28	8889.64
228.352	8901.52
228.425	8906.92
228.498	8951.98
228.57	8931.72
228.643	8992.72
228.716	8994.79
228.788	8981.55
228.861	8970.67
228.934	9037.19
229.006	9052.2
229.079	9049.12
229.151	9036.07
229.224	9005.8
229.296	9031.07
229.369	9131.15
229.442	9177.04
229.514	9153.75
229.587	9197.17
229.659	9119.46
229.732	9129.72
229.804	9165.29
229.877	9246.25
229.949	9276.05
230.022	9324.22
230.094	9326.73
230.167	9310.5
230.239	9262.7
230.312	9248.11
230.384	9319.73
230.457	9316.74
230.529	9319.29
230.602	9322.09
230.674	9340.1
230.747	9386.64
230.819	9415.24
230.892	9299.63
230.964	9300.54
231.037	9328.5
231.109	9318.67
231.181	9363.39
231.254	9332.44
231.326	9327.82
231.399	9299.92
231.471	9273.43
231.544	9200.56
231.616	9242.87
231.688	9253.37
231.761	9245.19
231.833	9234.36
231.905	9153.36
231.978	9147.24
232.05	9135.4
232.122	9137.28
232.195	9100.88
232.267	9132.8
232.339	9107.43
232.412	9172.17
232.484	9147.46
232.556	9123.16
232.629	9193.73
232.701	9207.31
232.773	9219.39
232.846	9205.57
232.918	9219.74
232.99	9236.06
233.062	9279.59
233.135	9290.52
233.207	9252.96
233.279	9295.56
233.351	9333.16
233.424	9336.96
233.496	9317.32
233.568	9398.6
233.64	9359.94
233.713	9383.49
233.785	9375.69
233.857	9393.17
233.929	9343.15
234.001	9408.47
234.074	9472.2
234.146	9402.93
234.218	9403.61
234.29	9400.38
234.362	9384.89
234.434	9331.43
234.507	9298.49
234.579	9239.51
234.651	9223.28
234.723	9260.84
234.795	9278.37
234.867	9265.17
234.939	9321.42
235.012	9335.33
235.084	9339.62
235.156	9378.86
235.228	9357.77
235.3	9345.44
235.372	9354.69
235.444	9412.65
235.516	9331.1
235.588	9343.86
235.66	9361.29
235.732	9334.66
235.804	9537.33
235.876	9588.65
235.948	9655.98
236.02	9674.85
236.092	9691.84
236.164	9705.57
236.236	9702.05
236.308	9700.66
236.38	9732.34
236.452	9710.57
236.524	9733.93
236.596	9796.24
236.668	9836.02
236.74	9861.16
236.812	9886.83
236.884	9915.87
236.956	9931.48
237.028	9925.32
237.1	9903.74
237.172	9971.14
237.244	10046.91
237.316	9923.37
237.388	9904.84
237.46	9880.94
237.532	9933.68
237.604	9929.25
237.675	10004.26
237.747	10047.28
237.819	10035.82
237.891	10044.88
237.963	10042.71
238.035	10038.86
238.107	9926.84
238.178	9979.31
238.25	9982.64
238.322	10070.82
238.394	10024.39
238.466	10020.92
238.538	10070.18
238.609	10117.05
238.681	10057.6
238.753	10033.94
238.825	10052.64
238.897	10077.34
238.968	10162.15
239.04	10147.7
239.112	10255.07
239.184	10214.02
239.255	10211.75
239.327	10246.47
239.399	10260.49
239.471	10305.44
239.542	10341.66
239.614	10416.62
239.686	10338.47
239.758	10394.01
239.829	10352.13
239.901	10426.8
239.973	10442.79
240.044	10466.3
240.116	10479.26
240.188	10502.63
240.259	10520.45
240.331	10508.21
240.403	10551.52
240.474	10502.94
240.546	10485.36
240.618	10422.48
240.689	10422.05
240.761	10437.42
240.833	10507
240.904	10508.59
240.976	10510.18
241.048	10525.02
241.119	10559.62
241.191	10609.05
241.262	10671.61
241.334	10684.14
241.405	10686.45
241.477	10687.51
241.549	10700.47
241.62	10718.97
241.692	10760.32
241.763	10822.53
241.835	10846.58
241.906	10857.42
241.978	10825.91
242.049	10903.53
242.121	10969.35
242.192	11039.51
242.264	11012.48
242.335	10960.1
242.407	11007.42
242.478	11002.17
242.55	11026.31
242.621	11009.2
242.693	11007.32
242.764	10997.39
242.836	11002.36
242.907	11028.04
242.979	11064.57
243.05	11087.27
243.122	11115.27
243.193	11118.49
243.264	11042.64
243.336	11042.55
243.407	11078.79
243.479	11161.67
243.55	11173.43
243.622	11190.01
243.693	11182.4
243.764	11242.92
243.836	11219.03
243.907	11204.23
243.978	11204.28
244.05	11226.98
244.121	11177.16
244.192	11224.39
244.264	11175.23
244.335	11181.16
244.407	11140.72
244.478	11156.1
244.549	11150.22
244.62	11106.08
244.692	11097.45
244.763	11146.36
244.834	11137.2
244.906	11122.94
244.977	11141.16
245.048	11194.85
245.119	11173.94
245.191	11148.4
245.262	11088.11
245.333	11171.71
245.405	11200.96
245.476	11242.79
245.547	11259.85
245.618	11317.73
245.689	11326.93
245.761	11362.64
245.832	11364.28
245.903	11406.84
245.974	11432.48
246.045	11450.12
246.117	11533.64
246.188	11521.93
246.259	11503.62
246.33	11522.32
246.401	11530.85
246.473	11492.24
246.544	11479.56
246.615	11540.44
246.686	11548.68
246.757	11631.86
246.828	11608.96
246.899	11671.48
246.97	11636.59
247.042	11627.87
247.113	11666.96
247.184	11753.01
247.255	11752.52
247.326	11782.94
247.397	11790.7
247.468	11802.51
247.539	11813.35
247.61	11770.16
247.681	11809.58
247.752	11863.32
247.823	11839.81
247.894	11856.58
247.965	11832.58
248.037	11813.59
248.108	11750.73
248.179	11754.64
248.25	11739.7
248.321	11767.07
248.392	11721.52
248.463	11805.43
248.534	11800.03
248.605	11828.18
248.675	11803.55
248.746	11821.62
248.817	11838.2
248.888	11854.88
248.959	11797.48
249.03	11822.59
249.101	11826.93
249.172	11816.13
249.243	11736.52
249.314	11799.08
249.385	11801
249.456	11822.64
249.527	11816.43
249.598	11846.74
249.669	11855.46
249.739	11871.76
249.81	11889.25
249.881	11840.52
249.952	11828.47
250.023	11829
250.094	11768.9
250.165	11735.54
250.235	11732.98
250.306	11736.36
250.377	11708.84
250.448	11735.39
250.519	11667.29
250.59	11721.85
250.66	11725.47
250.731	11805.76
250.802	11803.25
250.873	11827.69
250.944	11864.51
251.014	11859.4
251.085	11951.47
251.156	11976.92
251.227	12025.46
251.297	12068.46
251.368	12126.64
251.439	12170.55
251.51	12220.01
251.58	12207.19
251.651	12199.23
251.722	12250.76
251.792	12204.1
251.863	12207.29
251.934	12274.34
252.005	12388.72
252.075	12397.15
252.146	12447.47
252.217	12495.77
252.287	12536.75
252.358	12536.7
252.429	12596.96
252.499	12591.27
252.57	12598.89
252.641	12641.79
252.711	12643.43
252.782	12604.96
252.852	12679.24
252.923	12684.55
252.994	12702.24
253.064	12750.29
253.135	12723.54
253.205	12698.67
253.276	12765.81
253.347	12828.33
253.417	12797.77
253.488	12778.73
253.558	12762.68
253.629	12757.47
253.699	12765.38
253.77	12795.6
253.841	12789.96
253.911	12808.09
253.982	12827.46
254.052	12850.46
254.123	12860.58
254.193	12869.02
254.264	13007.9
254.334	12974.92
254.405	12937.13
254.475	12894.9
254.546	12907.2
254.616	12980.71
254.687	13011.85
254.757	13041.11
254.827	13037.83
254.898	13068.44
254.968	13079.87
255.039	13069.98
255.109	13106.52
255.18	13079.96
255.25	13008.62
255.321	13045.64
255.391	13001.87
255.461	13081.17
255.532	13001.63
255.602	12995.84
255.673	12939.39
255.743	12900.35
255.813	12829.2
255.884	12876.25
255.954	12919.73
256.024	12986.83
256.095	12987.17
256.165	12952.85
256.235	12970.44
256.306	12954.92
256.376	13000.33
256.446	13034.8
256.517	13067.38
256.587	13116.22
256.657	13134.63
256.728	13165.82
256.798	13178.07
256.868	13175.03
256.938	13146.83
257.009	13199.03
257.079	13230.03
257.149	13328.9
257.219	13261.8
257.29	13305.32
257.36	13242.27
257.43	13282.72
257.5	13207.13
257.571	13196.96
257.641	13235.52
257.711	13203.8
257.781	13238.08
257.852	13254.81
257.922	13189.53
257.992	13196.14
258.062	13181.82
258.132	13228.15
258.202	13224.1
258.273	13227.42
258.343	13295.93
258.413	13281.99
258.483	13280.93
258.553	13252.25
258.623	13225.4
258.693	13257.94
258.764	13319.11
258.834	13397.4
258.904	13412
258.974	13406.89
259.044	13416.63
259.114	13448.21
259.184	13476.12
259.254	13485.57
259.324	13430.23
259.394	13479.01
259.464	13559.42
259.535	13574.22
259.605	13561.11
259.675	13555.85
259.745	13592.44
259.815	13578.27
259.885	13583.81
259.955	13702.01
260.025	13692.56
260.095	13703.26
260.165	13732.76
260.235	13790.56
260.305	13775.18
260.375	13740.18
260.445	13832.5
260.515	13901.05
260.585	13940.87
260.655	13947.13
260.725	13988.98
260.795	14031.06
260.865	14102.55
260.934	14068.13
261.004	14087.27
261.074	14092.47
261.144	14152.06
261.214	14193.51
261.284	14191.49
261.354	14230.49
261.424	14179.88
261.494	14254.5
261.564	14259.47
261.634	14291.23
261.703	14223.99
261.773	14254.65
261.843	14289.6
261.913	14287.33
261.983	14229.43
262.053	14254.11
262.123	14258.4
262.192	14221.04
262.262	14251.22
262.332	14204.46
262.402	14237
262.472	14249.92
262.541	14192.51
262.611	14239.89
262.681	14202.77
262.751	14239.46
262.821	14240.28
262.89	14215.12
262.96	14238.3
263.03	14316.01
263.1	14327.91
263.169	14352.79
263.239	14379.98
263.309	14442.64
