Data from 20250701_urea_2M_exp3_MAYP1162681_06-59-52-447.txt Node
Date: Wed Jul 02 06:59:52 BST 2025
User: adleo
Spectrometer: MAYP116268
Trigger mode: 0
Integration Time (sec): 4.000000E0
Scans to average: 1
Electric dark correction enabled: true
Nonlinearity correction enabled: true
Boxcar width: 10
XAxis mode: Wavelengths
Number of Pixels in Spectrum: 2068
>>>>>Begin Spectral Data<<<<<
179.565	3743.85
179.642	3939.82
179.718	4088.59
179.795	4227.83
179.871	4342.67
179.948	4399.73
180.024	4473.82
180.101	4555.85
180.177	4607.25
180.254	4683.78
180.33	4764.92
180.407	5033.03
180.483	5323.92
180.56	5623.86
180.636	5897.25
180.712	5853.61
180.789	5887.1
180.865	5925.55
180.942	5956.63
181.018	5996.15
181.095	6045.89
181.171	6064.13
181.248	6066.05
181.324	6123.32
181.4	6145.74
181.477	6179.48
181.553	6227.77
181.63	6304.06
181.706	6359.51
181.782	6385.51
181.859	6385.17
181.935	6404.52
182.011	6393.77
182.088	6446.87
182.164	6510.82
182.24	6555.93
182.317	6590.82
182.393	6593.27
182.469	6644.65
182.546	6687.86
182.622	6701.07
182.698	6680.89
182.775	6718.25
182.851	6767.72
182.927	6739.47
183.003	6724.07
183.08	6708.41
183.156	6743.52
183.232	6723.87
183.308	6682.28
183.385	6710.46
183.461	6771.31
183.537	6775.25
183.613	6820.2
183.69	6795.18
183.766	6757.98
183.842	6786.32
183.918	6802.9
183.995	6839.35
184.071	6849.58
184.147	6830.56
184.223	6799.6
184.299	6848.52
184.375	6809.62
184.452	6833.95
184.528	6960.41
184.604	6999.36
184.68	7039.75
184.756	7061.47
184.832	7078.77
184.908	7097.15
184.985	7095.47
185.061	7042.3
185.137	7067.96
185.213	7026.03
185.289	7025.79
185.365	6998.37
185.441	6990.68
185.517	7036.4
185.593	7025.83
185.669	7015.45
185.745	7050.52
185.822	7103.77
185.898	7069.12
185.974	7108.01
186.05	7079.08
186.126	7004.84
186.202	6981.59
186.278	6967.94
186.354	6936.13
186.43	6961.66
186.506	6956.76
186.582	6957.82
186.658	6977.31
186.734	6908.16
186.81	6916.32
186.886	6926.88
186.962	6970.21
187.038	6955.6
187.114	6929.97
187.19	6958.42
187.266	6928.84
187.341	6931.34
187.417	6905.78
187.493	6910.4
187.569	6917.41
187.645	6893.54
187.721	6855.77
187.797	6881.94
187.873	6893.67
187.949	6872.44
188.025	6848.26
188.101	6859.21
188.176	6873.52
188.252	6860.99
188.328	6887.1
188.404	6886.52
188.48	6866.93
188.556	6844.69
188.632	6843.78
188.707	6842.72
188.783	6826.76
188.859	6807.52
188.935	6765.96
189.011	6788.05
189.086	6767.78
189.162	6740.3
189.238	6735.65
189.314	6724.03
189.39	6702.51
189.465	6682.28
189.541	6735.41
189.617	6681.58
189.693	6659.2
189.768	6676.41
189.844	6759.89
189.92	6733.01
189.996	6763.56
190.071	6803.96
190.147	6803.67
190.223	6833.6
190.298	6811.21
190.374	6769.43
190.45	6815.09
190.526	6848.72
190.601	6838.24
190.677	6839.4
190.753	6930.4
190.828	6943.85
190.904	6994.01
190.98	7048.65
191.055	7085.99
191.131	7063.93
191.207	7136.85
191.282	7170.17
191.358	7130.78
191.433	7078.66
191.509	7126.77
191.585	7121.77
191.66	7129.12
191.736	7150.69
191.811	7121
191.887	7175.18
191.963	7257.49
192.038	7271.52
192.114	7272.05
192.189	7283.29
192.265	7266.34
192.34	7192.72
192.416	7188.83
192.491	7173.12
192.567	7172.11
192.642	7178.6
192.718	7177.97
192.793	7135.15
192.869	7121.9
192.944	7133.61
193.02	7162.65
193.095	7175.91
193.171	7191.81
193.246	7186.29
193.322	7179.27
193.397	7181.43
193.473	7128.46
193.548	7064.39
193.624	7083.52
193.699	7079.77
193.775	7132.85
193.85	7145.04
193.925	7175.32
194.001	7175.03
194.076	7159.03
194.152	7127.4
194.227	7101.88
194.302	7070.04
194.378	7083.73
194.453	7073.79
194.529	7115.41
194.604	7067.26
194.679	7043.38
194.755	6982.91
194.83	7031.96
194.905	7023.89
194.981	7055.08
195.056	7039.03
195.131	7062.67
195.207	7058.97
195.282	7025.01
195.357	6956.6
195.433	7009.65
195.508	6968.51
195.583	6997.1
195.659	7037.62
195.734	7062.51
195.809	7054.39
195.884	7085.42
195.96	7084.55
196.035	7137.88
196.11	7121.11
196.185	7161.62
196.261	7176.8
196.336	7284.64
196.411	7229.34
196.486	7248.56
196.561	7223.38
196.637	7251.09
196.712	7307.5
196.787	7314.33
196.862	7369.1
196.937	7413.12
197.013	7424.28
197.088	7461.47
197.163	7529.53
197.238	7590.88
197.313	7588.57
197.388	7635.68
197.464	7736.4
197.539	7777.26
197.614	7759.43
197.689	7800.68
197.764	7856.1
197.839	7921.64
197.914	7896.77
197.989	7974.01
198.065	8018.63
198.14	8193.53
198.215	8288.2
198.29	8322.56
198.365	8366.73
198.44	8404.05
198.515	8492.7
198.59	8552.12
198.665	8644.61
198.74	8672.68
198.815	8681.58
198.89	8762.37
198.965	8870.21
199.04	8854.95
199.115	8913.46
199.19	9051.72
199.265	9069.33
199.34	9099.66
199.415	9217.27
199.49	9288.06
199.565	9322.24
199.64	9403.94
199.715	9386.02
199.79	9399.5
199.865	9424.35
199.94	9429.5
200.015	9532.07
200.09	9546.47
200.165	9562.45
200.24	9578.01
200.315	9706.65
200.39	9750.67
200.464	9767.43
200.539	9768.3
200.614	9825.84
200.689	9894.53
200.764	9922.18
200.839	9975.67
200.914	9995.61
200.989	9955.18
201.063	9998.87
201.138	9940.48
201.213	9938.79
201.288	9876.62
201.363	9899.93
201.438	9899.4
201.512	9942.78
201.587	9884.93
201.662	9899.09
201.737	9941.91
201.812	9973.52
201.886	9868.08
201.961	9901.81
202.036	9863.58
202.111	9854.57
202.186	9753.87
202.26	9699.1
202.335	9619.53
202.41	9598.68
202.485	9536.48
202.559	9468.97
202.634	9383.6
202.709	9417.29
202.784	9349.64
202.858	9353.49
202.933	9282.67
203.008	9258.98
203.082	9198.65
203.157	9200
203.232	9054.54
203.306	8984.75
203.381	8872.86
203.456	8791.12
203.53	8705.38
203.605	8636.26
203.68	8553.35
203.754	8529.7
203.829	8479.01
203.904	8411.51
203.978	8370.74
204.053	8383.44
204.127	8342.36
204.202	8336.97
204.277	8269.28
204.351	8250.13
204.426	8221.74
204.5	8198.07
204.575	8081.06
204.65	8107.58
204.724	8076.48
204.799	8099.99
204.873	8087.62
204.948	8083.77
205.022	8046.94
205.097	8019.5
205.171	8059.75
205.246	8093.53
205.32	8093.1
205.395	8089.64
205.469	8061.18
205.544	8077.26
205.618	8016.65
205.693	8056.67
205.767	8010.6
205.842	8084.74
205.916	8063.77
205.991	8029.38
206.065	8048.81
206.14	8103.69
206.214	8092.86
206.289	8066.11
206.363	8110.21
206.438	8115.41
206.512	8140.43
206.586	8203.92
206.661	8238.09
206.735	8172.72
206.81	8175.8
206.884	8225.62
206.958	8182.48
207.033	8237.01
207.107	8267.38
207.181	8379.75
207.256	8357.48
207.33	8426.7
207.405	8472.5
207.479	8537.98
207.553	8566.79
207.628	8507.07
207.702	8542.91
207.776	8519.28
207.851	8533.91
207.925	8586.62
207.999	8569.68
208.073	8561.74
208.148	8575.27
208.222	8534.02
208.296	8643
208.371	8691.45
208.445	8726.68
208.519	8829.46
208.593	8872.15
208.668	8853.8
208.742	8861.12
208.816	8864.49
208.89	8908.98
208.965	8899.54
209.039	8926.17
209.113	8986.2
209.187	9056.56
209.261	9039.71
209.336	9107.98
209.41	9172.54
209.484	9174.71
209.558	9256.03
209.632	9302.04
209.707	9333.2
209.781	9411.43
209.855	9465.28
209.929	9524.5
210.003	9545.68
210.077	9540.29
210.151	9705.22
210.226	9823.39
210.3	9915.04
210.374	9999.87
210.448	10012.1
210.522	10047.66
210.596	10084.55
210.67	10113.79
210.744	10275.03
210.818	10388.42
210.892	10457.75
210.966	10438.2
211.041	10491.14
211.115	10475.53
211.189	10555.5
211.263	10609.79
211.337	10629.16
211.411	10674.65
211.485	10653.39
211.559	10695.83
211.633	10701.56
211.707	10586.29
211.781	10609.23
211.855	10482.03
211.929	10449.04
212.003	10383.65
212.077	10412.95
212.151	10454.34
212.225	10481.42
212.299	10439.97
212.373	10397.87
212.447	10379.12
212.52	10477.55
212.594	10486.18
212.668	10530.98
212.742	10472.54
212.816	10453.8
212.89	10426.63
212.964	10416.41
213.038	10424.8
213.112	10456.5
213.186	10503.28
213.26	10423.16
213.333	10262.51
213.407	10281.82
213.481	10284.76
213.555	10319.32
213.629	10266.46
213.703	10198.14
213.777	10191.64
213.85	10118.94
213.924	10224.03
213.998	10216.27
214.072	10180.8
214.146	10119.86
214.219	10091.63
214.293	10072.8
214.367	10058.54
214.441	10079.11
214.515	10026.88
214.588	9936.51
214.662	9805.27
214.736	9718.92
214.81	9742.07
214.883	9759.5
214.957	9703.89
215.031	9654.6
215.105	9561.26
215.178	9498.42
215.252	9462.06
215.326	9352.22
215.4	9263.19
215.473	9079.97
215.547	8986.16
215.621	8913.33
215.694	8907.31
215.768	8802.13
215.842	8734.12
215.915	8663.68
215.989	8549.92
216.063	8484.54
216.136	8453.83
216.21	8436.03
216.284	8448.69
216.357	8420.25
216.431	8373.86
216.504	8369.87
216.578	8414.25
216.652	8426.12
216.725	8408.8
216.799	8410.29
216.873	8391.67
216.946	8403.65
217.02	8364.51
217.093	8332.8
217.167	8238.65
217.24	8155.25
217.314	8128.38
217.387	8082.32
217.461	8036.34
217.535	8057.89
217.608	8006.14
217.682	7973.13
217.755	7983.28
217.829	7918.91
217.902	7899.28
217.976	7887.65
218.049	7837.39
218.123	7762.85
218.196	7762.33
218.27	7729.62
218.343	7653.75
218.417	7650.91
218.49	7624.22
218.563	7663.7
218.637	7670.86
218.71	7743.83
218.784	7772.11
218.857	7804.42
218.931	7824.75
219.004	7838.79
219.077	7858.81
219.151	7872.37
219.224	7871.51
219.298	7862.17
219.371	7912.01
219.444	7867.78
219.518	7871.92
219.591	7891.49
219.665	7992.99
219.738	8003.33
219.811	7974.97
219.885	8027.16
219.958	8056.7
220.031	8065.74
220.105	8086.13
220.178	8094.89
220.251	8066.84
220.325	8090.8
220.398	8109.9
220.471	8133.94
220.544	8169.83
220.618	8145.2
220.691	8174.49
220.764	8193.15
220.838	8224.23
220.911	8210.52
220.984	8302.09
221.057	8338.7
221.131	8360.82
221.204	8267.11
221.277	8343.1
221.35	8472.15
221.424	8458.53
221.497	8470.04
221.57	8493.6
221.643	8526.57
221.716	8575.24
221.79	8577.69
221.863	8591.75
221.936	8598
222.009	8608.87
222.082	8636.41
222.155	8647.81
222.229	8711.11
222.302	8740.08
222.375	8740.66
222.448	8781.81
222.521	8787.45
222.594	8788.36
222.667	8761.24
222.74	8821.43
222.814	8809.16
222.887	8792.25
222.96	8847.56
223.033	8891.57
223.106	8919.23
223.179	8952.08
223.252	8965.32
223.325	9003.96
223.398	9015.28
223.471	9043.78
223.544	9067.4
223.617	9079.34
223.69	9107.5
223.763	9072.35
223.837	9093.82
223.91	9126.03
223.983	9074.2
224.056	9037.62
224.129	9058.89
224.202	9117.39
224.275	9102.86
224.348	9072.48
224.42	9033.77
224.493	8973.75
224.566	8950.3
224.639	8969.17
224.712	8942.06
224.785	8927.13
224.858	8913.89
224.931	8893.52
225.004	8856.27
225.077	8855.02
225.15	8764.75
225.223	8757.43
225.296	8837.67
225.369	8780.69
225.442	8748
225.514	8763.01
225.587	8781.44
225.66	8794.34
225.733	8796.17
225.806	8807.73
225.879	8801.61
225.952	8776.88
226.025	8828.09
226.097	8882.37
226.17	8872.89
226.243	8804.41
226.316	8798.25
226.389	8799.74
226.461	8819.82
226.534	8840.22
226.607	8835.74
226.68	8918.94
226.753	8907.48
226.825	8823.92
226.898	8885.09
226.971	8893.8
227.044	8915.08
227.117	8921.77
227.189	8936.07
227.262	8974.78
227.335	8990.33
227.407	8988.36
227.48	9018.48
227.553	9037.17
227.626	9010.87
227.698	9016.36
227.771	9056.87
227.844	9034.19
227.916	9056.77
227.989	9021.39
228.062	9022.01
228.134	9101.51
228.207	9100.98
228.28	9102.09
228.352	9120.43
228.425	9125.83
228.498	9169.89
228.57	9151.11
228.643	9215.55
228.716	9213.14
228.788	9194.07
228.861	9189.83
228.934	9255.69
229.006	9260.7
229.079	9259.54
229.151	9248.85
229.224	9216.99
229.296	9241.35
229.369	9345.33
229.442	9395.09
229.514	9377.43
229.587	9418.11
229.659	9346.41
229.732	9360.23
229.804	9397.11
229.877	9475.86
229.949	9513.68
230.022	9559.25
230.094	9564.59
230.167	9550.82
230.239	9507.29
230.312	9500.94
230.384	9578.21
230.457	9569.88
230.529	9582.01
230.602	9578.68
230.674	9591.93
230.747	9631.44
230.819	9666.45
230.892	9547.17
230.964	9540.86
231.037	9565.16
231.109	9556.68
231.181	9596.21
231.254	9564.96
231.326	9551.43
231.399	9521.12
231.471	9487.79
231.544	9408.8
231.616	9448.8
231.688	9457.23
231.761	9451.51
231.833	9439.76
231.905	9350.17
231.978	9348.1
232.05	9333.8
232.122	9337.46
232.195	9306.64
232.267	9348.1
232.339	9323.97
232.412	9394.79
232.484	9371.53
232.556	9350.06
232.629	9419.53
232.701	9434.65
232.773	9441.01
232.846	9432.49
232.918	9444.68
232.99	9463.6
233.062	9507.48
233.135	9523.75
233.207	9483.35
233.279	9531.78
233.351	9569.82
233.424	9570.3
233.496	9549.35
233.568	9632.24
233.64	9598.92
233.713	9619.24
233.785	9621.98
233.857	9643.13
233.929	9596.47
234.001	9669.99
234.074	9737.15
234.146	9661.56
234.218	9670.96
234.29	9674.86
234.362	9663.64
234.434	9610.17
234.507	9573.43
234.579	9523.73
234.651	9510.87
234.723	9550.12
234.795	9560.57
234.867	9550.89
234.939	9613.17
235.012	9634.6
235.084	9642.06
235.156	9682.75
235.228	9664.84
235.3	9643.07
235.372	9652.65
235.444	9705.48
235.516	9621.79
235.588	9632.53
235.66	9647.61
235.732	9617.6
235.804	9815.8
235.876	9860.82
235.948	9932.55
236.02	9947.95
236.092	9965.19
236.164	9972.41
236.236	9964.61
236.308	9969.14
236.38	9999.29
236.452	9981.71
236.524	9999.53
236.596	10063.72
236.668	10097.45
236.74	10121.67
236.812	10144.79
236.884	10175.96
236.956	10188.82
237.028	10182.47
237.1	10164.6
237.172	10240.09
237.244	10313.8
237.316	10195.71
237.388	10182.08
237.46	10156.64
237.532	10223.99
237.604	10215.56
237.675	10289.71
237.747	10342.27
237.819	10329.22
237.891	10329.56
237.963	10316.17
238.035	10312.27
238.107	10194.21
238.178	10253.82
238.25	10263.8
238.322	10360.66
238.394	10310.31
238.466	10312.19
238.538	10358.77
238.609	10402.75
238.681	10347.2
238.753	10327.2
238.825	10348.16
238.897	10376.87
238.968	10457.15
239.04	10433.98
239.112	10549.31
239.184	10507.68
239.255	10506.33
239.327	10543.37
239.399	10568.96
239.471	10619.64
239.542	10657.12
239.614	10733.53
239.686	10651.32
239.758	10710.1
239.829	10675.83
239.901	10746.95
239.973	10763.13
240.044	10797.68
240.116	10812.91
240.188	10828.47
240.259	10844.61
240.331	10835.5
240.403	10874.92
240.474	10826.67
240.546	10819.01
240.618	10763.88
240.689	10765.18
240.761	10786.34
240.833	10854.62
240.904	10854.43
240.976	10854.67
241.048	10866.48
241.119	10899.97
241.191	10950.18
241.262	11010.57
241.334	11014.24
241.405	11022.48
241.477	11028.16
241.549	11034.09
241.62	11061.08
241.692	11108.4
241.763	11170.14
241.835	11191.83
241.906	11204.02
241.978	11181.61
242.049	11251.58
242.121	11310.57
242.192	11380.25
242.264	11341.99
242.335	11297.41
242.407	11348.21
242.478	11354.47
242.55	11387.24
242.621	11372.25
242.693	11367.77
242.764	11358.56
242.836	11359.14
242.907	11386.04
242.979	11424.16
243.05	11450.04
243.122	11472.83
243.193	11470.28
243.264	11399.48
243.336	11402.08
243.407	11451.97
243.479	11529.85
243.55	11546.38
243.622	11558.1
243.693	11558.87
243.764	11625.23
243.836	11598.78
243.907	11586.68
243.978	11592.41
244.05	11610.1
244.121	11564.23
244.192	11609.87
244.264	11559.16
244.335	11573.57
244.407	11525.19
244.478	11535.84
244.549	11524.75
244.62	11473.67
244.692	11472.32
244.763	11520.12
244.834	11511.4
244.906	11483.68
244.977	11503.01
245.048	11558.26
245.119	11532.47
245.191	11506.73
245.262	11446.49
245.333	11523.4
245.405	11543.65
245.476	11572.71
245.547	11594.74
245.618	11652.18
245.689	11664.86
245.761	11712.58
245.832	11718.5
245.903	11772.24
245.974	11800.97
246.045	11812.92
246.117	11905.56
246.188	11893.8
246.259	11872.84
246.33	11892.65
246.401	11904.17
246.473	11872.3
246.544	11857.55
246.615	11919.59
246.686	11931.01
246.757	12008.03
246.828	11991.93
246.899	12059.8
246.97	12032.04
247.042	12019.46
247.113	12066.46
247.184	12154.38
247.255	12143.01
247.326	12172.89
247.397	12170.39
247.468	12183.26
247.539	12204.52
247.61	12156.89
247.681	12209.52
247.752	12270.11
247.823	12249.53
247.894	12264.38
247.965	12234.49
248.037	12218.63
248.108	12166.82
248.179	12179.06
248.25	12173.95
248.321	12198.29
248.392	12155.44
248.463	12240.12
248.534	12237.52
248.605	12255.4
248.675	12234.24
248.746	12258.73
248.817	12272.18
248.888	12295.32
248.959	12240.94
249.03	12271.12
249.101	12281.1
249.172	12262.11
249.243	12186.34
249.314	12256.23
249.385	12261.48
249.456	12294.11
249.527	12289.82
249.598	12319.37
249.669	12309.3
249.739	12322.7
249.81	12341.35
249.881	12299.37
249.952	12293.1
250.023	12296.72
250.094	12243.89
250.165	12201.85
250.235	12196.88
250.306	12199.39
250.377	12166.9
250.448	12188.54
250.519	12116.15
250.59	12175.29
250.66	12173.27
250.731	12247.83
250.802	12235.83
250.873	12262.87
250.944	12276.9
251.014	12268.37
251.085	12357.16
251.156	12391.62
251.227	12446.05
251.297	12504.81
251.368	12564.29
251.439	12608.16
251.51	12665.24
251.58	12652.56
251.651	12659.5
251.722	12720.1
251.792	12672.66
251.863	12676.52
251.934	12748.01
252.005	12868.95
252.075	12878.16
252.146	12931.28
252.217	12979.1
252.287	13020.36
252.358	13018.39
252.429	13101.01
252.499	13094.84
252.57	13104.72
252.641	13152.06
252.711	13160.01
252.782	13108.43
252.852	13186.14
252.923	13181.13
252.994	13184.84
253.064	13234.3
253.135	13208.6
253.205	13178.96
253.276	13258.98
253.347	13333.5
253.417	13309.45
253.488	13292.33
253.558	13274.3
253.629	13274.69
253.699	13290.69
253.77	13324.58
253.841	13322.37
253.911	13332.15
253.982	13347
254.052	13378.24
254.123	13385.37
254.193	13382.67
254.264	13520.97
254.334	13469.78
254.405	13441.67
254.475	13414.82
254.546	13422.73
254.616	13493.25
254.687	13528.78
254.757	13552.64
254.827	13547.77
254.898	13571.73
254.968	13579.35
255.039	13575.78
255.109	13607.69
255.18	13577.56
255.25	13509.5
255.321	13544.59
255.391	13499.28
255.461	13593.04
255.532	13511.57
255.602	13507.76
255.673	13451.02
255.743	13409.47
255.813	13349.89
255.884	13399.54
255.954	13434.83
256.024	13502.95
256.095	13506.66
256.165	13467.32
256.235	13484.82
256.306	13473.4
256.376	13521.31
256.446	13555.01
256.517	13586.68
256.587	13628.23
256.657	13653.16
256.728	13682.56
256.798	13699.24
256.868	13700.74
256.938	13664.24
257.009	13710.04
257.079	13739.49
257.149	13843.96
257.219	13787.46
257.29	13823.23
257.36	13761.09
257.43	13806.45
257.5	13733.32
257.571	13721.66
257.641	13758.82
257.711	13726.96
257.781	13763.36
257.852	13774.97
257.922	13717.03
257.992	13716.35
258.062	13715.34
258.132	13751.83
258.202	13752.94
258.273	13756.94
258.343	13834.02
258.413	13830.07
258.483	13835.37
258.553	13809.68
258.623	13786.69
258.693	13816.33
258.764	13887.39
258.834	13955.31
258.904	13965.39
258.974	13961.19
259.044	13967.75
259.114	13994.5
259.184	14015.91
259.254	14016.15
259.324	13962.54
259.394	14007.86
259.464	14088.26
259.535	14093.9
259.605	14092.07
259.675	14080.41
259.745	14116.32
259.815	14086.96
259.885	14077.85
259.955	14192.57
260.025	14182.11
260.095	14194.35
260.165	14222.12
260.235	14287.24
260.305	14275.96
260.375	14244.58
260.445	14340.27
260.515	14410.16
260.585	14469.46
260.655	14484.88
260.725	14540.37
260.795	14578.83
260.865	14644.97
260.934	14612
261.004	14650.71
261.074	14653.07
261.144	14718.34
261.214	14761.38
261.284	14767.41
261.354	14812.92
261.424	14761.78
261.494	14840.06
261.564	14843.15
261.634	14871.93
261.703	14792.2
261.773	14812.78
261.843	14847.3
261.913	14830.76
261.983	14776
262.053	14797.21
262.123	14800.87
262.192	14748.67
262.262	14796
262.332	14754.89
262.402	14789.88
262.472	14794.22
262.541	14729.05
262.611	14778.7
262.681	14750.79
262.751	14794.51
262.821	14793.69
262.89	14769.78
262.96	14789.64
263.03	14871.1
263.1	14890.57
263.169	14919.88
