Data from 20250701_urea_2M_exp3_MAYP1162681_19-09-51-901.txt Node
Date: Tue Jul 01 19:09:51 BST 2025
User: adleo
Spectrometer: MAYP116268
Trigger mode: 0
Integration Time (sec): 4.000000E0
Scans to average: 1
Electric dark correction enabled: true
Nonlinearity correction enabled: true
Boxcar width: 10
XAxis mode: Wavelengths
Number of Pixels in Spectrum: 2068
>>>>>Begin Spectral Data<<<<<
179.565	3998.42
179.642	4211.85
179.718	4374.93
179.795	4519.81
179.871	4645.52
179.948	4708.66
180.024	4785.64
180.101	4871.04
180.177	4923.47
180.254	5014.25
180.33	5097.4
180.407	5388.38
180.483	5700.99
180.56	6016.31
180.636	6301.3
180.712	6258.84
180.789	6292.78
180.865	6340.09
180.942	6372.53
181.018	6415.68
181.095	6465.45
181.171	6480.81
181.248	6484.51
181.324	6538.94
181.4	6566.17
181.477	6603.11
181.553	6657.1
181.63	6729.53
181.706	6787.56
181.782	6817.55
181.859	6812.41
181.935	6831.49
182.011	6819.24
182.088	6877.32
182.164	6952.55
182.24	7014.45
182.317	7051
182.393	7043.94
182.469	7085.78
182.546	7130.37
182.622	7145.17
182.698	7125.51
182.775	7177.07
182.851	7221.8
182.927	7200.56
183.003	7180.82
183.08	7159.2
183.156	7190.48
183.232	7182.6
183.308	7139.16
183.385	7173.12
183.461	7234.45
183.537	7240.17
183.613	7283.42
183.69	7247.28
183.766	7203.52
183.842	7224.57
183.918	7239.28
183.995	7285.12
184.071	7300.17
184.147	7285.56
184.223	7245.27
184.299	7290.31
184.375	7250.76
184.452	7276.73
184.528	7403.65
184.604	7448.09
184.68	7492.11
184.756	7515.82
184.832	7528.46
184.908	7550.36
184.985	7547.53
185.061	7490.29
185.137	7521.92
185.213	7483.67
185.289	7492.6
185.365	7468.82
185.441	7459.78
185.517	7510.81
185.593	7503.5
185.669	7492.16
185.745	7528.93
185.822	7593.6
185.898	7566.34
185.974	7604.49
186.05	7580.78
186.126	7506.36
186.202	7479.45
186.278	7466.81
186.354	7431.37
186.43	7457.35
186.506	7453.21
186.582	7454.08
186.658	7475.26
186.734	7402.8
186.81	7410.92
186.886	7423.22
186.962	7468.64
187.038	7454.79
187.114	7422.95
187.19	7447.71
187.266	7410.57
187.341	7413.41
187.417	7379.24
187.493	7377.7
187.569	7380.58
187.645	7355.11
187.721	7313.37
187.797	7339.61
187.873	7352.78
187.949	7334.91
188.025	7315.24
188.101	7321
188.176	7334.89
188.252	7318.08
188.328	7347.57
188.404	7344.49
188.48	7323.64
188.556	7297.15
188.632	7297.58
188.707	7302.49
188.783	7291.28
188.859	7278.8
188.935	7235.48
189.011	7269.56
189.086	7249.04
189.162	7220.77
189.238	7211.98
189.314	7204.77
189.39	7185.64
189.465	7162.43
189.541	7222.8
189.617	7164.9
189.693	7148.52
189.768	7163.95
189.844	7256.95
189.92	7226.02
189.996	7262.84
190.071	7311
190.147	7308.07
190.223	7341.49
190.298	7308.74
190.374	7260.35
190.45	7308.34
190.526	7341.8
190.601	7323.53
190.677	7328.77
190.753	7431.09
190.828	7443.24
190.904	7498.78
190.98	7553.5
191.055	7592.97
191.131	7560.99
191.207	7640.78
191.282	7676.58
191.358	7636.93
191.433	7580.16
191.509	7628.87
191.585	7617.24
191.66	7615.02
191.736	7644.35
191.811	7608.24
191.887	7668.89
191.963	7755.09
192.038	7770.38
192.114	7769.52
192.189	7782.97
192.265	7769.62
192.34	7687.3
192.416	7683.69
192.491	7668.06
192.567	7675.8
192.642	7681.24
192.718	7688.5
192.793	7643.15
192.869	7625.71
192.944	7639.11
193.02	7671.77
193.095	7684.32
193.171	7706.39
193.246	7703.36
193.322	7693.6
193.397	7699.84
193.473	7655.06
193.548	7590.09
193.624	7611.93
193.699	7608.03
193.775	7660.8
193.85	7666.33
193.925	7694.56
194.001	7694.31
194.076	7664.79
194.152	7625.5
194.227	7596.98
194.302	7557.67
194.378	7569.4
194.453	7560.27
194.529	7607.73
194.604	7553.44
194.679	7531.38
194.755	7461.12
194.83	7504.9
194.905	7493.51
194.981	7524.91
195.056	7495.64
195.131	7518.52
195.207	7513.42
195.282	7477.04
195.357	7407.44
195.433	7464.94
195.508	7427.38
195.583	7453.53
195.659	7502.59
195.734	7527.74
195.809	7529.32
195.884	7559.5
195.96	7554.83
196.035	7606.03
196.11	7581.7
196.185	7626.94
196.261	7638.19
196.336	7757.04
196.411	7706.58
196.486	7730.72
196.561	7704.8
196.637	7740.6
196.712	7796.27
196.787	7802.09
196.862	7860.17
196.937	7898.77
197.013	7915.13
197.088	7950.13
197.163	8027.32
197.238	8088.07
197.313	8089.99
197.388	8137.61
197.464	8247.47
197.539	8291.48
197.614	8269.79
197.689	8319.87
197.764	8378.44
197.839	8453.16
197.914	8419.04
197.989	8497.95
198.065	8541.54
198.14	8723.63
198.215	8815.36
198.29	8863.03
198.365	8909.47
198.44	8949.75
198.515	9045.6
198.59	9105.92
198.665	9197.87
198.74	9231.05
198.815	9237.99
198.89	9321.65
198.965	9427.46
199.04	9414.36
199.115	9469.82
199.19	9622.38
199.265	9632.68
199.34	9665.24
199.415	9789.1
199.49	9869.25
199.565	9905.52
199.64	9992.69
199.715	9979.34
199.79	10006.27
199.865	10022.74
199.94	10021.2
200.015	10127.85
200.09	10151.03
200.165	10171.74
200.24	10196.31
200.315	10328.6
200.39	10379.33
200.464	10394.89
200.539	10404.62
200.614	10464.64
200.689	10552.42
200.764	10582.01
200.839	10647.99
200.914	10662.16
200.989	10614.16
201.063	10665.47
201.138	10595.08
201.213	10593.53
201.288	10525.03
201.363	10540.16
201.438	10540.59
201.512	10599.06
201.587	10537.53
201.662	10550.25
201.737	10588.41
201.812	10616.65
201.886	10504.98
201.961	10540.5
202.036	10501.15
202.111	10483.94
202.186	10371.46
202.26	10303.52
202.335	10218.38
202.41	10192.37
202.485	10125.67
202.559	10063.39
202.634	9966.61
202.709	10001.32
202.784	9930.18
202.858	9929.46
202.933	9863.86
203.008	9834.48
203.082	9758.39
203.157	9754.44
203.232	9598.27
203.306	9521.63
203.381	9407.28
203.456	9318.83
203.53	9230.17
203.605	9158.03
203.68	9071.24
203.754	9048.92
203.829	9002.35
203.904	8927.51
203.978	8883.88
204.053	8906.89
204.127	8856.55
204.202	8848.6
204.277	8789.98
204.351	8771.79
204.426	8747.66
204.5	8721.48
204.575	8605.77
204.65	8643.66
204.724	8612.45
204.799	8643.33
204.873	8629.8
204.948	8625.37
205.022	8585.73
205.097	8557.46
205.171	8609.38
205.246	8637.5
205.32	8634.18
205.395	8630.62
205.469	8601.86
205.544	8622.08
205.618	8559.52
205.693	8604.13
205.767	8567.8
205.842	8646.17
205.916	8621.29
205.991	8586.3
206.065	8605.22
206.14	8661.72
206.214	8642.51
206.289	8617.71
206.363	8660.4
206.438	8669.98
206.512	8696.7
206.586	8764.59
206.661	8795.94
206.735	8715.56
206.81	8721.38
206.884	8781.15
206.958	8727.07
207.033	8791.05
207.107	8814.74
207.181	8925.43
207.256	8903.57
207.33	8967.58
207.405	9010.94
207.479	9081.32
207.553	9105.14
207.628	9038.07
207.702	9076
207.776	9055.2
207.851	9075.13
207.925	9127.38
207.999	9118.14
208.073	9111.4
208.148	9123.19
208.222	9081.4
208.296	9197.08
208.371	9257.24
208.445	9290.76
208.519	9398.92
208.593	9438.35
208.668	9426.41
208.742	9434.35
208.816	9446.87
208.89	9492.63
208.965	9480.68
209.039	9506.16
209.113	9568.57
209.187	9643.53
209.261	9628.66
209.336	9698.87
209.41	9767.65
209.484	9767.17
209.558	9847.94
209.632	9889.79
209.707	9934.1
209.781	10007.84
209.855	10057.17
209.929	10118.04
210.003	10142.65
210.077	10136.54
210.151	10307.23
210.226	10430.78
210.3	10529.78
210.374	10600.91
210.448	10615.32
210.522	10656.37
210.596	10694.2
210.67	10729.37
210.744	10900.62
210.818	11017.14
210.892	11088.26
210.966	11064.03
211.041	11122.86
211.115	11109.04
211.189	11188.59
211.263	11241.4
211.337	11269.69
211.411	11321.59
211.485	11300.05
211.559	11333.92
211.633	11345.29
211.707	11231.2
211.781	11258.39
211.855	11126.82
211.929	11104.33
212.003	11035.45
212.077	11065.67
212.151	11106.25
212.225	11137.57
212.299	11102.48
212.373	11054.77
212.447	11034.15
212.52	11139.01
212.594	11151.83
212.668	11183.44
212.742	11137.9
212.816	11112.17
212.89	11082.1
212.964	11077.66
213.038	11080.17
213.112	11124.22
213.186	11168.4
213.26	11081.56
213.333	10908.43
213.407	10924.81
213.481	10923.08
213.555	10965.17
213.629	10916.97
213.703	10847.92
213.777	10828.93
213.85	10743.2
213.924	10851.15
213.998	10849.13
214.072	10806.81
214.146	10744.69
214.219	10724.98
214.293	10698.1
214.367	10694.39
214.441	10716.84
214.515	10658.82
214.588	10557.98
214.662	10420.34
214.736	10338.29
214.81	10356.01
214.883	10377.25
214.957	10322.78
215.031	10259.27
215.105	10157.79
215.178	10088.95
215.252	10049.16
215.326	9948.39
215.4	9861.97
215.473	9670.9
215.547	9572.72
215.621	9504.64
215.694	9495.77
215.768	9391.46
215.842	9318.32
215.915	9242.12
215.989	9122.45
216.063	9060.75
216.136	9043.31
216.21	9016.41
216.284	9023.73
216.357	8991.96
216.431	8941.41
216.504	8929.47
216.578	8989.75
216.652	8999.61
216.725	8968.46
216.799	8974.34
216.873	8951.86
216.946	8953.98
217.02	8913.57
217.093	8878.53
217.167	8777.11
217.24	8691.22
217.314	8652.59
217.387	8605.16
217.461	8553.23
217.535	8579.9
217.608	8513.44
217.682	8479.84
217.755	8493.41
217.829	8430.84
217.902	8418.09
217.976	8396.34
218.049	8348.13
218.123	8271.1
218.196	8270
218.27	8235.54
218.343	8155.55
218.417	8147.85
218.49	8128.85
218.563	8176.52
218.637	8187.73
218.71	8256.84
218.784	8282.92
218.857	8316.93
218.931	8343.18
219.004	8355.16
219.077	8367.39
219.151	8388.8
219.224	8377.06
219.298	8367.14
219.371	8413.11
219.444	8367.46
219.518	8376.84
219.591	8399.45
219.665	8507.36
219.738	8517.66
219.811	8499.77
219.885	8552.94
219.958	8590.05
220.031	8587.45
220.105	8609.16
220.178	8616.62
220.251	8591.3
220.325	8614.6
220.398	8635.25
220.471	8654.49
220.544	8695.17
220.618	8676.68
220.691	8701.99
220.764	8726.39
220.838	8760.66
220.911	8752.91
220.984	8846.74
221.057	8885.63
221.131	8905.84
221.204	8805.92
221.277	8888.2
221.35	9018.94
221.424	9004.94
221.497	9017.21
221.57	9047.67
221.643	9084.75
221.716	9133.1
221.79	9136.46
221.863	9142.97
221.936	9150.91
222.009	9160.34
222.082	9189.67
222.155	9195.2
222.229	9268.55
222.302	9296.33
222.375	9296.95
222.448	9338.37
222.521	9342.36
222.594	9344
222.667	9322.63
222.74	9375.2
222.814	9364.85
222.887	9341.72
222.96	9402.74
223.033	9448.01
223.106	9475.55
223.179	9503.87
223.252	9517.99
223.325	9555.98
223.398	9577.89
223.471	9609.14
223.544	9637.88
223.617	9649.92
223.69	9676.69
223.763	9637.92
223.837	9665.42
223.91	9700.24
223.983	9645.35
224.056	9615.93
224.129	9644.82
224.202	9709.76
224.275	9702.05
224.348	9670.41
224.42	9641.27
224.493	9578.19
224.566	9552.71
224.639	9574.14
224.712	9545.04
224.785	9527.03
224.858	9509.69
224.931	9490.91
225.004	9448.1
225.077	9447.96
225.15	9354.66
225.223	9354.18
225.296	9434.78
225.369	9371.8
225.442	9339
225.514	9353.64
225.587	9376.79
225.66	9380.31
225.733	9378.53
225.806	9386.14
225.879	9379.25
225.952	9350.32
226.025	9403.67
226.097	9458.93
226.17	9445.78
226.243	9374.63
226.316	9372.27
226.389	9386.67
226.461	9406.51
226.534	9435.25
226.607	9423.12
226.68	9513.53
226.753	9509.53
226.825	9421.61
226.898	9486.37
226.971	9483.72
227.044	9509.14
227.117	9511.02
227.189	9532.99
227.262	9569.55
227.335	9588.72
227.407	9586.89
227.48	9618.57
227.553	9634.9
227.626	9613.69
227.698	9619.23
227.771	9664.62
227.844	9642.42
227.916	9657.55
227.989	9622.24
228.062	9617.53
228.134	9714.92
228.207	9711.75
228.28	9701.63
228.352	9712.04
228.425	9718.1
228.498	9777.11
228.57	9757.94
228.643	9818.88
228.716	9821.43
228.788	9806.31
228.861	9797.64
228.934	9863.38
229.006	9869.59
229.079	9869.49
229.151	9853.11
229.224	9824.71
229.296	9853.12
229.369	9965.72
229.442	10016.4
229.514	9993.29
229.587	10038.61
229.659	9959.75
229.732	9974.49
229.804	10016.15
229.877	10108.18
229.949	10144.84
230.022	10197.18
230.094	10198.19
230.167	10186.14
230.239	10132.83
230.312	10122.76
230.384	10200.86
230.457	10199.76
230.529	10209.48
230.602	10209.15
230.674	10218.49
230.747	10264
230.819	10294.44
230.892	10163.65
230.964	10157.77
231.037	10190.03
231.109	10179.14
231.181	10216.71
231.254	10179
231.326	10168.45
231.399	10134.23
231.471	10099.4
231.544	10012.76
231.616	10061.55
231.688	10069.79
231.761	10067.53
231.833	10055.1
231.905	9969.97
231.978	9963.8
232.05	9951.81
232.122	9955.76
232.195	9934.18
232.267	9971.95
232.339	9947.91
232.412	10023.18
232.484	10003.47
232.556	9975.21
232.629	10050.05
232.701	10071.49
232.773	10091.47
232.846	10080.92
232.918	10097.16
232.99	10115.86
233.062	10165.48
233.135	10177.48
233.207	10135.18
233.279	10181.8
233.351	10217.3
233.424	10221.34
233.496	10197.59
233.568	10291.35
233.64	10257.92
233.713	10273.19
233.785	10271.31
233.857	10286.3
233.929	10233.46
234.001	10305.55
234.074	10382.12
234.146	10310.86
234.218	10309.7
234.29	10305.46
234.362	10295.2
234.434	10245.38
234.507	10211.66
234.579	10156.89
234.651	10138.92
234.723	10176.01
234.795	10198.75
234.867	10191.91
234.939	10259.12
235.012	10280.27
235.084	10281.33
235.156	10316.2
235.228	10306.76
235.3	10285.22
235.372	10297.12
235.444	10360.9
235.516	10276.52
235.588	10280.62
235.66	10291.55
235.732	10263.56
235.804	10472.64
235.876	10523.98
235.948	10597.13
236.02	10615.2
236.092	10632.44
236.164	10642.99
236.236	10652.1
236.308	10645.45
236.38	10677.49
236.452	10655.85
236.524	10683.12
236.596	10749.21
236.668	10788.67
236.74	10810.01
236.812	10848.65
236.884	10889.13
236.956	10900.89
237.028	10899.78
237.1	10887.74
237.172	10970.39
237.244	11057.61
237.316	10934.16
237.388	10912.81
237.46	10882.21
237.532	10949.24
237.604	10938.55
237.675	11020.57
237.747	11066.3
237.819	11055.03
237.891	11057.34
237.963	11043.51
238.035	11036.04
238.107	10917.43
238.178	10990.07
238.25	11001.2
238.322	11100.98
238.394	11054.52
238.466	11057.56
238.538	11100.44
238.609	11152.14
238.681	11094.94
238.753	11069.68
238.825	11098.5
238.897	11133.39
238.968	11220.58
239.04	11200.1
239.112	11326.02
239.184	11282.2
239.255	11283.65
239.327	11316.17
239.399	11345.96
239.471	11396.41
239.542	11432.94
239.614	11511.06
239.686	11414.28
239.758	11475.48
239.829	11429.11
239.901	11497.26
239.973	11512.48
240.044	11550.08
240.116	11554.66
240.188	11570.65
240.259	11585.5
240.331	11578.7
240.403	11627.23
240.474	11581.44
240.546	11578.21
240.618	11513.77
240.689	11521
240.761	11540.57
240.833	11623.76
240.904	11624.87
240.976	11628.48
241.048	11641.25
241.119	11678.32
241.191	11735.58
241.262	11803.26
241.334	11814.97
241.405	11822.78
241.477	11824.27
241.549	11838.44
241.62	11874.11
241.692	11921.97
241.763	11988.73
241.835	12002.09
241.906	12016.4
241.978	11985.27
242.049	12062.48
242.121	12130.06
242.192	12206.55
242.264	12173.92
242.335	12123.55
242.407	12172.18
242.478	12179.41
242.55	12206.41
242.621	12188.86
242.693	12190.4
242.764	12180.38
242.836	12179.89
242.907	12212.67
242.979	12256.15
243.05	12284.15
243.122	12309.75
243.193	12315.39
243.264	12236.92
243.336	12248.29
243.407	12291.49
243.479	12381.28
243.55	12395.36
243.622	12409.39
243.693	12405.87
243.764	12476.49
243.836	12448.73
243.907	12441.25
243.978	12445.06
244.05	12475.82
244.121	12431.13
244.192	12481.17
244.264	12427.04
244.335	12443.86
244.407	12400.67
244.478	12419.23
244.549	12409.35
244.62	12365.14
244.692	12361.05
244.763	12411.17
244.834	12401.44
244.906	12374.39
244.977	12395.85
245.048	12456.78
245.119	12436.48
245.191	12407.61
245.262	12346.2
245.333	12430.16
245.405	12443.28
245.476	12483.14
245.547	12508.01
245.618	12567.16
245.689	12572.89
245.761	12615.36
245.832	12622.01
245.903	12668.92
245.974	12696.54
246.045	12708.25
246.117	12795.89
246.188	12776.85
246.259	12765.13
246.33	12781.86
246.401	12799.12
246.473	12757.47
246.544	12734.67
246.615	12802.93
246.686	12816.23
246.757	12894.75
246.828	12868.87
246.899	12950.68
246.97	12914.52
247.042	12902.52
247.113	12956.61
247.184	13053.6
247.255	13051.86
247.326	13078.95
247.397	13083.68
247.468	13102.24
247.539	13121.81
247.61	13074.37
247.681	13130.77
247.752	13193.44
247.823	13165.58
247.894	13180.42
247.965	13155.94
248.037	13145.72
248.108	13084.5
248.179	13096.79
248.25	13089.7
248.321	13129.71
248.392	13080.83
248.463	13172.9
248.534	13171.65
248.605	13191.85
248.675	13163.12
248.746	13185.1
248.817	13207.66
248.888	13226.7
248.959	13170.88
249.03	13209.25
249.101	13224.1
249.172	13213.54
249.243	13135.84
249.314	13214.17
249.385	13223.71
249.456	13260.83
249.527	13251
249.598	13283.54
249.669	13281.75
249.739	13301.23
249.81	13320.66
249.881	13279.25
249.952	13275.25
250.023	13270.96
250.094	13208.87
250.165	13180.76
250.235	13173.14
250.306	13179.46
250.377	13144.8
250.448	13161.33
250.519	13076.97
250.59	13133.57
250.66	13127.49
250.731	13198.89
250.802	13193.39
250.873	13216.19
250.944	13240.58
251.014	13232.87
251.085	13327.93
251.156	13354.45
251.227	13404.77
251.297	13460.02
251.368	13516.8
251.439	13556.91
251.51	13612.2
251.58	13607.43
251.651	13604.73
251.722	13667.59
251.792	13613.55
251.863	13627.05
251.934	13705.05
252.005	13830.62
252.075	13839.16
252.146	13895.51
252.217	13954.51
252.287	14004.17
252.358	14007.64
252.429	14082.79
252.499	14081.63
252.57	14087.27
252.641	14151
252.711	14158.95
252.782	14110.6
252.852	14190.53
252.923	14193.56
252.994	14215.3
253.064	14267.08
253.135	14249.43
253.205	14220.51
253.276	14303.57
253.347	14368.46
253.417	14340.54
253.488	14319.24
253.558	14316.88
253.629	14312.83
253.699	14322.42
253.77	14353.75
253.841	14349.7
253.911	14360.21
253.982	14378.38
254.052	14405.52
254.123	14402.48
254.193	14410.34
254.264	14553.74
254.334	14516.43
254.405	14483.51
254.475	14453.82
254.546	14459.79
254.616	14526.61
254.687	14568.5
254.757	14596.02
254.827	14602.34
254.898	14633.09
254.968	14648.61
255.039	14628.56
255.109	14671.37
255.18	14653.34
255.25	14573.03
255.321	14613.91
255.391	14573.8
255.461	14664.81
255.532	14581.57
255.602	14583.2
255.673	14519.91
255.743	14487.28
255.813	14417.19
255.884	14468.91
255.954	14503.33
256.024	14571.59
256.095	14568.17
256.165	14530.95
256.235	14555.24
256.306	14536.01
256.376	14584.5
256.446	14626.78
256.517	14658.79
256.587	14706.27
256.657	14725.93
256.728	14753.51
256.798	14762.42
256.868	14765.9
256.938	14734.08
257.009	14792.7
257.079	14829.81
257.149	14939.24
257.219	14869.83
257.29	14913.5
257.36	14854.79
257.43	14900.34
257.5	14835.26
257.571	14829.04
257.641	14861
257.711	14823.36
257.781	14861.1
257.852	14881.44
257.922	14810.49
257.992	14815.02
258.062	14802.58
258.132	14841.72
258.202	14850.16
258.273	14860.04
258.343	14933.5
258.413	14926.37
258.483	14925.5
258.553	14887.23
258.623	14866.31
258.693	14894.8
258.764	14959.63
258.834	15037.34
258.904	15048.52
258.974	15046.06
259.044	15061.29
259.114	15089.59
259.184	15119.33
259.254	15126.32
259.324	15068.19
259.394	15129.17
259.464	15215.59
259.535	15226.29
259.605	15216.79
259.675	15202.96
259.745	15240.85
259.815	15217.85
259.885	15218.43
259.955	15341.82
260.025	15334.63
260.095	15343.89
260.165	15378.11
260.235	15452.87
260.305	15433.63
260.375	15406.54
260.445	15498.71
260.515	15568.5
260.585	15629.71
260.655	15641.86
260.725	15695.94
260.795	15737.25
260.865	15803
260.934	15773.84
261.004	15815.29
261.074	15825.36
261.144	15891.5
261.214	15934.3
261.284	15935.16
261.354	15982.06
261.424	15929.1
261.494	16011.19
261.564	16020.97
261.634	16054.71
261.703	15982.56
261.773	16012.69
261.843	16045.37
261.913	16031.29
261.983	15969.26
262.053	15984.83
262.123	15978.56
262.192	15927.9
262.262	15975.66
262.332	15919.47
262.402	15947.57
262.472	15950.65
262.541	15894.49
262.611	15941.05
