Data from 20250626_urea_1M_exp2_MAYP1162681_05-24-00-076.txt Node
Date: Fri Jun 27 05:24:00 BST 2025
User: adleo
Spectrometer: MAYP116268
Trigger mode: 0
Integration Time (sec): 3.000000E0
Scans to average: 1
Electric dark correction enabled: true
Nonlinearity correction enabled: true
Boxcar width: 10
XAxis mode: Wavelengths
Number of Pixels in Spectrum: 2068
>>>>>Begin Spectral Data<<<<<
179.565	2697.29
179.642	2832.82
179.718	2937.46
179.795	3043.95
179.871	3119.56
179.948	3168.15
180.024	3217.52
180.101	3275.18
180.177	3308.81
180.254	3366.74
180.33	3421.73
180.407	3603.59
180.483	3813.09
180.56	4028.53
180.636	4223.82
180.712	4195.49
180.789	4217.97
180.865	4251.14
180.942	4281.35
181.018	4310.53
181.095	4343.55
181.171	4352.54
181.248	4359.57
181.324	4404.89
181.4	4418.05
181.477	4446.28
181.553	4474.59
181.63	4531.05
181.706	4569.58
181.782	4597.41
181.859	4599.7
181.935	4613.54
182.011	4606.31
182.088	4646.56
182.164	4696.23
182.24	4727.66
182.317	4745.55
182.393	4740.43
182.469	4771.02
182.546	4799.69
182.622	4808.21
182.698	4798.35
182.775	4827.12
182.851	4859.96
182.927	4835.25
183.003	4820.08
183.08	4811.61
183.156	4839.04
183.232	4830.71
183.308	4804.57
183.385	4819.31
183.461	4860.16
183.537	4861.98
183.613	4899.18
183.69	4882.09
183.766	4851.71
183.842	4871.92
183.918	4893.27
183.995	4928.22
184.071	4943.36
184.147	4927.56
184.223	4905.55
184.299	4935.2
184.375	4912.36
184.452	4926.83
184.528	5028.2
184.604	5062.61
184.68	5090.58
184.756	5109.93
184.832	5118.56
184.908	5130.09
184.985	5128.17
185.061	5086.99
185.137	5110.37
185.213	5077.42
185.289	5075.75
185.365	5058.75
185.441	5053.24
185.517	5082.29
185.593	5072.47
185.669	5055.32
185.745	5081.95
185.822	5116.98
185.898	5098.59
185.974	5121.57
186.05	5099.48
186.126	5037.68
186.202	5016.18
186.278	5006.98
186.354	4981.4
186.43	4996.49
186.506	4993.09
186.582	4990.75
186.658	5004.53
186.734	4956.32
186.81	4967.42
186.886	4974.46
186.962	5000.6
187.038	4989.5
187.114	4969.03
187.19	4987.76
187.266	4971.58
187.341	4976.61
187.417	4964.21
187.493	4962.24
187.569	4972.88
187.645	4962.78
187.721	4934.65
187.797	4956.87
187.873	4963.91
187.949	4945.44
188.025	4932.93
188.101	4936.57
188.176	4951.36
188.252	4945.23
188.328	4965.23
188.404	4957.19
188.48	4946.28
188.556	4927.65
188.632	4933.68
188.707	4935.41
188.783	4929.85
188.859	4917.79
188.935	4888.52
189.011	4905.43
189.086	4892.41
189.162	4865.35
189.238	4858.22
189.314	4856.78
189.39	4838.63
189.465	4827.86
189.541	4870.24
189.617	4831.46
189.693	4819.59
189.768	4829.6
189.844	4883.45
189.92	4859.29
189.996	4883.24
190.071	4911.01
190.147	4915.27
190.223	4934.14
190.298	4915.51
190.374	4883.19
190.45	4909.89
190.526	4932.36
190.601	4921.05
190.677	4922.54
190.753	4995.06
190.828	5004.06
190.904	5036.25
190.98	5075.06
191.055	5095.8
191.131	5075.05
191.207	5129.79
191.282	5152.96
191.358	5127.39
191.433	5097.86
191.509	5132.12
191.585	5121.25
191.66	5123.5
191.736	5141.18
191.811	5120.2
191.887	5157.53
191.963	5214.44
192.038	5228.71
192.114	5230.58
192.189	5237.28
192.265	5232.21
192.34	5175.54
192.416	5173.24
192.491	5160.11
192.567	5170.71
192.642	5179.14
192.718	5182.92
192.793	5152.35
192.869	5144.17
192.944	5149.77
193.02	5161.84
193.095	5173
193.171	5192.31
193.246	5189.91
193.322	5180.05
193.397	5182.58
193.473	5147.03
193.548	5102.32
193.624	5114.87
193.699	5108.88
193.775	5146.13
193.85	5147.61
193.925	5167.64
194.001	5167.4
194.076	5148.43
194.152	5118.52
194.227	5099.11
194.302	5075.22
194.378	5079.97
194.453	5074.8
194.529	5107.71
194.604	5076.81
194.679	5063.26
194.755	5015.81
194.83	5050.18
194.905	5047.79
194.981	5068.91
195.056	5053.16
195.131	5068.3
195.207	5064.41
195.282	5043.34
195.357	4997.58
195.433	5034.26
195.508	5007.82
195.583	5029.23
195.659	5069.09
195.734	5081.65
195.809	5080.74
195.884	5097.92
195.96	5098.64
196.035	5135.19
196.11	5129.05
196.185	5158.37
196.261	5162.44
196.336	5237.07
196.411	5194.7
196.486	5206.87
196.561	5189.09
196.637	5218.11
196.712	5259.2
196.787	5264.61
196.862	5298.48
196.937	5319.55
197.013	5334.9
197.088	5356.79
197.163	5407.62
197.238	5450.86
197.313	5450.9
197.388	5481.1
197.464	5558.69
197.539	5590.32
197.614	5572.31
197.689	5593.98
197.764	5634.03
197.839	5687.14
197.914	5673.23
197.989	5734.51
198.065	5769.22
198.14	5895.75
198.215	5954.27
198.29	5982.3
198.365	6018.56
198.44	6046.47
198.515	6119.3
198.59	6154.91
198.665	6218.62
198.74	6237.11
198.815	6234.71
198.89	6294.97
198.965	6370.97
199.04	6360.46
199.115	6394.76
199.19	6501.98
199.265	6516.13
199.34	6538.41
199.415	6622.91
199.49	6675.22
199.565	6696.54
199.64	6754.3
199.715	6744.93
199.79	6763.23
199.865	6779.56
199.94	6771.06
200.015	6849.41
200.09	6861.99
200.165	6879.62
200.24	6898.54
200.315	6990.91
200.39	7030.4
200.464	7042.02
200.539	7047.64
200.614	7085.64
200.689	7147.62
200.764	7162.09
200.839	7202.42
200.914	7217.32
200.989	7191.3
201.063	7231.67
201.138	7188.09
201.213	7187.08
201.288	7137.64
201.363	7145.14
201.438	7137.6
201.512	7179.61
201.587	7135.06
201.662	7146.93
201.737	7177.54
201.812	7200.47
201.886	7127.08
201.961	7151.41
202.036	7123.89
202.111	7115.62
202.186	7045.11
202.26	6997.91
202.335	6941.07
202.41	6923.44
202.485	6879.27
202.559	6824.18
202.634	6754.77
202.709	6783.8
202.784	6736.26
202.858	6734.19
202.933	6688.15
203.008	6677.58
203.082	6634.13
203.157	6629.66
203.232	6525.38
203.306	6468.5
203.381	6380.24
203.456	6315.72
203.53	6255.89
203.605	6207.25
203.68	6147.13
203.754	6130.64
203.829	6088.5
203.904	6044.5
203.978	6017.57
204.053	6033.03
204.127	6002.48
204.202	5992.26
204.277	5943.28
204.351	5927.88
204.426	5909.5
204.5	5893.48
204.575	5807.27
204.65	5827.04
204.724	5805.34
204.799	5821.54
204.873	5814.97
204.948	5815.88
205.022	5788.99
205.097	5765.47
205.171	5799.51
205.246	5818.76
205.32	5820.34
205.395	5823.6
205.469	5801.99
205.544	5814.27
205.618	5766.06
205.693	5795.47
205.767	5768.33
205.842	5817.88
205.916	5802.11
205.991	5778.18
206.065	5791.08
206.14	5828.88
206.214	5820.28
206.289	5808.24
206.363	5837.59
206.438	5840.09
206.512	5858.32
206.586	5902.81
206.661	5926.14
206.735	5869.25
206.81	5868.62
206.884	5901.47
206.958	5870.59
207.033	5910.14
207.107	5927.47
207.181	6004.4
207.256	5992.36
207.33	6043.35
207.405	6081.25
207.479	6128.5
207.553	6148.84
207.628	6108.13
207.702	6140.37
207.776	6122.28
207.851	6131.06
207.925	6176.34
207.999	6170.72
208.073	6161.61
208.148	6171.4
208.222	6143.22
208.296	6220.37
208.371	6263.36
208.445	6285.2
208.519	6353.8
208.593	6385.67
208.668	6375.16
208.742	6384.34
208.816	6387.36
208.89	6418.1
208.965	6409.83
209.039	6432.31
209.113	6471.81
209.187	6525.33
209.261	6513.33
209.336	6566.86
209.41	6613.2
209.484	6605.42
209.558	6663.14
209.632	6697.75
209.707	6722.24
209.781	6776.69
209.855	6820.12
209.929	6861.72
210.003	6881.41
210.077	6883.71
210.151	7002.59
210.226	7086.98
210.3	7153.6
210.374	7211.74
210.448	7218.95
210.522	7245.58
210.596	7267.74
210.67	7294.59
210.744	7410.54
210.818	7489.88
210.892	7537.43
210.966	7523.88
211.041	7560.89
211.115	7552
211.189	7615.59
211.263	7658.89
211.337	7676.39
211.411	7714.57
211.485	7696.15
211.559	7724.69
211.633	7727.72
211.707	7646.75
211.781	7670.09
211.855	7577.06
211.929	7556.11
212.003	7515.57
212.077	7537.41
212.151	7570.06
212.225	7590.73
212.299	7558.06
212.373	7531.67
212.447	7520.56
212.52	7591.04
212.594	7598.5
212.668	7623.44
212.742	7588.92
212.816	7575.89
212.89	7558.49
212.964	7549.3
213.038	7559.4
213.112	7582.92
213.186	7619.06
213.26	7564.45
213.333	7444.76
213.407	7459.26
213.481	7470.12
213.555	7492.78
213.629	7459.94
213.703	7414.46
213.777	7403.78
213.85	7354.31
213.924	7435.69
213.998	7429.39
214.072	7409.62
214.146	7375.3
214.219	7366.98
214.293	7351.84
214.367	7352.03
214.441	7369.87
214.515	7332.89
214.588	7265.9
214.662	7182.24
214.736	7127.66
214.81	7138.99
214.883	7152.23
214.957	7119.29
215.031	7077.66
215.105	7010.92
215.178	6963.89
215.252	6937.23
215.326	6873.24
215.4	6814.39
215.473	6672.57
215.547	6606.8
215.621	6556.91
215.694	6552.2
215.768	6477.67
215.842	6425.82
215.915	6370.25
215.989	6292.11
216.063	6251.67
216.136	6239.14
216.21	6219.27
216.284	6224.89
216.357	6208.33
216.431	6178.96
216.504	6175.17
216.578	6211.32
216.652	6225.94
216.725	6211.93
216.799	6214.43
216.873	6198.59
216.946	6209.48
217.02	6190.06
217.093	6172.79
217.167	6107.77
217.24	6050.35
217.314	6022.98
217.387	5994.26
217.461	5968.98
217.535	5980.01
217.608	5937.17
217.682	5917.55
217.755	5929.73
217.829	5888.32
217.902	5874.31
217.976	5860.74
218.049	5830.95
218.123	5773.5
218.196	5774.27
218.27	5750
218.343	5700.05
218.417	5696.74
218.49	5674.39
218.563	5709.45
218.637	5716.5
218.71	5765.77
218.784	5782.85
218.857	5811.09
218.931	5827.15
219.004	5826.91
219.077	5843.61
219.151	5856.46
219.224	5849.98
219.298	5848.07
219.371	5879.78
219.444	5850.68
219.518	5865.35
219.591	5876.82
219.665	5958.96
219.738	5960.98
219.811	5947.7
219.885	5981.9
219.958	6004.79
220.031	6013.95
220.105	6025.23
220.178	6034.54
220.251	6014.14
220.325	6035.93
220.398	6043.8
220.471	6056.32
220.544	6086.35
220.618	6064.75
220.691	6084.23
220.764	6098.62
220.838	6113.12
220.911	6101.69
220.984	6167.41
221.057	6194.19
221.131	6213.71
221.204	6144.08
221.277	6199.19
221.35	6291.2
221.424	6283.81
221.497	6293.84
221.57	6307.9
221.643	6330.22
221.716	6360.72
221.79	6371.03
221.863	6376.17
221.936	6383.47
222.009	6398.77
222.082	6420.24
222.155	6438.23
222.229	6485.49
222.302	6505.45
222.375	6507.76
222.448	6542.09
222.521	6545.02
222.594	6541.99
222.667	6518.68
222.74	6563.37
222.814	6556.11
222.887	6543.14
222.96	6582.85
223.033	6612.63
223.106	6628.56
223.179	6649.85
223.252	6653.74
223.325	6672.99
223.398	6681.64
223.471	6706.61
223.544	6716.25
223.617	6727.83
223.69	6740.75
223.763	6712.93
223.837	6735.89
223.91	6762.88
223.983	6725.87
224.056	6704.79
224.129	6718.76
224.202	6762
224.275	6749.66
224.348	6726.61
224.42	6703.89
224.493	6665.67
224.566	6647.51
224.639	6663.98
224.712	6643.08
224.785	6636.02
224.858	6632.08
224.931	6618.72
225.004	6591.22
225.077	6593.81
225.15	6523.82
225.223	6520.7
225.296	6584.81
225.369	6535.07
225.442	6513.89
225.514	6523.78
225.587	6536.26
225.66	6543.56
225.733	6540.34
225.806	6546.15
225.879	6545.58
225.952	6522.06
226.025	6557.93
226.097	6596.99
226.17	6590.42
226.243	6542.03
226.316	6538.14
226.389	6535.79
226.461	6551.25
226.534	6563.83
226.607	6558.45
226.68	6621.71
226.753	6623.92
226.825	6562.4
226.898	6604.36
226.971	6603.64
227.044	6619.96
227.117	6631.92
227.189	6642.92
227.262	6671.31
227.335	6684.91
227.407	6682.6
227.48	6704.68
227.553	6713.38
227.626	6698.33
227.698	6706.54
227.771	6743.78
227.844	6733.51
227.916	6750.99
227.989	6722.08
228.062	6727.03
228.134	6786.98
228.207	6790.35
228.28	6778.44
228.352	6785.55
228.425	6794.58
228.498	6830.65
228.57	6820.52
228.643	6854.78
228.716	6860.89
228.788	6850.65
228.861	6848.39
228.934	6893.25
229.006	6900.93
229.079	6902.66
229.151	6893.73
229.224	6871.11
229.296	6887.88
229.369	6960.79
229.442	6994.96
229.514	6984.83
229.587	7015
229.659	6963.06
229.732	6970.94
229.804	7004.37
229.877	7063.25
229.949	7084.01
230.022	7120.55
230.094	7120.26
230.167	7112.67
230.239	7080.2
230.312	7069.53
230.384	7116.02
230.457	7121.21
230.529	7132.69
230.602	7130.09
230.674	7133.75
230.747	7162.65
230.819	7179.76
230.892	7097.44
230.964	7099.46
231.037	7126.2
231.109	7121.87
231.181	7158.24
231.254	7132.1
231.326	7118.51
231.399	7105.57
231.471	7086.92
231.544	7022.37
231.616	7056.42
231.688	7059.69
231.761	7053.26
231.833	7049.75
231.905	6989.63
231.978	6983.96
232.05	6967.29
232.122	6974.55
232.195	6962.68
232.267	6989.83
232.339	6977.62
232.412	7025.47
232.484	7004.94
232.556	6982.09
232.629	7032.57
232.701	7037.95
232.773	7043.91
232.846	7037.62
232.918	7034.73
232.99	7050.45
233.062	7091.58
233.135	7101.09
233.207	7082.69
233.279	7110.11
233.351	7135.48
233.424	7141.72
233.496	7125.48
233.568	7188.77
233.64	7161.63
233.713	7176.52
233.785	7174.31
233.857	7182.62
233.929	7138.57
234.001	7187.43
234.074	7235.7
234.146	7176.28
234.218	7176.04
234.29	7178.1
234.362	7175.7
234.434	7138.07
234.507	7112.89
234.579	7068.3
234.651	7051.72
234.723	7070.7
234.795	7083.29
234.867	7075.94
234.939	7112.8
235.012	7120.58
235.084	7119.67
235.156	7144.03
235.228	7124.33
235.3	7112.02
235.372	7118.08
235.444	7164.92
235.516	7102.56
235.588	7103.18
235.66	7113.18
235.732	7092.42
235.804	7235.44
235.876	7262.59
235.948	7317.29
236.02	7321.76
236.092	7336.79
236.164	7343.42
236.236	7341.69
236.308	7339.05
236.38	7365.53
236.452	7353.75
236.524	7372.45
236.596	7418.73
236.668	7443.92
236.74	7459.87
236.812	7475.69
236.884	7501.7
236.956	7515.16
237.028	7510.12
237.1	7503.63
237.172	7564.94
237.244	7624.6
237.316	7536.23
237.388	7520.28
237.46	7501.23
237.532	7547.62
237.604	7537.34
237.675	7594.18
237.747	7629.76
237.819	7622.84
237.891	7618.08
237.963	7608.37
238.035	7606.69
238.107	7527.47
238.178	7571.3
238.25	7580.19
238.322	7648.4
238.394	7618.16
238.466	7612.15
238.538	7648.97
238.609	7676.46
238.681	7632.45
238.753	7610.9
238.825	7626.83
238.897	7657.15
238.968	7713.82
239.04	7696.94
239.112	7785.03
239.184	7755.2
239.255	7745.06
239.327	7773.65
239.399	7787.64
239.471	7825.53
239.542	7851.2
239.614	7905.06
239.686	7851.28
239.758	7890.13
239.829	7860.73
239.901	7907.23
239.973	7917.14
240.044	7938.15
240.116	7947.43
240.188	7957.24
240.259	7968.78
240.331	7960.27
240.403	7983.25
240.474	7950.58
240.546	7949.76
240.618	7903.15
240.689	7899.45
240.761	7922.54
240.833	7968.53
240.904	7974.11
240.976	7974.59
241.048	7984.54
241.119	8008.61
241.191	8038.33
241.262	8090.4
241.334	8094.97
241.405	8088.62
241.477	8093.86
241.549	8101.18
241.62	8121.48
241.692	8155.29
241.763	8198.21
241.835	8217.46
241.906	8233.09
241.978	8211.11
242.049	8257.19
242.121	8297.55
242.192	8350.8
242.264	8319.49
242.335	8283.5
242.407	8315.26
242.478	8315.45
242.55	8326.08
242.621	8312.13
242.693	8315.4
242.764	8304.42
242.836	8307.74
242.907	8333.34
242.979	8362.25
243.05	8382.75
243.122	8401.13
243.193	8399.74
243.264	8347.34
243.336	8346.91
243.407	8374.34
243.479	8430.44
243.55	8443.53
243.622	8460.42
243.693	8460.32
243.764	8517.05
243.836	8504.59
243.907	8492.9
243.978	8499.44
244.05	8522.59
244.121	8489.88
244.192	8513.07
244.264	8474.67
244.335	8483.76
244.407	8447.87
244.478	8448.06
244.549	8434.64
244.62	8398.12
244.692	8394.7
244.763	8430.69
244.834	8421.3
244.906	8399.45
244.977	8416.3
245.048	8455.35
245.119	8432.3
245.191	8407.81
245.262	8358.2
245.333	8410.2
245.405	8420.16
245.476	8443.98
245.547	8450.23
245.618	8490.89
245.689	8498.97
245.761	8530.88
245.832	8533.77
245.903	8575.48
245.974	8597.09
246.045	8610.38
246.117	8676.69
246.188	8668.27
246.259	8659.42
246.33	8675.64
246.401	8682.57
246.473	8656.67
246.544	8646.7
246.615	8695.03
246.686	8710.18
246.757	8773.7
246.828	8756.09
246.899	8818.49
246.97	8791.45
247.042	8790.34
247.113	8820.67
247.184	8887.27
247.255	8882.75
247.326	8908.94
247.397	8914.18
247.468	8922.56
247.539	8933.34
247.61	8897.82
247.681	8928.27
247.752	8969.81
247.823	8947.97
247.894	8963.66
247.965	8947.11
248.037	8936.27
248.108	8896.7
248.179	8898.2
248.25	8878.99
248.321	8903
248.392	8863.37
248.463	8930.46
248.534	8929.11
248.605	8938.65
248.675	8922.17
248.746	8940.18
248.817	8946.53
248.888	8961.36
248.959	8921.56
249.03	8933.88
249.101	8939.99
249.172	8931.43
249.243	8871.08
249.314	8921.57
249.385	8929.27
249.456	8946.35
249.527	8943.94
249.598	8962.91
249.669	8964.4
249.739	8981.2
249.81	8987.79
249.881	8963.39
249.952	8950.78
250.023	8946.93
250.094	8917.51
250.165	8893.81
250.235	8884.52
250.306	8890.39
250.377	8866.66
250.448	8891.83
250.519	8846.11
250.59	8885.78
250.66	8883.76
250.731	8936.55
250.802	8937.17
250.873	8945.89
250.944	8963.75
251.014	8955.76
251.085	9018.36
251.156	9035.21
251.227	9068.77
251.297	9115.19
251.368	9146.19
251.439	9178.31
251.51	9218.42
251.58	9207.3
251.651	9198.63
251.722	9241.92
251.792	9205.43
251.863	9201.2
251.934	9244.48
252.005	9335.09
252.075	9338.32
252.146	9378.66
252.217	9413.86
252.287	9446.17
252.358	9454.41
252.429	9511.77
252.499	9504.07
252.57	9513.27
252.641	9546.01
252.711	9551.21
252.782	9515.29
252.852	9576.21
252.923	9576.79
252.994	9588.59
253.064	9624.99
253.135	9610.69
253.205	9592.05
253.276	9647.42
253.347	9705.2
253.417	9684.83
253.488	9663.3
253.558	9669.66
253.629	9662.82
253.699	9672.93
253.77	9686.42
253.841	9678.72
253.911	9684.21
253.982	9703.56
254.052	9726.45
254.123	9736.95
254.193	9736.37
254.264	9837.25
254.334	9809.88
254.405	9790.57
254.475	9766.4
254.546	9767.84
254.616	9814.26
254.687	9834.15
254.757	9843.21
254.827	9836.66
254.898	9857.8
254.968	9865.99
255.039	9845.04
255.109	9870.51
255.18	9847.63
255.25	9800.24
255.321	9815.07
255.391	9782.08
255.461	9846.72
255.532	9783.46
255.602	9781.1
255.673	9749.41
255.743	9718.19
255.813	9666.38
255.884	9695.18
255.954	9719.65
256.024	9772.34
256.095	9774.75
256.165	9752.74
256.235	9771.05
256.306	9757.81
256.376	9790.42
256.446	9818.5
256.517	9843.5
256.587	9882.13
256.657	9902.89
256.728	9920.04
256.798	9936.08
256.868	9934.53
256.938	9907.41
257.009	9950.47
257.079	9969.6
257.149	10040.79
257.219	10002.06
257.29	10033.88
257.36	9991.55
257.43	10020.84
257.5	9967.9
257.571	9961.06
257.641	9988.85
257.711	9968.48
257.781	9992.32
257.852	10009.95
257.922	9973
257.992	9975.17
258.062	9967.32
258.132	9994.2
258.202	9999.16
258.273	10009.76
258.343	10069.01
258.413	10058.9
258.483	10058.13
258.553	10037.8
258.623	10017.23
258.693	10039.34
258.764	10089.43
258.834	10145.78
258.904	10155.18
258.974	10143.86
259.044	10161.16
259.114	10178.98
259.184	10196.71
259.254	10203.79
259.324	10163.08
259.394	10194.73
259.464	10251.39
259.535	10256.25
259.605	10257.7
259.675	10250.67
259.745	10277.41
259.815	10257.8
259.885	10264.64
259.955	10348.49
260.025	10346.62
260.095	10357.7
260.165	10382.61
260.235	10424.82
260.305	10411.91
260.375	10394.61
260.445	10470.67
260.515	10516.98
260.585	10556.15
260.655	10568.44
260.725	10606.98
260.795	10639.07
260.865	10690.97
260.934	10665.81
261.004	10685.14
261.074	10684.61
261.144	10735.09
261.214	10758.94
261.284	10755.14
261.354	10782.16
261.424	10750.88
261.494	10797.76
261.564	10808.5
261.634	10828.16
261.703	10783.69
261.773	10805.51
261.843	10827.1
261.913	10818.62
261.983	10774.04
262.053	10794
262.123	10790.62
262.192	10762.44
262.262	10785.23
262.332	10753.33
262.402	10781.18
262.472	10797.86
262.541	10759.41
262.611	10792.42
262.681	10777.48
262.751	10809.19
262.821	10812.99
262.89	10783.55
262.96	10808.8
263.03	10860.03
263.1	10879.07
263.169	10896.08
263.239	10923.78
263.309	10980.7
263.379	11005.13
263.448	11025.95
263.518	11042.19
263.588	11059.44
263.657	11111.2
263.727	11144.06
263.797	11148.93
263.867	11154.43
263.936	11124.93
264.006	11170.17
264.076	11160.53
264.145	11157.26
264.215	11145.16
264.285	11179.42
264.354	11149.21
264.424	11139.33
264.494	11105.69
