Data from 20250626_urea_1M_exp2_MAYP1162681_06-13-59-816.txt Node
Date: Fri Jun 27 06:13:59 BST 2025
User: adleo
Spectrometer: MAYP116268
Trigger mode: 0
Integration Time (sec): 3.000000E0
Scans to average: 1
Electric dark correction enabled: true
Nonlinearity correction enabled: true
Boxcar width: 10
XAxis mode: Wavelengths
Number of Pixels in Spectrum: 2068
>>>>>Begin Spectral Data<<<<<
179.565	2758.38
179.642	2895.14
179.718	2993.1
179.795	3097.08
179.871	3174.53
179.948	3227.63
180.024	3280.67
180.101	3339.04
180.177	3375.46
180.254	3432.09
180.33	3486.39
180.407	3671.35
180.483	3888.65
180.56	4106.73
180.636	4307.27
180.712	4279.23
180.789	4298.18
180.865	4321.93
180.942	4342.54
181.018	4366.84
181.095	4399
181.171	4412.16
181.248	4417.42
181.324	4461.93
181.4	4474.99
181.477	4506.76
181.553	4532.92
181.63	4582.17
181.706	4619.41
181.782	4639.06
181.859	4641.69
181.935	4662.57
182.011	4657.97
182.088	4694.74
182.164	4739.28
182.24	4771.77
182.317	4795.08
182.393	4789
182.469	4828.82
182.546	4864.92
182.622	4872.05
182.698	4863.76
182.775	4893.01
182.851	4928.59
182.927	4904.56
183.003	4894.7
183.08	4878.57
183.156	4904.18
183.232	4898.24
183.308	4871.24
183.385	4891.19
183.461	4928.6
183.537	4922.85
183.613	4949.33
183.69	4929.26
183.766	4901.23
183.842	4919
183.918	4933.32
183.995	4966.02
184.071	4974.5
184.147	4958.36
184.223	4934.44
184.299	4959.59
184.375	4939.09
184.452	4951.46
184.528	5058.53
184.604	5088.84
184.68	5121.59
184.756	5135.87
184.832	5150.15
184.908	5163.98
184.985	5161.78
185.061	5124.95
185.137	5148.81
185.213	5124.53
185.289	5127.5
185.365	5114.81
185.441	5104.99
185.517	5136.67
185.593	5129.82
185.669	5119.48
185.745	5147.79
185.822	5191.01
185.898	5172.47
185.974	5188.56
186.05	5171.35
186.126	5105.75
186.202	5088.37
186.278	5072.23
186.354	5051.29
186.43	5065.43
186.506	5059.26
186.582	5059.97
186.658	5075.87
186.734	5027.51
186.81	5033.4
186.886	5041.1
186.962	5066.68
187.038	5060.07
187.114	5038.74
187.19	5053.64
187.266	5035.3
187.341	5033.52
187.417	5013.03
187.493	5013.74
187.569	5025.24
187.645	5009.58
187.721	4984.96
187.797	5005.26
187.873	5020.06
187.949	5001.2
188.025	4982.13
188.101	4991.8
188.176	5003.96
188.252	4993.38
188.328	5013.72
188.404	5011.04
188.48	5000.41
188.556	4982.78
188.632	4982.35
188.707	4986.81
188.783	4982.11
188.859	4974.98
188.935	4951.03
189.011	4971.77
189.086	4950.99
189.162	4927.42
189.238	4921.58
189.314	4915.84
189.39	4898.88
189.465	4884.8
189.541	4928.53
189.617	4893.58
189.693	4883.67
189.768	4892.39
189.844	4954.78
189.92	4930.23
189.996	4953.65
190.071	4979.08
190.147	4977.89
190.223	5004.38
190.298	4984.59
190.374	4954.28
190.45	4976.68
190.526	5001.45
190.601	4986.03
190.677	4995.7
190.753	5072.07
190.828	5080.16
190.904	5120.07
190.98	5162.1
191.055	5177.76
191.131	5158.64
191.207	5210.37
191.282	5230.38
191.358	5209.31
191.433	5173.01
191.509	5210.25
191.585	5202.63
191.66	5205.7
191.736	5229.75
191.811	5204.21
191.887	5244.18
191.963	5301.24
192.038	5314.71
192.114	5311.78
192.189	5323.66
192.265	5314.66
192.34	5250.84
192.416	5248.16
192.491	5235.4
192.567	5242.07
192.642	5255.92
192.718	5256.07
192.793	5223.91
192.869	5214.34
192.944	5216.39
193.02	5232.21
193.095	5238.58
193.171	5255.64
193.246	5254.49
193.322	5247.88
193.397	5250.18
193.473	5216.57
193.548	5169.61
193.624	5186.44
193.699	5181.17
193.775	5219.95
193.85	5224.93
193.925	5249.03
194.001	5247.35
194.076	5224.17
194.152	5190.66
194.227	5169.24
194.302	5146.59
194.378	5157.46
194.453	5150.14
194.529	5182.38
194.604	5145.54
194.679	5134.09
194.755	5087.35
194.83	5116.03
194.905	5106.3
194.981	5131.6
195.056	5115.8
195.131	5136.3
195.207	5127.09
195.282	5103
195.357	5057.47
195.433	5091.95
195.508	5062.63
195.583	5085.76
195.659	5124.68
195.734	5140.92
195.809	5141.59
195.884	5160.89
195.96	5160.74
196.035	5200.55
196.11	5195.76
196.185	5225.6
196.261	5228.29
196.336	5303.46
196.411	5268.94
196.486	5283.8
196.561	5261.23
196.637	5280.81
196.712	5319.89
196.787	5330.15
196.862	5371.26
196.937	5394.35
197.013	5413.43
197.088	5439.35
197.163	5488.08
197.238	5531.51
197.313	5529.98
197.388	5562.43
197.464	5641.37
197.539	5670.04
197.614	5652.06
197.689	5676.38
197.764	5719.21
197.839	5771.32
197.914	5757.12
197.989	5815.88
198.065	5850.54
198.14	5980.96
198.215	6048.45
198.29	6073.56
198.365	6106.08
198.44	6131.99
198.515	6203.3
198.59	6237.76
198.665	6302.69
198.74	6322.52
198.815	6321.51
198.89	6378.22
198.965	6454.47
199.04	6443.38
199.115	6481.96
199.19	6586.31
199.265	6598.26
199.34	6621.26
199.415	6708.94
199.49	6761.45
199.565	6779.99
199.64	6838.81
199.715	6831.55
199.79	6844.52
199.865	6860.51
199.94	6853.41
200.015	6932.92
200.09	6944.26
200.165	6960.49
200.24	6975.96
200.315	7074.87
200.39	7112.49
200.464	7127.58
200.539	7123.97
200.614	7161.39
200.689	7222.23
200.764	7241.27
200.839	7276.71
200.914	7294.05
200.989	7262.46
201.063	7299.47
201.138	7255.73
201.213	7253.14
201.288	7201.49
201.363	7215.61
201.438	7215.66
201.512	7259.6
201.587	7215.14
201.662	7224.95
201.737	7254.02
201.812	7278.97
201.886	7198.65
201.961	7224.71
202.036	7192.54
202.111	7190.42
202.186	7113.33
202.26	7067.38
202.335	7009.23
202.41	6999.19
202.485	6949.39
202.559	6905.58
202.634	6835.59
202.709	6858.43
202.784	6810.6
202.858	6808.58
202.933	6758.78
203.008	6740.87
203.082	6690.55
203.157	6688.86
203.232	6578.19
203.306	6525.01
203.381	6434.91
203.456	6377.64
203.53	6320.82
203.605	6279.19
203.68	6219.25
203.754	6207.51
203.829	6169.97
203.904	6118.58
203.978	6089.44
204.053	6104.99
204.127	6072.41
204.202	6064.98
204.277	6022.43
204.351	6011
204.426	5993.34
204.5	5976.65
204.575	5890.34
204.65	5914.15
204.724	5891.72
204.799	5914.2
204.873	5901.86
204.948	5901.82
205.022	5867.78
205.097	5839.88
205.171	5869.04
205.246	5891.17
205.32	5886.95
205.395	5884.84
205.469	5862.94
205.544	5877.97
205.618	5829.37
205.693	5856.72
205.767	5825.45
205.842	5877.85
205.916	5859.05
205.991	5835.11
206.065	5847.68
206.14	5888.07
206.214	5875.25
206.289	5854.13
206.363	5881.71
206.438	5893.62
206.512	5914.82
206.586	5963.69
206.661	5988.84
206.735	5934.87
206.81	5930.93
206.884	5970.01
206.958	5937.74
207.033	5978.73
207.107	5989.96
207.181	6072.8
207.256	6061.43
207.33	6115.49
207.405	6145.28
207.479	6191.48
207.553	6212.54
207.628	6172.55
207.702	6201.14
207.776	6186.93
207.851	6197.35
207.925	6240.8
207.999	6231.3
208.073	6220.65
208.148	6230.2
208.222	6196.93
208.296	6280
208.371	6326.07
208.445	6347.38
208.519	6416.09
208.593	6448.96
208.668	6441.14
208.742	6444.31
208.816	6440.09
208.89	6474.43
208.965	6472.36
209.039	6490.81
209.113	6529.17
209.187	6585.47
209.261	6576.11
209.336	6625.14
209.41	6674.41
209.484	6673.88
209.558	6734.21
209.632	6770.64
209.707	6799.51
209.781	6858.19
209.855	6903.07
209.929	6946.06
210.003	6970.08
210.077	6972.48
210.151	7089.77
210.226	7173.98
210.3	7240.64
210.374	7305.71
210.448	7312.87
210.522	7337.87
210.596	7361.85
210.67	7387.6
210.744	7503.61
210.818	7582.48
210.892	7638.83
210.966	7625.81
211.041	7659.94
211.115	7642.93
211.189	7704.79
211.263	7747.72
211.337	7761.9
211.411	7791.91
211.485	7772.67
211.559	7799.3
211.633	7802.18
211.707	7730.59
211.781	7752.97
211.855	7666.51
211.929	7644.84
212.003	7600.41
212.077	7623.73
212.151	7658.98
212.225	7678.98
212.299	7649.92
212.373	7622.86
212.447	7599.72
212.52	7672.42
212.594	7685.98
212.668	7714.2
212.742	7674.91
212.816	7661.98
212.89	7650.68
212.964	7643.13
213.038	7656.36
213.112	7687.43
213.186	7725.69
213.26	7666.69
213.333	7549.97
213.407	7558.38
213.481	7564.58
213.555	7589.02
213.629	7556.61
213.703	7515.2
213.777	7506.26
213.85	7451.59
213.924	7529.7
213.998	7534.46
214.072	7511.08
214.146	7468.29
214.219	7457.23
214.293	7442.33
214.367	7437.43
214.441	7453
214.515	7418.05
214.588	7348.3
214.662	7253.14
214.736	7192.22
214.81	7206.57
214.883	7224.19
214.957	7195.76
215.031	7156.77
215.105	7093.32
215.178	7049.65
215.252	7020.05
215.326	6956.44
215.4	6899.26
215.473	6765.89
215.547	6699.53
215.621	6653.39
215.694	6652.19
215.768	6582.31
215.842	6538.28
215.915	6491.58
215.989	6407.34
216.063	6369.43
216.136	6354.02
216.21	6343.18
216.284	6351.67
216.357	6332.23
216.431	6299.54
216.504	6295.94
216.578	6338.97
216.652	6347.22
216.725	6330.99
216.799	6336.7
216.873	6317.46
216.946	6319.72
217.02	6297.66
217.093	6277.17
217.167	6208.63
217.24	6148.86
217.314	6121.77
217.387	6089.69
217.461	6051.01
217.535	6071.02
217.608	6018.96
217.682	6000.49
217.755	6003.56
217.829	5966.36
217.902	5956.77
217.976	5944.44
218.049	5910.09
218.123	5850.18
218.196	5849.94
218.27	5820.2
218.343	5769.75
218.417	5770.62
218.49	5756.99
218.563	5785.82
218.637	5794.36
218.71	5846.42
218.784	5862.59
218.857	5892.65
218.931	5906.56
219.004	5912.84
219.077	5926.67
219.151	5942.34
219.224	5937.45
219.298	5934.38
219.371	5963.84
219.444	5934.21
219.518	5939.39
219.591	5945.72
219.665	6028.84
219.738	6038.44
219.811	6028.51
219.885	6063.4
219.958	6088.74
220.031	6092.24
220.105	6106.78
220.178	6113.98
220.251	6095.59
220.325	6119.79
220.398	6130.3
220.471	6143.92
220.544	6172.86
220.618	6155.67
220.691	6175.53
220.764	6191.03
220.838	6212.63
220.911	6205.14
220.984	6265.06
221.057	6294.24
221.131	6314.44
221.204	6239.46
221.277	6291.94
221.35	6382.95
221.424	6375.75
221.497	6382.33
221.57	6403.2
221.643	6432.21
221.716	6465.58
221.79	6472.4
221.863	6474.32
221.936	6479.65
222.009	6491.98
222.082	6515.47
222.155	6523.82
222.229	6573.96
222.302	6593.45
222.375	6599.11
222.448	6627.25
222.521	6634.22
222.594	6634.6
222.667	6621.55
222.74	6667.11
222.814	6661.87
222.887	6653.13
222.96	6691.6
223.033	6730.13
223.106	6746.4
223.179	6767.55
223.252	6772.16
223.325	6787.52
223.398	6807.85
223.471	6825.66
223.544	6838.67
223.617	6849.1
223.69	6865.57
223.763	6841.88
223.837	6864.89
223.91	6886.26
223.983	6851.74
224.056	6829.03
224.129	6845.93
224.202	6883.32
224.275	6872.52
224.348	6850.28
224.42	6828.23
224.493	6786.49
224.566	6764.1
224.639	6777.69
224.712	6753.47
224.785	6741.65
224.858	6740.11
224.931	6719.98
225.004	6691.66
225.077	6697.18
225.15	6626.46
225.223	6626.22
225.296	6684.72
225.369	6631.86
225.442	6608.37
225.514	6619.84
225.587	6632.8
225.66	6637.27
225.733	6636.55
225.806	6638.28
225.879	6630.88
225.952	6598.48
226.025	6638.05
226.097	6668.48
226.17	6663.77
226.243	6618.5
226.316	6616.43
226.389	6617.92
226.461	6636.03
226.534	6659.51
226.607	6651.1
226.68	6710.19
226.753	6703.81
226.825	6641.47
226.898	6686.93
226.971	6690.2
227.044	6710.85
227.117	6716.85
227.189	6732.66
227.262	6762.06
227.335	6781.76
227.407	6783.34
227.48	6807.87
227.553	6811.71
227.626	6802.96
227.698	6807.28
227.771	6838.92
227.844	6828.06
227.916	6844.3
227.989	6817.88
228.062	6814.23
228.134	6880.2
228.207	6884.86
228.28	6882.17
228.352	6894.13
228.425	6902.2
228.498	6937.76
228.57	6928.92
228.643	6969.81
228.716	6968.37
228.788	6962.89
228.861	6955.45
228.934	7005.6
229.006	7016.84
229.079	7025.34
229.151	7017.99
229.224	6994.7
229.296	7007.72
229.369	7080.49
229.442	7117.94
229.514	7107.13
229.587	7142.25
229.659	7083.72
229.732	7090.93
229.804	7123.26
229.877	7185.52
229.949	7207.15
230.022	7246.97
230.094	7243.61
230.167	7240.19
230.239	7214.39
230.312	7203.44
230.384	7260.17
230.457	7254.36
230.529	7265.12
230.602	7264.49
230.674	7269.97
230.747	7301.04
230.819	7329.25
230.892	7243.9
230.964	7245.1
231.037	7264.12
231.109	7255.56
231.181	7289.67
231.254	7268.72
231.326	7257.62
231.399	7240.93
231.471	7219.01
231.544	7159.4
231.616	7191.34
231.688	7195.81
231.761	7182.85
231.833	7172.33
231.905	7105.84
231.978	7107.72
232.05	7093.84
232.122	7092.54
232.195	7076.78
232.267	7101.72
232.339	7084.75
232.412	7142.93
232.484	7120.48
232.556	7099.4
232.629	7153.16
232.701	7166.86
232.773	7175.65
232.846	7162.68
232.918	7164.31
232.99	7180.89
233.062	7206.89
233.135	7214.78
233.207	7184.4
233.279	7219.56
233.351	7244.59
233.424	7254.58
233.496	7235.55
233.568	7294.48
233.64	7267.14
233.713	7275.6
233.785	7281.37
233.857	7292.85
233.929	7245.76
234.001	7291.79
234.074	7345.97
234.146	7290.73
234.218	7287.02
234.29	7285.01
234.362	7286.01
234.434	7249.38
234.507	7221.12
234.579	7185.42
234.651	7175.33
234.723	7199.93
234.795	7212.81
234.867	7211.18
234.939	7247.86
235.012	7259.58
235.084	7261.6
235.156	7287.3
235.228	7276.93
235.3	7258.28
235.372	7262.41
235.444	7310.84
235.516	7254.01
235.588	7258.24
235.66	7269.48
235.732	7252.47
235.804	7396.04
235.876	7427.27
235.948	7469.15
236.02	7482.74
236.092	7494.08
236.164	7502.93
236.236	7502.49
236.308	7504.85
236.38	7527.3
236.452	7512.54
236.524	7527.63
236.596	7575.03
236.668	7605.17
236.74	7625.4
236.812	7645.35
236.884	7675.6
236.956	7683.49
237.028	7680.7
237.1	7668.83
237.172	7724.33
237.244	7776.35
237.316	7690.23
237.388	7677.4
237.46	7664.51
237.532	7710.04
237.604	7701.44
237.675	7752.62
237.747	7781.95
237.819	7766.38
237.891	7766.86
237.963	7765.75
238.035	7760.71
238.107	7682.39
238.178	7732.72
238.25	7738.68
238.322	7808.74
238.394	7774.64
238.466	7771.33
238.538	7799.88
238.609	7824.25
238.681	7776.2
238.753	7764.22
238.825	7779.72
238.897	7805.24
238.968	7868.61
239.04	7860.24
239.112	7949.2
239.184	7917.88
239.255	7919.37
239.327	7948.51
239.399	7965.05
239.471	7997.89
239.542	8032.28
239.614	8077.29
239.686	8013.73
239.758	8054.18
239.829	8024.05
239.901	8072.1
239.973	8083.64
240.044	8114.66
240.116	8126.64
240.188	8142.22
240.259	8149.72
240.331	8144.81
240.403	8170.35
240.474	8133.73
240.546	8119.44
240.618	8079.22
240.689	8079.65
240.761	8099.24
240.833	8151.68
240.904	8148.07
240.976	8148.55
241.048	8153.94
241.119	8185.22
241.191	8222.45
241.262	8266.69
241.334	8270.1
241.405	8276.41
241.477	8285.12
241.549	8286.51
241.62	8303.01
241.692	8338.42
241.763	8382.17
241.835	8395.16
241.906	8408.25
241.978	8381.69
242.049	8441.16
242.121	8484.22
242.192	8533.3
242.264	8500.87
242.335	8458.91
242.407	8498.46
242.478	8502.41
242.55	8517.57
242.621	8507.79
242.693	8506.64
242.764	8504.62
242.836	8511.11
242.907	8529.36
242.979	8552.98
243.05	8574.06
243.122	8594.22
243.193	8590.23
243.264	8544.95
243.336	8548.7
243.407	8575.22
243.479	8641.62
243.55	8653.8
243.622	8661.99
243.693	8666.85
243.764	8725.36
243.836	8712.33
243.907	8708.29
243.978	8707.47
244.05	8722.63
244.121	8689.53
244.192	8720.91
244.264	8682.01
244.335	8690.87
244.407	8657.18
244.478	8664.4
244.549	8661.32
244.62	8628.89
244.692	8628.26
244.763	8656.84
244.834	8655.16
244.906	8638.07
244.977	8650.59
245.048	8688.01
245.119	8669.91
245.191	8648.83
245.262	8605.28
245.333	8664.94
245.405	8677.4
245.476	8707.72
245.547	8721.87
245.618	8766.82
245.689	8768.36
245.761	8794.4
245.832	8796.32
245.903	8831.41
245.974	8851.63
246.045	8858.61
246.117	8930.23
246.188	8919.17
246.259	8913.63
246.33	8919.99
246.401	8933.85
246.473	8913.53
246.544	8897.2
246.615	8945.2
246.686	8956.08
246.757	9010.37
246.828	8992.17
246.899	9045.44
246.97	9020.27
247.042	9020.27
247.113	9042.99
247.184	9115.48
247.255	9115.77
247.326	9138.93
247.397	9140.71
247.468	9145.72
247.539	9153.76
247.61	9112.59
247.681	9152.54
247.752	9190.08
247.823	9176.46
247.894	9180.89
247.965	9154.86
248.037	9148.74
248.108	9110.7
248.179	9111.96
248.25	9103.63
248.321	9126.39
248.392	9088.44
248.463	9150.4
248.534	9149.96
248.605	9170.09
248.675	9149.33
248.746	9166.71
248.817	9178.75
248.888	9196.27
248.959	9160.03
249.03	9179.09
249.101	9184.05
249.172	9166.72
249.243	9112.57
249.314	9157.73
249.385	9164.61
249.456	9185.65
249.527	9182.52
249.598	9197.39
249.669	9197.82
249.739	9205.72
249.81	9216.55
249.881	9185.17
249.952	9177.32
250.023	9177.03
250.094	9137.73
250.165	9117.64
250.235	9109.8
250.306	9115.05
250.377	9095.02
250.448	9118.12
250.519	9074.36
250.59	9119.1
250.66	9124.63
250.731	9175.41
250.802	9177.53
250.873	9196.45
250.944	9215.66
251.014	9206.27
251.085	9280.21
251.156	9302.5
251.227	9339.63
251.297	9378.45
251.368	9417.11
251.439	9445.91
251.51	9483.86
251.58	9474.18
251.651	9466.09
251.722	9507.36
251.792	9474.81
251.863	9463.55
251.934	9509.78
252.005	9594.09
252.075	9602.48
252.146	9635.84
252.217	9676.83
252.287	9703.03
252.358	9713.72
252.429	9768.97
252.499	9765.07
252.57	9768.73
252.641	9803.26
252.711	9814.01
252.782	9783.23
252.852	9845.03
252.923	9844.65
252.994	9856.79
253.064	9893.09
253.135	9880.91
253.205	9863.91
253.276	9912.45
253.347	9975.05
253.417	9952.99
253.488	9936.66
253.558	9930.49
253.629	9928.37
253.699	9933.24
253.77	9962.48
253.841	9948.37
253.911	9951.94
253.982	9962.43
254.052	9986.33
254.123	9985.27
254.193	9978.14
254.264	10076.43
254.334	10048.2
254.405	10023.82
254.475	9994.3
254.546	10003.3
254.616	10047.38
254.687	10071.8
254.757	10089.57
254.827	10092.51
254.898	10113.9
254.968	10122.04
255.039	10105.23
255.109	10135.33
255.18	10123.05
255.25	10072.52
255.321	10103.44
255.391	10074.87
255.461	10146.93
255.532	10083.19
255.602	10086.85
255.673	10053.14
255.743	10024.75
255.813	9967.25
255.884	10011.76
255.954	10045.62
256.024	10089.7
256.095	10094.86
256.165	10072.99
256.235	10091.54
256.306	10080.61
256.376	10120.35
256.446	10154.71
256.517	10184.81
256.587	10218.01
256.657	10236.75
256.728	10249.66
256.798	10250.33
256.868	10248.02
256.938	10222.91
257.009	10262.13
257.079	10285.01
257.149	10355.64
257.219	10321.43
257.29	10359.18
257.36	10315.01
257.43	10339.87
257.5	10297.76
257.571	10291.79
257.641	10316.74
257.711	10290.92
257.781	10313.12
257.852	10323.72
257.922	10276.8
257.992	10278.15
258.062	10274.82
258.132	10300.84
258.202	10305.27
258.273	10315.73
258.343	10376.15
258.413	10366.85
258.483	10366.22
258.553	10347.53
258.623	10335.58
258.693	10353.94
258.764	10406.83
258.834	10464.79
258.904	10477.85
258.974	10468.89
259.044	10478.09
259.114	10504.3
259.184	10525.74
259.254	10535.86
259.324	10499.38
259.394	10537.25
259.464	10595.22
259.535	10600.86
259.605	10594.83
259.675	10592.57
259.745	10626.64
259.815	10603.99
259.885	10603.07
259.955	10689.01
260.025	10686.65
260.095	10692.53
260.165	10717.44
260.235	10759.99
260.305	10748.86
260.375	10726.5
260.445	10797.04
260.515	10841.47
260.585	10878.72
260.655	10889.85
260.725	10921.7
260.795	10952.06
260.865	11001.41
260.934	10983.48
261.004	11007.62
261.074	11012.15
261.144	11054.41
261.214	11073.3
261.284	11077.35
261.354	11104.09
261.424	11075.94
261.494	11126.72
261.564	11134.38
261.634	11157.03
261.703	11109.52
261.773	11128.55
261.843	11156.35
261.913	11148.55
261.983	11111.39
262.053	11119.92
262.123	11120.79
262.192	11086.96
262.262	11109.61
262.332	11079.44
262.402	11102.19
262.472	11107.11
262.541	11066.63
262.611	11104.85
262.681	11090.06
262.751	11127.69
262.821	11138.82
262.89	11105.47
262.96	11131.69
263.03	11188.61
263.1	11201.14
263.169	11217.14
263.239	11242.97
263.309	11300.91
263.379	11324.67
263.448	11338.55
263.518	11364.91
263.588	11376.14
263.657	11445.35
263.727	11487.71
263.797	11494.03
263.867	11496
263.936	11470.85
264.006	11514.31
264.076	11510.4
264.145	11512.18
264.215	11494.59
