Data from 20250626_urea_1M_exp2_MAYP1162681_11-53-58-190.txt Node
Date: Fri Jun 27 11:53:58 BST 2025
User: adleo
Spectrometer: MAYP116268
Trigger mode: 0
Integration Time (sec): 3.000000E0
Scans to average: 1
Electric dark correction enabled: true
Nonlinearity correction enabled: true
Boxcar width: 10
XAxis mode: Wavelengths
Number of Pixels in Spectrum: 2068
>>>>>Begin Spectral Data<<<<<
179.565	3139.7
179.642	3305.87
179.718	3423.5
179.795	3544.51
179.871	3642.68
179.948	3699.61
180.024	3757
180.101	3823.09
180.177	3860.11
180.254	3925.05
180.33	3989.94
180.407	4208.49
180.483	4451.63
180.56	4697.29
180.636	4924.63
180.712	4896.74
180.789	4922.8
180.865	4953.81
180.942	4977.8
181.018	5010.13
181.095	5047.26
181.171	5058.81
181.248	5062.31
181.324	5109.7
181.4	5122.54
181.477	5147.12
181.553	5177.77
181.63	5238.29
181.706	5279.69
181.782	5308.09
181.859	5308.76
181.935	5321.12
182.011	5311.63
182.088	5358.65
182.164	5413.71
182.24	5453.62
182.317	5478.05
182.393	5470.14
182.469	5506.9
182.546	5544.49
182.622	5557.24
182.698	5545.11
182.775	5579.96
182.851	5616.2
182.927	5592.42
183.003	5586.82
183.08	5575.65
183.156	5602.73
183.232	5589.11
183.308	5560.21
183.385	5583.59
183.461	5625.02
183.537	5629.33
183.613	5666.49
183.69	5639.88
183.766	5612.44
183.842	5627.83
183.918	5641.74
183.995	5678.07
184.071	5686.71
184.147	5667.48
184.223	5634.37
184.299	5672.31
184.375	5642.06
184.452	5659.62
184.528	5769.65
184.604	5793.77
184.68	5826.04
184.756	5846.42
184.832	5862.83
184.908	5879.6
184.985	5878.02
185.061	5837.51
185.137	5862.02
185.213	5827.97
185.289	5832.19
185.365	5812.34
185.441	5807.45
185.517	5848.53
185.593	5839.22
185.669	5834.14
185.745	5866.18
185.822	5910.75
185.898	5884.51
185.974	5908.09
186.05	5884.25
186.126	5820.21
186.202	5803.04
186.278	5783
186.354	5756.85
186.43	5776.14
186.506	5768.52
186.582	5764.78
186.658	5784.87
186.734	5728.54
186.81	5739.08
186.886	5747.81
186.962	5777.1
187.038	5768.66
187.114	5742.31
187.19	5763.8
187.266	5739.3
187.341	5736.85
187.417	5714.99
187.493	5715.18
187.569	5728.42
187.645	5715.67
187.721	5682.28
187.797	5703.57
187.873	5725.24
187.949	5707.61
188.025	5688.65
188.101	5696.99
188.176	5710.61
188.252	5696.85
188.328	5720.61
188.404	5717.74
188.48	5706.76
188.556	5690.17
188.632	5693.67
188.707	5697.79
188.783	5695.35
188.859	5679.97
188.935	5653.25
189.011	5680.82
189.086	5663.28
189.162	5636.71
189.238	5628.85
189.314	5626.45
189.39	5611.06
189.465	5589.24
189.541	5637.29
189.617	5595.15
189.693	5578.14
189.768	5589.36
189.844	5655.47
189.92	5630.85
189.996	5653.1
190.071	5685.08
190.147	5682.16
190.223	5705.71
190.298	5680.44
190.374	5640.16
190.45	5673.32
190.526	5698.36
190.601	5682.39
190.677	5686.94
190.753	5765.9
190.828	5775.05
190.904	5815.83
190.98	5856.17
191.055	5886.34
191.131	5863.89
191.207	5916.2
191.282	5943.72
191.358	5912.55
191.433	5876.07
191.509	5913.11
191.585	5901.56
191.66	5903.47
191.736	5929.81
191.811	5900.98
191.887	5951.17
191.963	6018
192.038	6030.8
192.114	6029.08
192.189	6038.76
192.265	6026.59
192.34	5967.87
192.416	5968.83
192.491	5953.42
192.567	5964.52
192.642	5971.33
192.718	5969.84
192.793	5945.52
192.869	5937.03
192.944	5946.14
193.02	5963.22
193.095	5971.95
193.171	5990.71
193.246	5984.71
193.322	5968.98
193.397	5969.89
193.473	5934.61
193.548	5883.36
193.624	5904.96
193.699	5904.86
193.775	5946.47
193.85	5957.01
193.925	5978.27
194.001	5971.27
194.076	5949.02
194.152	5912.73
194.227	5889.7
194.302	5865.54
194.378	5873.31
194.453	5865.26
194.529	5902.87
194.604	5867.27
194.679	5853.75
194.755	5799.1
194.83	5833.61
194.905	5833.42
194.981	5857.69
195.056	5833.72
195.131	5848.87
195.207	5838.36
195.282	5806.76
195.357	5753.97
195.433	5795.94
195.508	5760.77
195.583	5786.81
195.659	5825.72
195.734	5844.39
195.809	5846.5
195.884	5872.58
195.96	5874.54
196.035	5917.91
196.11	5907.06
196.185	5935.7
196.261	5943.18
196.336	6036.91
196.411	5992.8
196.486	6003.74
196.561	5986.9
196.637	6016.2
196.712	6058.25
196.787	6066.17
196.862	6110.87
196.937	6137.93
197.013	6147.82
197.088	6176.17
197.163	6234.61
197.238	6290.82
197.313	6293.08
197.388	6330.03
197.464	6413.35
197.539	6442.92
197.614	6420.84
197.689	6448.54
197.764	6496.04
197.839	6556.91
197.914	6535.2
197.989	6601.84
198.065	6636.21
198.14	6776.34
198.215	6841.18
198.29	6878.66
198.365	6916.51
198.44	6946.96
198.515	7024.69
198.59	7072.69
198.665	7141.77
198.74	7164.7
198.815	7160.76
198.89	7221.53
198.965	7301.81
199.04	7287.97
199.115	7331.83
199.19	7449.74
199.265	7463.48
199.34	7488.24
199.415	7575.39
199.49	7635.79
199.565	7656.56
199.64	7729.19
199.715	7716.68
199.79	7730.96
199.865	7746.2
199.94	7742.5
200.015	7830.22
200.09	7848.21
200.165	7862.68
200.24	7888.17
200.315	7990.55
200.39	8032.49
200.464	8054.23
200.539	8054.37
200.614	8097.55
200.689	8158.93
200.764	8172.79
200.839	8217.12
200.914	8234.53
200.989	8208.15
201.063	8243.08
201.138	8199.73
201.213	8193.76
201.288	8147.93
201.363	8162.11
201.438	8163.22
201.512	8204.71
201.587	8151.16
201.662	8156.5
201.737	8191.57
201.812	8210.82
201.886	8123.83
201.961	8150.5
202.036	8110.98
202.111	8110.45
202.186	8029.32
202.26	7979.23
202.335	7919.73
202.41	7902.86
202.485	7852.43
202.559	7793.14
202.634	7725
202.709	7749.6
202.784	7704.06
202.858	7703.49
202.933	7650.51
203.008	7629.55
203.082	7578.11
203.157	7576.57
203.232	7462.85
203.306	7400.9
203.381	7302.25
203.456	7235.87
203.53	7170.25
203.605	7121.65
203.68	7052.61
203.754	7035.81
203.829	6995.58
203.904	6940.05
203.978	6906.27
204.053	6918.38
204.127	6890.9
204.202	6878.03
204.277	6832.25
204.351	6808.04
204.426	6783.29
204.5	6767.2
204.575	6673.39
204.65	6702.42
204.724	6678.91
204.799	6702.66
204.873	6693.63
204.948	6696.94
205.022	6663.49
205.097	6636.62
205.171	6670.57
205.246	6691.13
205.32	6686.82
205.395	6683.79
205.469	6663.59
205.544	6681.8
205.618	6635.07
205.693	6663.55
205.767	6633.02
205.842	6692.83
205.916	6677.85
205.991	6651.1
206.065	6662.14
206.14	6701.48
206.214	6684.61
206.289	6668.99
206.363	6697.43
206.438	6705.74
206.512	6728.99
206.586	6780.65
206.661	6806.6
206.735	6746.42
206.81	6749.3
206.884	6789.92
206.958	6756.7
207.033	6802.25
207.107	6819.79
207.181	6908.64
207.256	6888.47
207.33	6941.29
207.405	6973.47
207.479	7023.67
207.553	7044.32
207.628	7003.75
207.702	7039.82
207.776	7021.09
207.851	7029.69
207.925	7076.84
207.999	7066.32
208.073	7056.57
208.148	7065.94
208.222	7036.33
208.296	7121.07
208.371	7167.24
208.445	7193.05
208.519	7275.87
208.593	7311.38
208.668	7297.44
208.742	7302.59
208.816	7306.48
208.89	7344.47
208.965	7339.22
209.039	7362.35
209.113	7409.31
209.187	7468.13
209.261	7457.12
209.336	7515.38
209.41	7569.18
209.484	7570.86
209.558	7634.23
209.632	7669.17
209.707	7695.13
209.781	7751.09
209.855	7800.82
209.929	7844.29
210.003	7869.68
210.077	7860.59
210.151	7990.69
210.226	8090
210.3	8165.68
210.374	8236.73
210.448	8248.04
210.522	8275.46
210.596	8301.78
210.67	8331.89
210.744	8462.92
210.818	8552.32
210.892	8606.89
210.966	8589.77
211.041	8625.04
211.115	8612.44
211.189	8681.82
211.263	8730.94
211.337	8748.74
211.411	8787.54
211.485	8773.77
211.559	8800.52
211.633	8811.87
211.707	8721.73
211.781	8741.24
211.855	8640.55
211.929	8615.25
212.003	8564.33
212.077	8589.5
212.151	8626.76
212.225	8649.04
212.299	8613.89
212.373	8582.08
212.447	8571.39
212.52	8648.92
212.594	8656.48
212.668	8687.51
212.742	8644.54
212.816	8633.51
212.89	8618.65
212.964	8615.23
213.038	8623.22
213.112	8656.1
213.186	8691.07
213.26	8633.18
213.333	8498.27
213.407	8512.02
213.481	8522.6
213.555	8549.38
213.629	8517.32
213.703	8462.6
213.777	8453.45
213.85	8397.15
213.924	8479.9
213.998	8476.86
214.072	8456.59
214.146	8413.86
214.219	8402.99
214.293	8387.83
214.367	8383.02
214.441	8405.73
214.515	8357.32
214.588	8283.6
214.662	8184.84
214.736	8122.22
214.81	8136.16
214.883	8161.53
214.957	8116.2
215.031	8067.02
215.105	7996.64
215.178	7939.74
215.252	7913.05
215.326	7837.25
215.4	7771.79
215.473	7626.41
215.547	7554.4
215.621	7498.82
215.694	7501.8
215.768	7423.86
215.842	7368.21
215.915	7312.57
215.989	7217.75
216.063	7174.43
216.136	7154.24
216.21	7129.74
216.284	7139.54
216.357	7114.65
216.431	7079.67
216.504	7081.06
216.578	7130.28
216.652	7139.6
216.725	7125.37
216.799	7133.55
216.873	7113.61
216.946	7118.89
217.02	7086.63
217.093	7063.04
217.167	6984.54
217.24	6907.98
217.314	6871.87
217.387	6838.22
217.461	6803.73
217.535	6824.29
217.608	6774.73
217.682	6756.04
217.755	6771.79
217.829	6726.87
217.902	6720.48
217.976	6706.41
218.049	6669.14
218.123	6602.58
218.196	6600.08
218.27	6568.67
218.343	6510.73
218.417	6505.83
218.49	6481.34
218.563	6517.45
218.637	6522.44
218.71	6583.35
218.784	6610.19
218.857	6647.21
218.931	6660.36
219.004	6661.51
219.077	6679.49
219.151	6698.4
219.224	6687.36
219.298	6680.82
219.371	6717.57
219.444	6679.27
219.518	6686.76
219.591	6701.74
219.665	6790.96
219.738	6804.88
219.811	6795.96
219.885	6829.24
219.958	6858.07
220.031	6867.95
220.105	6882.08
220.178	6882.94
220.251	6859.88
220.325	6882.08
220.398	6887.27
220.471	6907.63
220.544	6940.78
220.618	6916.99
220.691	6936.63
220.764	6957.05
220.838	6979.63
220.911	6967.57
220.984	7044.7
221.057	7072.13
221.131	7087.31
221.204	7007.07
221.277	7068.11
221.35	7167.21
221.424	7167.45
221.497	7179.85
221.57	7195.79
221.643	7226.03
221.716	7265.97
221.79	7271.16
221.863	7277.99
221.936	7290.43
222.009	7303.59
222.082	7324.32
222.155	7328.98
222.229	7379.02
222.302	7401.13
222.375	7404.01
222.448	7432.85
222.521	7435.88
222.594	7436.27
222.667	7422.34
222.74	7467.51
222.814	7453.62
222.887	7432.88
222.96	7473.51
223.033	7505.54
223.106	7526.01
223.179	7550.59
223.252	7559
223.325	7584.48
223.398	7594.43
223.471	7614.38
223.544	7628.46
223.617	7638.22
223.69	7658.36
223.763	7628.06
223.837	7648.98
223.91	7674.8
223.983	7633.18
224.056	7603.28
224.129	7622.56
224.202	7660.61
224.275	7650.08
224.348	7629.41
224.42	7611.09
224.493	7569.5
224.566	7548.68
224.639	7567.09
224.712	7543.13
224.785	7529.62
224.858	7520.58
224.931	7507.12
225.004	7469.82
225.077	7471.07
225.15	7395.92
225.223	7400.92
225.296	7472.26
225.369	7425.78
225.442	7399.86
225.514	7415.48
225.587	7434.85
225.66	7442.4
225.733	7446.15
225.806	7449.51
225.879	7440.43
225.952	7412.84
226.025	7446.88
226.097	7486.71
226.17	7479.89
226.243	7424.91
226.316	7423.47
226.389	7421.64
226.461	7434.48
226.534	7453.84
226.607	7449.18
226.68	7522.17
226.753	7509.19
226.825	7437.32
226.898	7477.84
226.971	7481.11
227.044	7501.73
227.117	7508.84
227.189	7520.38
227.262	7550.2
227.335	7566.26
227.407	7566.93
227.48	7594.08
227.553	7599.95
227.626	7582.97
227.698	7591.09
227.771	7625.88
227.844	7615.25
227.916	7640.83
227.989	7615.2
228.062	7614.68
228.134	7691.54
228.207	7688.07
228.28	7682.84
228.352	7695.62
228.425	7705.63
228.498	7743.19
228.57	7726.17
228.643	7772.11
228.716	7772.45
228.788	7761.48
228.861	7756.19
228.934	7802.3
229.006	7808.83
229.079	7814.65
229.151	7805.95
229.224	7774.32
229.296	7795.19
229.369	7881.12
229.442	7915.18
229.514	7901.68
229.587	7941.97
229.659	7867.9
229.732	7880.84
229.804	7916.9
229.877	7981.42
229.949	8001.43
230.022	8041.09
230.094	8038.74
230.167	8023.72
230.239	7991.22
230.312	7979.72
230.384	8038.04
230.457	8039.58
230.529	8043.72
230.602	8037.37
230.674	8043.76
230.747	8077.02
230.819	8102.71
230.892	8000.25
230.964	7995.34
231.037	8016.2
231.109	8008.93
231.181	8044.61
231.254	8016.14
231.326	8002.96
231.399	7984.72
231.471	7964.13
231.544	7897.01
231.616	7938.98
231.688	7946.87
231.761	7934.81
231.833	7929.81
231.905	7856.78
231.978	7858.37
232.05	7847.55
232.122	7854.29
232.195	7837.84
232.267	7863.18
232.339	7840.04
232.412	7897.6
232.484	7878.26
232.556	7853.51
232.629	7908.51
232.701	7923.18
232.773	7927.18
232.846	7919.63
232.918	7920.78
232.99	7938.92
233.062	7973.26
233.135	7979.18
233.207	7943.73
233.279	7980.84
233.351	8005.41
233.424	8011.09
233.496	7990.55
233.568	8058.52
233.64	8030.73
233.713	8044.43
233.785	8046.6
233.857	8054.73
233.929	8011.16
234.001	8068.38
234.074	8128.19
234.146	8068.33
234.218	8064.77
234.29	8068.47
234.362	8063.81
234.434	8021.81
234.507	7992.51
234.579	7950.77
234.651	7932.63
234.723	7963.18
234.795	7972.99
234.867	7967.65
234.939	8014.69
235.012	8027.97
235.084	8026.33
235.156	8052.64
235.228	8033.93
235.3	8022.14
235.372	8039.89
235.444	8089.77
235.516	8022.44
235.588	8022.3
235.66	8031.63
235.732	8010.42
235.804	8165.4
235.876	8202.04
235.948	8254.44
236.02	8261.03
236.092	8275.55
236.164	8291.66
236.236	8292.24
236.308	8292.48
236.38	8312.97
236.452	8300.13
236.524	8312.39
236.596	8364.45
236.668	8392.79
236.74	8409.96
236.812	8429.01
236.884	8454.23
236.956	8462.46
237.028	8456.78
237.1	8443.02
237.172	8503.47
237.244	8569.01
237.316	8473.84
237.388	8452.43
237.46	8434.77
237.532	8487.74
237.604	8483.22
237.675	8541.37
237.747	8576.45
237.819	8570.2
237.891	8576.7
237.963	8563.42
238.035	8565.63
238.107	8479.84
238.178	8530.3
238.25	8537.42
238.322	8616.67
238.394	8582.7
238.466	8570.43
238.538	8604.05
238.609	8636.96
238.681	8591.52
238.753	8568.94
238.825	8585.94
238.897	8607.25
238.968	8679.14
239.04	8667.29
239.112	8758.11
239.184	8720.32
239.255	8712.09
239.327	8739.46
239.399	8754.77
239.471	8797.93
239.542	8826.76
239.614	8873.63
239.686	8809.07
239.758	8856.24
239.829	8824.41
239.901	8870.08
239.973	8890.1
240.044	8916.86
240.116	8932.84
240.188	8943.43
240.259	8957.68
240.331	8947.85
240.403	8986.79
240.474	8941.76
240.546	8925.01
240.618	8871.53
240.689	8880.24
240.761	8901.47
240.833	8954.43
240.904	8958.33
240.976	8955.78
241.048	8963.33
241.119	9003.79
241.191	9039.65
241.262	9092.39
241.334	9099.27
241.405	9108.03
241.477	9109.72
241.549	9118.53
241.62	9136.87
241.692	9174.86
241.763	9217.67
241.835	9237.65
241.906	9255.61
241.978	9231.68
242.049	9290.13
242.121	9341.78
242.192	9391.13
242.264	9361.38
242.335	9319.83
242.407	9349.92
242.478	9354.64
242.55	9372.51
242.621	9358.1
242.693	9354.44
242.764	9342.98
242.836	9338.89
242.907	9361.23
242.979	9386.31
243.05	9403.99
243.122	9422.67
243.193	9426.04
243.264	9378.42
243.336	9384.73
243.407	9405
243.479	9471.93
243.55	9490.86
243.622	9506.95
243.693	9502.42
243.764	9562.95
243.836	9551.88
243.907	9547.16
243.978	9551.88
244.05	9577.07
244.121	9536.38
244.192	9567.01
244.264	9530.02
244.335	9538.83
244.407	9497.66
244.478	9517.5
244.549	9510.61
244.62	9477.97
244.692	9481.48
244.763	9513.4
244.834	9502.86
244.906	9486.82
244.977	9500.36
245.048	9538.56
245.119	9518.67
245.191	9499.51
245.262	9446.54
245.333	9505.71
245.405	9518.76
245.476	9546.74
245.547	9558.92
245.618	9601.1
245.689	9610.54
245.761	9639.44
245.832	9641.8
245.903	9681.28
245.974	9703.54
246.045	9717.22
246.117	9790.14
246.188	9774.87
246.259	9765.05
246.33	9778.15
246.401	9789.51
246.473	9758.01
246.544	9742.98
246.615	9786.33
246.686	9797.89
246.757	9855.58
246.828	9832.89
246.899	9889.5
246.97	9858.64
247.042	9847.03
247.113	9882.82
247.184	9961.75
247.255	9955.97
247.326	9978.36
247.397	9978.7
247.468	9980.92
247.539	9989.06
247.61	9947.15
247.681	9981.34
247.752	10019.87
247.823	9997.58
247.894	10004.08
247.965	9982.89
248.037	9965.11
248.108	9925.81
248.179	9929.32
248.25	9926.24
248.321	9949.69
248.392	9908.54
248.463	9979.15
248.534	9981.9
248.605	9996.98
248.675	9974.42
248.746	9991.43
248.817	10012.87
248.888	10028.04
248.959	9984.4
249.03	10006.95
249.101	10006.61
249.172	9991.78
249.243	9932.93
249.314	9987.84
249.385	10004.84
249.456	10036.67
249.527	10039.13
249.598	10056.37
249.669	10056.71
249.739	10065
249.81	10077.04
249.881	10045.3
249.952	10030.41
250.023	10020.3
250.094	9980.21
250.165	9954.09
250.235	9950.19
250.306	9953.13
250.377	9930.73
250.448	9957.08
250.519	9905.11
250.59	9955.35
250.66	9955.35
250.731	10017.72
250.802	10015.93
250.873	10027.21
250.944	10039.97
251.014	10030.53
251.085	10102.95
251.156	10129.78
251.227	10172.95
251.297	10219.64
251.368	10259.91
251.439	10301.83
251.51	10354.97
251.58	10343.22
251.651	10336.47
251.722	10380.99
251.792	10336.34
251.863	10338.36
251.934	10387.98
252.005	10479.42
252.075	10490.65
252.146	10536.17
252.217	10573.27
252.287	10609.41
252.358	10609.46
252.429	10664.92
252.499	10659.28
252.57	10667.33
252.641	10701.2
252.711	10708.82
252.782	10668.92
252.852	10734.41
252.923	10726.7
252.994	10733.16
253.064	10774.59
253.135	10754.93
253.205	10735.27
253.276	10800.79
253.347	10861.31
253.417	10840.15
253.488	10820.3
253.558	10811.48
253.629	10803.58
253.699	10812.11
253.77	10833.99
253.841	10828.88
253.911	10845.56
253.982	10863.24
254.052	10884.93
254.123	10887.48
254.193	10885.31
254.264	10996.73
254.334	10972.73
254.405	10947.53
254.475	10916.69
254.546	10925.13
254.616	10983.23
254.687	11013.83
254.757	11025.06
254.827	11022.75
254.898	11036.19
254.968	11050.26
255.039	11031.43
255.109	11061.64
255.18	11038.8
255.25	10982.66
255.321	11015.57
255.391	10980.53
255.461	11052.62
255.532	10992.33
255.602	10985.53
255.673	10939.9
255.743	10914.21
255.813	10844.83
255.884	10886.18
255.954	10914.61
256.024	10962.41
256.095	10962.94
256.165	10927.19
256.235	10942.08
256.306	10928.25
256.376	10974.47
256.446	11002.13
256.517	11033.31
256.587	11075.38
256.657	11098.95
256.728	11116.97
256.798	11118.61
256.868	11111.86
256.938	11089.16
257.009	11127.62
257.079	11153.79
257.149	11233.4
257.219	11185.92
257.29	11221.91
257.36	11173.72
257.43	11203.89
257.5	11150.35
257.571	11137.05
257.641	11168.08
257.711	11147.45
257.781	11178.15
257.852	11192.03
257.922	11146.15
257.992	11147.79
258.062	11133.77
258.132	11164.95
258.202	11170.44
258.273	11187.84
258.343	11250.83
258.413	11229.97
258.483	11227.22
258.553	11205.34
258.623	11184.42
258.693	11202.69
258.764	11264.51
258.834	11320.99
258.904	11340.56
258.974	11334.39
259.044	11351.07
259.114	11379.84
259.184	11399.31
259.254	11401.96
259.324	11356.75
259.394	11387.5
259.464	11453.77
259.535	11460.71
259.605	11456.18
259.675	11444.95
259.745	11469.78
259.815	11447.17
259.885	11455.89
259.955	11550.95
260.025	11544.44
260.095	11559.34
260.165	11583.24
260.235	11623.2
260.305	11622.24
260.375	11597.71
260.445	11677.95
260.515	11736.27
260.585	11768.57
260.655	11783.12
260.725	11823.51
260.795	11853.59
260.865	11917.02
260.934	11886.27
261.004	11910.66
261.074	11911.23
261.144	11962.46
261.214	11986.52
261.284	11990.37
261.354	12024.49
261.424	11985.88
261.494	12043.23
261.564	12045.88
261.634	12066.13
261.703	12017.25
261.773	12036.05
261.843	12056.34
261.913	12040.58
261.983	11981.97
262.053	11998.21
262.123	11982.84
262.192	11945.77
262.262	11976.04
262.332	11935.55
262.402	11965.2
262.472	11971.46
262.541	11921.58
262.611	11961.4
262.681	11947.9
262.751	11982.65
262.821	11991.57
262.89	11967.81
262.96	11990.94
263.03	12055.68
263.1	12077.9
263.169	12098.15
263.239	12122.44
263.309	12187.71
263.379	12215.09
263.448	12236.63
263.518	12262.04
263.588	12277.99
263.657	12341.62
263.727	12373
263.797	12380.13
263.867	12378.49
263.936	12348.9
