Data from 20250626_urea_1M_exp2_MAYP1162681_23-03-58-907.txt Node
Date: Thu Jun 26 23:03:58 BST 2025
User: adleo
Spectrometer: MAYP116268
Trigger mode: 0
Integration Time (sec): 3.000000E0
Scans to average: 1
Electric dark correction enabled: true
Nonlinearity correction enabled: true
Boxcar width: 10
XAxis mode: Wavelengths
Number of Pixels in Spectrum: 2068
>>>>>Begin Spectral Data<<<<<
179.565	2862.98
179.642	3007.54
179.718	3111.54
179.795	3219.49
179.871	3303.59
179.948	3353.78
180.024	3412.47
180.101	3473.45
180.177	3509.68
180.254	3565.99
180.33	3623.68
180.407	3821.58
180.483	4046.82
180.56	4269.77
180.636	4480.51
180.712	4455.47
180.789	4477.34
180.865	4508.47
180.942	4534.3
181.018	4559.33
181.095	4597.4
181.171	4614.96
181.248	4622.14
181.324	4669.2
181.4	4685.15
181.477	4717.61
181.553	4744.11
181.63	4798.07
181.706	4838.34
181.782	4865.56
181.859	4870.49
181.935	4884.52
182.011	4880.36
182.088	4920.78
182.164	4974.3
182.24	5006.18
182.317	5030.12
182.393	5026.53
182.469	5058.56
182.546	5090.7
182.622	5101.95
182.698	5089.26
182.775	5117.42
182.851	5150.62
182.927	5130.88
183.003	5120.25
183.08	5103.35
183.156	5137.64
183.232	5124.75
183.308	5097.11
183.385	5115.02
183.461	5156.51
183.537	5159.72
183.613	5187.7
183.69	5167.19
183.766	5136.75
183.842	5154.96
183.918	5170.48
183.995	5206.02
184.071	5216.86
184.147	5201.71
184.223	5174.19
184.299	5201.55
184.375	5175.45
184.452	5187.62
184.528	5295.53
184.604	5327.47
184.68	5357.08
184.756	5372.08
184.832	5386.17
184.908	5400.78
184.985	5401.07
185.061	5360.39
185.137	5383.2
185.213	5353.5
185.289	5356.61
185.365	5338.7
185.441	5331.75
185.517	5364.74
185.593	5350.8
185.669	5342.79
185.745	5373.03
185.822	5416.52
185.898	5396.77
185.974	5417.94
186.05	5399.96
186.126	5333.95
186.202	5311.86
186.278	5303.95
186.354	5281.62
186.43	5295.04
186.506	5285.94
186.582	5284.6
186.658	5301.94
186.734	5252.55
186.81	5254.23
186.886	5257.15
186.962	5288.58
187.038	5283.64
187.114	5259.42
187.19	5279.02
187.266	5254.12
187.341	5253.44
187.417	5236.39
187.493	5232.94
187.569	5242.72
187.645	5231.46
187.721	5203.08
187.797	5223.68
187.873	5234.03
187.949	5213.67
188.025	5199.19
188.101	5209.35
188.176	5216.53
188.252	5203.51
188.328	5223.18
188.404	5225.19
188.48	5212.84
188.556	5193.29
188.632	5190.22
188.707	5194.82
188.783	5192
188.859	5185.58
188.935	5156.54
189.011	5174.98
189.086	5161.72
189.162	5135.42
189.238	5130.77
189.314	5124.3
189.39	5111.7
189.465	5096.22
189.541	5139.25
189.617	5100.07
189.693	5086.95
189.768	5101.13
189.844	5166.23
189.92	5144.4
189.996	5169.41
190.071	5202.62
190.147	5200.56
190.223	5226.1
190.298	5208.99
190.374	5177.42
190.45	5204.52
190.526	5224.12
190.601	5209.79
190.677	5216.35
190.753	5295.58
190.828	5305.54
190.904	5343.31
190.98	5380.08
191.055	5404.38
191.131	5383.96
191.207	5439.2
191.282	5465.84
191.358	5438.14
191.433	5399.82
191.509	5430.51
191.585	5423.03
191.66	5424.43
191.736	5446.56
191.811	5417.23
191.887	5459.81
191.963	5517.72
192.038	5535.02
192.114	5539.19
192.189	5550.07
192.265	5542.26
192.34	5481.38
192.416	5476.02
192.491	5461.01
192.567	5470.13
192.642	5478.23
192.718	5478.57
192.793	5445.59
192.869	5431.02
192.944	5438.92
193.02	5455.85
193.095	5469.74
193.171	5484.03
193.246	5483.36
193.322	5477.65
193.397	5483.69
193.473	5447.67
193.548	5402.51
193.624	5416.32
193.699	5410.42
193.775	5445.29
193.85	5450.51
193.925	5472.85
194.001	5467.2
194.076	5453.73
194.152	5422.46
194.227	5399.69
194.302	5377.27
194.378	5386.9
194.453	5382.02
194.529	5413.12
194.604	5378.18
194.679	5363.43
194.755	5315.86
194.83	5347.76
194.905	5342.48
194.981	5363.29
195.056	5346.32
195.131	5358.83
195.207	5353.03
195.282	5328.26
195.357	5282.37
195.433	5317.55
195.508	5288.88
195.583	5313.51
195.659	5345.49
195.734	5362.65
195.809	5362.99
195.884	5383.06
195.96	5384.64
196.035	5421.54
196.11	5410.56
196.185	5442.09
196.261	5446.21
196.336	5523.86
196.411	5478.93
196.486	5488.8
196.561	5472.21
196.637	5495.21
196.712	5538.19
196.787	5545.34
196.862	5587.89
196.937	5612.39
197.013	5632.53
197.088	5654.87
197.163	5705.58
197.238	5749.94
197.313	5749.94
197.388	5785.95
197.464	5865.41
197.539	5895.04
197.614	5874.09
197.689	5907.72
197.764	5948.65
197.839	6001.55
197.914	5986.53
197.989	6051.72
198.065	6090.82
198.14	6226.72
198.215	6290.21
198.29	6318.97
198.365	6353.92
198.44	6374.12
198.515	6441.89
198.59	6479.25
198.665	6544.82
198.74	6569.99
198.815	6570.47
198.89	6624.61
198.965	6699.5
199.04	6687.4
199.115	6729.74
199.19	6843.09
199.265	6849.04
199.34	6876.52
199.415	6969.47
199.49	7020.6
199.565	7044.05
199.64	7107.85
199.715	7096.01
199.79	7113.46
199.865	7126.19
199.94	7115.87
200.015	7203.13
200.09	7221.59
200.165	7230.91
200.24	7250.18
200.315	7345.66
200.39	7387.14
200.464	7405.01
200.539	7408.33
200.614	7455.71
200.689	7510.66
200.764	7528.98
200.839	7573.85
200.914	7582.79
200.989	7550.27
201.063	7592.62
201.138	7548.68
201.213	7544.69
201.288	7493.64
201.363	7502.49
201.438	7507.05
201.512	7551.63
201.587	7505.72
201.662	7520.24
201.737	7556.92
201.812	7578.79
201.886	7495.76
201.961	7521.83
202.036	7498.67
202.111	7485.59
202.186	7404.9
202.26	7359.95
202.335	7301.74
202.41	7293.42
202.485	7250.76
202.559	7202.33
202.634	7131.64
202.709	7155.26
202.784	7104.05
202.858	7104.62
202.933	7055.05
203.008	7041.11
203.082	6988.47
203.157	6990.34
203.232	6878.95
203.306	6818.44
203.381	6734.17
203.456	6675.34
203.53	6607.26
203.605	6549.96
203.68	6495.15
203.754	6477.64
203.829	6442.25
203.904	6388.97
203.978	6353.09
204.053	6362.21
204.127	6328.28
204.202	6323.96
204.277	6279.23
204.351	6262.43
204.426	6238.9
204.5	6219.66
204.575	6125.68
204.65	6155.5
204.724	6128.98
204.799	6145.14
204.873	6137.79
204.948	6135.44
205.022	6107.86
205.097	6088.22
205.171	6127.51
205.246	6144.08
205.32	6145.85
205.395	6141.53
205.469	6124.9
205.544	6136.85
205.618	6092.32
205.693	6120.92
205.767	6088.25
205.842	6141.53
205.916	6128.43
205.991	6107.9
206.065	6123.54
206.14	6164.23
206.214	6143.44
206.289	6125.15
206.363	6154.75
206.438	6160.56
206.512	6182.31
206.586	6228.46
206.661	6256.41
206.735	6196.8
206.81	6200.78
206.884	6238.45
206.958	6208.94
207.033	6247.02
207.107	6262.2
207.181	6349.11
207.256	6333.51
207.33	6379.63
207.405	6409.95
207.479	6458.96
207.553	6476.48
207.628	6437.96
207.702	6468.62
207.776	6455.57
207.851	6467.57
207.925	6511.38
207.999	6501.39
208.073	6489.77
208.148	6499.66
208.222	6464.56
208.296	6542.13
208.371	6587.84
208.445	6615.55
208.519	6689.86
208.593	6726.26
208.668	6720.39
208.742	6722.37
208.816	6728.94
208.89	6765.46
208.965	6761.71
209.039	6778.52
209.113	6819.25
209.187	6869.87
209.261	6856.9
209.336	6911.66
209.41	6955.66
209.484	6957.83
209.558	7018.94
209.632	7055.77
209.707	7079.46
209.781	7139.07
209.855	7186.66
209.929	7227.21
210.003	7239.22
210.077	7241.15
210.151	7363.1
210.226	7451.72
210.3	7520.37
210.374	7581.24
210.448	7590.66
210.522	7612.5
210.596	7639.37
210.67	7665.85
210.744	7791.56
210.818	7879.02
210.892	7929.85
210.966	7919.56
211.041	7952.89
211.115	7941.78
211.189	8001.41
211.263	8046.84
211.337	8062.71
211.411	8099.85
211.485	8084.84
211.559	8117.05
211.633	8118.93
211.707	8037.16
211.781	8054.15
211.855	7970.55
211.929	7947.57
212.003	7903.41
212.077	7934.64
212.151	7970.52
212.225	7993.85
212.299	7958.33
212.373	7924.48
212.447	7912.74
212.52	7984.54
212.594	7990.03
212.668	8019.07
212.742	7980.55
212.816	7965.92
212.89	7948.13
212.964	7936.54
213.038	7947.84
213.112	7977.38
213.186	8013.54
213.26	7952.22
213.333	7827.45
213.407	7836.1
213.481	7843.6
213.555	7874.63
213.629	7838.26
213.703	7785.21
213.777	7777.37
213.85	7722.64
213.924	7811.02
213.998	7804.62
214.072	7786.86
214.146	7750.32
214.219	7739.3
214.293	7727.67
214.367	7727.67
214.441	7745.32
214.515	7713.62
214.588	7640.82
214.662	7549.52
214.736	7489.29
214.81	7505.62
214.883	7528.53
214.957	7489.42
215.031	7448.97
215.105	7376.66
215.178	7330.23
215.252	7306.3
215.326	7233.83
215.4	7175
215.473	7031.43
215.547	6972.6
215.621	6919.46
215.694	6921.91
215.768	6846.15
215.842	6799.37
215.915	6745.68
215.989	6658.97
216.063	6616.44
216.136	6604.04
216.21	6585.08
216.284	6593.49
216.357	6574.76
216.431	6542.87
216.504	6537.93
216.578	6577.56
216.652	6587.63
216.725	6567.7
216.799	6571.11
216.873	6556.57
216.946	6561.27
217.02	6536.61
217.093	6510.73
217.167	6436.18
217.24	6368.99
217.314	6346.3
217.387	6309.41
217.461	6275.72
217.535	6294.67
217.608	6248.84
217.682	6228.96
217.755	6235.44
217.829	6194.91
217.902	6181.86
217.976	6166.36
218.049	6131.67
218.123	6071.16
218.196	6070.73
218.27	6043.86
218.343	5993.83
218.417	5998.54
218.49	5980.64
218.563	6014.71
218.637	6024.16
218.71	6082.19
218.784	6106.42
218.857	6132.72
218.931	6152.47
219.004	6161.3
219.077	6179.36
219.151	6191.06
219.224	6185.5
219.298	6182.57
219.371	6214.45
219.444	6186.58
219.518	6193.77
219.591	6207.16
219.665	6290.01
219.738	6298.41
219.811	6289.2
219.885	6325.25
219.958	6341.38
220.031	6345.36
220.105	6361.64
220.178	6364.95
220.251	6344.16
220.325	6361.31
220.398	6370.19
220.471	6381.65
220.544	6408.73
220.618	6389.14
220.691	6410.21
220.764	6424.42
220.838	6446.26
220.911	6437.57
220.984	6499.96
221.057	6531.6
221.131	6552.05
221.204	6478.54
221.277	6535.8
221.35	6633.28
221.424	6625.7
221.497	6637.22
221.57	6654.59
221.643	6680.25
221.716	6715.03
221.79	6724.05
221.863	6731.84
221.936	6736.2
222.009	6749.64
222.082	6769.92
222.155	6786.77
222.229	6838.57
222.302	6856.48
222.375	6865.18
222.448	6889.77
222.521	6897.51
222.594	6895.92
222.667	6879.22
222.74	6924.6
222.814	6916.67
222.887	6900.51
222.96	6941.25
223.033	6976.53
223.106	6997.89
223.179	7018.33
223.252	7023.52
223.325	7041.29
223.398	7057.1
223.471	7082.12
223.544	7095.14
223.617	7104.99
223.69	7115.94
223.763	7085.52
223.837	7107.77
223.91	7127.66
223.983	7094.76
224.056	7075.26
224.129	7091.59
224.202	7132.5
224.275	7120.35
224.348	7098.49
224.42	7074.03
224.493	7035.88
224.566	7016.03
224.639	7034.81
224.712	7011.5
224.785	7003.09
224.858	6999.91
224.931	6977.04
225.004	6948.99
225.077	6952.83
225.15	6884.21
225.223	6883.53
225.296	6950.56
225.369	6906.03
225.442	6883.11
225.514	6894.83
225.587	6906.21
225.66	6914.96
225.733	6910.3
225.806	6922.59
225.879	6913.61
225.952	6886.05
226.025	6920.35
226.097	6958.29
226.17	6950.89
226.243	6904.93
226.316	6905.26
226.389	6910.16
226.461	6937.22
226.534	6948.7
226.607	6941.83
226.68	7000.31
226.753	6997.72
226.825	6926.9
226.898	6971.48
226.971	6973.16
227.044	6990.55
227.117	6997.75
227.189	7008.42
227.262	7042.16
227.335	7054.17
227.407	7059.55
227.48	7087.4
227.553	7097.69
227.626	7082.01
227.698	7087.01
227.771	7117.74
227.844	7105.25
227.916	7120.72
227.989	7087.52
228.062	7097.65
228.134	7164.27
228.207	7170.95
228.28	7161.78
228.352	7178.5
228.425	7187.24
228.498	7220.12
228.57	7208.88
228.643	7249.93
228.716	7252.09
228.788	7243.92
228.861	7242.96
228.934	7290.44
229.006	7299.57
229.079	7297.98
229.151	7293.22
229.224	7268.53
229.296	7289.05
229.369	7363.96
229.442	7399.45
229.514	7390.81
229.587	7422.24
229.659	7365.47
229.732	7379.5
229.804	7411.17
229.877	7467.43
229.949	7481.76
230.022	7522.89
230.094	7522.46
230.167	7514.28
230.239	7489.1
230.312	7474.78
230.384	7527.25
230.457	7518.98
230.529	7526.33
230.602	7524.74
230.674	7529.41
230.747	7558.66
230.819	7580.92
230.892	7494.96
230.964	7493.42
231.037	7511.38
231.109	7504.94
231.181	7534.5
231.254	7503.11
231.326	7498.06
231.399	7480.02
231.471	7464.3
231.544	7405.15
231.616	7439.6
231.688	7441.24
231.761	7425.15
231.833	7425.39
231.905	7354.37
231.978	7358.79
232.05	7344.9
232.122	7352.69
232.195	7334.66
232.267	7363.46
232.339	7342.5
232.412	7388.58
232.484	7362.13
232.556	7342.49
232.629	7394.43
232.701	7410.11
232.773	7419.91
232.846	7406.7
232.918	7407.08
232.99	7422.75
233.062	7455.83
233.135	7461.84
233.207	7438.53
233.279	7473.41
233.351	7491.14
233.424	7498.59
233.496	7477.54
233.568	7544.03
233.64	7515.82
233.713	7527.16
233.785	7531.34
233.857	7546.82
233.929	7511.35
234.001	7569.46
234.074	7620.93
234.146	7564.08
234.218	7561.53
234.29	7563.45
234.362	7559.41
234.434	7528.01
234.507	7499.6
234.579	7460.09
234.651	7445.66
234.723	7465.18
234.795	7474.94
234.867	7471.77
234.939	7519.13
235.012	7533.83
235.084	7535.18
235.156	7564.45
235.228	7552.05
235.3	7533.83
235.372	7534.74
235.444	7579.73
235.516	7517.63
235.588	7517.1
235.66	7532.2
235.732	7506.91
235.804	7652.06
235.876	7684.46
235.948	7734.38
236.02	7747.69
236.092	7757.45
236.164	7772.4
236.236	7773.03
236.308	7774.47
236.38	7799.71
236.452	7778.79
236.524	7787.16
236.596	7833.12
236.668	7857.46
236.74	7877.03
236.812	7896.93
236.884	7929.93
236.956	7937.96
237.028	7935.7
237.1	7928.39
237.172	7983.72
237.244	8045.42
237.316	7959.96
237.388	7949.57
237.46	7932.16
237.532	7982.37
237.604	7975.11
237.675	8026.16
237.747	8061.37
237.819	8056.85
237.891	8060.02
237.963	8052.09
238.035	8054.25
238.107	7969.52
238.178	8016.44
238.25	8025.68
238.322	8100.75
238.394	8068.53
238.466	8068.38
238.538	8092.86
238.609	8125.89
238.681	8079.75
238.753	8067.63
238.825	8078.55
238.897	8098.07
238.968	8155.78
239.04	8135.86
239.112	8222.05
239.184	8196.16
239.255	8193.85
239.327	8219.82
239.399	8231.46
239.471	8271.48
239.542	8298.99
239.614	8354.41
239.686	8289.45
239.758	8327.36
239.829	8297.08
239.901	8345.09
239.973	8358.17
240.044	8394.83
240.116	8404.12
240.188	8414.17
240.259	8426.39
240.331	8422.21
240.403	8447.9
240.474	8410.4
240.546	8398.37
240.618	8349.87
240.689	8344.43
240.761	8367.92
240.833	8415.8
240.904	8418.59
240.976	8421.43
241.048	8439.96
241.119	8464.89
241.191	8502.75
241.262	8550.28
241.334	8553.64
241.405	8553.16
241.477	8556.48
241.549	8560.48
241.62	8579.82
241.692	8616.2
241.763	8657.7
241.835	8673.2
241.906	8692.64
241.978	8676.47
242.049	8734.41
242.121	8786
242.192	8838.98
242.264	8804.53
242.335	8762.9
242.407	8799.14
242.478	8798.75
242.55	8813
242.621	8802.17
242.693	8798.13
242.764	8787.63
242.836	8784.11
242.907	8809.48
242.979	8837.01
243.05	8851.26
243.122	8867
243.193	8867.97
243.264	8817.38
243.336	8823.63
243.407	8846.21
243.479	8907.82
243.55	8918.27
243.622	8929.82
243.693	8931.99
243.764	8992.11
243.836	8982.3
243.907	8965.98
243.978	8972.86
244.05	8989.9
244.121	8958.62
244.192	8994.62
244.264	8959.19
244.335	8976.19
244.407	8938.01
244.478	8945.91
244.549	8937.77
244.62	8904.32
244.692	8905.91
244.763	8937.15
244.834	8921.55
244.906	8907.68
244.977	8920.4
245.048	8962.73
245.119	8947.86
245.191	8928.31
245.262	8871.08
245.333	8928.59
245.405	8947.99
245.476	8972.49
245.547	8982.17
245.618	9022.26
245.689	9025.87
245.761	9049.99
245.832	9050.86
245.903	9088.55
245.974	9109.83
246.045	9122.64
246.117	9196.15
246.188	9177.19
246.259	9168.82
246.33	9186.19
246.401	9191.25
246.473	9170.16
246.544	9160.71
246.615	9202.7
246.686	9206.84
246.757	9271.64
246.828	9251.8
246.899	9304.97
246.97	9281.34
247.042	9283.36
247.113	9312.21
247.184	9383.79
247.255	9389.95
247.326	9410.28
247.397	9413.02
247.468	9424.1
247.539	9427.42
247.61	9384.61
247.681	9419.7
247.752	9452.05
247.823	9434.34
247.894	9451.58
247.965	9423.22
248.037	9409.69
248.108	9364.47
248.179	9371.21
248.25	9366.54
248.321	9391.28
248.392	9360.6
248.463	9420.88
248.534	9409.56
248.605	9425.85
248.675	9402
248.746	9418.99
248.817	9433.83
248.888	9451.21
248.959	9402.87
249.03	9425.7
249.101	9433.26
249.172	9425.07
249.243	9373.56
249.314	9420.84
249.385	9423.78
249.456	9447.75
249.527	9445.83
249.598	9470.29
249.669	9469.95
249.739	9473.03
249.81	9484.15
249.881	9450.93
249.952	9439.18
250.023	9440.62
250.094	9404.12
250.165	9383.69
250.235	9369.96
250.306	9372.04
250.377	9351.76
250.448	9381.76
250.519	9336.5
250.59	9387.26
250.66	9387.84
250.731	9448.35
250.802	9449.56
250.873	9464.78
250.944	9483.8
251.014	9479.51
251.085	9546.23
251.156	9567.9
251.227	9607.64
251.297	9649.83
251.368	9685.75
251.439	9726.12
251.51	9763.3
251.58	9752.23
251.651	9754.25
251.722	9799.14
251.792	9766.68
251.863	9763.7
251.934	9807.19
252.005	9893.16
252.075	9896.63
252.146	9933.37
252.217	9966.95
252.287	9998.55
252.358	10007.84
252.429	10061.12
252.499	10049.13
252.57	10055.64
252.641	10092.58
252.711	10097.45
252.782	10057.8
252.852	10120.15
252.923	10115.52
252.994	10135.03
253.064	10175.29
253.135	10155.74
253.205	10139.84
253.276	10191.81
253.347	10241.42
253.417	10221.43
253.488	10205.96
253.558	10195.94
253.629	10190.21
253.699	10198.25
253.77	10221.91
253.841	10211.56
253.911	10220.57
253.982	10236.46
254.052	10263.88
254.123	10275.25
254.193	10279.97
254.264	10389.69
254.334	10359.67
254.405	10336.64
254.475	10306.34
254.546	10309.95
254.616	10355.14
254.687	10376.82
254.757	10392.81
254.827	10397
254.898	10417.24
254.968	10421.33
255.039	10401.53
255.109	10434
255.18	10417.43
255.25	10359.81
255.321	10389.48
255.391	10365.34
255.461	10436.26
255.532	10372.37
255.602	10363.84
255.673	10319.81
255.743	10291.9
255.813	10235.12
255.884	10278.33
255.954	10308.3
256.024	10359.32
256.095	10366.74
256.165	10340.92
256.235	10355.14
256.306	10344.87
256.376	10383.95
256.446	10420.28
256.517	10452.17
256.587	10488.84
256.657	10506.04
256.728	10529.65
256.798	10529.79
256.868	10520.06
256.938	10492.69
257.009	10524.06
257.079	10547.76
257.149	10624.27
257.219	10583.17
257.29	10620.97
257.36	10571.54
257.43	10603.83
257.5	10550.93
257.571	10542.2
257.641	10577.52
257.711	10554.73
257.781	10577.37
257.852	10583.49
257.922	10538.05
257.992	10543.5
258.062	10535.55
258.132	10562.15
258.202	10569.52
258.273	10586.57
258.343	10649.89
258.413	10636.79
258.483	10644.98
258.553	10631.58
258.623	10615.63
258.693	10628.16
258.764	10683.04
258.834	10741.43
258.904	10747.12
258.974	10739.55
259.044	10752.23
259.114	10769.96
259.184	10795.93
259.254	10803.4
259.324	10763.93
259.394	10801.52
259.464	10858.57
259.535	10863.78
259.605	10864.89
259.675	10856.94
259.745	10886.38
259.815	10864.26
259.885	10869.9
259.955	10956.76
260.025	10946.11
260.095	10958.59
260.165	10992.32
260.235	11039.8
260.305	11034.02
260.375	11022.16
260.445	11094.72
260.515	11138.29
260.585	11174.53
260.655	11187.21
260.725	11217.95
260.795	11249.18
260.865	11297.95
260.934	11274.82
261.004	11301.76
261.074	11301.03
261.144	11352.5
261.214	11374.57
261.284	11375.63
261.354	11407.72
261.424	11375.67
261.494	11426.02
261.564	11419.76
261.634	11432.48
261.703	11379.8
261.773	11391.85
261.843	11414.26
261.913	11410.02
261.983	11369.01
262.053	11386.41
262.123	11379.47
262.192	11352
262.262	11381.45
262.332	11345.93
262.402	11375.61
262.472	11380.87
262.541	11339.43
262.611	11370.32
262.681	11351.29
262.751	11389.55
262.821	11394.13
262.89	11369.98
262.96	11393.74
263.03	11460.11
263.1	11483.54
263.169	11505.37
263.239	11532.99
263.309	11582.2
263.379	11608.95
263.448	11627.55
263.518	11651.56
263.588	11665.63
263.657	11723.27
263.727	11757.5
263.797	11773.01
263.867	11771.66
263.936	11744.48
264.006	11792.86
264.076	11786.21
264.145	11789.39
