Data from 20250626_urea_1M_exp2_MAYP1162681_08-33-59-132.txt Node
Date: Fri Jun 27 08:33:59 BST 2025
User: adleo
Spectrometer: MAYP116268
Trigger mode: 0
Integration Time (sec): 3.000000E0
Scans to average: 1
Electric dark correction enabled: true
Nonlinearity correction enabled: true
Boxcar width: 10
XAxis mode: Wavelengths
Number of Pixels in Spectrum: 2068
>>>>>Begin Spectral Data<<<<<
179.565	3001.11
179.642	3154.33
179.718	3271.92
179.795	3388.21
179.871	3473.19
179.948	3527.69
180.024	3587.61
180.101	3651.87
180.177	3689.74
180.254	3751.41
180.33	3812.24
180.407	4018.13
180.483	4250.26
180.56	4486.63
180.636	4702.81
180.712	4675.32
180.789	4696.29
180.865	4724.71
180.942	4751.13
181.018	4779.18
181.095	4822.48
181.171	4831.2
181.248	4833.4
181.324	4876.08
181.4	4890.31
181.477	4919.42
181.553	4946.32
181.63	5000.21
181.706	5036.18
181.782	5063.99
181.859	5067.01
181.935	5084.21
182.011	5081.62
182.088	5125.02
182.164	5177.71
182.24	5214.72
182.317	5239.1
182.393	5234.55
182.469	5272.49
182.546	5305.27
182.622	5320.84
182.698	5306.07
182.775	5342.45
182.851	5383.66
182.927	5359.79
183.003	5344.99
183.08	5331.2
183.156	5364.5
183.232	5355.97
183.308	5333.35
183.385	5352.75
183.461	5395.84
183.537	5395.12
183.613	5425.61
183.69	5400.45
183.766	5372.34
183.842	5393
183.918	5410.35
183.995	5448.26
184.071	5459.43
184.147	5447.16
184.223	5416.94
184.299	5447.81
184.375	5413.4
184.452	5426.55
184.528	5538.32
184.604	5569.89
184.68	5607.7
184.756	5621.52
184.832	5637
184.908	5648.41
184.985	5648.26
185.061	5601.72
185.137	5623.83
185.213	5587.74
185.289	5596.03
185.365	5574.61
185.441	5568.33
185.517	5602.29
185.593	5591.36
185.669	5580.57
185.745	5608.42
185.822	5652.36
185.898	5631.36
185.974	5658.48
186.05	5641.98
186.126	5574.21
186.202	5555.71
186.278	5540.18
186.354	5517.69
186.43	5526.33
186.506	5518.28
186.582	5513.01
186.658	5533.13
186.734	5482.24
186.81	5492.44
186.886	5500.35
186.962	5528.48
187.038	5516.73
187.114	5492.7
187.19	5512.65
187.266	5488.35
187.341	5487.01
187.417	5464
187.493	5463.66
187.569	5468.51
187.645	5448.71
187.721	5419.6
187.797	5441.94
187.873	5452.68
187.949	5434.47
188.025	5420.56
188.101	5433.88
188.176	5449.36
188.252	5440.88
188.328	5467.27
188.404	5467.32
188.48	5452.46
188.556	5435.64
188.632	5440.43
188.707	5437.84
188.783	5430.6
188.859	5422.65
188.935	5390.05
189.011	5411.91
189.086	5394.61
189.162	5375.53
189.238	5371.79
189.314	5364.94
189.39	5347.45
189.465	5332.39
189.541	5378.46
189.617	5340.46
189.693	5326.23
189.768	5333.04
189.844	5393.52
189.92	5361.86
189.996	5383.81
190.071	5413.82
190.147	5413.77
190.223	5438.42
190.298	5421.93
190.374	5387.04
190.45	5417.22
190.526	5445.07
190.601	5434.33
190.677	5437.69
190.753	5512.34
190.828	5522.45
190.904	5560.72
190.98	5602.19
191.055	5628.28
191.131	5606.31
191.207	5658.37
191.282	5681.7
191.358	5654.86
191.433	5615.33
191.509	5655.18
191.585	5648.18
191.66	5654.22
191.736	5678.34
191.811	5650.1
191.887	5696.29
191.963	5755.93
192.038	5766.24
192.114	5769.12
192.189	5776.65
192.265	5771.52
192.34	5707.07
192.416	5702.62
192.491	5694.7
192.567	5702.24
192.642	5705.93
192.718	5705.83
192.793	5681.18
192.869	5670.97
192.944	5682.14
193.02	5702.19
193.095	5710.72
193.171	5728.13
193.246	5724.1
193.322	5714.99
193.397	5717.38
193.473	5678.96
193.548	5633.49
193.624	5647.21
193.699	5643.09
193.775	5686.36
193.85	5691.68
193.925	5716.71
194.001	5714.6
194.076	5693.51
194.152	5660.89
194.227	5647.36
194.302	5617.7
194.378	5622.26
194.453	5615.4
194.529	5646.29
194.604	5610.61
194.679	5600.78
194.755	5546.54
194.83	5576.86
194.905	5568.76
194.981	5593.55
195.056	5577.35
195.131	5593.46
195.207	5585.21
195.282	5553.24
195.357	5499.32
195.433	5539.88
195.508	5511.26
195.583	5532.25
195.659	5566.64
195.734	5582.85
195.809	5575.99
195.884	5605.55
195.96	5604.31
196.035	5643.82
196.11	5634.6
196.185	5665.53
196.261	5665.77
196.336	5750.73
196.411	5706.79
196.486	5721.75
196.561	5700.02
196.637	5723.51
196.712	5762.18
196.787	5772.88
196.862	5821.02
196.937	5846.43
197.013	5856.7
197.088	5881.15
197.163	5935.77
197.238	5984.18
197.313	5989.5
197.388	6025
197.464	6106.32
197.539	6142.01
197.614	6123.54
197.689	6149.41
197.764	6195.06
197.839	6254.9
197.914	6243.33
197.989	6309.74
198.065	6342.42
198.14	6481.39
198.215	6547.26
198.29	6585.78
198.365	6627.03
198.44	6653.96
198.515	6723.1
198.59	6764.84
198.665	6831.44
198.74	6856.91
198.815	6859.89
198.89	6917.47
198.965	6997.67
199.04	6984.69
199.115	7022.01
199.19	7141.57
199.265	7155.59
199.34	7179.42
199.415	7262.45
199.49	7312.17
199.565	7334.8
199.64	7400.97
199.715	7389.04
199.79	7406.87
199.865	7415.23
199.94	7403.32
200.015	7486.87
200.09	7508.8
200.165	7528.45
200.24	7548.74
200.315	7648.25
200.39	7688.01
200.464	7706.71
200.539	7708.88
200.614	7749.74
200.689	7807
200.764	7819.51
200.839	7865.21
200.914	7877.04
200.989	7857.65
201.063	7895.69
201.138	7851.68
201.213	7854.81
201.288	7803.22
201.363	7809.47
201.438	7812.16
201.512	7857.62
201.587	7814.28
201.662	7822.8
201.737	7854.35
201.812	7877.1
201.886	7795.91
201.961	7821.55
202.036	7782.48
202.111	7773.01
202.186	7691.67
202.26	7645.07
202.335	7582.94
202.41	7569.1
202.485	7521.77
202.559	7467.01
202.634	7395.34
202.709	7420.41
202.784	7367.21
202.858	7369.27
202.933	7326.6
203.008	7313.43
203.082	7263.94
203.157	7254.85
203.232	7142.8
203.306	7080.69
203.381	6997.49
203.456	6932.04
203.53	6871.82
203.605	6821.81
203.68	6763.27
203.754	6746.1
203.829	6708.34
203.904	6653.41
203.978	6622.18
204.053	6636.02
204.127	6600.44
204.202	6596.07
204.277	6549.83
204.351	6529.76
204.426	6508.05
204.5	6487.74
204.575	6390.41
204.65	6411.64
204.724	6390.12
204.799	6416.84
204.873	6409.34
204.948	6403.58
205.022	6370.86
205.097	6345.25
205.171	6387.58
205.246	6410.06
205.32	6413.7
205.395	6415.72
205.469	6397.21
205.544	6412.2
205.618	6368.27
205.693	6393.66
205.767	6361.75
205.842	6415.91
205.916	6400.22
205.991	6377.46
206.065	6393.83
206.14	6435.6
206.214	6423.15
206.289	6405.48
206.363	6434.58
206.438	6444.62
206.512	6463.39
206.586	6514.6
206.661	6537.66
206.735	6471.99
206.81	6474.34
206.884	6510.29
206.958	6478.56
207.033	6517.81
207.107	6528.19
207.181	6609.17
207.256	6600.67
207.33	6650.93
207.405	6685.02
207.479	6737.74
207.553	6758.14
207.628	6710.88
207.702	6741.6
207.776	6722.16
207.851	6732.14
207.925	6770.06
207.999	6755.51
208.073	6747.1
208.148	6755.61
208.222	6723.95
208.296	6815.66
208.371	6859.17
208.445	6885.3
208.519	6959.45
208.593	6998.98
208.668	6993.02
208.742	7002.74
208.816	7007.11
208.89	7042.82
208.965	7033.39
209.039	7052.81
209.113	7091.39
209.187	7148.46
209.261	7142.07
209.336	7198.95
209.41	7251.67
209.484	7253.31
209.558	7319.73
209.632	7355.72
209.707	7381.57
209.781	7442.32
209.855	7486.17
209.929	7523.99
210.003	7544.9
210.077	7544.28
210.151	7667.99
210.226	7764.2
210.3	7836.15
210.374	7897.47
210.448	7908.78
210.522	7937.73
210.596	7965.14
210.67	7995.63
210.744	8128.02
210.818	8215.22
210.892	8273.33
210.966	8262.13
211.041	8295.32
211.115	8285.8
211.189	8354.48
211.263	8399.74
211.337	8410.28
211.411	8448.63
211.485	8428.8
211.559	8458.77
211.633	8466.17
211.707	8382.17
211.781	8397.72
211.855	8305.43
211.929	8278.8
212.003	8232.22
212.077	8261.28
212.151	8297.91
212.225	8318.26
212.299	8289.08
212.373	8253.82
212.447	8236.06
212.52	8301.97
212.594	8319.1
212.668	8343.88
212.742	8305.48
212.816	8292.3
212.89	8273.39
212.964	8263.29
213.038	8279.31
213.112	8315.94
213.186	8348.88
213.26	8288.84
213.333	8159.31
213.407	8168.93
213.481	8181.86
213.555	8207.91
213.629	8169.51
213.703	8119.13
213.777	8110.52
213.85	8045.56
213.924	8132.38
213.998	8131.51
214.072	8113.85
214.146	8067.91
214.219	8054.48
214.293	8037.94
214.367	8038.81
214.441	8064.97
214.515	8026.1
214.588	7956.59
214.662	7854.2
214.736	7795.01
214.81	7811.06
214.883	7827.49
214.957	7789.9
215.031	7743.53
215.105	7672.31
215.178	7626.68
215.252	7598.65
215.326	7526.82
215.4	7464.23
215.473	7321.96
215.547	7252.58
215.621	7198.46
215.694	7194.52
215.768	7121.18
215.842	7068.23
215.915	7007.7
215.989	6919.17
216.063	6873.4
216.136	6854.18
216.21	6837.9
216.284	6843.33
216.357	6823.11
216.431	6799.76
216.504	6797.46
216.578	6838.73
216.652	6849.29
216.725	6831.37
216.799	6837.43
216.873	6818.51
216.946	6827.63
217.02	6798.16
217.093	6777.56
217.167	6700.96
217.24	6637.5
217.314	6603.14
217.387	6564.08
217.461	6532.68
217.535	6546.02
217.608	6502.67
217.682	6481.49
217.755	6485.81
217.829	6446.57
217.902	6431.4
217.976	6411.19
218.049	6376.33
218.123	6314.18
218.196	6313.5
218.27	6287.67
218.343	6228.65
218.417	6225.91
218.49	6207.48
218.563	6240.74
218.637	6246.79
218.71	6308.05
218.784	6329.95
218.857	6361.19
218.931	6379.61
219.004	6383.83
219.077	6399.35
219.151	6413.98
219.224	6414.08
219.298	6410.81
219.371	6440.01
219.444	6416.59
219.518	6423.84
219.591	6432.29
219.665	6520.32
219.738	6525.64
219.811	6510.39
219.885	6548.12
219.958	6576.17
220.031	6575.59
220.105	6595.58
220.178	6603.74
220.251	6576.65
220.325	6599.61
220.398	6612.15
220.471	6629.14
220.544	6657.14
220.618	6640.75
220.691	6658.42
220.764	6671.77
220.838	6693.43
220.911	6689.98
220.984	6752.35
221.057	6784.43
221.131	6804.88
221.204	6731.73
221.277	6793.8
221.35	6891.03
221.424	6878.11
221.497	6886.57
221.57	6910.42
221.643	6929.31
221.716	6957.61
221.79	6973.61
221.863	6978.84
221.936	6982.06
222.009	6996.23
222.082	7018.33
222.155	7024.87
222.229	7075.18
222.302	7095.6
222.375	7101.08
222.448	7125.39
222.521	7135.73
222.594	7132.37
222.667	7109.03
222.74	7150.3
222.814	7142.56
222.887	7125.83
222.96	7172.73
223.033	7205.27
223.106	7223.38
223.179	7248.77
223.252	7259.25
223.325	7271.4
223.398	7282.89
223.471	7307.64
223.544	7324.21
223.617	7334.21
223.69	7357.51
223.763	7327.52
223.837	7343.71
223.91	7373.28
223.983	7335.8
224.056	7300.63
224.129	7317.11
224.202	7362.21
224.275	7352.21
224.348	7331.5
224.42	7309
224.493	7267.53
224.566	7247.24
224.639	7262.95
224.712	7239.39
224.785	7232.23
224.858	7232.28
224.931	7214.44
225.004	7182.69
225.077	7182.49
225.15	7111.26
225.223	7106.07
225.296	7171.09
225.369	7126.98
225.442	7096.89
225.514	7106.93
225.587	7128.59
225.66	7136.04
225.733	7138.01
225.806	7141.71
225.879	7131.96
225.952	7103.67
226.025	7137.02
226.097	7177.7
226.17	7171.55
226.243	7116.12
226.316	7108.81
226.389	7104.48
226.461	7129.15
226.534	7143.55
226.607	7129.53
226.68	7198.07
226.753	7196
226.825	7132.28
226.898	7173.94
226.971	7178.26
227.044	7198.44
227.117	7201.42
227.189	7218.25
227.262	7248.3
227.335	7267.38
227.407	7269.59
227.48	7299.71
227.553	7313.17
227.626	7294.32
227.698	7299.99
227.771	7341.72
227.844	7327.21
227.916	7349.56
227.989	7318.7
228.062	7321.24
228.134	7398.02
228.207	7398.41
228.28	7389.76
228.352	7403.41
228.425	7411.44
228.498	7440.52
228.57	7429.04
228.643	7470.73
228.716	7471.69
228.788	7459.43
228.861	7450.82
228.934	7498.07
229.006	7500.09
229.079	7496.91
229.151	7492.34
229.224	7462.89
229.296	7480.92
229.369	7560.9
229.442	7600.09
229.514	7584.43
229.587	7622.26
229.659	7560.71
229.732	7570.14
229.804	7604.94
229.877	7662.32
229.949	7692.91
230.022	7740.83
230.094	7737.56
230.167	7731.17
230.239	7699.63
230.312	7690.21
230.384	7747.35
230.457	7745.38
230.529	7758.17
230.602	7759.27
230.674	7768.22
230.747	7804.54
230.819	7828.11
230.892	7741.45
230.964	7738.56
231.037	7757.4
231.109	7748.45
231.181	7776.96
231.254	7751.67
231.326	7742.25
231.399	7727.52
231.471	7698.76
231.544	7632.19
231.616	7666.69
231.688	7671.46
231.761	7661.46
231.833	7654.49
231.905	7589.75
231.978	7587.78
232.05	7571.06
232.122	7579.38
232.195	7557.02
232.267	7582.79
232.339	7561.73
232.412	7607.77
232.484	7585.26
232.556	7560.95
232.629	7618.97
232.701	7633.5
232.773	7641.19
232.846	7628.98
232.918	7628.11
232.99	7643.74
233.062	7673.17
233.135	7690.53
233.207	7664.13
233.279	7696.76
233.351	7720.51
233.424	7718.3
233.496	7693.16
233.568	7761.06
233.64	7728.8
233.713	7746.06
233.785	7742.41
233.857	7756.98
233.929	7723.52
234.001	7781.98
234.074	7843.93
234.146	7784.81
234.218	7780.91
234.29	7781.63
234.362	7773.7
234.434	7732.78
234.507	7706.04
234.579	7665.56
234.651	7640.46
234.723	7666.09
234.795	7680.61
234.867	7679.41
234.939	7726.58
235.012	7746.05
235.084	7748.79
235.156	7778.17
235.228	7755.19
235.3	7746.67
235.372	7754.85
235.444	7794.61
235.516	7726
235.588	7726.87
235.66	7739.22
235.732	7717.49
235.804	7871.14
235.876	7906.14
235.948	7960.3
236.02	7967.61
236.092	7986.55
236.164	8001.6
236.236	7998.61
236.308	7995.44
236.38	8014.44
236.452	8002.12
236.524	8019.48
236.596	8071.48
236.668	8105.44
236.74	8129.1
236.812	8147.09
236.884	8172.64
236.956	8184.95
237.028	8180.38
237.1	8162.01
237.172	8214.94
237.244	8275.99
237.316	8176.93
237.388	8164.04
237.46	8147.1
237.532	8206.23
237.604	8193.92
237.675	8252.43
237.747	8283.95
237.819	8278.13
237.891	8282.55
237.963	8273.27
238.035	8270.72
238.107	8181.73
238.178	8225.78
238.25	8227.65
238.322	8296.92
238.394	8264.39
238.466	8259.54
238.538	8293.2
238.609	8329.32
238.681	8287.74
238.753	8276
238.825	8300.12
238.897	8324.59
238.968	8391.41
239.04	8362.78
239.112	8451.3
239.184	8416.89
239.255	8412.12
239.327	8436.12
239.399	8449.07
239.471	8493.57
239.542	8522.58
239.614	8577.63
239.686	8511.97
239.758	8552.77
239.829	8523.11
239.901	8567.96
239.973	8586.24
240.044	8613.29
240.116	8628.11
240.188	8639.17
240.259	8643.31
240.331	8630.65
240.403	8654.08
240.474	8609.5
240.546	8604.21
240.618	8556.71
240.689	8557.43
240.761	8584.29
240.833	8633.91
240.904	8638.91
240.976	8630.88
241.048	8641.32
241.119	8671.03
241.191	8706.64
241.262	8772.22
241.334	8784.84
241.405	8794.18
241.477	8793.7
241.549	8797.98
241.62	8814.06
241.692	8854.05
241.763	8900.66
241.835	8917.12
241.906	8935.07
241.978	8915.97
242.049	8975.79
242.121	9027.77
242.192	9084.38
242.264	9049.01
242.335	9016.61
242.407	9051.32
242.478	9053.48
242.55	9066.53
242.621	9051.94
242.693	9052.76
242.764	9035.75
242.836	9029.54
242.907	9055.02
242.979	9077.54
243.05	9098.15
243.122	9116.54
243.193	9108.64
243.264	9059.35
243.336	9068.83
243.407	9100.85
243.479	9164.01
243.55	9171.91
243.622	9184.19
243.693	9176.29
243.764	9242.15
243.836	9222.04
243.907	9213.08
243.978	9222.27
244.05	9246.25
244.121	9205.14
244.192	9237.4
244.264	9193.59
244.335	9207.21
244.407	9163.21
244.478	9177.27
244.549	9167.44
244.62	9135.96
244.692	9143.57
244.763	9176.15
244.834	9166.19
244.906	9146.59
244.977	9160.89
245.048	9208.1
245.119	9192.88
245.191	9175.36
245.262	9112.05
245.333	9173.85
245.405	9187.82
245.476	9209.19
245.547	9222.73
245.618	9268.41
245.689	9272.89
245.761	9304.38
245.832	9310.01
245.903	9351.46
245.974	9375.83
246.045	9386.95
246.117	9454.66
246.188	9437.04
246.259	9426.01
246.33	9437.47
246.401	9448.6
246.473	9421.87
246.544	9405.39
246.615	9450.42
246.686	9462.31
246.757	9530.48
246.828	9507.66
246.899	9569.85
246.97	9546.07
247.042	9537.11
247.113	9569.33
247.184	9638.37
247.255	9637.02
247.326	9659.13
247.397	9661.15
247.468	9673.05
247.539	9684.61
247.61	9650.17
247.681	9686.9
247.752	9729.09
247.823	9712.14
247.894	9722.93
247.965	9704.97
248.037	9690.76
248.108	9647.85
248.179	9645.15
248.25	9634.75
248.321	9663.3
248.392	9615.27
248.463	9682.73
248.534	9685.38
248.605	9705.33
248.675	9687.98
248.746	9704.5
248.817	9717.65
248.888	9731.43
248.959	9686.83
249.03	9705.85
249.101	9714.48
249.172	9703.59
249.243	9647.93
249.314	9697.82
249.385	9704.81
249.456	9731
249.527	9733.75
249.598	9750.36
249.669	9757.73
249.739	9768.85
249.81	9777.38
249.881	9753.83
249.952	9747.08
250.023	9740.92
250.094	9694
250.165	9671.89
250.235	9667.7
250.306	9674.59
250.377	9657.15
250.448	9680.75
250.519	9630.95
250.59	9676.09
250.66	9676.72
250.731	9734.11
250.802	9737.72
250.873	9753.67
250.944	9764.75
251.014	9759.06
251.085	9834.12
251.156	9858.06
251.227	9899.83
251.297	9944.34
251.368	9978.01
251.439	10012.6
251.51	10056.82
251.58	10049.69
251.651	10046.9
251.722	10094.11
251.792	10052.49
251.863	10046.86
251.934	10090.5
252.005	10186.89
252.075	10188.38
252.146	10226.91
252.217	10263.72
252.287	10286.41
252.358	10288.58
252.429	10349.24
252.499	10341.97
252.57	10347.07
252.641	10376.85
252.711	10384.17
252.782	10352.32
252.852	10414.19
252.923	10411.49
252.994	10426.04
253.064	10465.97
253.135	10443.52
253.205	10418.71
253.276	10479.84
253.347	10538.51
253.417	10522.95
253.488	10506.67
253.558	10505.75
253.629	10503.68
253.699	10509.56
253.77	10538.76
253.841	10532.98
253.911	10540.74
253.982	10555
254.052	10581.36
254.123	10592.39
254.193	10591.09
254.264	10693.06
254.334	10670.41
254.405	10638.95
254.475	10606.72
254.546	10615.87
254.616	10667.52
254.687	10696.47
254.757	10705
254.827	10702.35
254.898	10716.76
254.968	10715.65
255.039	10692.33
255.109	10724.13
255.18	10702.59
255.25	10642.46
255.321	10666.55
255.391	10630.22
255.461	10701
255.532	10634.59
255.602	10624.86
255.673	10582.41
255.743	10553.83
255.813	10495.06
255.884	10538.13
255.954	10568.73
256.024	10614.41
256.095	10615.37
256.165	10581.6
256.235	10600.49
256.306	10587.77
256.376	10627.43
256.446	10659.43
256.517	10687.66
256.587	10724.24
256.657	10743.41
256.728	10766.2
256.798	10772.99
256.868	10777.62
256.938	10750.78
257.009	10788.27
257.079	10813.52
257.149	10888.49
257.219	10847.24
257.29	10885
257.36	10838.9
257.43	10866.08
257.5	10820.01
257.571	10814.23
257.641	10849.11
257.711	10822.31
257.781	10845.63
257.852	10863.08
257.922	10816.49
257.992	10822.36
258.062	10808.44
258.132	10846.65
258.202	10852.72
258.273	10866.75
258.343	10922.41
258.413	10908.92
258.483	10908.05
258.553	10886.61
258.623	10870.27
258.693	10889.01
258.764	10936.14
258.834	10998.54
258.904	11011.5
258.974	10998.69
259.044	11012.08
259.114	11035.12
259.184	11065.24
259.254	11078.06
259.324	11031.45
259.394	11067.5
259.464	11126.49
259.535	11137.23
259.605	11131.45
259.675	11121.04
259.745	11152.61
259.815	11132.85
259.885	11140.9
259.955	11233.35
260.025	11230.65
260.095	11237.98
260.165	11265.25
260.235	11313.12
260.305	11303.09
260.375	11284.92
260.445	11367.03
260.515	11414.56
260.585	11458.85
260.655	11461.36
260.725	11490.8
260.795	11524.68
260.865	11583.24
260.934	11555.05
261.004	11576.16
261.074	11576.11
261.144	11631.96
261.214	11660.45
261.284	11665.89
261.354	11696.25
261.424	11667.33
261.494	11722.9
261.564	11732.58
261.634	11754.47
261.703	11701.64
261.773	11719.62
261.843	11743.23
261.913	11727.86
261.983	11684.34
262.053	11694.94
262.123	11690.27
262.192	11657.49
262.262	11681.06
262.332	11642.98
262.402	11678.31
262.472	11688.39
262.541	11641.07
262.611	11667.91
262.681	11641.02
262.751	11670.9
262.821	11672.54
262.89	11640.39
262.96	11664.59
263.03	11719.2
263.1	11730.91
263.169	11747.35
263.239	11776.17
263.309	11830.74
263.379	11860.86
263.448	11881.44
263.518	11900.24
263.588	11920.53
263.657	11984.63
263.727	12023.78
263.797	12034.72
263.867	12035.05
263.936	12002.33
264.006	12055.19
264.076	12047.53
264.145	12054.61
