Data from 20250626_urea_1M_exp2_MAYP1162681_06-43-59-685.txt Node
Date: Fri Jun 27 06:43:59 BST 2025
User: adleo
Spectrometer: MAYP116268
Trigger mode: 0
Integration Time (sec): 3.000000E0
Scans to average: 1
Electric dark correction enabled: true
Nonlinearity correction enabled: true
Boxcar width: 10
XAxis mode: Wavelengths
Number of Pixels in Spectrum: 2068
>>>>>Begin Spectral Data<<<<<
179.565	2858.07
179.642	3003.02
179.718	3116.4
179.795	3223.05
179.871	3309.99
179.948	3357.13
180.024	3411
180.101	3469.89
180.177	3503.22
180.254	3559.44
180.33	3618.54
180.407	3814.57
180.483	4034.03
180.56	4259.66
180.636	4463.22
180.712	4433.26
180.789	4457.23
180.865	4486.88
180.942	4508.64
181.018	4536.3
181.095	4577.28
181.171	4586.42
181.248	4589.97
181.324	4633.64
181.4	4649.82
181.477	4673.37
181.553	4706.42
181.63	4760.43
181.706	4804.68
181.782	4831.99
181.859	4840.27
181.935	4856.46
182.011	4846.35
182.088	4890.55
182.164	4940.82
182.24	4974.12
182.317	5001.22
182.393	4991.02
182.469	5030.29
182.546	5060.31
182.622	5069.84
182.698	5059.25
182.775	5092.11
182.851	5126.64
182.927	5099.91
183.003	5085.74
183.08	5073.91
183.156	5097.19
183.232	5092.3
183.308	5062.75
183.385	5075.96
183.461	5113.57
183.537	5116.16
183.613	5156.78
183.69	5133.5
183.766	5100.04
183.842	5122.27
183.918	5132.53
183.995	5166.48
184.071	5172.57
184.147	5164.14
184.223	5136.9
184.299	5162.44
184.375	5136.82
184.452	5153.88
184.528	5265.04
184.604	5293.96
184.68	5330.75
184.756	5352.8
184.832	5358.07
184.908	5367.7
184.985	5368.42
185.061	5329.47
185.137	5345.91
185.213	5308.05
185.289	5315.29
185.365	5300.25
185.441	5292.68
185.517	5325.42
185.593	5317.08
185.669	5310.33
185.745	5340.38
185.822	5380.79
185.898	5362.19
185.974	5385.62
186.05	5364.47
186.126	5296.16
186.202	5280.88
186.278	5261.23
186.354	5233.91
186.43	5249.59
186.506	5247.43
186.582	5251.41
186.658	5267.55
186.734	5218.93
186.81	5226.59
186.886	5233.4
186.962	5263.38
187.038	5256.25
187.114	5239.13
187.19	5256.28
187.266	5232.72
187.341	5227.97
187.417	5209.48
187.493	5206.22
187.569	5212.79
187.645	5199.85
187.721	5169.7
187.797	5191.84
187.873	5207.6
187.949	5189.55
188.025	5180.53
188.101	5186.95
188.176	5199.84
188.252	5191.94
188.328	5215.25
188.404	5214.15
188.48	5200.59
188.556	5181.38
188.632	5183.2
188.707	5182.05
188.783	5176.78
188.859	5163.47
188.935	5136.01
189.011	5156.47
189.086	5144.11
189.162	5119.06
189.238	5113.84
189.314	5108.14
189.39	5088.78
189.465	5070.95
189.541	5114.65
189.617	5076.09
189.693	5062.01
189.768	5070.83
189.844	5132.05
189.92	5108.74
189.996	5132.31
190.071	5161.39
190.147	5160.19
190.223	5179.94
190.298	5162.59
190.374	5130.02
190.45	5161.91
190.526	5182.89
190.601	5167.75
190.677	5172.93
190.753	5247.25
190.828	5255.39
190.904	5295.41
190.98	5334.04
191.055	5360.73
191.131	5339.93
191.207	5388.23
191.282	5411.65
191.358	5382.52
191.433	5343.14
191.509	5383.8
191.585	5377.14
191.66	5378.81
191.736	5401.57
191.811	5380.82
191.887	5422.1
191.963	5483.74
192.038	5493.04
192.114	5494.47
192.189	5507.41
192.265	5497.98
192.34	5439.51
192.416	5440.28
192.491	5431.16
192.567	5443.49
192.642	5451.17
192.718	5453.9
192.793	5420.78
192.869	5411.82
192.944	5417.57
193.02	5433.82
193.095	5434.73
193.171	5450.07
193.246	5445.99
193.322	5439.71
193.397	5439.67
193.473	5406.58
193.548	5359.88
193.624	5377.96
193.699	5368.42
193.775	5412.16
193.85	5418.82
193.925	5442.26
194.001	5433.21
194.076	5411.3
194.152	5378.17
194.227	5354.15
194.302	5329.2
194.378	5340.31
194.453	5331.31
194.529	5364.71
194.604	5326.99
194.679	5314.44
194.755	5260.32
194.83	5295.23
194.905	5286.56
194.981	5311.77
195.056	5293.66
195.131	5311.44
195.207	5302.47
195.282	5285.75
195.357	5230.61
195.433	5269.43
195.508	5239.23
195.583	5264.29
195.659	5303.74
195.734	5320
195.809	5325.12
195.884	5346.53
195.96	5350.8
196.035	5392.97
196.11	5383.43
196.185	5415.72
196.261	5421.86
196.336	5504.09
196.411	5462.56
196.486	5474.64
196.561	5452.97
196.637	5478.22
196.712	5513.57
196.787	5523.4
196.862	5564.42
196.937	5592.13
197.013	5607.33
197.088	5632.4
197.163	5685.17
197.238	5725.74
197.313	5729.33
197.388	5763.14
197.464	5842.31
197.539	5872.09
197.614	5849.94
197.689	5879.2
197.764	5922.81
197.839	5976.38
197.914	5964.63
197.989	6024.07
198.065	6061
198.14	6194.77
198.215	6256
198.29	6292.06
198.365	6330.21
198.44	6359.24
198.515	6429.43
198.59	6464.95
198.665	6533.88
198.74	6559.34
198.815	6560.83
198.89	6616.85
198.965	6690.49
199.04	6680.26
199.115	6716.41
199.19	6835.14
199.265	6846.18
199.34	6867.36
199.415	6955.89
199.49	7010.01
199.565	7034.55
199.64	7099.59
199.715	7094.06
199.79	7111.45
199.865	7121.16
199.94	7112.13
200.015	7188.45
200.09	7201.71
200.165	7217.37
200.24	7228.95
200.315	7323.09
200.39	7362.5
200.464	7376.24
200.539	7374.18
200.614	7411.8
200.689	7472.46
200.764	7480.97
200.839	7524.64
200.914	7538.47
200.989	7508.03
201.063	7537.4
201.138	7490.87
201.213	7488.8
201.288	7433.48
201.363	7445.88
201.438	7449.34
201.512	7489.31
201.587	7445.9
201.662	7454.5
201.737	7484.45
201.812	7512.05
201.886	7426.61
201.961	7449.75
202.036	7419.62
202.111	7418.28
202.186	7341.64
202.26	7294.76
202.335	7239.48
202.41	7222.04
202.485	7181.11
202.559	7131.05
202.634	7068.25
202.709	7093.54
202.784	7041.9
202.858	7043.96
202.933	6993.86
203.008	6976.32
203.082	6923.73
203.157	6918.45
203.232	6811
203.306	6756.7
203.381	6671.09
203.456	6613.08
203.53	6553.8
203.605	6501.93
203.68	6440.53
203.754	6426.29
203.829	6390.61
203.904	6339.3
203.978	6309.14
204.053	6320.09
204.127	6288.08
204.202	6278.86
204.277	6235.43
204.351	6218.59
204.426	6198.13
204.5	6181.43
204.575	6092.98
204.65	6121.83
204.724	6104.15
204.799	6123.47
204.873	6113.82
204.948	6110.61
205.022	6081.26
205.097	6057.06
205.171	6097.26
205.246	6119.1
205.32	6119.05
205.395	6117.61
205.469	6098.44
205.544	6114.57
205.618	6069.12
205.693	6099.41
205.767	6065.54
205.842	6117.57
205.916	6101.84
205.991	6072.81
206.065	6085.91
206.14	6121.66
206.214	6107.21
206.289	6083.78
206.363	6113.48
206.438	6117.71
206.512	6135.51
206.586	6180.46
206.661	6202.36
206.735	6141.79
206.81	6141.41
206.884	6178.68
206.958	6145.1
207.033	6188.41
207.107	6203.15
207.181	6283.34
207.256	6266.44
207.33	6318.16
207.405	6352.91
207.479	6401.38
207.553	6423.31
207.628	6381.68
207.702	6417.86
207.776	6406.38
207.851	6419.44
207.925	6461.61
207.999	6458.25
208.073	6452.83
208.148	6465.84
208.222	6438.42
208.296	6523.81
208.371	6567.36
208.445	6590.31
208.519	6667.45
208.593	6696.35
208.668	6685.69
208.742	6691.51
208.816	6694.72
208.89	6731.72
208.965	6721.96
209.039	6750.69
209.113	6798.86
209.187	6852.88
209.261	6844.38
209.336	6896.5
209.41	6943.33
209.484	6944.1
209.558	6995.56
209.632	7026.05
209.707	7051.17
209.781	7108.53
209.855	7150.16
209.929	7190.04
210.003	7211.85
210.077	7207.86
210.151	7330.38
210.226	7421.35
210.3	7491.59
210.374	7553.84
210.448	7563.12
210.522	7590.05
210.596	7609.76
210.67	7631.01
210.744	7755.31
210.818	7834.94
210.892	7882.65
210.966	7870.78
211.041	7904.92
211.115	7897.95
211.189	7963.24
211.263	8006.27
211.337	8018.24
211.411	8052.88
211.485	8035.36
211.559	8069.21
211.633	8074.45
211.707	7991.63
211.781	8011.99
211.855	7922.1
211.929	7903.21
212.003	7855.73
212.077	7878.34
212.151	7909.61
212.225	7935.63
212.299	7902.76
212.373	7868.76
212.447	7856.45
212.52	7925.22
212.594	7934.98
212.668	7964.55
212.742	7928.05
212.816	7917.13
212.89	7909.92
212.964	7897.36
213.038	7909.68
213.112	7934.5
213.186	7967.63
213.26	7913.28
213.333	7790.67
213.407	7800.61
213.481	7801.29
213.555	7826.79
213.629	7796.01
213.703	7747.38
213.777	7734.92
213.85	7683.17
213.924	7766.93
213.998	7761.49
214.072	7744.89
214.146	7703.44
214.219	7691.32
214.293	7680.65
214.367	7679.45
214.441	7690.89
214.515	7658.91
214.588	7584.87
214.662	7492.37
214.736	7438.11
214.81	7451.17
214.883	7468.89
214.957	7428.49
215.031	7388.24
215.105	7321.52
215.178	7276.82
215.252	7254.47
215.326	7184.69
215.4	7119.14
215.473	6985
215.547	6920.79
215.621	6867.09
215.694	6865.55
215.768	6790.36
215.842	6732.69
215.915	6674.01
215.989	6592.62
216.063	6550.19
216.136	6537.08
216.21	6517.83
216.284	6519.94
216.357	6499.49
216.431	6467.22
216.504	6466.21
216.578	6510.79
216.652	6521.58
216.725	6506.69
216.799	6508.8
216.873	6493.01
216.946	6504
217.02	6477.95
217.093	6455.05
217.167	6386.12
217.24	6326.28
217.314	6301.72
217.387	6272.04
217.461	6243.52
217.535	6255.38
217.608	6206.48
217.682	6188.53
217.755	6196.45
217.829	6157.95
217.902	6148.83
217.976	6138.56
218.049	6106.03
218.123	6043.65
218.196	6042.93
218.27	6007.33
218.343	5959.84
218.417	5955.38
218.49	5933.46
218.563	5961.52
218.637	5973.57
218.71	6029.48
218.784	6051.42
218.857	6080.29
218.931	6100
219.004	6103.55
219.077	6123.53
219.151	6144.11
219.224	6139.79
219.298	6138.68
219.371	6172.33
219.444	6143.74
219.518	6147.68
219.591	6162.45
219.665	6246.8
219.738	6256.92
219.811	6252.32
219.885	6283.23
219.958	6307.66
220.031	6312.46
220.105	6328.3
220.178	6332.43
220.251	6312.07
220.325	6329.89
220.398	6336.03
220.471	6349.37
220.544	6379.9
220.618	6359.73
220.691	6377.3
220.764	6393.86
220.838	6415.85
220.911	6402.79
220.984	6465.75
221.057	6493.79
221.131	6513.61
221.204	6438.14
221.277	6493.18
221.35	6585.18
221.424	6575.34
221.497	6589.8
221.57	6611.92
221.643	6635.17
221.716	6672.3
221.79	6680.46
221.863	6686.66
221.936	6698.56
222.009	6709.99
222.082	6731.66
222.155	6743.32
222.229	6794.39
222.302	6810.43
222.375	6812.02
222.448	6847.27
222.521	6851.5
222.594	6853.61
222.667	6832.21
222.74	6876.62
222.814	6868.65
222.887	6855.81
222.96	6900.68
223.033	6933.89
223.106	6952.76
223.179	6975.69
223.252	6980.64
223.325	6998.65
223.398	7009.12
223.471	7028.43
223.544	7046.15
223.617	7056.92
223.69	7071.42
223.763	7040.24
223.837	7062.91
223.91	7089.58
223.983	7051.97
224.056	7027.96
224.129	7046.98
224.202	7090.62
224.275	7086.92
224.348	7066.65
224.42	7043.3
224.493	7000.69
224.566	6980.21
224.639	6995.44
224.712	6971.45
224.785	6957.23
224.858	6954.83
224.931	6941.76
225.004	6916.92
225.077	6914.19
225.15	6843.21
225.223	6844.75
225.296	6905.46
225.369	6859.64
225.442	6832.69
225.514	6841.81
225.587	6854.63
225.66	6858.62
225.733	6859.92
225.806	6865.2
225.879	6857.47
225.952	6831.25
226.025	6866.18
226.097	6898
226.17	6889.74
226.243	6843.11
226.316	6844.55
226.389	6844.89
226.461	6860.84
226.534	6873.9
226.607	6869.53
226.68	6926.86
226.753	6921.48
226.825	6864.41
226.898	6909.76
226.971	6914.08
227.044	6933.68
227.117	6938.86
227.189	6955.45
227.262	6983.71
227.335	6991.59
227.407	6988.66
227.48	7017.04
227.553	7024.87
227.626	7015.83
227.698	7022.6
227.771	7056.5
227.844	7046.17
227.916	7065.68
227.989	7033.35
228.062	7029.6
228.134	7098.81
228.207	7106.94
228.28	7097.23
228.352	7106.51
228.425	7108.04
228.498	7141.97
228.57	7129.05
228.643	7175.92
228.716	7176.21
228.788	7165.44
228.861	7166.69
228.934	7218.43
229.006	7220.35
229.079	7224.87
229.151	7217.33
229.224	7192.78
229.296	7213.11
229.369	7284.51
229.442	7321.43
229.514	7320.57
229.587	7358.34
229.659	7297.48
229.732	7307.72
229.804	7342.02
229.877	7401.65
229.949	7427.85
230.022	7471.82
230.094	7473.5
230.167	7464.94
230.239	7433.18
230.312	7423.08
230.384	7477.86
230.457	7478.92
230.529	7490.31
230.602	7485.88
230.674	7490.31
230.747	7521.38
230.819	7539.75
230.892	7450
230.964	7444.66
231.037	7466.85
231.109	7462.62
231.181	7492.08
231.254	7465.89
231.326	7454.93
231.399	7438.91
231.471	7415.88
231.544	7350.72
231.616	7384.26
231.688	7387.53
231.761	7373.36
231.833	7367.64
231.905	7295.09
231.978	7291.91
232.05	7278.32
232.122	7283.65
232.195	7265.1
232.267	7293.61
232.339	7273.46
232.412	7323.05
232.484	7296.79
232.556	7271.19
232.629	7320.54
232.701	7333.95
232.773	7341.16
232.846	7336.64
232.918	7335.78
232.99	7351.79
233.062	7387.31
233.135	7395.34
233.207	7372.31
233.279	7410.27
233.351	7433.62
233.424	7440.78
233.496	7418.82
233.568	7488.67
233.64	7462.19
233.713	7475.94
233.785	7470.12
233.857	7483.92
233.929	7449.17
234.001	7504.49
234.074	7558.93
234.146	7504.54
234.218	7502.42
234.29	7502.47
234.362	7495.41
234.434	7461.6
234.507	7432.14
234.579	7388.54
234.651	7376.9
234.723	7397.05
234.795	7406.61
234.867	7404.74
234.939	7447.38
235.012	7465.59
235.084	7462.61
235.156	7489.96
235.228	7475.25
235.3	7462.27
235.372	7475.3
235.444	7524.42
235.516	7466.8
235.588	7466.22
235.66	7479.97
235.732	7455.17
235.804	7609.94
235.876	7640.7
235.948	7691.15
236.02	7705.71
236.092	7716.13
236.164	7721.18
236.236	7724.93
236.308	7729.55
236.38	7747.58
236.452	7736.42
236.524	7748.73
236.596	7799.46
236.668	7830.67
236.74	7850.38
236.812	7872.02
236.884	7897.99
236.956	7902.51
237.028	7894.77
237.1	7885.98
237.172	7937.11
237.244	8000.83
237.316	7906.98
237.388	7894.39
237.46	7877.98
237.532	7922.85
237.604	7921.94
237.675	7981.16
237.747	8013.82
237.819	7998.39
237.891	8002.48
237.963	7997.43
238.035	7995.12
238.107	7908.08
238.178	7950.81
238.25	7952.83
238.322	8026.03
238.394	7993.9
238.466	7996.45
238.538	8030.63
238.609	8060.88
238.681	8022.25
238.753	8006.8
238.825	8018.4
238.897	8047.29
238.968	8102.83
239.04	8093.26
239.112	8175.56
239.184	8146.4
239.255	8140.58
239.327	8173.9
239.399	8195.69
239.471	8232.97
239.542	8265
239.614	8319.31
239.686	8256.23
239.758	8301.63
239.829	8272.27
239.901	8321.87
239.973	8338.17
240.044	8368.82
240.116	8384.94
240.188	8393.69
240.259	8400.96
240.331	8400.86
240.403	8426.36
240.474	8395.94
240.546	8383.77
240.618	8335.75
240.689	8334.06
240.761	8352.88
240.833	8401.58
240.904	8394.94
240.976	8393.4
241.048	8404.18
241.119	8431.38
241.191	8467.79
241.262	8522.48
241.334	8530.52
241.405	8537.31
241.477	8533.85
241.549	8542.65
241.62	8554.35
241.692	8592.26
241.763	8644.49
241.835	8655.47
241.906	8666.49
241.978	8641.61
242.049	8698.59
242.121	8749.74
242.192	8802.96
242.264	8774.19
242.335	8738.91
242.407	8777.89
242.478	8781.12
242.55	8795.65
242.621	8784
242.693	8784.53
242.764	8775.09
242.836	8777.4
242.907	8801.14
242.979	8828.09
243.05	8842.19
243.122	8868.62
243.193	8866.21
243.264	8809.42
243.336	8809.56
243.407	8842.39
243.479	8906.07
243.55	8918.88
243.622	8932.89
243.693	8935.49
243.764	8995.02
243.836	8976.75
243.907	8968.27
243.978	8973.52
244.05	8996.68
244.121	8959.04
244.192	8998.03
244.264	8960.87
244.335	8972.56
244.407	8927.85
244.478	8943.4
244.549	8935.89
244.62	8895.89
244.692	8896.8
244.763	8940.17
244.834	8940.45
244.906	8912.58
244.977	8927.07
245.048	8969.8
245.119	8948.13
245.191	8921.37
245.262	8870.82
245.333	8929.15
245.405	8942.24
245.476	8972.57
245.547	8983.98
245.618	9032.5
245.689	9036.2
245.761	9058.88
245.832	9057.14
245.903	9095.6
245.974	9119.54
246.045	9131.47
246.117	9202.2
246.188	9188.63
246.259	9170.67
246.33	9180.15
246.401	9194.89
246.473	9170.57
246.544	9161.85
246.615	9209.13
246.686	9220.25
246.757	9278.88
246.828	9261.7
246.899	9315.16
246.97	9283.2
247.042	9270.44
247.113	9305.69
247.184	9380.07
247.255	9382.48
247.326	9406.12
247.397	9416.09
247.468	9418.3
247.539	9425.91
247.61	9388.83
247.681	9428.35
247.752	9470.14
247.823	9455.32
247.894	9469.04
247.965	9445.74
248.037	9428.93
248.108	9397.24
248.179	9404.32
248.25	9392.33
248.321	9421.17
248.392	9387.02
248.463	9452.3
248.534	9454.42
248.605	9462.8
248.675	9442.95
248.746	9456
248.817	9470.74
248.888	9479.45
248.959	9438.58
249.03	9458.08
249.101	9461.93
249.172	9447.25
249.243	9390.73
249.314	9438.44
249.385	9450.24
249.456	9475.13
249.527	9472.63
249.598	9480.86
249.669	9474.31
249.739	9487.46
249.81	9489.38
249.881	9459.34
249.952	9449.47
250.023	9450.57
250.094	9409.59
250.165	9382.17
250.235	9376.3
250.306	9379.77
250.377	9359.54
250.448	9381.06
250.519	9334.17
250.59	9375.01
250.66	9378.91
250.731	9434.41
250.802	9429.84
250.873	9443.37
250.944	9458.83
251.014	9450.55
251.085	9521.16
251.156	9544.95
251.227	9586.57
251.297	9633.63
251.368	9675.09
251.439	9716.42
251.51	9755.72
251.58	9749.32
251.651	9743.15
251.722	9786.26
251.792	9748.46
251.863	9747.11
251.934	9793.88
252.005	9883.22
252.075	9893.33
252.146	9931.43
252.217	9972.9
252.287	10009.22
252.358	10015.29
252.429	10075.99
252.499	10072.72
252.57	10080.09
252.641	10119.83
252.711	10120.79
252.782	10083.99
252.852	10140.6
252.923	10132.65
252.994	10146.33
253.064	10180.23
253.135	10160.73
253.205	10145.07
253.276	10203.01
253.347	10262.79
253.417	10247.23
253.488	10230.84
253.558	10222.8
253.629	10227.28
253.699	10234.41
253.77	10257.73
253.841	10247.52
253.911	10257.21
253.982	10269.53
254.052	10297.39
254.123	10304.86
254.193	10311.8
254.264	10412.55
254.334	10388.41
254.405	10360.95
254.475	10334.98
254.546	10344.62
254.616	10395.19
254.687	10417.84
254.757	10435.28
254.827	10428.68
254.898	10448.57
254.968	10459.17
255.039	10448.82
255.109	10467.85
255.18	10449.3
255.25	10396.93
255.321	10419.42
255.391	10385.41
255.461	10454.69
255.532	10389.73
255.602	10386.12
255.673	10343.72
255.743	10323.48
255.813	10261.49
255.884	10303.55
255.954	10328.07
256.024	10379.82
256.095	10388.78
256.165	10364.26
256.235	10377.37
256.306	10365.42
256.376	10403.34
256.446	10429.7
256.517	10464.53
256.587	10503.71
256.657	10518.93
256.728	10538.97
256.798	10551.59
256.868	10551.31
256.938	10525.53
257.009	10565.42
257.079	10584.98
257.149	10659.18
257.219	10618.61
257.29	10656.32
257.36	10618.88
257.43	10652.76
257.5	10600.67
257.571	10589.2
257.641	10619.41
257.711	10591.9
257.781	10620.37
257.852	10630.59
257.922	10587.9
257.992	10582.36
258.062	10571.46
258.132	10601.73
258.202	10605.39
258.273	10613.29
258.343	10673.33
258.413	10662.93
258.483	10667.26
258.553	10646.54
258.623	10632.38
258.693	10649.1
258.764	10704.94
258.834	10760.2
258.904	10769.55
258.974	10762.37
259.044	10773.75
259.114	10801.98
259.184	10827.33
259.254	10834.46
259.324	10793.74
259.394	10828
259.464	10887.03
259.535	10901.44
259.605	10904.67
259.675	10896.82
259.745	10929.49
259.815	10911.32
259.885	10917.3
259.955	10996.78
260.025	10991.67
260.095	10999.82
260.165	11032.25
260.235	11073.46
260.305	11057.22
260.375	11044.64
260.445	11122.51
260.515	11175.28
260.585	11205.5
260.655	11211.95
260.725	11251.81
260.795	11280.77
260.865	11335.62
260.934	11315.81
261.004	11329.5
261.074	11327.91
261.144	11377.78
261.214	11405.39
261.284	11400.67
261.354	11437.29
261.424	11410.11
261.494	11467.55
261.564	11473.28
261.634	11486.1
261.703	11439.59
261.773	11461.81
261.843	11484.12
261.913	11475.35
261.983	11428.99
262.053	11446.58
262.123	11447.79
262.192	11410.24
262.262	11444.17
262.332	11404.46
262.402	11428.56
262.472	11444.27
262.541	11401.58
262.611	11435.41
262.681	11420.52
262.751	11455.99
262.821	11449.34
262.89	11414.39
262.96	11438.59
263.03	11498.31
263.1	11519.61
263.169	11535.71
263.239	11558.7
263.309	11608.45
263.379	11631.77
263.448	11655.96
263.518	11678.72
263.588	11696.4
263.657	11755.44
263.727	11783.45
263.797	11799.84
263.867	11803.16
263.936	11769.18
264.006	11806.96
264.076	11802.53
264.145	11800.79
