Data from 20250626_urea_1M_exp2_MAYP1162681_01-03-58-328.txt Node
Date: Fri Jun 27 01:03:58 BST 2025
User: adleo
Spectrometer: MAYP116268
Trigger mode: 0
Integration Time (sec): 3.000000E0
Scans to average: 1
Electric dark correction enabled: true
Nonlinearity correction enabled: true
Boxcar width: 10
XAxis mode: Wavelengths
Number of Pixels in Spectrum: 2068
>>>>>Begin Spectral Data<<<<<
179.565	2783.9
179.642	2925.52
179.718	3036.15
179.795	3140.95
179.871	3223.14
179.948	3273.15
180.024	3328.8
180.101	3388.92
180.177	3423.58
180.254	3478.22
180.33	3536.32
180.407	3727.75
180.483	3942.61
180.56	4163.89
180.636	4366.26
180.712	4334.96
180.789	4353.04
180.865	4383.83
180.942	4410.66
181.018	4432.9
181.095	4468.32
181.171	4480.76
181.248	4484.59
181.324	4523.6
181.4	4538.73
181.477	4567.97
181.553	4599.39
181.63	4652.24
181.706	4689.73
181.782	4716.08
181.859	4718.18
181.935	4731.64
182.011	4724.89
182.088	4770.99
182.164	4818.61
182.24	4854.84
182.317	4876.13
182.393	4872.64
182.469	4907.06
182.546	4939.05
182.622	4950.2
182.698	4944.07
182.775	4976.77
182.851	5013.07
182.927	4996.31
183.003	4983.53
183.08	4971.32
183.156	4994.45
183.232	4981.99
183.308	4954.27
183.385	4970.45
183.461	5014.51
183.537	5016.19
183.613	5048.04
183.69	5021.98
183.766	4991.17
183.842	5005.97
183.918	5028.15
183.995	5061.43
184.071	5070.48
184.147	5055.11
184.223	5029.84
184.299	5056.72
184.375	5029.47
184.452	5045.05
184.528	5144
184.604	5170.86
184.68	5196.34
184.756	5214.17
184.832	5224.9
184.908	5237.1
184.985	5237.44
185.061	5194.91
185.137	5214.84
185.213	5181.36
185.289	5189.98
185.365	5175.37
185.441	5169.43
185.517	5198.2
185.593	5187.61
185.669	5177.4
185.745	5204.61
185.822	5246.41
185.898	5229.54
185.974	5252.04
186.05	5231.53
186.126	5172.2
186.202	5156.88
186.278	5145.19
186.354	5121.04
186.43	5136.43
186.506	5131.59
186.582	5128.19
186.658	5148.35
186.734	5099.41
186.81	5109.7
186.886	5112.57
186.962	5142.75
187.038	5131.83
187.114	5111.93
187.19	5128.65
187.266	5108.4
187.341	5109.83
187.417	5090.49
187.493	5089.43
187.569	5102.37
187.645	5085.8
187.721	5055.41
187.797	5078.98
187.873	5089.37
187.949	5074.24
188.025	5062.31
188.101	5072.79
188.176	5083.62
188.252	5070.59
188.328	5095.34
188.404	5089.02
188.48	5079.73
188.556	5059.75
188.632	5067.03
188.707	5070.87
188.783	5068.56
188.859	5055.88
188.935	5028.43
189.011	5049.55
189.086	5032.74
189.162	5006.49
189.238	5002.61
189.314	4992.37
189.39	4976.03
189.465	4963.72
189.541	5006.31
189.617	4968.72
189.693	4953.78
189.768	4969.45
189.844	5035.49
189.92	5011.95
189.996	5038.96
190.071	5061.86
190.147	5059.89
190.223	5078.53
190.298	5059.46
190.374	5022.73
190.45	5052.36
190.526	5070.76
190.601	5062.56
190.677	5066.87
190.753	5143.54
190.828	5155.66
190.904	5195.04
190.98	5231.13
191.055	5256.28
191.131	5235.86
191.207	5285.3
191.282	5308.19
191.358	5279.64
191.433	5242.9
191.509	5278.76
191.585	5269.75
191.66	5276.51
191.736	5298.16
191.811	5274.97
191.887	5316.15
191.963	5380.31
192.038	5395.83
192.114	5401.78
192.189	5407.57
192.265	5397.62
192.34	5332.63
192.416	5330.09
192.491	5320.55
192.567	5324.82
192.642	5327.5
192.718	5328.22
192.793	5297.41
192.869	5287.11
192.944	5291.28
193.02	5303.5
193.095	5305.61
193.171	5325.36
193.246	5321.71
193.322	5312.42
193.397	5310.79
193.473	5276.41
193.548	5230.35
193.624	5244.83
193.699	5238.89
193.775	5274.22
193.85	5278.15
193.925	5302.2
194.001	5294.49
194.076	5274.32
194.152	5246.47
194.227	5229.08
194.302	5201.69
194.378	5212.18
194.453	5206.81
194.529	5241.46
194.604	5206.67
194.679	5198.29
194.755	5145.75
194.83	5179.84
194.905	5174.72
194.981	5195.8
195.056	5176.83
195.131	5193.31
195.207	5182.57
195.282	5158.24
195.357	5112.51
195.433	5152.85
195.508	5123.29
195.583	5147.71
195.659	5185.77
195.734	5202.97
195.809	5206.42
195.884	5226.77
195.96	5228.31
196.035	5266.06
196.11	5260.93
196.185	5292.6
196.261	5297.44
196.336	5375.49
196.411	5334.5
196.486	5348.92
196.561	5336.7
196.637	5361.37
196.712	5393.83
196.787	5408.07
196.862	5448.89
196.937	5473.38
197.013	5488.1
197.088	5512.2
197.163	5562.28
197.238	5602.16
197.313	5606.71
197.388	5641.14
197.464	5721.44
197.539	5757.3
197.614	5736.78
197.689	5762.54
197.764	5798.85
197.839	5852.42
197.914	5836.63
197.989	5891.69
198.065	5926.03
198.14	6058.01
198.215	6120.96
198.29	6153.93
198.365	6189.3
198.44	6215.25
198.515	6289.12
198.59	6319.36
198.665	6388.37
198.74	6412.04
198.815	6416.89
198.89	6473.29
198.965	6542.35
199.04	6530.44
199.115	6565.14
199.19	6674.77
199.265	6680.91
199.34	6706.84
199.415	6790.26
199.49	6849.55
199.565	6875.1
199.64	6940.23
199.715	6926.76
199.79	6939.92
199.865	6954.48
199.94	6945.69
200.015	7026.41
200.09	7037.99
200.165	7063.69
200.24	7075.99
200.315	7165.19
200.39	7202.58
200.464	7218.24
200.539	7221.03
200.614	7263.07
200.689	7317.86
200.764	7337.33
200.839	7382.95
200.914	7399.58
200.989	7369.57
201.063	7401.97
201.138	7359.62
201.213	7358.47
201.288	7309.74
201.363	7323.68
201.438	7327.24
201.512	7368.01
201.587	7323.84
201.662	7335.81
201.737	7359.94
201.812	7384.12
201.886	7310.53
201.961	7333.27
202.036	7300.51
202.111	7295.08
202.186	7217.2
202.26	7177.21
202.335	7121.26
202.41	7106.27
202.485	7059.83
202.559	7011.12
202.634	6939.44
202.709	6962.05
202.784	6913.53
202.858	6913.38
202.933	6866.41
203.008	6848.45
203.082	6802
203.157	6799.55
203.232	6688.48
203.306	6634.52
203.381	6552.14
203.456	6490.25
203.53	6434.25
203.605	6384.93
203.68	6328.25
203.754	6313.82
203.829	6273.58
203.904	6217.59
203.978	6187.1
204.053	6201.59
204.127	6171.51
204.202	6167.91
204.277	6124.25
204.351	6100.54
204.426	6081.34
204.5	6061.52
204.575	5975.29
204.65	5992.38
204.724	5973.89
204.799	5998.48
204.873	5985.67
204.948	5980.2
205.022	5954.26
205.097	5932.51
205.171	5969.63
205.246	5983.98
205.32	5985.95
205.395	5980.77
205.469	5961.6
205.544	5974.03
205.618	5927.82
205.693	5954.02
205.767	5927.21
205.842	5980.43
205.916	5967.96
205.991	5942.39
206.065	5956.35
206.14	5992.38
206.214	5980.04
206.289	5957.24
206.363	5982.29
206.438	5993.04
206.512	6015.98
206.586	6061.4
206.661	6083.2
206.735	6022.74
206.81	6027.06
206.884	6060.93
206.958	6029.76
207.033	6074.34
207.107	6090.82
207.181	6169.06
207.256	6158.12
207.33	6197.89
207.405	6232.53
207.479	6279.22
207.553	6301.19
207.628	6261.34
207.702	6290.75
207.776	6277.7
207.851	6287.25
207.925	6324.56
207.999	6315.78
208.073	6303.44
208.148	6313.09
208.222	6279.68
208.296	6365.63
208.371	6409.88
208.445	6435.23
208.519	6509.9
208.593	6539.76
208.668	6528.86
208.742	6534.48
208.816	6539.86
208.89	6574.24
208.965	6566.41
209.039	6593.41
209.113	6629.61
209.187	6687.84
209.261	6680.12
209.336	6726.21
209.41	6773.9
209.484	6775.73
209.558	6834.91
209.632	6871.01
209.707	6892.19
209.781	6948.53
209.855	6986.25
209.929	7023.58
210.003	7042.55
210.077	7040.58
210.151	7157.74
210.226	7245.61
210.3	7318.97
210.374	7377.71
210.448	7397.56
210.522	7425.11
210.596	7450.01
210.67	7480
210.744	7591.5
210.818	7670.43
210.892	7725.15
210.966	7713.28
211.041	7748.52
211.115	7739.24
211.189	7798.41
211.263	7846.44
211.337	7861.1
211.411	7899.82
211.485	7880.77
211.559	7906.49
211.633	7911.77
211.707	7835.89
211.781	7862.27
211.855	7769.98
211.929	7747.83
212.003	7699.64
212.077	7721.76
212.151	7746.1
212.225	7769.42
212.299	7746.32
212.373	7721.13
212.447	7709.88
212.52	7783.83
212.594	7794.08
212.668	7824.46
212.742	7791.09
212.816	7777.39
212.89	7763.59
212.964	7754.78
213.038	7771.09
213.112	7798.75
213.186	7830.47
213.26	7773.92
213.333	7647.28
213.407	7660.74
213.481	7667.08
213.555	7689.7
213.629	7656.37
213.703	7615.49
213.777	7606.31
213.85	7547.79
213.924	7630.04
213.998	7627.69
214.072	7604.93
214.146	7568.1
214.219	7555.11
214.293	7540.12
214.367	7534.78
214.441	7557.67
214.515	7524.53
214.588	7456.89
214.662	7370.62
214.736	7316.7
214.81	7336.25
214.883	7352.38
214.957	7310.4
215.031	7268.04
215.105	7205.98
215.178	7161.87
215.252	7130.01
215.326	7059.33
215.4	6999.46
215.473	6857.27
215.547	6793.6
215.621	6742.06
215.694	6737.69
215.768	6663.18
215.842	6613.63
215.915	6569.71
215.989	6481.76
216.063	6438.08
216.136	6420.03
216.21	6402.6
216.284	6411.54
216.357	6389.88
216.431	6362.23
216.504	6364.05
216.578	6405.26
216.652	6411.78
216.725	6391.76
216.799	6401.7
216.873	6385.86
216.946	6395.7
217.02	6375.17
217.093	6354.68
217.167	6284.27
217.24	6225.64
217.314	6200.65
217.387	6169.92
217.461	6134.2
217.535	6156.62
217.608	6109.35
217.682	6093.9
217.755	6098.84
217.829	6060.44
217.902	6044.94
217.976	6028.34
218.049	5993.37
218.123	5937.82
218.196	5937.58
218.27	5910.67
218.343	5854.27
218.417	5853.84
218.49	5833.83
218.563	5861.8
218.637	5867.99
218.71	5926.34
218.784	5946.16
218.857	5967.83
218.931	5985.04
219.004	5992.86
219.077	6002.32
219.151	6016.81
219.224	6007.93
219.298	6004.76
219.371	6038.07
219.444	6009.16
219.518	6017.94
219.591	6028.1
219.665	6108.07
219.738	6114.16
219.811	6107.73
219.885	6144.1
219.958	6168.2
220.031	6173.47
220.105	6189.55
220.178	6198.58
220.251	6179.66
220.325	6195.65
220.398	6206.73
220.471	6226.11
220.544	6248.39
220.618	6232.26
220.691	6256.92
220.764	6271.51
220.838	6293.64
220.911	6278.9
220.984	6346.55
221.057	6378.18
221.131	6395.98
221.204	6324.51
221.277	6383.23
221.35	6477.63
221.424	6472.88
221.497	6482.05
221.57	6499.56
221.643	6523.91
221.716	6553.4
221.79	6559.11
221.863	6567.18
221.936	6577.65
222.009	6585.18
222.082	6608.53
222.155	6618.85
222.229	6664.96
222.302	6688.73
222.375	6695.98
222.448	6726.76
222.521	6727.68
222.594	6724.7
222.667	6713.76
222.74	6757.88
222.814	6744.62
222.887	6722.56
222.96	6763.73
223.033	6794
223.106	6813.87
223.179	6839.97
223.252	6846.98
223.325	6864.37
223.398	6878.2
223.471	6901.64
223.544	6914.27
223.617	6921.62
223.69	6939
223.763	6912.82
223.837	6931.22
223.91	6950.72
223.983	6917.87
224.056	6894.34
224.129	6911.78
224.202	6946.43
224.275	6935.53
224.348	6919.3
224.42	6899.74
224.493	6856.76
224.566	6840.46
224.639	6856.46
224.712	6836.42
224.785	6826.52
224.858	6827.91
224.931	6814.7
225.004	6783.48
225.077	6786.46
225.15	6719.05
225.223	6717.37
225.296	6779.72
225.369	6734.58
225.442	6708.69
225.514	6720.31
225.587	6734.14
225.66	6739.9
225.733	6747.25
225.806	6747.15
225.879	6740.62
225.952	6716.72
226.025	6756.63
226.097	6793.83
226.17	6784.52
226.243	6731.46
226.316	6732.42
226.389	6729.06
226.461	6745.49
226.534	6757.25
226.607	6753.36
226.68	6817.4
226.753	6812.98
226.825	6747.18
226.898	6790.4
226.971	6790.16
227.044	6804.95
227.117	6812.06
227.189	6825.8
227.262	6851.32
227.335	6870.29
227.407	6871.16
227.48	6898.91
227.553	6905.2
227.626	6892.65
227.698	6904.13
227.771	6936.53
227.844	6917.85
227.916	6937.64
227.989	6909.97
228.062	6911.12
228.134	6971.19
228.207	6968.6
228.28	6961.64
228.352	6975.71
228.425	6984.55
228.498	7029.77
228.57	7017.33
228.643	7067.07
228.716	7072.5
228.788	7059.53
228.861	7061.64
228.934	7110.41
229.006	7111.61
229.079	7114.35
229.151	7105.69
229.224	7080.48
229.296	7100.32
229.369	7184.54
229.442	7221.66
229.514	7211.29
229.587	7249.29
229.659	7195.66
229.732	7209.06
229.804	7240.68
229.877	7296.11
229.949	7314.04
230.022	7354.11
230.094	7354.78
230.167	7343.91
230.239	7311.82
230.312	7306.53
230.384	7355.62
230.457	7351.97
230.529	7364.61
230.602	7362.15
230.674	7368.55
230.747	7396.6
230.819	7413.95
230.892	7319.3
230.964	7318.1
231.037	7336.4
231.109	7334.47
231.181	7363.3
231.254	7334.28
231.326	7322.12
231.399	7306.39
231.471	7287.84
231.544	7222.83
231.616	7257.18
231.688	7260.31
231.761	7249.84
231.833	7243.54
231.905	7176.72
231.978	7179.22
232.05	7159.62
232.122	7164.04
232.195	7143.23
232.267	7173.27
232.339	7160.05
232.412	7213.48
232.484	7188.62
232.556	7164.42
232.629	7209.48
232.701	7223.18
232.773	7234.8
232.846	7227.93
232.918	7227.6
232.99	7242.69
233.062	7274.08
233.135	7275.13
233.207	7244.08
233.279	7270.89
233.351	7290.59
233.424	7297.79
233.496	7274.97
233.568	7345.67
233.64	7318.18
233.713	7334.72
233.785	7332.79
233.857	7346.16
233.929	7304.11
234.001	7355.24
234.074	7415.34
234.146	7364.03
234.218	7352.54
234.29	7351.77
234.362	7345.05
234.434	7314.81
234.507	7289.62
234.579	7252.81
234.651	7243.63
234.723	7269.1
234.795	7289.53
234.867	7285.34
234.939	7324.57
235.012	7339.51
235.084	7339.32
235.156	7364.5
235.228	7349.55
235.3	7332.39
235.372	7342.2
235.444	7387.8
235.516	7328.22
235.588	7323.84
235.66	7330.57
235.732	7320
235.804	7469.07
235.876	7501.79
235.948	7546.03
236.02	7554.1
236.092	7570
236.164	7582.31
236.236	7583.22
236.308	7579.76
236.38	7604.28
236.452	7594.32
236.524	7613.46
236.596	7657.92
236.668	7686.53
236.74	7699.75
236.812	7720.8
236.884	7743.65
236.956	7753.22
237.028	7748.89
237.1	7739.66
237.172	7798.01
237.244	7858.02
237.316	7770.68
237.388	7760.88
237.46	7746.01
237.532	7794.15
237.604	7784.83
237.675	7836.43
237.747	7870.25
237.819	7865.87
237.891	7867.31
237.963	7858.28
238.035	7849.72
238.107	7770.15
238.178	7814.03
238.25	7824.56
238.322	7895.05
238.394	7863.84
238.466	7862.45
238.538	7892.06
238.609	7923.6
238.681	7880.35
238.753	7853.41
238.825	7863.71
238.897	7886.11
238.968	7950.89
239.04	7933.38
239.112	8017.4
239.184	7991.75
239.255	7991.7
239.327	8015.98
239.399	8029.84
239.471	8061.14
239.542	8093.51
239.614	8143.62
239.686	8083.63
239.758	8121
239.829	8092.89
239.901	8138.92
239.973	8157.58
240.044	8188.9
240.116	8199.14
240.188	8215.3
240.259	8235.6
240.331	8229.97
240.403	8260.18
240.474	8217.63
240.546	8207.34
240.618	8160.09
240.689	8155.86
240.761	8168.13
240.833	8220.33
240.904	8223.65
240.976	8229.33
241.048	8235.44
241.119	8260.56
241.191	8291.49
241.262	8343.33
241.334	8346.8
241.405	8351.27
241.477	8342.47
241.549	8344.06
241.62	8366.43
241.692	8398.19
241.763	8442.47
241.835	8461.05
241.906	8474.18
241.978	8454.7
242.049	8510.36
242.121	8557.66
242.192	8611.02
242.264	8587.97
242.335	8543.51
242.407	8573.3
242.478	8575.8
242.55	8599.57
242.621	8588.26
242.693	8593.6
242.764	8585.41
242.836	8585.51
242.907	8604.86
242.979	8641.04
243.05	8656.83
243.122	8672.71
243.193	8669.68
243.264	8614.1
243.336	8617.8
243.407	8638.11
243.479	8701.69
243.55	8714.88
243.622	8726.48
243.693	8723.98
243.764	8774.8
243.836	8762.72
243.907	8760.61
243.978	8760.65
244.05	8769.08
244.121	8741.07
244.192	8770.53
244.264	8734.04
244.335	8747.23
244.407	8713.3
244.478	8718.55
244.549	8714.99
244.62	8682.4
244.692	8682.64
244.763	8720.42
244.834	8704.68
244.906	8691.3
244.977	8701.12
245.048	8737.91
245.119	8719.72
245.191	8703.21
245.262	8656.43
245.333	8713.49
245.405	8723.41
245.476	8758.4
245.547	8777.56
245.618	8816.92
245.689	8823.42
245.761	8849.75
245.832	8847.92
245.903	8880.84
245.974	8905.01
246.045	8911.99
246.117	8975.87
246.188	8961.77
246.259	8950.12
246.33	8968.17
246.401	8977.51
246.473	8949.97
246.544	8943.47
246.615	8988.96
246.686	8993.58
246.757	9048.21
246.828	9028.81
246.899	9081.64
246.97	9049.25
247.042	9037.26
247.113	9070.44
247.184	9143.03
247.255	9143.12
247.326	9167.77
247.397	9180.63
247.468	9180.19
247.539	9193.58
247.61	9156.21
247.681	9196.64
247.752	9239.3
247.823	9221.06
247.894	9234.97
247.965	9216.87
248.037	9204.98
248.108	9169.73
248.179	9175.89
248.25	9163.28
248.321	9189.75
248.392	9153.73
248.463	9220.69
248.534	9221.17
248.605	9231.63
248.675	9205.95
248.746	9220.54
248.817	9234.6
248.888	9248.95
248.959	9208.8
249.03	9222.43
249.101	9228.59
249.172	9209.24
249.243	9155.37
249.314	9203.9
249.385	9211.22
249.456	9233.4
249.527	9225.22
249.598	9235.9
249.669	9229.5
249.739	9245.63
249.81	9251.99
249.881	9228.45
249.952	9219.54
250.023	9213.86
250.094	9181.45
250.165	9157.6
250.235	9155.82
250.306	9155.63
250.377	9131.94
250.448	9159.18
250.519	9117.06
250.59	9152.93
250.66	9155.2
250.731	9208.48
250.802	9204.39
250.873	9214.74
250.944	9232.36
251.014	9229.04
251.085	9294.26
251.156	9316.5
251.227	9355.03
251.297	9392.02
251.368	9426.3
251.439	9453.03
251.51	9497.48
251.58	9479.95
251.651	9481.45
251.722	9523.06
251.792	9487.57
251.863	9483.96
251.934	9530.96
252.005	9614.94
252.075	9626.65
252.146	9666.47
252.217	9697
252.287	9734.53
252.358	9739.05
252.429	9797.72
252.499	9793.49
252.57	9807.6
252.641	9844.11
252.711	9846.47
252.782	9818.2
252.852	9878.7
252.923	9882.94
252.994	9895.95
253.064	9937.02
253.135	9919.06
253.205	9897.19
253.276	9955.84
253.347	10011.61
253.417	9985.89
253.488	9969.85
253.558	9968.6
253.629	9964.94
253.699	9976.4
253.77	9996.93
253.841	9992.35
253.911	9997.17
253.982	10010.8
254.052	10032.72
254.123	10046.31
254.193	10054.54
254.264	10158.71
254.334	10132.16
254.405	10103.84
254.475	10080.48
254.546	10088.09
254.616	10136.06
254.687	10159.37
254.757	10173.49
254.827	10170.55
254.898	10200.13
254.968	10209.33
255.039	10191.51
255.109	10221.08
255.18	10202.92
255.25	10151.28
255.321	10179.22
255.391	10147.9
255.461	10207.25
255.532	10145.53
255.602	10130.79
255.673	10085.17
255.743	10056.69
255.813	9994.47
255.884	10036.86
255.954	10061.47
256.024	10102.66
256.095	10105.31
256.165	10078.19
256.235	10094.34
256.306	10079.31
256.376	10111.49
256.446	10147.24
256.517	10178.5
256.587	10212.67
256.657	10227.74
256.728	10239.64
256.798	10243.3
256.868	10244.26
256.938	10228.17
257.009	10262.28
257.079	10292.78
257.149	10372.07
257.219	10325.34
257.29	10361.31
257.36	10318.34
257.43	10344.98
257.5	10304.03
257.571	10296.13
257.641	10327.15
257.711	10304.84
257.781	10329.51
257.852	10340.64
257.922	10287.11
257.992	10283.6
258.062	10273.57
258.132	10304.65
258.202	10314.57
258.273	10323.54
258.343	10381.4
258.413	10375.86
258.483	10378.51
258.553	10359.63
258.623	10340.45
258.693	10368.25
258.764	10420.13
258.834	10472.74
258.904	10487.77
258.974	10470.24
259.044	10481.47
259.114	10500.26
259.184	10520.88
259.254	10531.29
259.324	10497.27
259.394	10535.66
259.464	10594.93
259.535	10602.69
259.605	10602.4
259.675	10594.5
259.745	10624.57
259.815	10606.88
259.885	10605.1
259.955	10696.77
260.025	10690.08
260.095	10693.16
260.165	10711.57
260.235	10761.21
260.305	10754.46
260.375	10729.74
260.445	10811.45
260.515	10856.55
260.585	10893.66
260.655	10891.49
260.725	10921.37
260.795	10949.03
260.865	11001.75
260.934	10978.18
261.004	11004.93
261.074	11006.42
261.144	11054.89
261.214	11083.28
261.284	11084.05
261.354	11117.29
261.424	11080.37
261.494	11131.44
261.564	11142
261.634	11162.38
261.703	11110.86
261.773	11126.47
261.843	11160.11
261.913	11151.53
261.983	11115.44
262.053	11130.53
262.123	11142.04
262.192	11113.9
262.262	11140.74
262.332	11107.44
262.402	11141.08
262.472	11152.17
262.541	11112.03
262.611	11150.68
262.681	11131.16
262.751	11164.37
262.821	11164.37
262.89	11140.37
262.96	11166.87
263.03	11226.2
263.1	11246.93
263.169	11266.25
263.239	11292.08
263.309	11339.75
263.379	11363.66
263.448	11383.27
263.518	11409.64
263.588	11419.37
263.657	11475.66
263.727	11508.58
263.797	11518.89
263.867	11513.11
263.936	11484.67
264.006	11530.78
264.076	11522.06
264.145	11520.61
264.215	11498.49
264.285	11527.99
264.354	11496.62
