Data from 20250626_urea_1M_exp2_MAYP1162681_08-03-59-303.txt Node
Date: Fri Jun 27 08:03:59 BST 2025
User: adleo
Spectrometer: MAYP116268
Trigger mode: 0
Integration Time (sec): 3.000000E0
Scans to average: 1
Electric dark correction enabled: true
Nonlinearity correction enabled: true
Boxcar width: 10
XAxis mode: Wavelengths
Number of Pixels in Spectrum: 2068
>>>>>Begin Spectral Data<<<<<
179.565	2941.17
179.642	3090.85
179.718	3204.75
179.795	3317.96
179.871	3406.82
179.948	3458.39
180.024	3512.29
180.101	3576.38
180.177	3616.44
180.254	3675.7
180.33	3730.86
180.407	3931.24
180.483	4160.36
180.56	4389.59
180.636	4599.27
180.712	4567.67
180.789	4587.15
180.865	4618.77
180.942	4646.95
181.018	4674.18
181.095	4716.19
181.171	4726.72
181.248	4731.36
181.324	4776.34
181.4	4791.13
181.477	4820.58
181.553	4850.39
181.63	4902.54
181.706	4938.8
181.782	4961.86
181.859	4963.83
181.935	4985.04
182.011	4980.16
182.088	5024.23
182.164	5076.23
182.24	5111.7
182.317	5141.82
182.393	5137.03
182.469	5166.05
182.546	5197.1
182.622	5213.43
182.698	5197.76
182.775	5237
182.851	5272.79
182.927	5251.66
183.003	5238.97
183.08	5223.45
183.156	5248.36
183.232	5243.8
183.308	5218.03
183.385	5235.56
183.461	5281.03
183.537	5279.55
183.613	5310.79
183.69	5286.02
183.766	5255.57
183.842	5274.79
183.918	5283.8
183.995	5316.38
184.071	5331.52
184.147	5319.06
184.223	5287.08
184.299	5317.28
184.375	5282.1
184.452	5300.81
184.528	5404.65
184.604	5429.61
184.68	5461.61
184.756	5480.65
184.832	5493.49
184.908	5505.52
184.985	5504.22
185.061	5462.05
185.137	5484.72
185.213	5456.16
185.289	5460.57
185.365	5438.73
185.441	5433.84
185.517	5469.37
185.593	5460.79
185.669	5452.55
185.745	5479.39
185.822	5524.51
185.898	5502.03
185.974	5528.18
186.05	5503.44
186.126	5438.38
186.202	5419.36
186.278	5407.23
186.354	5383.69
186.43	5398.37
186.506	5394.06
186.582	5393.77
186.658	5407.9
186.734	5357.45
186.81	5361.71
186.886	5371.39
186.962	5407.09
187.038	5394.72
187.114	5373.71
187.19	5391.07
187.266	5365.91
187.341	5368.12
187.417	5349.19
187.493	5350.87
187.569	5356.19
187.645	5341.96
187.721	5311.08
187.797	5336.91
187.873	5346.26
187.949	5331.69
188.025	5314.43
188.101	5317.73
188.176	5329.47
188.252	5318.79
188.328	5341.25
188.404	5342.49
188.48	5326.73
188.556	5306.36
188.632	5309.72
188.707	5307.99
188.783	5306.55
188.859	5294.06
188.935	5265.34
189.011	5283.55
189.086	5266.4
189.162	5244.16
189.238	5237.51
189.314	5231.23
189.39	5216.13
189.465	5198.35
189.541	5244.08
189.617	5205.18
189.693	5197.42
189.768	5210.37
189.844	5276.2
189.92	5252.69
189.996	5275.6
190.071	5303.68
190.147	5304.49
190.223	5328.65
190.298	5312.6
190.374	5276.56
190.45	5308.55
190.526	5325.76
190.601	5315.12
190.677	5316.8
190.753	5399.16
190.828	5409.27
190.904	5449.06
190.98	5490.63
191.055	5515.17
191.131	5489.13
191.207	5543.33
191.282	5567.57
191.358	5540.11
191.433	5501.4
191.509	5538.52
191.585	5529.5
191.66	5537.18
191.736	5556.54
191.811	5534.63
191.887	5574.58
191.963	5639.54
192.038	5656.47
192.114	5666.82
192.189	5677.37
192.265	5671.96
192.34	5605.35
192.416	5606.79
192.491	5594.51
192.567	5601.13
192.642	5611.25
192.718	5615.57
192.793	5586.85
192.869	5574.96
192.944	5581.96
193.02	5601.91
193.095	5607.08
193.171	5623.77
193.246	5614.42
193.322	5607.95
193.397	5608.76
193.473	5572.79
193.548	5523.44
193.624	5536.73
193.699	5526.42
193.775	5563.64
193.85	5567.62
193.925	5589.63
194.001	5583.3
194.076	5564.61
194.152	5533.53
194.227	5512.57
194.302	5482.82
194.378	5492.12
194.453	5485.84
194.529	5517.05
194.604	5477.84
194.679	5466.34
194.755	5413.87
194.83	5450.57
194.905	5445.78
194.981	5467.49
195.056	5450.92
195.131	5466.16
195.207	5458.87
195.282	5431.6
195.357	5383.5
195.433	5423.57
195.508	5393.17
195.583	5413.01
195.659	5454.16
195.734	5472.67
195.809	5473.87
195.884	5496.38
195.96	5491.35
196.035	5532.76
196.11	5525.52
196.185	5556.92
196.261	5562.81
196.336	5646.66
196.411	5603.97
196.486	5616.14
196.561	5599.89
196.637	5625.29
196.712	5666.93
196.787	5678.88
196.862	5723.26
196.937	5747.33
197.013	5764.75
197.088	5787.71
197.163	5849.13
197.238	5892.93
197.313	5890.72
197.388	5923.29
197.464	6002.56
197.539	6033.01
197.614	6010.09
197.689	6035.52
197.764	6075.93
197.839	6130.05
197.914	6111.57
197.989	6173.66
198.065	6210.74
198.14	6342.73
198.215	6415.02
198.29	6443.21
198.365	6475.18
198.44	6502.15
198.515	6572.59
198.59	6607.79
198.665	6679.18
198.74	6693.35
198.815	6694.12
198.89	6760.19
198.965	6840.47
199.04	6832.45
199.115	6875.47
199.19	6993.32
199.265	7005.27
199.34	7032.99
199.415	7118.36
199.49	7178.1
199.565	7200.25
199.64	7265.45
199.715	7253.14
199.79	7262.61
199.865	7276.83
199.94	7271.21
200.015	7356.48
200.09	7372.87
200.165	7392.58
200.24	7412.05
200.315	7518.17
200.39	7555.91
200.464	7568.12
200.539	7572.11
200.614	7612.29
200.689	7673.2
200.764	7688.26
200.839	7735.64
200.914	7748.76
200.989	7725.23
201.063	7761.59
201.138	7719.42
201.213	7721.82
201.288	7671.88
201.363	7685.53
201.438	7687.26
201.512	7731.95
201.587	7676.79
201.662	7686.51
201.737	7711.61
201.812	7727.72
201.886	7637.4
201.961	7669.06
202.036	7632.54
202.111	7621.43
202.186	7544.14
202.26	7500.09
202.335	7439.46
202.41	7418.56
202.485	7374.64
202.559	7321
202.634	7243.43
202.709	7268.26
202.784	7209.54
202.858	7215.97
202.933	7165.95
203.008	7150.53
203.082	7097.25
203.157	7104.12
203.232	6992.81
203.306	6939.99
203.381	6857.87
203.456	6798.59
203.53	6729.87
203.605	6681.25
203.68	6620.28
203.754	6606.46
203.829	6566.64
203.904	6511.96
203.978	6482.47
204.053	6495.34
204.127	6463.23
204.202	6463.23
204.277	6417.72
204.351	6403.85
204.426	6376.95
204.5	6357.56
204.575	6267.88
204.65	6291.32
204.724	6267.82
204.799	6290.55
204.873	6276.96
204.948	6271.54
205.022	6242.99
205.097	6222.67
205.171	6262.65
205.246	6289.16
205.32	6285.37
205.395	6283.11
205.469	6266.04
205.544	6280.11
205.618	6229
205.693	6258.13
205.767	6225.5
205.842	6282.44
205.916	6265.27
205.991	6239.98
206.065	6253.89
206.14	6291.34
206.214	6277.41
206.289	6257.24
206.363	6284.4
206.438	6294.82
206.512	6315.27
206.586	6362.83
206.661	6379.78
206.735	6314.5
206.81	6311.33
206.884	6349.86
206.958	6314.69
207.033	6354.65
207.107	6369.3
207.181	6453.39
207.256	6440.52
207.33	6489.76
207.405	6520.63
207.479	6571.37
207.553	6591.72
207.628	6549.83
207.702	6583.48
207.776	6568.17
207.851	6583.34
207.925	6631.91
207.999	6622.5
208.073	6618.76
208.148	6622.79
208.222	6598.49
208.296	6683.94
208.371	6729.99
208.445	6759.39
208.519	6833.99
208.593	6867.71
208.668	6858.82
208.742	6867.57
208.816	6870.83
208.89	6909.23
208.965	6898.94
209.039	6916.24
209.113	6963.27
209.187	7017.2
209.261	7007.7
209.336	7067.6
209.41	7117.39
209.484	7113.01
209.558	7175.82
209.632	7207.57
209.707	7239.91
209.781	7300.6
209.855	7352.24
209.929	7389.81
210.003	7411.49
210.077	7415.09
210.151	7543.51
210.226	7638.49
210.3	7707.97
210.374	7767.22
210.448	7779.34
210.522	7810.26
210.596	7836.13
210.67	7861.8
210.744	7990.95
210.818	8074.34
210.892	8123.98
210.966	8108.88
211.041	8148.32
211.115	8138.99
211.189	8204.44
211.263	8250.61
211.337	8263.74
211.411	8292.71
211.485	8279.81
211.559	8305.01
211.633	8314.05
211.707	8229.81
211.781	8245.51
211.855	8152.71
211.929	8137.32
212.003	8087.24
212.077	8113.08
212.151	8153.59
212.225	8177.26
212.299	8147.03
212.373	8115.28
212.447	8101.71
212.52	8175.32
212.594	8185.37
212.668	8212.65
212.742	8170.03
212.816	8153.62
212.89	8136.59
212.964	8135.82
213.038	8141.41
213.112	8170.42
213.186	8202.93
213.26	8143.28
213.333	8022.33
213.407	8036.85
213.481	8034.2
213.555	8059.72
213.629	8022.09
213.703	7969.8
213.777	7961.28
213.85	7900.14
213.924	7983.34
213.998	7976.31
214.072	7950.37
214.146	7906.89
214.219	7893.61
214.293	7881.11
214.367	7881.88
214.441	7902.99
214.515	7858.73
214.588	7789.63
214.662	7694.38
214.736	7628.23
214.81	7639.95
214.883	7654.41
214.957	7612.12
215.031	7572.64
215.105	7505.45
215.178	7457.48
215.252	7427.78
215.326	7356.2
215.4	7297.02
215.473	7156.03
215.547	7092.43
215.621	7040.54
215.694	7037.22
215.768	6963.07
215.842	6916.04
215.915	6860.43
215.989	6773.73
216.063	6727.3
216.136	6713.23
216.21	6693.11
216.284	6703.34
216.357	6688.17
216.431	6662.04
216.504	6663.86
216.578	6710.47
216.652	6718.24
216.725	6702.34
216.799	6711.23
216.873	6688.62
216.946	6688.23
217.02	6660.45
217.093	6638.41
217.167	6563.51
217.24	6501.64
217.314	6471.32
217.387	6433.27
217.461	6397.12
217.535	6408.84
217.608	6359.4
217.682	6342.45
217.755	6351.81
217.829	6310.23
217.902	6294.96
217.976	6279.65
218.049	6243.75
218.123	6178.86
218.196	6181.06
218.27	6153.37
218.343	6099.1
218.417	6101.55
218.49	6087.06
218.563	6120.17
218.637	6131.74
218.71	6192.95
218.784	6215.32
218.857	6242.43
218.931	6263.19
219.004	6268.95
219.077	6288.36
219.151	6309.03
219.224	6297.37
219.298	6295.55
219.371	6330.16
219.444	6301.38
219.518	6304.93
219.591	6319.47
219.665	6403.06
219.738	6411.94
219.811	6398.13
219.885	6428.66
219.958	6450.69
220.031	6457.51
220.105	6471.29
220.178	6469.7
220.251	6448.67
220.325	6468.89
220.398	6480.08
220.471	6496.73
220.544	6526.02
220.618	6505.75
220.691	6526.97
220.764	6540.5
220.838	6559.66
220.911	6551.64
220.984	6617.46
221.057	6646.36
221.131	6661.82
221.204	6586.29
221.277	6637.59
221.35	6733.21
221.424	6726.72
221.497	6737.67
221.57	6755.77
221.643	6787.67
221.716	6826.16
221.79	6827.41
221.863	6833.56
221.936	6841.29
222.009	6848.73
222.082	6870.45
222.155	6880.49
222.229	6930.94
222.302	6958.61
222.375	6966.53
222.448	6997.04
222.521	7006.27
222.594	7006.61
222.667	6988.08
222.74	7031.64
222.814	7028.99
222.887	7018.75
222.96	7065.22
223.033	7097.42
223.106	7115.96
223.179	7137.78
223.252	7143.55
223.325	7170.5
223.398	7180.45
223.471	7206.83
223.544	7222.49
223.617	7233.93
223.69	7252.81
223.763	7225.02
223.837	7240.64
223.91	7262.46
223.983	7221.96
224.056	7191.89
224.129	7208.85
224.202	7248.22
224.275	7237.56
224.348	7209.35
224.42	7184.79
224.493	7145.34
224.566	7130.39
224.639	7143.03
224.712	7118.22
224.785	7105.53
224.858	7097.41
224.931	7082.84
225.004	7050.46
225.077	7052.43
225.15	6980.25
225.223	6973.23
225.296	7033.63
225.369	6986.93
225.442	6962.66
225.514	6977.65
225.587	6992.83
225.66	6998.4
225.733	7000.32
225.806	7008.39
225.879	7006.81
225.952	6978.86
226.025	7014.08
226.097	7050.48
226.17	7049.52
226.243	6999.85
226.316	6997.11
226.389	7002.16
226.461	7017.54
226.534	7030.51
226.607	7023.69
226.68	7092.17
226.753	7089.82
226.825	7029.47
226.898	7080.78
226.971	7080.25
227.044	7094.85
227.117	7098.84
227.189	7114.99
227.262	7142.68
227.335	7157.82
227.407	7157.29
227.48	7186.06
227.553	7187.69
227.626	7172.01
227.698	7174.66
227.771	7208.03
227.844	7200.01
227.916	7215.92
227.989	7191.41
228.062	7198.66
228.134	7257.45
228.207	7253.02
228.28	7246.59
228.352	7256.01
228.425	7258.75
228.498	7296.14
228.57	7281.63
228.643	7331.01
228.716	7332.35
228.788	7328.99
228.861	7325.82
228.934	7375.89
229.006	7381.95
229.079	7384.01
229.151	7375.84
229.224	7351.29
229.296	7364.36
229.369	7441.55
229.442	7476.46
229.514	7463.64
229.587	7493.68
229.659	7441.52
229.732	7455.51
229.804	7489.44
229.877	7545.66
229.949	7570.47
230.022	7610.11
230.094	7616.74
230.167	7599.33
230.239	7566.27
230.312	7549.35
230.384	7609.04
230.457	7603.51
230.529	7608.51
230.602	7612.06
230.674	7620.19
230.747	7654.21
230.819	7676.18
230.892	7580.16
230.964	7576.07
231.037	7595.77
231.109	7588.65
231.181	7622.68
231.254	7594.7
231.326	7590.38
231.399	7577.72
231.471	7555.5
231.544	7496.97
231.616	7532.73
231.688	7542.2
231.761	7531.83
231.833	7529.52
231.905	7455.56
231.978	7456.81
232.05	7442.82
232.122	7447.63
232.195	7430.95
232.267	7456.91
232.339	7441.05
232.412	7498.91
232.484	7481.88
232.556	7460.89
232.629	7517.03
232.701	7522.32
232.773	7526.21
232.846	7516.12
232.918	7520.21
232.99	7532.9
233.062	7565.07
233.135	7565.64
233.207	7532.09
233.279	7570.19
233.351	7592.3
233.424	7598.69
233.496	7577.35
233.568	7650.73
233.64	7618.91
233.713	7628.43
233.785	7624.24
233.857	7635.15
233.929	7596.84
234.001	7648.95
234.074	7694.55
234.146	7631.78
234.218	7639.86
234.29	7649.76
234.362	7639.86
234.434	7596.24
234.507	7569.89
234.579	7528.69
234.651	7513.35
234.723	7547.01
234.795	7558.64
234.867	7554.03
234.939	7595.33
235.012	7613.69
235.084	7619.37
235.156	7649.61
235.228	7634.51
235.3	7621.63
235.372	7631.82
235.444	7673.12
235.516	7604.18
235.588	7614.95
235.66	7632.5
235.732	7608.08
235.804	7755.6
235.876	7788.96
235.948	7844.32
236.02	7856.29
236.092	7870.37
236.164	7885.09
236.236	7878.88
236.308	7873.4
236.38	7897.35
236.452	7887.01
236.524	7899.08
236.596	7947.13
236.668	7972.57
236.74	7993.96
236.812	8017.53
236.884	8047.64
236.956	8061.59
237.028	8059.14
237.1	8044.04
237.172	8097.4
237.244	8160.55
237.316	8070.84
237.388	8059.4
237.46	8040.82
237.532	8086.62
237.604	8077.72
237.675	8128.34
237.747	8169.18
237.819	8164.32
237.891	8170.05
237.963	8164.71
238.035	8156.73
238.107	8067.98
238.178	8115.2
238.25	8116.69
238.322	8186.53
238.394	8151.55
238.466	8142.65
238.538	8177.08
238.609	8210.51
238.681	8167.39
238.753	8151.42
238.825	8162.05
238.897	8183.16
238.968	8241.98
239.04	8227.5
239.112	8314.62
239.184	8284.4
239.255	8280.98
239.327	8307.48
239.399	8316.86
239.471	8353.08
239.542	8388.01
239.614	8437.95
239.686	8373.85
239.758	8417.44
239.829	8387.73
239.901	8434.92
239.973	8449.69
240.044	8481.4
240.116	8493.48
240.188	8501.03
240.259	8504.64
240.331	8499.25
240.403	8535.38
240.474	8502.84
240.546	8495.58
240.618	8443.65
240.689	8450.05
240.761	8462.85
240.833	8508.81
240.904	8517.33
240.976	8517.57
241.048	8531.04
241.119	8559.55
241.191	8601.84
241.262	8652.78
241.334	8658.75
241.405	8664.96
241.477	8666.69
241.549	8670.06
241.62	8692.87
241.692	8739.46
241.763	8788.95
241.835	8805.74
241.906	8810.27
241.978	8788.23
242.049	8840.06
242.121	8898.49
242.192	8957.55
242.264	8932.09
242.335	8897
242.407	8925.79
242.478	8928.58
242.55	8943.89
242.621	8925.11
242.693	8922.51
242.764	8919.38
242.836	8920.2
242.907	8943.64
242.979	8970.93
243.05	8988.5
243.122	9001.7
243.193	8991.25
243.264	8937.33
243.336	8943.88
243.407	8968.05
243.479	9028.07
243.55	9042.71
243.622	9051.77
243.693	9043.53
243.764	9097.44
243.836	9082.15
243.907	9074.35
243.978	9078.97
244.05	9099.86
244.121	9071.71
244.192	9104.78
244.264	9066.98
244.335	9079.21
244.407	9039.3
244.478	9054.47
244.549	9047.01
244.62	9015.38
244.692	9015.91
244.763	9050.52
244.834	9039.3
244.906	9033.57
244.977	9047.54
245.048	9091.8
245.119	9076.2
245.191	9055.55
245.262	9014.1
245.333	9076.23
245.405	9094.29
245.476	9117.25
245.547	9134.2
245.618	9173.09
245.689	9180.32
245.761	9208.34
245.832	9207.86
245.903	9243.1
245.974	9258.46
246.045	9268.42
246.117	9335.93
246.188	9322.64
246.259	9311.23
246.33	9323.17
246.401	9328.42
246.473	9301.21
246.544	9284.83
246.615	9330.05
246.686	9340.45
246.757	9392.59
246.828	9373.53
246.899	9428.05
246.97	9403.94
247.042	9390.79
247.113	9423.39
247.184	9492.81
247.255	9489.2
247.326	9514.05
247.397	9525.8
247.468	9535.34
247.539	9552.43
247.61	9517.23
247.681	9556.32
247.752	9599.22
247.823	9582.03
247.894	9591.28
247.965	9571.59
248.037	9561.43
248.108	9520.78
248.179	9520.63
248.25	9511.2
248.321	9540.76
248.392	9499.62
248.463	9562.36
248.534	9562.26
248.605	9571.99
248.675	9550.36
248.746	9566.59
248.817	9581.86
248.888	9590.38
248.959	9547.82
249.03	9561.4
249.101	9562.07
249.172	9545.75
249.243	9483.79
249.314	9534.06
249.385	9542.97
249.456	9567.81
249.527	9562.51
249.598	9574.94
249.669	9575.8
249.739	9589.43
249.81	9596.56
249.881	9572.39
249.952	9567.76
250.023	9567.04
250.094	9528.75
250.165	9502.16
250.235	9489.73
250.306	9491.8
250.377	9466.23
250.448	9489.1
250.519	9441.86
250.59	9488.73
250.66	9490.03
250.731	9555.46
250.802	9560.95
250.873	9580.46
250.944	9597.65
251.014	9591.96
251.085	9667.6
251.156	9693.31
251.227	9734.94
251.297	9775.55
251.368	9809.21
251.439	9840.52
251.51	9883.83
251.58	9878.92
251.651	9881.13
251.722	9924.39
251.792	9888.02
251.863	9896.79
251.934	9943.61
252.005	10032.37
252.075	10039.02
252.146	10080.15
252.217	10117.24
252.287	10146.97
252.358	10148.41
252.429	10206.8
252.499	10201.99
252.57	10207.91
252.641	10242.74
252.711	10245.59
252.782	10206.04
252.852	10268.96
252.923	10270.31
252.994	10278.21
253.064	10316.11
253.135	10295.35
253.205	10281.29
253.276	10333.93
253.347	10385.95
253.417	10369.04
253.488	10348.42
253.558	10344.42
253.629	10343.17
253.699	10347.03
253.77	10371.31
253.841	10361.29
253.911	10371.99
253.982	10385
254.052	10406.44
254.123	10410.01
254.193	10408.37
254.264	10517.7
254.334	10489.61
254.405	10466.48
254.475	10435.22
254.546	10441.24
254.616	10496.54
254.687	10520.73
254.757	10543.67
254.827	10539.96
254.898	10559.08
254.968	10573.78
255.039	10563.13
255.109	10593.96
255.18	10572.96
255.25	10510.61
255.321	10536.72
255.391	10500.77
255.461	10573.14
255.532	10509.15
255.602	10502.93
255.673	10458.66
255.743	10432.2
255.813	10369.44
255.884	10408.08
255.954	10440.98
256.024	10498.37
256.095	10497.55
256.165	10475.53
256.235	10487.68
256.306	10477.66
256.376	10514.52
256.446	10542.23
256.517	10562.32
256.587	10594.65
256.657	10617.15
256.728	10640.28
256.798	10652.32
256.868	10652.61
256.938	10629.1
257.009	10673.91
257.079	10706.67
257.149	10788.44
257.219	10744.54
257.29	10785.52
257.36	10738.12
257.43	10767.03
257.5	10708.34
257.571	10701.64
257.641	10727.32
257.711	10700.43
257.781	10725.92
257.852	10739.17
257.922	10694.79
257.992	10701.68
258.062	10695.56
258.132	10725.49
258.202	10726.31
258.273	10732.96
258.343	10793.73
258.413	10775.9
258.483	10767.95
258.553	10736.82
258.623	10714.36
258.693	10734.84
258.764	10785.14
258.834	10845.13
258.904	10858.14
258.974	10852.41
259.044	10858.43
259.114	10884.65
259.184	10912.07
259.254	10923.15
259.324	10883.44
259.394	10914.66
259.464	10972.74
259.535	10975.63
259.605	10971.48
259.675	10964.93
259.745	10995.87
259.815	10976.74
259.885	10987.63
259.955	11078.39
260.025	11078.44
260.095	11091.79
260.165	11116.46
260.235	11168.03
260.305	11157.77
260.375	11141.24
260.445	11215.49
260.515	11266
260.585	11298.97
260.655	11297.52
260.725	11328.12
260.795	11357.23
260.865	11420.22
260.934	11398.68
261.004	11425.33
261.074	11424.32
261.144	11472.79
261.214	11496.94
261.284	11492.65
261.354	11518.96
261.424	11489.8
261.494	11541.84
261.564	11542.52
261.634	11565.94
261.703	11509.93
261.773	11527.28
261.843	11550.32
261.913	11543.67
261.983	11500.63
262.053	11516.49
262.123	11519.62
262.192	11485.99
262.262	11519
262.332	11473.93
262.402	11496.68
262.472	11504.88
262.541	11462.47
262.611	11500.26
262.681	11482.38
262.751	11514.67
262.821	11521.18
262.89	11496.35
262.96	11519.63
263.03	11587.11
263.1	11603.16
263.169	11620.9
263.239	11639.99
263.309	11694.89
263.379	11717.01
263.448	11741.11
263.518	11763.81
263.588	11779.81
263.657	11842.08
263.727	11872.07
263.797	11884.89
263.867	11889.9
263.936	11864.74
264.006	11916.54
