Data from 20250626_urea_1M_exp2_MAYP1162681_17-24-00-549.txt Node
Date: Thu Jun 26 17:24:00 BST 2025
User: adleo
Spectrometer: MAYP116268
Trigger mode: 0
Integration Time (sec): 3.000000E0
Scans to average: 1
Electric dark correction enabled: true
Nonlinearity correction enabled: true
Boxcar width: 10
XAxis mode: Wavelengths
Number of Pixels in Spectrum: 2068
>>>>>Begin Spectral Data<<<<<
179.565	3305.46
179.642	3470.55
179.718	3596
179.795	3722.64
179.871	3823.01
179.948	3884.93
180.024	3950.45
180.101	4018.31
180.177	4060.7
180.254	4127.93
180.33	4193.79
180.407	4425.91
180.483	4688.03
180.56	4946.67
180.636	5191.2
180.712	5158.13
180.789	5185.06
180.865	5223.56
180.942	5249.28
181.018	5278.32
181.095	5317.59
181.171	5331.72
181.248	5338.24
181.324	5388.44
181.4	5402.25
181.477	5431.11
181.553	5465.79
181.63	5522.27
181.706	5568.06
181.782	5597.62
181.859	5602.84
181.935	5617.46
182.011	5611.85
182.088	5651.04
182.164	5708.52
182.24	5741.93
182.317	5769.63
182.393	5762.05
182.469	5799.89
182.546	5839.6
182.622	5849.29
182.698	5837.92
182.775	5876.48
182.851	5915.43
182.927	5896.53
183.003	5888.62
183.08	5873.18
183.156	5899.27
183.232	5894.09
183.308	5860.95
183.385	5878.06
183.461	5919.99
183.537	5927
183.613	5962.07
183.69	5938.61
183.766	5904.34
183.842	5928.9
183.918	5944.59
183.995	5981.57
184.071	5991.5
184.147	5976.05
184.223	5946
184.299	5981.22
184.375	5946.49
184.452	5964.64
184.528	6077.53
184.604	6114.08
184.68	6151.35
184.756	6172.23
184.832	6182.55
184.908	6196.83
184.985	6200.38
185.061	6156.35
185.137	6181.5
185.213	6144.03
185.289	6144.99
185.365	6129.45
185.441	6120.57
185.517	6162.82
185.593	6153.37
185.669	6146.69
185.745	6175.78
185.822	6223.73
185.898	6197.04
185.974	6226.49
186.05	6206.28
186.126	6130.97
186.202	6102.9
186.278	6091.29
186.354	6061.34
186.43	6080.59
186.506	6075.42
186.582	6073.64
186.658	6092.34
186.734	6033.25
186.81	6040.25
186.886	6054.78
186.962	6082.84
187.038	6068.88
187.114	6043.43
187.19	6061.57
187.266	6036.05
187.341	6040.9
187.417	6019.02
187.493	6022.53
187.569	6029.97
187.645	6010.63
187.721	5982.51
187.797	6006.2
187.873	6017.43
187.949	5998.35
188.025	5977.42
188.101	5989.36
188.176	6001.54
188.252	5990.27
188.328	6014.34
188.404	6014.43
188.48	5998.46
188.556	5978.26
188.632	5980.95
188.707	5985.51
188.783	5982.44
188.859	5964.61
188.935	5926.12
189.011	5948.67
189.086	5928.57
189.162	5902.9
189.238	5899.69
189.314	5890.33
189.39	5871.29
189.465	5852.48
189.541	5905.21
189.617	5865.64
189.693	5850
189.768	5857.73
189.844	5926.32
189.92	5902.79
189.996	5927.25
190.071	5958.44
190.147	5959.21
190.223	5982.91
190.298	5961.41
190.374	5920.92
190.45	5957.22
190.526	5982.27
190.601	5970.13
190.677	5973.34
190.753	6052.09
190.828	6063.27
190.904	6102.28
190.98	6146
191.055	6173.17
191.131	6146.86
191.207	6202.37
191.282	6230.67
191.358	6208.17
191.433	6166.34
191.509	6204.17
191.585	6192.51
191.66	6195.49
191.736	6222.26
191.811	6200
191.887	6245.13
191.963	6316.01
192.038	6327.53
192.114	6328.25
192.189	6337.85
192.265	6332.14
192.34	6268.88
192.416	6261.4
192.491	6254.82
192.567	6266.54
192.642	6271.92
192.718	6274.32
192.793	6246.15
192.869	6233.38
192.944	6238.9
193.02	6266.03
193.095	6274.09
193.171	6295.49
193.246	6298.18
193.322	6287.29
193.397	6290.16
193.473	6249.4
193.548	6200.19
193.624	6219.49
193.699	6216.8
193.775	6258.82
193.85	6262.37
193.925	6288
194.001	6286.56
194.076	6263.33
194.152	6221.8
194.227	6201.07
194.302	6177.52
194.378	6185.72
194.453	6176.56
194.529	6212.85
194.604	6165.62
194.679	6148.54
194.755	6096.16
194.83	6128.39
194.905	6121
194.981	6142.45
195.056	6122.69
195.131	6137.66
195.207	6133.62
195.282	6101.24
195.357	6045.75
195.433	6087.39
195.508	6051.68
195.583	6077.4
195.659	6118.45
195.734	6146.05
195.809	6147.05
195.884	6167.05
195.96	6165.9
196.035	6210.34
196.11	6200.74
196.185	6235.96
196.261	6246.99
196.336	6335.83
196.411	6291.84
196.486	6309.17
196.561	6294.14
196.637	6320.58
196.712	6365.58
196.787	6371.82
196.862	6425.28
196.937	6454.02
197.013	6479.77
197.088	6509.43
197.163	6569.29
197.238	6616.97
197.313	6615.53
197.388	6654.27
197.464	6738.15
197.539	6771.76
197.614	6750.78
197.689	6784.31
197.764	6833.46
197.839	6890.7
197.914	6873.26
197.989	6941.86
198.065	6979.32
198.14	7123.41
198.215	7197.4
198.29	7227.45
198.365	7265.03
198.44	7293.71
198.515	7374.02
198.59	7409.74
198.665	7482.98
198.74	7508.38
198.815	7505.3
198.89	7570.81
198.965	7653.14
199.04	7644.77
199.115	7686.06
199.19	7807.96
199.265	7813
199.34	7838.68
199.415	7933.8
199.49	7994.23
199.565	8016.59
199.64	8089.55
199.715	8078.67
199.79	8094.16
199.865	8113.16
199.94	8104.31
200.015	8193.55
200.09	8213.33
200.165	8231.8
200.24	8253.31
200.315	8356.96
200.39	8408.3
200.464	8425.42
200.539	8429.08
200.614	8473.24
200.689	8545.71
200.764	8560.58
200.839	8612.43
200.914	8626.28
200.989	8592.63
201.063	8632.72
201.138	8579.55
201.213	8578.3
201.288	8522.43
201.363	8539.51
201.438	8540.67
201.512	8588.71
201.587	8539.33
201.662	8544.68
201.737	8581.92
201.812	8602.62
201.886	8512.44
201.961	8541.37
202.036	8504
202.111	8497.93
202.186	8417.59
202.26	8367.2
202.335	8313.54
202.41	8295.5
202.485	8247.22
202.559	8194.79
202.634	8117.82
202.709	8147.62
202.784	8093.21
202.858	8097.16
202.933	8038.43
203.008	8018.9
203.082	7961.49
203.157	7956.68
203.232	7835.36
203.306	7769.69
203.381	7676.77
203.456	7613.73
203.53	7540.57
203.605	7486.76
203.68	7416.59
203.754	7395.85
203.829	7350.41
203.904	7287.83
203.978	7256.34
204.053	7268.5
204.127	7237.22
204.202	7225.49
204.277	7177.87
204.351	7155.62
204.426	7131.1
204.5	7111.4
204.575	7009.29
204.65	7036.79
204.724	7015
204.799	7041.74
204.873	7027.99
204.948	7023.96
205.022	6986.4
205.097	6961.83
205.171	7001.27
205.246	7027.61
205.32	7026.56
205.395	7025.45
205.469	7003.08
205.544	7018.56
205.618	6968.25
205.693	6995.69
205.767	6968.46
205.842	7028.24
205.916	7011.96
205.991	6983.03
206.065	6997.45
206.14	7043.66
206.214	7026.64
206.289	6999.49
206.363	7027.59
206.438	7039.32
206.512	7061.86
206.586	7122.77
206.661	7147.87
206.735	7082.76
206.81	7084.35
206.884	7129.12
206.958	7090.55
207.033	7137.08
207.107	7149.82
207.181	7235.73
207.256	7222.32
207.33	7270.75
207.405	7303.94
207.479	7355.85
207.553	7377.8
207.628	7336.4
207.702	7369.51
207.776	7356.82
207.851	7373.73
207.925	7423.32
207.999	7408.03
208.073	7401.06
208.148	7401.11
208.222	7370.39
208.296	7467.47
208.371	7514.09
208.445	7544.52
208.519	7625.12
208.593	7658.58
208.668	7649.34
208.742	7660.17
208.816	7665.5
208.89	7706.63
208.965	7706.29
209.039	7729.91
209.113	7774.19
209.187	7833.42
209.261	7823.76
209.336	7879.88
209.41	7933.17
209.484	7931.34
209.558	8004.45
209.632	8041.71
209.707	8075.91
209.781	8138
209.855	8177.89
209.929	8224.78
210.003	8239.26
210.077	8240.99
210.151	8373.54
210.226	8472.83
210.3	8546.5
210.374	8604.74
210.448	8618.74
210.522	8647.72
210.596	8675.01
210.67	8703.49
210.744	8841.41
210.818	8930.44
210.892	8992.59
210.966	8978.35
211.041	9025.13
211.115	9006.94
211.189	9079.96
211.263	9123.85
211.337	9138.87
211.411	9180.33
211.485	9162.56
211.559	9194.66
211.633	9203.56
211.707	9115.28
211.781	9135.03
211.855	9038.69
211.929	9023.3
212.003	8971.58
212.077	8996.33
212.151	9032.83
212.225	9059.74
212.299	9024.19
212.373	8995.12
212.447	8978.07
212.52	9059.53
212.594	9067.18
212.668	9105.69
212.742	9060.82
212.816	9045.75
212.89	9034.25
212.964	9029.1
213.038	9039.02
213.112	9070.89
213.186	9107.86
213.26	9049.7
213.333	8914.64
213.407	8926.05
213.481	8932.35
213.555	8961.49
213.629	8922.2
213.703	8868.48
213.777	8857.74
213.85	8796.02
213.924	8884.14
213.998	8876.24
214.072	8851.54
214.146	8803.78
214.219	8789.44
214.293	8773.56
214.367	8775.92
214.441	8794.74
214.515	8749.87
214.588	8670.12
214.662	8566.32
214.736	8502.28
214.81	8516.46
214.883	8538.43
214.957	8502.5
215.031	8452.21
215.105	8375.78
215.178	8324.1
215.252	8292.93
215.326	8211.96
215.4	8146.57
215.473	7997.33
215.547	7934.06
215.621	7878.51
215.694	7875.24
215.768	7788.86
215.842	7736.35
215.915	7678.56
215.989	7581.45
216.063	7537.92
216.136	7525.75
216.21	7509.51
216.284	7520.62
216.357	7502.35
216.431	7462.59
216.504	7455.96
216.578	7504.23
216.652	7518.84
216.725	7500.57
216.799	7512.54
216.873	7494.91
216.946	7500.24
217.02	7469.21
217.093	7441.18
217.167	7359.86
217.24	7291.92
217.314	7262.43
217.387	7223.62
217.461	7186.37
217.535	7206.46
217.608	7152.64
217.682	7133.37
217.755	7143.6
217.829	7097.11
217.902	7082.12
217.976	7070.3
218.049	7029.61
218.123	6966.96
218.196	6961.34
218.27	6930.88
218.343	6865.41
218.417	6868.34
218.49	6846.77
218.563	6879.15
218.637	6886.6
218.71	6946.57
218.784	6971.65
218.857	7000.62
218.931	7022.37
219.004	7022.37
219.077	7043.72
219.151	7056.2
219.224	7043.9
219.298	7037.22
219.371	7068.51
219.444	7035.85
219.518	7041.71
219.591	7058.33
219.665	7148.35
219.738	7162.72
219.811	7149.75
219.885	7186.32
219.958	7212.42
220.031	7217.7
220.105	7237.84
220.178	7246.69
220.251	7222.89
220.325	7240.68
220.398	7255.96
220.471	7267.16
220.544	7303.11
220.618	7277.43
220.691	7308.43
220.764	7326.4
220.838	7353.99
220.911	7347.6
220.984	7417.37
221.057	7455.25
221.131	7477.02
221.204	7397.22
221.277	7460.41
221.35	7568.1
221.424	7566.61
221.497	7578.25
221.57	7599.01
221.643	7630.22
221.716	7665.47
221.79	7675.61
221.863	7691.25
221.936	7700.19
222.009	7716.53
222.082	7742.55
222.155	7751.49
222.229	7808.88
222.302	7826.9
222.375	7827.43
222.448	7857.78
222.521	7865.38
222.594	7859.42
222.667	7838.61
222.74	7891.07
222.814	7876.59
222.887	7860.18
222.96	7902.59
223.033	7938.05
223.106	7953.96
223.179	7981.54
223.252	7992.6
223.325	8016.21
223.398	8019.58
223.471	8049.35
223.544	8062.28
223.617	8073.73
223.69	8096.05
223.763	8058.57
223.837	8081.85
223.91	8111.77
223.983	8070.37
224.056	8045.65
224.129	8065.08
224.202	8109.64
224.275	8093.47
224.348	8069.48
224.42	8039.31
224.493	7998.58
224.566	7979.52
224.639	8004.48
224.712	7973.97
224.785	7962.09
224.858	7960.02
224.931	7949.92
225.004	7905.92
225.077	7910.29
225.15	7832.69
225.223	7831.87
225.296	7906.9
225.369	7859.88
225.442	7830.15
225.514	7848.42
225.587	7862.12
225.66	7877.03
225.733	7879.82
225.806	7888.05
225.879	7877.33
225.952	7852.57
226.025	7887.87
226.097	7930.27
226.17	7925.55
226.243	7873.77
226.316	7869.97
226.389	7872.86
226.461	7890.13
226.534	7913.83
226.607	7905.7
226.68	7973.06
226.753	7969.83
226.825	7902.79
226.898	7951.11
226.971	7953.81
227.044	7968.72
227.117	7973.09
227.189	7988.92
227.262	8016.01
227.335	8031.02
227.407	8041.84
227.48	8074.24
227.553	8093.54
227.626	8082.56
227.698	8088.29
227.771	8124.77
227.844	8112.51
227.916	8132.62
227.989	8102.55
228.062	8099.62
228.134	8176.75
228.207	8181.66
228.28	8174.01
228.352	8181.61
228.425	8196.82
228.498	8232.27
228.57	8218.81
228.643	8268.08
228.716	8269.72
228.788	8265.68
228.861	8263.75
228.934	8315.61
229.006	8327.16
229.079	8331.87
229.151	8314.55
229.224	8285.12
229.296	8306.33
229.369	8392.39
229.442	8434.17
229.514	8428.98
229.587	8473.19
229.659	8406.06
229.732	8424.01
229.804	8463.94
229.877	8529.07
229.949	8550.1
230.022	8598.58
230.094	8598.63
230.167	8589.05
230.239	8549.79
230.312	8541.85
230.384	8605.06
230.457	8601.07
230.529	8610.3
230.602	8603.9
230.674	8619.3
230.747	8657.35
230.819	8685.26
230.892	8587.37
230.964	8579.33
231.037	8597.51
231.109	8585.86
231.181	8625.79
231.254	8592.4
231.326	8573.88
231.399	8560.2
231.471	8537.48
231.544	8472.88
231.616	8514.25
231.688	8523.35
231.761	8512.82
231.833	8502.43
231.905	8426.71
231.978	8432.58
232.05	8410.79
232.122	8416.42
232.195	8391.73
232.267	8421.81
232.339	8400.64
232.412	8460.39
232.484	8442.48
232.556	8418.49
232.629	8483.33
232.701	8502.25
232.773	8506.92
232.846	8505.52
232.918	8507.3
232.99	8524.87
233.062	8565.44
233.135	8576.95
233.207	8552.5
233.279	8591.75
233.351	8622.01
233.424	8630.86
233.496	8610.03
233.568	8689.2
233.64	8659.03
233.713	8676.79
233.785	8677.89
233.857	8692.96
233.929	8645.42
234.001	8705.8
234.074	8770.85
234.146	8705.56
234.218	8698.63
234.29	8699.45
234.362	8690.98
234.434	8650.74
234.507	8624.56
234.579	8575.62
234.651	8557.47
234.723	8577.64
234.795	8590.58
234.867	8586.3
234.939	8637.23
235.012	8649.88
235.084	8652.53
235.156	8683.76
235.228	8667.54
235.3	8648.24
235.372	8660.76
235.444	8717.92
235.516	8651.43
235.588	8651.96
235.66	8671.59
235.732	8649.45
235.804	8822.51
235.876	8863.65
235.948	8923.59
236.02	8934.8
236.092	8953.56
236.164	8967.57
236.236	8974.4
236.308	8980.28
236.38	9000.69
236.452	8986.19
236.524	8995.39
236.596	9051.94
236.668	9077.99
236.74	9106.96
236.812	9136.42
236.884	9168.44
236.956	9180.53
237.028	9168.74
237.1	9154.1
237.172	9211.45
237.244	9278.62
237.316	9182.97
237.388	9165.02
237.46	9140.75
237.532	9192.02
237.604	9185.38
237.675	9251.64
237.747	9289.87
237.819	9277.6
237.891	9289.25
237.963	9282.85
238.035	9289.73
238.107	9193.65
238.178	9260.41
238.25	9262.86
238.322	9337.81
238.394	9299.63
238.466	9293.27
238.538	9334.24
238.609	9372.6
238.681	9332.92
238.753	9322.13
238.825	9335.04
238.897	9368.54
238.968	9442.87
239.04	9428.13
239.112	9527.08
239.184	9497.89
239.255	9493.94
239.327	9539.39
239.399	9561.01
239.471	9606.04
239.542	9643.74
239.614	9704.22
239.686	9629.51
239.758	9678.34
239.829	9653.58
239.901	9707.42
239.973	9730.39
240.044	9763.38
240.116	9780.19
240.188	9792.27
240.259	9799.35
240.331	9791.6
240.403	9824.1
240.474	9785.41
240.546	9779.73
240.618	9729.21
240.689	9730.17
240.761	9751.22
240.833	9796.16
240.904	9798.95
240.976	9794.28
241.048	9808.06
241.119	9845.11
241.191	9890.62
241.262	9946.75
241.334	9950.41
241.405	9956
241.477	9956.15
241.549	9971.37
241.62	9996.42
241.692	10046.37
241.763	10108.09
241.835	10132.9
241.906	10151.25
241.978	10129.29
242.049	10193.88
242.121	10247.68
242.192	10307.08
242.264	10281.94
242.335	10248.02
242.407	10280.25
242.478	10288.39
242.55	10305.25
242.621	10287.91
242.693	10288.97
242.764	10293.79
242.836	10295.28
242.907	10327.27
242.979	10361.67
243.05	10379.2
243.122	10396.94
243.193	10390.48
243.264	10330.06
243.336	10334.21
243.407	10364.66
243.479	10438.41
243.55	10452.24
243.622	10470.89
243.693	10469.45
243.764	10533.86
243.836	10516.91
243.907	10516.81
243.978	10524.08
244.05	10547.89
244.121	10512.19
244.192	10545.77
244.264	10495.37
244.335	10519.12
244.407	10479.28
244.478	10486.75
244.549	10484.05
244.62	10445.7
244.692	10447.48
244.763	10486.75
244.834	10478.17
244.906	10457.79
244.977	10474.51
245.048	10523.19
245.119	10502.66
245.191	10480.55
245.262	10429.04
245.333	10495.28
245.405	10512.05
245.476	10538.69
245.547	10555.17
245.618	10597.42
245.689	10607.68
245.761	10642.28
245.832	10639
245.903	10682.8
245.974	10718.51
246.045	10733.97
246.117	10816.18
246.188	10805.14
246.259	10794.45
246.33	10818.83
246.401	10834.15
246.473	10802.87
246.544	10796.71
246.615	10850.68
246.686	10867.16
246.757	10936.39
246.828	10922.37
246.899	10982.62
246.97	10962.57
247.042	10960.74
247.113	11007.78
247.184	11090.1
247.255	11093.43
247.326	11118.82
247.397	11127.69
247.468	11137.14
247.539	11147.79
247.61	11102.83
247.681	11141.03
247.752	11182.86
247.823	11162.14
247.894	11176.98
247.965	11157.86
248.037	11141.9
248.108	11098.19
248.179	11106.24
248.25	11095.2
248.321	11119.63
248.392	11082.57
248.463	11146.75
248.534	11146.71
248.605	11157.89
248.675	11130.85
248.746	11144.29
248.817	11167.72
248.888	11180.34
248.959	11129.89
249.03	11150.47
249.101	11164.2
249.172	11150.95
249.243	11096.31
249.314	11154.86
249.385	11162.42
249.456	11196.25
249.527	11194.66
249.598	11214.32
249.669	11207.77
249.739	11218.51
249.81	11232.78
249.881	11197.07
249.952	11192.64
250.023	11183.87
250.094	11146.85
250.165	11122.75
250.235	11114.7
250.306	11115.18
250.377	11094.46
250.448	11121.35
250.519	11070.75
250.59	11120.05
250.66	11124.29
250.731	11186.94
250.802	11187.51
250.873	11204.77
250.944	11218.84
251.014	11211.23
251.085	11295.87
251.156	11325.74
251.227	11365.56
251.297	11412.79
251.368	11456.36
251.439	11492.94
251.51	11548.22
251.58	11538.2
251.651	11540.32
251.722	11595.51
251.792	11559.55
251.863	11564.03
251.934	11616.42
252.005	11713.97
252.075	11727.28
252.146	11774.75
252.217	11813.98
252.287	11844.11
252.358	11853.6
252.429	11923.16
252.499	11921.04
252.57	11926.1
252.641	11962.63
252.711	11977.82
252.782	11937.28
252.852	12014.45
252.923	12016.86
252.994	12025.39
253.064	12071.9
253.135	12047.47
253.205	12022.88
253.276	12085.35
253.347	12139.43
253.417	12122.32
253.488	12108.87
253.558	12103.52
253.629	12099.85
253.699	12112.87
253.77	12144.1
253.841	12137.65
253.911	12138.66
253.982	12152.97
254.052	12180.45
254.123	12193.75
254.193	12187.34
254.264	12307.85
254.334	12275.36
254.405	12251.12
254.475	12223.26
254.546	12226.15
254.616	12292.13
254.687	12331.85
254.757	12351.23
254.827	12354.03
254.898	12374.37
254.968	12377.6
255.039	12361.59
255.109	12391.43
255.18	12373.11
255.25	12306.98
255.321	12333.73
255.391	12305.48
255.461	12383.38
255.532	12314.93
255.602	12306.64
255.673	12271.79
255.743	12242.96
255.813	12177.55
255.884	12218.09
255.954	12263.36
256.024	12327.85
256.095	12334.7
256.165	12300.76
256.235	12325.54
256.306	12320.62
256.376	12363.19
256.446	12407.1
256.517	12437.13
256.587	12487.22
256.657	12504.62
256.728	12531.52
256.798	12541.25
256.868	12541.11
256.938	12518.16
257.009	12564.83
257.079	12590.18
257.149	12675.6
257.219	12627.78
257.29	12666.38
257.36	12621.94
257.43	12651.92
257.5	12594.56
257.571	12584.15
257.641	12617.6
257.711	12581.3
257.781	12606.37
257.852	12619.34
257.922	12557.83
257.992	12557.63
258.062	12547.66
258.132	12580.48
258.202	12582.27
258.273	12596.49
258.343	12664.7
258.413	12656.84
258.483	12660.02
258.553	12644.79
258.623	12623.68
258.693	12649.9
258.764	12711.79
258.834	12774.7
258.904	12785.35
258.974	12773.21
259.044	12785.4
259.114	12818.09
259.184	12844.55
259.254	12849.8
259.324	12808.73
259.394	12859.3
259.464	12932.86
259.535	12941.54
259.605	12947.66
259.675	12944.48
259.745	12981.45
259.815	12964.49
259.885	12968.34
259.955	13066.25
260.025	13061.28
260.095	13077.72
260.165	13102.79
260.235	13153.21
260.305	13144.54
260.375	13123.61
260.445	13208.89
260.515	13266.16
260.585	13300.09
260.655	13309.06
260.725	13347.14
260.795	13381.85
260.865	13435.84
260.934	13407.26
261.004	13433.82
261.074	13430.93
261.144	13486.07
261.214	13516.73
261.284	13510.99
261.354	13540.16
261.424	13493.98
261.494	13561.32
261.564	13564.41
261.634	13593.04
261.703	13541.22
261.773	13559.88
261.843	13583.74
261.913	13580.56
261.983	13532.25
262.053	13547.82
262.123	13544.06
262.192	13514.61
262.262	13552.07
262.332	13516.11
262.402	13545.8
262.472	13547.92
262.541	13500.63
262.611	13538.81
262.681	13514.52
262.751	13557.95
262.821	13560.02
262.89	13538.43
262.96	13551.35
263.03	13613.68
263.1	13628.09
263.169	13645.88
263.239	13675.14
263.309	13731.64
263.379	13756.66
263.448	13775.17
263.518	13803.7
263.588	13827.18
263.657	13890.09
