Data from 20250626_urea_1M_exp2_MAYP1162681_09-23-58-898.txt Node
Date: Fri Jun 27 09:23:58 BST 2025
User: adleo
Spectrometer: MAYP116268
Trigger mode: 0
Integration Time (sec): 3.000000E0
Scans to average: 1
Electric dark correction enabled: true
Nonlinearity correction enabled: true
Boxcar width: 10
XAxis mode: Wavelengths
Number of Pixels in Spectrum: 2068
>>>>>Begin Spectral Data<<<<<
179.565	3059.49
179.642	3222.17
179.718	3341.34
179.795	3459.14
179.871	3549.78
179.948	3600.82
180.024	3660.8
180.101	3726.19
180.177	3762.9
180.254	3829.41
180.33	3887.05
180.407	4099.47
180.483	4339.45
180.56	4580.8
180.636	4803.49
180.712	4773.12
180.789	4796.01
180.865	4828.79
180.942	4852.44
181.018	4879.63
181.095	4916.33
181.171	4931.03
181.248	4933.42
181.324	4974.91
181.4	4990.58
181.477	5022.2
181.553	5056.13
181.63	5113.77
181.706	5155.6
181.782	5186.33
181.859	5187.58
181.935	5210
182.011	5202.24
182.088	5250.26
182.164	5301.37
182.24	5336.96
182.317	5360.48
182.393	5357.13
182.469	5390
182.546	5421.82
182.622	5440.41
182.698	5433.98
182.775	5469.36
182.851	5502.77
182.927	5481.05
183.003	5466.59
183.08	5448.95
183.156	5475.98
183.232	5465
183.308	5438.64
183.385	5455.79
183.461	5499.75
183.537	5499.04
183.613	5530.58
183.69	5501.76
183.766	5473.13
183.842	5494.08
183.918	5511
183.995	5542.06
184.071	5557.45
184.147	5547.19
184.223	5517.78
184.299	5549.28
184.375	5515.63
184.452	5535.93
184.528	5651.04
184.604	5682.95
184.68	5720.29
184.756	5742.07
184.832	5754.25
184.908	5763.55
184.985	5767.19
185.061	5721.93
185.137	5746.92
185.213	5716.19
185.289	5719.98
185.365	5701.72
185.441	5692.51
185.517	5729.45
185.593	5722.98
185.669	5713.29
185.745	5741.78
185.822	5782.94
185.898	5758.38
185.974	5782.39
186.05	5759.27
186.126	5689.24
186.202	5671.74
186.278	5655.34
186.354	5628.81
186.43	5644.22
186.506	5641
186.582	5632.67
186.658	5653.7
186.734	5599.11
186.81	5609.12
186.886	5617.18
186.962	5651.84
187.038	5646.08
187.114	5624.3
187.19	5643.33
187.266	5621.19
187.341	5620.23
187.417	5599.71
187.493	5599.38
187.569	5608.87
187.645	5590.61
187.721	5560.73
187.797	5582.97
187.873	5592.61
187.949	5575.45
188.025	5561.63
188.101	5571.65
188.176	5587.95
188.252	5574.29
188.328	5596.9
188.404	5592.63
188.48	5580.41
188.556	5553.27
188.632	5552.22
188.707	5548.09
188.783	5546.22
188.859	5529.03
188.935	5500.64
189.011	5523.89
189.086	5504.91
189.162	5478.02
189.238	5476.24
189.314	5470.06
189.39	5448.39
189.465	5432.14
189.541	5477.88
189.617	5440.2
189.693	5421.56
189.768	5436.05
189.844	5502.01
189.92	5478.25
189.996	5502.75
190.071	5532.9
190.147	5534.87
190.223	5558.85
190.298	5542.64
190.374	5506.21
190.45	5542.29
190.526	5562.91
190.601	5548.52
190.677	5554.51
190.753	5636.56
190.828	5646.01
190.904	5685.14
190.98	5725.66
191.055	5754.2
191.131	5733.33
191.207	5784.49
191.282	5812.86
191.358	5780.55
191.433	5742.2
191.509	5779.38
191.585	5771.71
191.66	5773.05
191.736	5800.05
191.811	5775.54
191.887	5818.48
191.963	5881.69
192.038	5892.05
192.114	5895.65
192.189	5908.16
192.265	5902.99
192.34	5835.65
192.416	5831.24
192.491	5824.42
192.567	5836.61
192.642	5841.6
192.718	5840.98
192.793	5811.72
192.869	5799.35
192.944	5804.34
193.02	5827.08
193.095	5835.95
193.171	5851.83
193.246	5846.79
193.322	5832.74
193.397	5833.6
193.473	5797.57
193.548	5751.27
193.624	5764.66
193.699	5761.2
193.775	5798.49
193.85	5797.67
193.925	5828.33
194.001	5826.41
194.076	5799.79
194.152	5768.46
194.227	5746.87
194.302	5721.18
194.378	5728.18
194.453	5722.34
194.529	5756.48
194.604	5712.6
194.679	5701.71
194.755	5650.81
194.83	5685.89
194.905	5676.68
194.981	5697.93
195.056	5680.29
195.131	5697.26
195.207	5689.87
195.282	5662.59
195.357	5612.51
195.433	5656.43
195.508	5622.61
195.583	5647.45
195.659	5685.96
195.734	5705.44
195.809	5708.51
195.884	5731.85
195.96	5732.19
196.035	5771.03
196.11	5766.04
196.185	5797.07
196.261	5799.18
196.336	5882.14
196.411	5840.73
196.486	5861.3
196.561	5843.7
196.637	5865.47
196.712	5904.68
196.787	5919.46
196.862	5965.07
196.937	5992.98
197.013	6012.47
197.088	6040.62
197.163	6096.98
197.238	6143.28
197.313	6135.17
197.388	6175.1
197.464	6255.13
197.539	6292.61
197.614	6273.66
197.689	6300.68
197.764	6347.01
197.839	6401.72
197.914	6388.28
197.989	6454.38
198.065	6491.53
198.14	6631.2
198.215	6706.05
198.29	6739.16
198.365	6773.83
198.44	6798.65
198.515	6873.88
198.59	6910.34
198.665	6977.53
198.74	6993.1
198.815	6996.23
198.89	7063.9
198.965	7136.43
199.04	7123.88
199.115	7162.55
199.19	7278.81
199.265	7294.37
199.34	7324.56
199.415	7413.99
199.49	7469.38
199.565	7491.3
199.64	7555.28
199.715	7547.58
199.79	7559.4
199.865	7573.39
199.94	7570.22
200.015	7659.17
200.09	7674.08
200.165	7685.57
200.24	7707.45
200.315	7815.62
200.39	7861.12
200.464	7881.6
200.539	7891.89
200.614	7935.88
200.689	7995.71
200.764	8011.45
200.839	8056.82
200.914	8065.58
200.989	8037.62
201.063	8076.53
201.138	8028.53
201.213	8032.67
201.288	7980.59
201.363	7992.66
201.438	7990.35
201.512	8031.78
201.587	7976.95
201.662	7987.1
201.737	8026.49
201.812	8045.39
201.886	7962.8
201.961	7984.36
202.036	7947.78
202.111	7936.13
202.186	7853.44
202.26	7805.29
202.335	7748.15
202.41	7730.22
202.485	7682.59
202.559	7630.9
202.634	7561.57
202.709	7589.39
202.784	7534.29
202.858	7534.24
202.933	7488.29
203.008	7471.56
203.082	7422.78
203.157	7426.05
203.232	7310.47
203.306	7251.32
203.381	7165.23
203.456	7101.6
203.53	7039.83
203.605	6990.08
203.68	6924.95
203.754	6911.57
203.829	6866.5
203.904	6813.42
203.978	6778.25
204.053	6787.71
204.127	6755.06
204.202	6745.79
204.277	6697.77
204.351	6677.07
204.426	6657.51
204.5	6639.02
204.575	6543.47
204.65	6563.02
204.724	6537.79
204.799	6561.92
204.873	6550.05
204.948	6542.08
205.022	6511.22
205.097	6484.17
205.171	6519.84
205.246	6542.18
205.32	6541.6
205.395	6546.07
205.469	6523.47
205.544	6545.52
205.618	6499.77
205.693	6528.72
205.767	6498.62
205.842	6555.49
205.916	6539.07
205.991	6507.52
206.065	6519.14
206.14	6564.41
206.214	6557.25
206.289	6538.67
206.363	6565.02
206.438	6574.3
206.512	6601.48
206.586	6648.72
206.661	6673.08
206.735	6612.04
206.81	6616.13
206.884	6653.04
206.958	6618.09
207.033	6661.96
207.107	6671.67
207.181	6764.15
207.256	6746.86
207.33	6798.39
207.405	6831.61
207.479	6883.05
207.553	6905.71
207.628	6860.93
207.702	6893.1
207.776	6868.36
207.851	6882.34
207.925	6924.25
207.999	6909.79
208.073	6900.42
208.148	6908.49
208.222	6880.38
208.296	6966.79
208.371	7009.73
208.445	7043.85
208.519	7123.48
208.593	7152.45
208.668	7144.91
208.742	7148.61
208.816	7156.24
208.89	7189.56
208.965	7187.15
209.039	7208.5
209.113	7252.85
209.187	7310.65
209.261	7302.63
209.336	7355.3
209.41	7401.44
209.484	7405.72
209.558	7475.71
209.632	7508.24
209.707	7539.2
209.781	7593.85
209.855	7635.54
209.929	7678.76
210.003	7695.59
210.077	7689.96
210.151	7819.51
210.226	7913.61
210.3	7982.06
210.374	8047.81
210.448	8062.82
210.522	8090.92
210.596	8118.38
210.67	8140.36
210.744	8270.94
210.818	8358.11
210.892	8414.88
210.966	8400.79
211.041	8442.98
211.115	8430
211.189	8501.97
211.263	8547.53
211.337	8565.52
211.411	8604.36
211.485	8587.36
211.559	8613.63
211.633	8624.16
211.707	8542.27
211.781	8558.83
211.855	8466.15
211.929	8441.38
212.003	8390.22
212.077	8413.86
212.151	8448.51
212.225	8483.63
212.299	8451.66
212.373	8417.02
212.447	8407.15
212.52	8478.07
212.594	8488.18
212.668	8518.25
212.742	8469.6
212.816	8451.7
212.89	8438.37
212.964	8428.84
213.038	8438.37
213.112	8470.33
213.186	8500.64
213.26	8440.3
213.333	8309.98
213.407	8323.11
213.481	8330.61
213.555	8357
213.629	8322.2
213.703	8270.18
213.777	8256.95
213.85	8193.81
213.924	8281.85
213.998	8278.33
214.072	8260.91
214.146	8213.61
214.219	8199.65
214.293	8190.52
214.367	8191.67
214.441	8209.86
214.515	8174.54
214.588	8099.4
214.662	7997.53
214.736	7934.01
214.81	7950.74
214.883	7968.85
214.957	7929.24
215.031	7885.65
215.105	7814.07
215.178	7760.99
215.252	7735.84
215.326	7661.98
215.4	7603.74
215.473	7458.18
215.547	7389.89
215.621	7339.47
215.694	7340.19
215.768	7262.08
215.842	7209.41
215.915	7151.9
215.989	7063.54
216.063	7016.71
216.136	7002.82
216.21	6991.2
216.284	7003.89
216.357	6983.66
216.431	6954.11
216.504	6951.09
216.578	6991.7
216.652	7001.39
216.725	6992.45
216.799	6995.87
216.873	6973.34
216.946	6975.84
217.02	6949.48
217.093	6929.84
217.167	6853.89
217.24	6789.16
217.314	6761.99
217.387	6723.4
217.461	6686.76
217.535	6705.35
217.608	6662.13
217.682	6645.36
217.755	6647.95
217.829	6602.37
217.902	6588.49
217.976	6574.95
218.049	6539.42
218.123	6479.31
218.196	6477.97
218.27	6443.1
218.343	6390.02
218.417	6392.28
218.49	6372.98
218.563	6405.24
218.637	6410.04
218.71	6467.77
218.784	6487.22
218.857	6511.89
218.931	6527.87
219.004	6533.53
219.077	6547.23
219.151	6557.26
219.224	6552.79
219.298	6549.57
219.371	6585.79
219.444	6553.63
219.518	6558.05
219.591	6567.26
219.665	6655.17
219.738	6665.83
219.811	6650.95
219.885	6686.01
219.958	6705.8
220.031	6714.82
220.105	6731.87
220.178	6734.57
220.251	6711.5
220.325	6727.7
220.398	6737.78
220.471	6756.5
220.544	6790.7
220.618	6774.46
220.691	6797.95
220.764	6809.52
220.838	6831.04
220.911	6820.42
220.984	6890.3
221.057	6922.33
221.131	6940.53
221.204	6858.63
221.277	6915.52
221.35	7018.82
221.424	7011.18
221.497	7025.16
221.57	7042.07
221.643	7064.46
221.716	7099.55
221.79	7109.35
221.863	7114.68
221.936	7126.55
222.009	7138.84
222.082	7157.4
222.155	7160.95
222.229	7211.38
222.302	7235.16
222.375	7244.97
222.448	7275.68
222.521	7279.04
222.594	7281.59
222.667	7263.73
222.74	7311.77
222.814	7304.08
222.887	7286.72
222.96	7325.41
223.033	7359.35
223.106	7376.89
223.179	7404.59
223.252	7409.01
223.325	7426.84
223.398	7440.21
223.471	7466.16
223.544	7479.66
223.617	7491.73
223.69	7509.65
223.763	7480.04
223.837	7498.88
223.91	7523.74
223.983	7487.89
224.056	7456.08
224.129	7476.07
224.202	7522.43
224.275	7516.61
224.348	7494.65
224.42	7475.8
224.493	7434.37
224.566	7412.3
224.639	7429.45
224.712	7401.08
224.785	7395.69
224.858	7393.53
224.931	7381.71
225.004	7344.37
225.077	7346.82
225.15	7272.29
225.223	7271.91
225.296	7336.55
225.369	7287.25
225.442	7260.13
225.514	7268.3
225.587	7288.29
225.66	7286.75
225.733	7286.03
225.806	7286.27
225.879	7278.72
225.952	7247.4
226.025	7287.14
226.097	7329.28
226.17	7321.15
226.243	7268.5
226.316	7263.74
226.389	7262.87
226.461	7277.82
226.534	7294.78
226.607	7291.47
226.68	7353.34
226.753	7348.83
226.825	7284.76
226.898	7327.57
226.971	7327.24
227.044	7350.11
227.117	7356.41
227.189	7370.59
227.262	7397.47
227.335	7414.87
227.407	7410.6
227.48	7431.79
227.553	7440.3
227.626	7429.52
227.698	7440.29
227.771	7478.76
227.844	7464.06
227.916	7485.74
227.989	7461.8
228.062	7460.45
228.134	7528.35
228.207	7529.75
228.28	7523.84
228.352	7530.81
228.425	7541
228.498	7579.8
228.57	7566.35
228.643	7612.99
228.716	7616.12
228.788	7612.27
228.861	7606.07
228.934	7659.91
229.006	7670.96
229.079	7670.63
229.151	7651.34
229.224	7619.24
229.296	7636.01
229.369	7721.21
229.442	7756.9
229.514	7739.22
229.587	7774.17
229.659	7712.75
229.732	7733.48
229.804	7765.21
229.877	7831.69
229.949	7856.18
230.022	7892.65
230.094	7888.28
230.167	7875.39
230.239	7839.86
230.312	7824.13
230.384	7879.85
230.457	7878.88
230.529	7887.87
230.602	7886.67
230.674	7898.94
230.747	7928.54
230.819	7949.36
230.892	7853.12
230.964	7848.69
231.037	7875.79
231.109	7871.8
231.181	7902.52
231.254	7870.55
231.326	7862.66
231.399	7837.68
231.471	7814.16
231.544	7754.41
231.616	7796.72
231.688	7806.05
231.761	7800.33
231.833	7793.31
231.905	7728.56
231.978	7729.14
232.05	7715.73
232.122	7727.37
232.195	7704.57
232.267	7735.64
232.339	7718.47
232.412	7773.71
232.484	7753.21
232.556	7729.86
232.629	7785.43
232.701	7797.84
232.773	7799
232.846	7787.22
232.918	7800.07
232.99	7815.89
233.062	7849.75
233.135	7857.11
233.207	7824.93
233.279	7860.74
233.351	7887.24
233.424	7891.61
233.496	7863.92
233.568	7934.96
233.64	7897.74
233.713	7912.12
233.785	7911.11
233.857	7929.43
233.929	7882.94
234.001	7938.14
234.074	7989.43
234.146	7931.26
234.218	7925.82
234.29	7927.7
234.362	7914.58
234.434	7875.22
234.507	7848.05
234.579	7799.96
234.651	7779.43
234.723	7807.85
234.795	7819.06
234.867	7812.23
234.939	7856.63
235.012	7871.91
235.084	7868.59
235.156	7907.11
235.228	7891.39
235.3	7881.57
235.372	7887.78
235.444	7941.06
235.516	7868.84
235.588	7872.83
235.66	7881.97
235.732	7863.07
235.804	8024.58
235.876	8064.91
235.948	8120.78
236.02	8127.84
236.092	8147.46
236.164	8161.36
236.236	8158.47
236.308	8156.45
236.38	8185.36
236.452	8163.23
236.524	8187.37
236.596	8240.92
236.668	8263.39
236.74	8284.98
236.812	8300.08
236.884	8330.59
236.956	8341.9
237.028	8343.25
237.1	8329.83
237.172	8390.32
237.244	8457.58
237.316	8364.86
237.388	8357.17
237.46	8334.59
237.532	8393.25
237.604	8384.64
237.675	8443.69
237.747	8474.44
237.819	8462.61
237.891	8460.35
237.963	8457.41
238.035	8447.6
238.107	8358.16
238.178	8409.24
238.25	8419.73
238.322	8497.86
238.394	8465.72
238.466	8457.01
238.538	8489.81
238.609	8524.25
238.681	8482.57
238.753	8458.22
238.825	8469.68
238.897	8496.04
238.968	8558.58
239.04	8535.23
239.112	8630.9
239.184	8602.49
239.255	8604.52
239.327	8634.96
239.399	8649.64
239.471	8687.22
239.542	8719.75
239.614	8768.4
239.686	8700.33
239.758	8742.63
239.829	8713.06
239.901	8763.02
239.973	8779.58
240.044	8812.64
240.116	8826.89
240.188	8836.37
240.259	8853.5
240.331	8849.31
240.403	8875.25
240.474	8831.68
240.546	8820.27
240.618	8770.54
240.689	8767.99
240.761	8787.97
240.833	8838.32
240.904	8841.4
240.976	8844.72
241.048	8857.87
241.119	8892.29
241.191	8935.47
241.262	8987.43
241.334	8993.11
241.405	8990.95
241.477	8993.55
241.549	8998.75
241.62	9013.67
241.692	9053.29
241.763	9100.14
241.835	9114.54
241.906	9124.6
241.978	9104.82
242.049	9166.38
242.121	9211.1
242.192	9263.34
242.264	9230.65
242.335	9197.1
242.407	9229.5
242.478	9228.39
242.55	9247.51
242.621	9236.33
242.693	9230.27
242.764	9219.81
242.836	9215.72
242.907	9243.6
242.979	9267.43
243.05	9287.51
243.122	9307.98
243.193	9301.48
243.264	9248.56
243.336	9256.21
243.407	9285.3
243.479	9352.85
243.55	9369.76
243.622	9384.44
243.693	9381.51
243.764	9447.42
243.836	9430.48
243.907	9426.68
243.978	9433.18
244.05	9454.22
244.121	9412.39
244.192	9445.23
244.264	9404.58
244.335	9416.38
244.407	9367.99
244.478	9380.85
244.549	9365.97
244.62	9333.42
244.692	9332.6
244.763	9366.73
244.834	9354.65
244.906	9341.64
244.977	9348.15
245.048	9390.79
245.119	9368.06
245.191	9349.8
245.262	9291.16
245.333	9356.97
245.405	9369.78
245.476	9403.91
245.547	9412.63
245.618	9458.9
245.689	9464.73
245.761	9490.01
245.832	9499.74
245.903	9540.37
245.974	9563.2
246.045	9579.38
246.117	9645.6
246.188	9636.12
246.259	9625.23
246.33	9641.27
246.401	9647
246.473	9625.08
246.544	9606.68
246.615	9658.26
246.686	9668.42
246.757	9730.78
246.828	9708.96
246.899	9766.82
246.97	9735.76
247.042	9727.29
247.113	9758.6
247.184	9830.77
247.255	9834.53
247.326	9855.48
247.397	9865.12
247.468	9874.99
247.539	9882.26
247.61	9844.84
247.681	9877.05
247.752	9920.06
247.823	9897.43
247.894	9912.41
247.965	9886.98
248.037	9873.88
248.108	9829.81
248.179	9831.54
248.25	9823.69
248.321	9840.98
248.392	9806.09
248.463	9870.97
248.534	9872.41
248.605	9892.55
248.675	9871.73
248.746	9890.23
248.817	9903.82
248.888	9919.18
248.959	9872.22
249.03	9893.23
249.101	9893.71
249.172	9883.83
249.243	9821.14
249.314	9876.09
249.385	9884.76
249.456	9917.94
249.527	9914.13
249.598	9934.17
249.669	9939.46
249.739	9944.57
249.81	9963.02
249.881	9927.38
249.952	9915.48
250.023	9911.53
250.094	9869.95
250.165	9843.88
250.235	9832.9
250.306	9831.89
250.377	9806.22
250.448	9829.43
250.519	9778.62
250.59	9835.99
250.66	9840.13
250.731	9901.97
250.802	9896.67
250.873	9907.84
250.944	9921.76
251.014	9916.42
251.085	9985.17
251.156	9997.02
251.227	10039.85
251.297	10079.7
251.368	10122.03
251.439	10161.3
251.51	10202.54
251.58	10194.78
251.651	10197.19
251.722	10247.16
251.792	10207.7
251.863	10207.46
251.934	10258.53
252.005	10353.52
252.075	10355.69
252.146	10394.37
252.217	10428.34
252.287	10472.19
252.358	10481.77
252.429	10541.48
252.499	10542.2
252.57	10557.57
252.641	10597.85
252.711	10605.36
252.782	10570.29
252.852	10631.29
252.923	10630.23
252.994	10646.86
253.064	10681.59
253.135	10655.91
253.205	10635.58
253.276	10699.03
253.347	10760.88
253.417	10743.92
253.488	10726.09
253.558	10721.42
253.629	10715.3
253.699	10730.82
253.77	10748.22
253.841	10736.56
253.911	10744.22
253.982	10757.56
254.052	10774.82
254.123	10783.3
254.193	10785.71
254.264	10892.98
254.334	10864.36
254.405	10838.34
254.475	10808.51
254.546	10814
254.616	10865.8
254.687	10887.24
254.757	10902.08
254.827	10892.54
254.898	10909.6
254.968	10919.38
255.039	10899.05
255.109	10933.21
255.18	10902.47
255.25	10842.09
255.321	10869.7
255.391	10837.36
255.461	10909.64
255.532	10851.71
255.602	10848.39
255.673	10802.13
255.743	10779.43
255.813	10725.52
255.884	10763.73
255.954	10791.24
256.024	10846.42
256.095	10849.8
256.165	10823.44
256.235	10838.91
256.306	10826.43
256.376	10861.8
256.446	10889.47
256.517	10920.06
256.587	10960.26
256.657	10989.31
256.728	11009.31
256.798	11014.47
256.868	11013.45
256.938	10981.55
257.009	11008.73
257.079	11033.98
257.149	11115.47
257.219	11063.66
257.29	11095.4
257.36	11048.76
257.43	11076.95
257.5	11020.04
257.571	11018.4
257.641	11055.89
257.711	11030.3
257.781	11060.22
257.852	11077.72
257.922	11033.58
257.992	11039.74
258.062	11024.18
258.132	11055.31
258.202	11059.74
258.273	11075.31
258.343	11136.95
258.413	11126.98
258.483	11133.72
258.553	11106.69
258.623	11085.87
258.693	11109
258.764	11164.08
258.834	11224.46
258.904	11240.75
258.974	11234.39
259.044	11240.8
259.114	11254.53
259.184	11281.33
259.254	11288.32
259.324	11245.95
259.394	11285.9
259.464	11344.37
259.535	11355.21
259.605	11343.89
259.675	11342.2
259.745	11370.78
259.815	11348.27
259.885	11349.91
259.955	11442.85
260.025	11439.18
260.095	11454.94
260.165	11484.68
260.235	11532.31
260.305	11518.18
260.375	11498.47
260.445	11571.86
260.515	11626.23
260.585	11667.88
260.655	11675.44
260.725	11712.36
260.795	11745.43
260.865	11800.13
260.934	11768.03
261.004	11785.77
261.074	11789.14
261.144	11833.53
261.214	11859.99
261.284	11855.85
261.354	11887.41
261.424	11854.05
261.494	11913.24
261.564	11913.67
261.634	11934.2
261.703	11878.53
261.773	11903.26
261.843	11929.33
261.913	11922.68
261.983	11876.02
262.053	11893.67
262.123	11888.41
262.192	11856.89
262.262	11881.67
262.332	11840.79
262.402	11872.84
262.472	11886.87
262.541	11843.6
262.611	11885.19
262.681	11869.91
262.751	11909.49
262.821	11913.92
262.89	11892.56
262.96	11916.67
263.03	11974.85
263.1	11995.19
263.169	12014.13
263.239	12036.01
263.309	12083.01
263.379	12116.66
263.448	12140.18
263.518	12157.87
263.588	12180.91
263.657	12244.44
263.727	12276.83
263.797	12284.35
263.867	12285.89
263.936	12257.89
264.006	12304.88
264.076	12293.26
264.145	12287.19
