Data from 20250626_urea_1M_exp2_MAYP1162681_01-33-58-178.txt Node
Date: Fri Jun 27 01:33:58 BST 2025
User: adleo
Spectrometer: MAYP116268
Trigger mode: 0
Integration Time (sec): 3.000000E0
Scans to average: 1
Electric dark correction enabled: true
Nonlinearity correction enabled: true
Boxcar width: 10
XAxis mode: Wavelengths
Number of Pixels in Spectrum: 2068
>>>>>Begin Spectral Data<<<<<
179.565	2761.88
179.642	2902.52
179.718	3014.19
179.795	3117.44
179.871	3200.76
179.948	3249.63
180.024	3305.51
180.101	3365.94
180.177	3400.36
180.254	3455.89
180.33	3512.97
180.407	3700.28
180.483	3914.71
180.56	4134.55
180.636	4335.96
180.712	4307.53
180.789	4326.28
180.865	4357.21
180.942	4384.85
181.018	4413.74
181.095	4450.31
181.171	4464.04
181.248	4469.59
181.324	4509.56
181.4	4524.73
181.477	4551.2
181.553	4581.52
181.63	4628.52
181.706	4667.06
181.782	4687.95
181.859	4695.75
181.935	4708.97
182.011	4702.69
182.088	4746.55
182.164	4796.03
182.24	4827.76
182.317	4850.11
182.393	4849.58
182.469	4881.13
182.546	4913.59
182.622	4924.55
182.698	4916.51
182.775	4951.13
182.851	4982.59
182.927	4962.09
183.003	4951.99
183.08	4941.65
183.156	4966.5
183.232	4962.09
183.308	4932.93
183.385	4953.37
183.461	4988.29
183.537	4989.53
183.613	5020.13
183.69	4999.11
183.766	4968.29
183.842	4985.68
183.918	5000.38
183.995	5030.93
184.071	5043.49
184.147	5030.41
184.223	5002.32
184.299	5027.81
184.375	4996.92
184.452	5012.88
184.528	5115.18
184.604	5145.39
184.68	5172.02
184.756	5187.78
184.832	5196.55
184.908	5209.38
184.985	5209.33
185.061	5169.34
185.137	5193.25
185.213	5164.47
185.289	5167.15
185.365	5149.67
185.441	5148.62
185.517	5181.69
185.593	5170.87
185.669	5160.8
185.745	5190.32
185.822	5231.44
185.898	5214.81
185.974	5234.11
186.05	5215.99
186.126	5156.09
186.202	5131.96
186.278	5122.28
186.354	5103.4
186.43	5120.9
186.506	5114.43
186.582	5112.52
186.658	5130.57
186.734	5081.29
186.81	5090.63
186.886	5100.49
186.962	5129.32
187.038	5117.73
187.114	5097.93
187.19	5117.09
187.266	5094.49
187.341	5090.13
187.417	5070.01
187.493	5066.56
187.569	5077.3
187.645	5061.92
187.721	5033.5
187.797	5057.11
187.873	5064.44
187.949	5048.26
188.025	5030.86
188.101	5043.45
188.176	5057.58
188.252	5048
188.328	5066.47
188.404	5063.31
188.48	5047.27
188.556	5025.29
188.632	5027.06
188.707	5028.5
188.783	5025.72
188.859	5014.42
188.935	4987.26
189.011	5006.71
189.086	4994.26
189.162	4972.75
189.238	4967.82
189.314	4958.15
189.39	4938.75
189.465	4921.94
189.541	4963.52
189.617	4926.13
189.693	4909.9
189.768	4915.93
189.844	4973.25
189.92	4951.28
189.996	4973.6
190.071	5001.34
190.147	5008.04
190.223	5031.04
190.298	5011.49
190.374	4975.04
190.45	5005.68
190.526	5026.66
190.601	5015.45
190.677	5016.41
190.753	5088.13
190.828	5100.77
190.904	5139.01
190.98	5184.96
191.055	5211.69
191.131	5187.54
191.207	5241.04
191.282	5264.93
191.358	5241.27
191.433	5211.31
191.509	5245.72
191.585	5236.47
191.66	5236.52
191.736	5254.58
191.811	5227.13
191.887	5266.67
191.963	5332.56
192.038	5344.49
192.114	5350.82
192.189	5361.69
192.265	5355.52
192.34	5301.32
192.416	5295.77
192.491	5286.56
192.567	5294.05
192.642	5304.88
192.718	5302.1
192.793	5275.51
192.869	5266.64
192.944	5277.61
193.02	5290.74
193.095	5301.43
193.171	5318.44
193.246	5317.62
193.322	5311.58
193.397	5315.8
193.473	5278.65
193.548	5229.23
193.624	5245.34
193.699	5238.72
193.775	5275.88
193.85	5283.39
193.925	5304.63
194.001	5301.66
194.076	5275.26
194.152	5243
194.227	5218.12
194.302	5198.54
194.378	5204.38
194.453	5195.24
194.529	5219.58
194.604	5184.99
194.679	5172.96
194.755	5125.55
194.83	5156.14
194.905	5146.85
194.981	5168.41
195.056	5150.74
195.131	5164.63
195.207	5155.38
195.282	5129.33
195.357	5080.63
195.433	5115.93
195.508	5080.14
195.583	5105.48
195.659	5152.31
195.734	5169.18
195.809	5173.92
195.884	5195.61
195.96	5198.24
196.035	5241.17
196.11	5239.21
196.185	5272.03
196.261	5276.48
196.336	5354.2
196.411	5319.15
196.486	5335.15
196.561	5314.07
196.637	5341.71
196.712	5381.65
196.787	5389.61
196.862	5434.12
196.937	5457.4
197.013	5474.57
197.088	5501.69
197.163	5548.36
197.238	5588.58
197.313	5586.38
197.388	5621.18
197.464	5696.92
197.539	5723.05
197.614	5701
197.689	5726.89
197.764	5764.02
197.839	5816.68
197.914	5803.72
197.989	5862.57
198.065	5897.15
198.14	6036.32
198.215	6099.98
198.29	6130.56
198.365	6168.32
198.44	6188.51
198.515	6261.84
198.59	6293.95
198.665	6361.23
198.74	6381.54
198.815	6378.9
198.89	6437.59
198.965	6510.21
199.04	6497.1
199.115	6534.19
199.19	6641.61
199.265	6650.54
199.34	6670.7
199.415	6751.28
199.49	6799.52
199.565	6817.68
199.64	6880.45
199.715	6868.33
199.79	6878.7
199.865	6892.78
199.94	6889.85
200.015	6969.74
200.09	6981.9
200.165	6999.96
200.24	7015.14
200.315	7111.46
200.39	7150.28
200.464	7162.29
200.539	7164.7
200.614	7210.28
200.689	7267.33
200.764	7281.17
200.839	7322.57
200.914	7339.24
200.989	7312.36
201.063	7352.44
201.138	7312.4
201.213	7308.9
201.288	7254.45
201.363	7268.63
201.438	7267.23
201.512	7303.64
201.587	7260.53
201.662	7268.22
201.737	7302.24
201.812	7322.1
201.886	7245.77
201.961	7271.11
202.036	7241.86
202.111	7233.16
202.186	7153.31
202.26	7111.93
202.335	7059.4
202.41	7047.35
202.485	7004.61
202.559	6955.51
202.634	6887.2
202.709	6909.32
202.784	6858.79
202.858	6863.31
202.933	6816.44
203.008	6800.83
203.082	6747.05
203.157	6741.52
203.232	6636.41
203.306	6574.05
203.381	6495.04
203.456	6432.62
203.53	6372.54
203.605	6325.77
203.68	6264.87
203.754	6252.4
203.829	6210.11
203.904	6160.59
203.978	6129.43
204.053	6141.76
204.127	6117.05
204.202	6108.32
204.277	6063.08
204.351	6046.48
204.426	6022.04
204.5	6005.15
204.575	5914.91
204.65	5943.9
204.724	5925.08
204.799	5947.03
204.873	5943
204.948	5936.18
205.022	5909.72
205.097	5883.22
205.171	5920.48
205.246	5942.03
205.32	5943.04
205.395	5947.74
205.469	5929.91
205.544	5943.4
205.618	5897.92
205.693	5919.65
205.767	5891.26
205.842	5947.4
205.916	5934.07
205.991	5910.95
206.065	5923.62
206.14	5961.32
206.214	5945.96
206.289	5927.24
206.363	5958.28
206.438	5962.84
206.512	5984.96
206.586	6032.3
206.661	6060.24
206.735	6001.37
206.81	6002.66
206.884	6035.42
206.958	6002.09
207.033	6035.08
207.107	6052.32
207.181	6133.15
207.256	6120.48
207.33	6168.21
207.405	6197.62
207.479	6244.88
207.553	6269.78
207.628	6229.45
207.702	6265.91
207.776	6250.08
207.851	6258.57
207.925	6291.75
207.999	6283.45
208.073	6279.23
208.148	6285.9
208.222	6254.16
208.296	6334.11
208.371	6375.38
208.445	6401.93
208.519	6473.57
208.593	6513.7
208.668	6498.82
208.742	6506.17
208.816	6513.46
208.89	6548.05
208.965	6547.62
209.039	6568.94
209.113	6604.47
209.187	6657.61
209.261	6642.07
209.336	6693.68
209.41	6745.4
209.484	6747.9
209.558	6805.4
209.632	6832.57
209.707	6859.8
209.781	6917.92
209.855	6953.86
209.929	6994.73
210.003	7010.92
210.077	7007.46
210.151	7124.39
210.226	7217.36
210.3	7282.15
210.374	7338.82
210.448	7344.78
210.522	7368.63
210.596	7395.59
210.67	7424.52
210.744	7543.71
210.818	7626.14
210.892	7674.79
210.966	7661.67
211.041	7698.73
211.115	7685.57
211.189	7747.96
211.263	7791.99
211.337	7806.85
211.411	7845.99
211.485	7828.34
211.559	7861.99
211.633	7872.08
211.707	7791
211.781	7806.88
211.855	7718.21
211.929	7698.56
212.003	7656.04
212.077	7678.36
212.151	7703.13
212.225	7720.54
212.299	7689.02
212.373	7659.12
212.447	7650.22
212.52	7720.18
212.594	7728.69
212.668	7756.48
212.742	7715.08
212.816	7696.23
212.89	7679.12
212.964	7675.7
213.038	7681.95
213.112	7707.93
213.186	7743.21
213.26	7687.24
213.333	7570.04
213.407	7580.75
213.481	7590.07
213.555	7616.25
213.629	7579.99
213.703	7531.62
213.777	7528.2
213.85	7475.36
213.924	7558.42
213.998	7556.12
214.072	7537.3
214.146	7499.75
214.219	7492.93
214.293	7483.17
214.367	7483.89
214.441	7502.4
214.515	7464.75
214.588	7403.99
214.662	7313.06
214.736	7253.81
214.81	7267.97
214.883	7284.68
214.957	7253.7
215.031	7210.96
215.105	7145.06
215.178	7101.62
215.252	7077.07
215.326	7002.75
215.4	6942.06
215.473	6810.26
215.547	6746.97
215.621	6696.21
215.694	6688.66
215.768	6616.76
215.842	6571.24
215.915	6521.56
215.989	6434
216.063	6396.24
216.136	6382.41
216.21	6364.41
216.284	6372.48
216.357	6352.61
216.431	6320.2
216.504	6314.68
216.578	6354.78
216.652	6364.18
216.725	6346.42
216.799	6358.81
216.873	6344.13
216.946	6355.21
217.02	6325.95
217.093	6304.6
217.167	6235.2
217.24	6176.24
217.314	6149.05
217.387	6117.78
217.461	6084.48
217.535	6104.68
217.608	6056.41
217.682	6035.1
217.755	6045.71
217.829	6005.05
217.902	5992.58
217.976	5980.1
218.049	5948.11
218.123	5890.83
218.196	5890.25
218.27	5863.34
218.343	5810.92
218.417	5813.71
218.49	5793.08
218.563	5827.23
218.637	5836.73
218.71	5892.54
218.784	5912.93
218.857	5937.44
218.931	5949.81
219.004	5956.28
219.077	5974.53
219.151	5988.67
219.224	5982.43
219.298	5976.68
219.371	6008.16
219.444	5977.33
219.518	5984.62
219.591	5994.06
219.665	6068.02
219.738	6078.62
219.811	6068.7
219.885	6099.6
219.958	6120.38
220.031	6124.69
220.105	6140.87
220.178	6142.74
220.251	6118.98
220.325	6142.26
220.398	6153.88
220.471	6173.64
220.544	6195.62
220.618	6178.34
220.691	6201.03
220.764	6215.95
220.838	6236.02
220.911	6228.91
220.984	6299.3
221.057	6326.31
221.131	6349.25
221.204	6277.94
221.277	6331.81
221.35	6423.98
221.424	6418.79
221.497	6429.02
221.57	6449.12
221.643	6474.91
221.716	6510.55
221.79	6519.14
221.863	6526.54
221.936	6529.42
222.009	6536.81
222.082	6564.38
222.155	6569.99
222.229	6612.02
222.302	6632.81
222.375	6640.44
222.448	6667.72
222.521	6667.28
222.594	6671.94
222.667	6649.25
222.74	6695.04
222.814	6691.78
222.887	6677.26
222.96	6718.47
223.033	6752.15
223.106	6768.14
223.179	6787.41
223.252	6797.21
223.325	6815.41
223.398	6829.97
223.471	6859.65
223.544	6875.78
223.617	6885.19
223.69	6903.44
223.763	6880.14
223.837	6898.49
223.91	6918.14
223.983	6884.28
224.056	6862.48
224.129	6876.99
224.202	6920.09
224.275	6912.93
224.348	6888.77
224.42	6866.68
224.493	6826.04
224.566	6806.63
224.639	6824.3
224.712	6801.38
224.785	6788.02
224.858	6782.59
224.931	6766.3
225.004	6731.64
225.077	6737.64
225.15	6668.22
225.223	6667.64
225.296	6729.26
225.369	6686.14
225.442	6662.7
225.514	6673.69
225.587	6687.42
225.66	6696.02
225.733	6693.76
225.806	6700.63
225.879	6694.01
225.952	6672.74
226.025	6706.94
226.097	6744.76
226.17	6732.61
226.243	6685.8
226.316	6680.23
226.389	6684.45
226.461	6697.14
226.534	6715.62
226.607	6702.66
226.68	6767.27
226.753	6764.2
226.825	6703.59
226.898	6751.7
226.971	6755.88
227.044	6773.17
227.117	6778.16
227.189	6789.79
227.262	6822.23
227.335	6835.01
227.407	6834.48
227.48	6858.67
227.553	6866.65
227.626	6852.85
227.698	6868.56
227.771	6902.35
227.844	6891.79
227.916	6907.45
227.989	6881.65
228.062	6885.83
228.134	6956.9
228.207	6957.81
228.28	6949.7
228.352	6959.16
228.425	6964.83
228.498	6996.4
228.57	6983.48
228.643	7030.58
228.716	7032.4
228.788	7023.37
228.861	7019.09
228.934	7064.72
229.006	7073.27
229.079	7076.45
229.151	7065.05
229.224	7035.14
229.296	7049.65
229.369	7128.96
229.442	7169.15
229.514	7155.04
229.587	7185.4
229.659	7121.77
229.732	7131.14
229.804	7161.98
229.877	7220.93
229.949	7241.02
230.022	7279.59
230.094	7281.99
230.167	7267.42
230.239	7234.46
230.312	7220.14
230.384	7273.95
230.457	7274.14
230.529	7284.8
230.602	7285.81
230.674	7290.48
230.747	7321.74
230.819	7343.12
230.892	7251.61
230.964	7246.27
231.037	7270.76
231.109	7263.98
231.181	7300.5
231.254	7271.91
231.326	7262.97
231.399	7245.17
231.471	7223.83
231.544	7165.75
231.616	7196.69
231.688	7200.49
231.761	7192.14
231.833	7190.74
231.905	7119.07
231.978	7117.72
232.05	7101.05
232.122	7103.41
232.195	7088.13
232.267	7117.3
232.339	7104.95
232.412	7155.1
232.484	7139.19
232.556	7115.9
232.629	7167.88
232.701	7177.49
232.773	7183.3
232.846	7177.35
232.918	7181.53
232.99	7188.12
233.062	7225.99
233.135	7236.23
233.207	7212.73
233.279	7248.37
233.351	7268.21
233.424	7276.72
233.496	7259.08
233.568	7322.87
233.64	7293.7
233.713	7310.86
233.785	7305.33
233.857	7310.52
233.929	7271.41
234.001	7319.31
234.074	7371.38
234.146	7314.26
234.218	7315.56
234.29	7322.09
234.362	7313.78
234.434	7274.75
234.507	7254.33
234.579	7209.2
234.651	7189.35
234.723	7214.53
234.795	7228.76
234.867	7225.97
234.939	7272.36
235.012	7285.09
235.084	7286.77
235.156	7315.46
235.228	7293.02
235.3	7282.59
235.372	7292.3
235.444	7341.41
235.516	7279.8
235.588	7283.55
235.66	7301.58
235.732	7279.61
235.804	7424.78
235.876	7458.13
235.948	7508.37
236.02	7523.31
236.092	7541.28
236.164	7555.6
236.236	7553.39
236.308	7545.99
236.38	7565.55
236.452	7545.12
236.524	7561.89
236.596	7610.69
236.668	7636.42
236.74	7659.58
236.812	7676.98
236.884	7702.66
236.956	7712.81
237.028	7704.11
237.1	7690.56
237.172	7742.26
237.244	7798.47
237.316	7709.94
237.388	7693.45
237.46	7679.94
237.532	7726.44
237.604	7717.83
237.675	7773.05
237.747	7803.49
237.819	7798.88
237.891	7803.92
237.963	7800.42
238.035	7797.92
238.107	7712.33
238.178	7764.15
238.25	7768.91
238.322	7837.91
238.394	7806.99
238.466	7799.87
238.538	7837.31
238.609	7869.81
238.681	7826.57
238.753	7808.67
238.825	7825.71
238.897	7852.82
238.968	7907.77
239.04	7893.86
239.112	7978.02
239.184	7947.96
239.255	7944.73
239.327	7967.71
239.399	7984.45
239.471	8020.42
239.542	8042.54
239.614	8094.38
239.686	8030.92
239.758	8074.55
239.829	8052.5
239.901	8101.56
239.973	8115.41
240.044	8138.93
240.116	8151.53
240.188	8160.14
240.259	8174.72
240.331	8164.03
240.403	8189.81
240.474	8159.15
240.546	8148.04
240.618	8095.46
240.689	8098.97
240.761	8122.65
240.833	8171.96
240.904	8169.94
240.976	8171.14
241.048	8186.05
241.119	8211.47
241.191	8249.18
241.262	8293.75
241.334	8297.84
241.405	8300.92
241.477	8302.61
241.549	8312.71
241.62	8328.78
241.692	8366.93
241.763	8409.91
241.835	8427.43
241.906	8443.74
241.978	8420.21
242.049	8469.14
242.121	8523.36
242.192	8570.66
242.264	8539.53
242.335	8502.53
242.407	8537.9
242.478	8537.71
242.55	8554.41
242.621	8541.99
242.693	8534.38
242.764	8529.14
242.836	8525.67
242.907	8548.68
242.979	8575.81
243.05	8596.17
243.122	8612.06
243.193	8608.25
243.264	8557.19
243.336	8560.13
243.407	8589.92
243.479	8652.63
243.55	8665.19
243.622	8671.06
243.693	8669.04
243.764	8726.59
243.836	8714.81
243.907	8704.8
243.978	8713.36
244.05	8730.93
244.121	8698.7
244.192	8732.1
244.264	8692.96
244.335	8703.99
244.407	8664.28
244.478	8675.64
244.549	8660.05
244.62	8630.02
244.692	8628.38
244.763	8659.22
244.834	8645.32
244.906	8624.14
244.977	8630.01
245.048	8670.17
245.119	8656.16
245.191	8640.14
245.262	8589.03
245.333	8647.44
245.405	8661.35
245.476	8682.91
245.547	8691
245.618	8732.09
245.689	8743.02
245.761	8770.41
245.832	8772.33
245.903	8808.76
245.974	8829.56
246.045	8840.72
246.117	8908.21
246.188	8896.09
246.259	8884.63
246.33	8903.98
246.401	8908.46
246.473	8889.01
246.544	8881.06
246.615	8928.39
246.686	8935.65
246.757	8996.92
246.828	8980.07
246.899	9026.11
246.97	9007.58
247.042	9010.47
247.113	9040.95
247.184	9103.76
247.255	9107.51
247.326	9132.02
247.397	9132.98
247.468	9137.6
247.539	9151.66
247.61	9115.35
247.681	9146.83
247.752	9187.94
247.823	9165.27
247.894	9180.19
247.965	9151.56
248.037	9138.27
248.108	9093.54
248.179	9096.67
248.25	9083.28
248.321	9103.69
248.392	9073.54
248.463	9133.86
248.534	9122.94
248.605	9139.07
248.675	9116.57
248.746	9127.89
248.817	9143.1
248.888	9159.86
248.959	9121.2
249.03	9139.88
249.101	9144.07
249.172	9139.21
249.243	9092.81
249.314	9143.11
249.385	9150.29
249.456	9179.98
249.527	9172.42
249.598	9195.38
249.669	9194.03
249.739	9204.63
249.81	9209.3
249.881	9180.46
249.952	9171.84
250.023	9171.55
250.094	9128.65
250.165	9109
250.235	9104.42
250.306	9098.45
250.377	9080.83
250.448	9104.65
250.519	9058.01
250.59	9104.81
250.66	9102.26
250.731	9149
250.802	9150.01
250.873	9168.5
250.944	9188.53
251.014	9185.26
251.085	9252.11
251.156	9270.07
251.227	9311.63
251.297	9353
251.368	9390.94
251.439	9423.25
251.51	9460.33
251.58	9452.97
251.651	9449.89
251.722	9490.97
251.792	9456.54
251.863	9454.76
251.934	9499.26
252.005	9588.3
252.075	9585.69
252.146	9619.64
252.217	9652.15
252.287	9684.71
252.358	9678.69
252.429	9737.98
252.499	9730.57
252.57	9735.67
252.641	9772.13
252.711	9772.13
252.782	9744.58
252.852	9804.89
252.923	9804.7
252.994	9820.59
253.064	9861.71
253.135	9840.38
253.205	9819.38
253.276	9879
253.347	9932.64
253.417	9917.9
253.488	9899.45
253.558	9902.2
253.629	9904.9
253.699	9917.71
253.77	9932.93
253.841	9932.6
253.911	9934.62
253.982	9950.94
254.052	9969.59
254.123	9977.83
254.193	9982.5
254.264	10084.64
254.334	10059.01
254.405	10033.29
254.475	10009.74
254.546	10011.13
254.616	10066.57
254.687	10100.58
254.757	10110.69
254.827	10106.21
254.898	10120.81
254.968	10126.35
255.039	10112.09
255.109	10140.07
255.18	10118.78
255.25	10072.78
255.321	10104.14
255.391	10074.6
255.461	10144.4
255.532	10085.72
255.602	10081
255.673	10041.02
255.743	10006.08
255.813	9949.93
255.884	9990.11
255.954	10015.97
256.024	10069.98
256.095	10070.17
256.165	10042.81
256.235	10062.56
256.306	10047.34
256.376	10081.5
256.446	10113.98
256.517	10138.44
256.587	10171.98
256.657	10190.57
256.728	10207.33
256.798	10210.95
256.868	10202.52
256.938	10178.86
257.009	10217.25
257.079	10242.11
257.149	10322.13
257.219	10283.73
257.29	10315.18
257.36	10265.51
257.43	10299
257.5	10245.72
257.571	10240.32
257.641	10266.29
257.711	10240.41
257.781	10274.18
257.852	10287.43
257.922	10239.59
257.992	10235.74
258.062	10231.74
258.132	10262.57
258.202	10271.97
258.273	10279.24
258.343	10342.46
258.413	10329.06
258.483	10331.62
258.553	10308.64
258.623	10283
258.693	10303.43
258.764	10356.18
258.834	10410.47
258.904	10415.77
258.974	10409.89
259.044	10418.23
259.114	10441.64
259.184	10469.83
259.254	10473.54
259.324	10434.17
259.394	10465.24
259.464	10529.38
259.535	10527.74
259.605	10525.96
259.675	10516.13
259.745	10546.1
259.815	10529.57
259.885	10532.61
259.955	10618.64
260.025	10613.34
260.095	10626.98
260.165	10655.41
260.235	10701.38
260.305	10701.38
260.375	10687.75
260.445	10757.75
260.515	10807.67
260.585	10842.95
260.655	10842.32
260.725	10873.74
260.795	10905.44
260.865	10961.92
260.934	10940.71
261.004	10969.92
261.074	10972.33
261.144	11019.59
261.214	11045.76
261.284	11043.78
261.354	11076.64
261.424	11045.89
261.494	11098.36
261.564	11101.88
261.634	11127.95
261.703	11074.55
261.773	11086.21
261.843	11110.93
261.913	11100.86
261.983	11062.31
262.053	11071.42
262.123	11072.96
262.192	11052
262.262	11079.28
262.332	11048.1
262.402	11068.24
262.472	11082.41
262.541	11037.75
262.611	11071.39
262.681	11052.35
262.751	11090.56
262.821	11097.89
262.89	11067.19
262.96	11092.83
263.03	11155.43
263.1	11170.09
263.169	11185.8
263.239	11210.04
263.309	11256.36
263.379	11283.49
263.448	11297.03
263.518	11323.1
263.588	11346.28
263.657	11402.91
263.727	11434.29
263.797	11441.03
263.867	11440.22
263.936	11406.14
264.006	11456.78
264.076	11453.21
264.145	11452.92
264.215	11434.27
264.285	11456.92
