Data from 20250626_urea_1M_exp2_MAYP1162681_13-04-00-866.txt Node
Date: Fri Jun 27 13:04:00 BST 2025
User: adleo
Spectrometer: MAYP116268
Trigger mode: 0
Integration Time (sec): 3.000000E0
Scans to average: 1
Electric dark correction enabled: true
Nonlinearity correction enabled: true
Boxcar width: 10
XAxis mode: Wavelengths
Number of Pixels in Spectrum: 2068
>>>>>Begin Spectral Data<<<<<
179.565	3126.75
179.642	3294.07
179.718	3418.93
179.795	3540.04
179.871	3630.86
179.948	3685.32
180.024	3750.28
180.101	3815.95
180.177	3855.98
180.254	3922.58
180.33	3984.41
180.407	4203.68
180.483	4444.19
180.56	4691
180.636	4919.39
180.712	4888.15
180.789	4913.1
180.865	4946.32
180.942	4973.08
181.018	4998.22
181.095	5037.42
181.171	5053.75
181.248	5053.75
181.324	5098.71
181.4	5111.98
181.477	5142.64
181.553	5176.78
181.63	5231.99
181.706	5272.82
181.782	5301.98
181.859	5298.24
181.935	5314.3
182.011	5305.67
182.088	5354.8
182.164	5411.73
182.24	5446.31
182.317	5472.04
182.393	5469.88
182.469	5507.13
182.546	5542.31
182.622	5558.12
182.698	5545.37
182.775	5580.9
182.851	5618.91
182.927	5597.14
183.003	5581.33
183.08	5565.52
183.156	5594.04
183.232	5586.65
183.308	5557.51
183.385	5576.15
183.461	5627.12
183.537	5629.23
183.613	5665.82
183.69	5643.42
183.766	5607.97
183.842	5632.28
183.918	5650.5
183.995	5680.18
184.071	5692.36
184.147	5685.6
184.223	5651.82
184.299	5684.63
184.375	5647.33
184.452	5661.91
184.528	5769.27
184.604	5808.86
184.68	5846.07
184.756	5865.55
184.832	5876.87
184.908	5891.1
184.985	5890
185.061	5843.58
185.137	5863.63
185.213	5825.84
185.289	5825.79
185.365	5806.48
185.441	5798.42
185.517	5832.49
185.593	5829.47
185.669	5816.52
185.745	5836.52
185.822	5885.21
185.898	5863.29
185.974	5897.23
186.05	5877.99
186.126	5811.89
186.202	5787.82
186.278	5770.12
186.354	5741.67
186.43	5756.79
186.506	5752.47
186.582	5749.31
186.658	5770.93
186.734	5718.92
186.81	5729.65
186.886	5740.78
186.962	5775.35
187.038	5762.4
187.114	5737.92
187.19	5756.15
187.266	5730.55
187.341	5735.64
187.417	5713.44
187.493	5713.73
187.569	5718.28
187.645	5697.86
187.721	5669.22
187.797	5688.73
187.873	5701.25
187.949	5683.85
188.025	5670.55
188.101	5680.72
188.176	5689.92
188.252	5676.79
188.328	5702.9
188.404	5700.45
188.48	5681.81
188.556	5662.1
188.632	5661.76
188.707	5663.68
188.783	5658.16
188.859	5648.24
188.935	5618.02
189.011	5639.27
189.086	5620.48
189.162	5595.25
189.238	5594.34
189.314	5582.55
189.39	5568.26
189.465	5550.42
189.541	5598.57
189.617	5555.08
189.693	5537.49
189.768	5555.34
189.844	5625.15
189.92	5599.52
189.996	5623.5
190.071	5661.38
190.147	5659.27
190.223	5685.65
190.298	5663.64
190.374	5623.31
190.45	5654.42
190.526	5677.58
190.601	5665.16
190.677	5671.15
190.753	5755.05
190.828	5768.47
190.904	5812.99
190.98	5857.08
191.055	5887.24
191.131	5863.49
191.207	5915.28
191.282	5943.66
191.358	5912.11
191.433	5869.58
191.509	5905.42
191.585	5898.9
191.66	5900.1
191.736	5923.4
191.811	5900.09
191.887	5946.35
191.963	6017.06
192.038	6032.02
192.114	6032.17
192.189	6042.19
192.265	6035.96
192.34	5968.69
192.416	5964.28
192.491	5949.41
192.567	5953.06
192.642	5962.32
192.718	5962.99
192.793	5933.68
192.869	5923.23
192.944	5929.26
193.02	5950.19
193.095	5958.53
193.171	5975.66
193.246	5968.46
193.322	5962.13
193.397	5965.68
193.473	5930.55
193.548	5877.96
193.624	5893.94
193.699	5890.34
193.775	5931.9
193.85	5933.63
193.925	5961.27
194.001	5959.25
194.076	5939.35
194.152	5908.68
194.227	5887.81
194.302	5863.07
194.378	5871.61
194.453	5859.86
194.529	5897.52
194.604	5855.26
194.679	5846.91
194.755	5791.44
194.83	5830.13
194.905	5820.06
194.981	5841.41
195.056	5820.36
195.131	5835.76
195.207	5831.34
195.282	5804.2
195.357	5752.47
195.433	5797.12
195.508	5758.26
195.583	5781.42
195.659	5824.7
195.734	5844.62
195.809	5843.7
195.884	5865.76
195.96	5864.99
196.035	5910.89
196.11	5901.05
196.185	5937.89
196.261	5941.29
196.336	6032.49
196.411	5988.33
196.486	6007.61
196.561	5994.56
196.637	6019.73
196.712	6064.38
196.787	6068.46
196.862	6114.12
196.937	6140.22
197.013	6155.15
197.088	6188.97
197.163	6239.81
197.238	6286.18
197.313	6287.47
197.388	6325.25
197.464	6410.67
197.539	6446.43
197.614	6423.3
197.689	6454.74
197.764	6495.66
197.839	6553.65
197.914	6530.6
197.989	6597.34
198.065	6628.97
198.14	6766.91
198.215	6838.41
198.29	6872.44
198.365	6918.6
198.44	6941.22
198.515	7015.39
198.59	7056.08
198.665	7124.79
198.74	7154.93
198.815	7154.64
198.89	7221.52
198.965	7302.18
199.04	7288.92
199.115	7331.15
199.19	7454.3
199.265	7463.47
199.34	7494
199.415	7583.69
199.49	7644.47
199.565	7669.14
199.64	7741.78
199.715	7731.52
199.79	7750.23
199.865	7763.26
199.94	7750.19
200.015	7842.56
200.09	7862
200.165	7877.19
200.24	7894.6
200.315	7997.7
200.39	8039.16
200.464	8049.88
200.539	8054.74
200.614	8102.15
200.689	8165.79
200.764	8180.09
200.839	8227.58
200.914	8240.95
200.989	8211.89
201.063	8256.05
201.138	8207.22
201.213	8204.09
201.288	8148.11
201.363	8156.71
201.438	8155.61
201.512	8198.2
201.587	8149.46
201.662	8160.15
201.737	8196.32
201.812	8223.41
201.886	8134.4
201.961	8164.39
202.036	8129.48
202.111	8117.26
202.186	8030.85
202.26	7980.19
202.335	7918.09
202.41	7903.71
202.485	7855.2
202.559	7802.11
202.634	7719.93
202.709	7747.41
202.784	7697.94
202.858	7702.65
202.933	7655.25
203.008	7640.87
203.082	7589.63
203.157	7586.6
203.232	7468.45
203.306	7403.91
203.381	7309.53
203.456	7243.83
203.53	7175.08
203.605	7126.81
203.68	7066.95
203.754	7048.19
203.829	7005.22
203.904	6952
203.978	6915.42
204.053	6924.31
204.127	6889.68
204.202	6885.46
204.277	6831.14
204.351	6811.63
204.426	6786.26
204.5	6765.41
204.575	6664.84
204.65	6689.63
204.724	6662.9
204.799	6685.79
204.873	6680.07
204.948	6676.14
205.022	6644.51
205.097	6623.17
205.171	6662.44
205.246	6679.98
205.32	6682.05
205.395	6682.14
205.469	6660.46
205.544	6677.8
205.618	6630.78
205.693	6664.84
205.767	6633.96
205.842	6695.49
205.916	6675.9
205.991	6647.81
206.065	6662.27
206.14	6707.84
206.214	6698.61
206.289	6682.22
206.363	6708.64
206.438	6714.26
206.512	6734.14
206.586	6788.45
206.661	6811.42
206.735	6744.75
206.81	6748.22
206.884	6788.07
206.958	6752.68
207.033	6794.78
207.107	6812.18
207.181	6898.72
207.256	6882.19
207.33	6930.6
207.405	6967.83
207.479	7017.88
207.553	7043.24
207.628	7000.46
207.702	7029.76
207.776	7007.71
207.851	7014
207.925	7061.15
207.999	7049.72
208.073	7040.83
208.148	7044.92
208.222	7012.23
208.296	7100.67
208.371	7140.78
208.445	7170.29
208.519	7251.09
208.593	7286.6
208.668	7275.88
208.742	7277.66
208.816	7276.75
208.89	7314.2
208.965	7302.12
209.039	7324.67
209.113	7366.83
209.187	7421.8
209.261	7416.66
209.336	7475.78
209.41	7538.77
209.484	7542.81
209.558	7611.61
209.632	7650.06
209.707	7678.76
209.781	7736.49
209.855	7780.45
209.929	7825.12
210.003	7843.53
210.077	7841.71
210.151	7973.3
210.226	8072.28
210.3	8154.54
210.374	8220.69
210.448	8235.27
210.522	8267.55
210.596	8295.31
210.67	8321
210.744	8459.05
210.818	8549.56
210.892	8604.13
210.966	8583.2
211.041	8616.6
211.115	8603.85
211.189	8668.7
211.263	8721.1
211.337	8739.14
211.411	8780.2
211.485	8764.22
211.559	8797.85
211.633	8805.98
211.707	8721.23
211.781	8734.23
211.855	8637.49
211.929	8620.56
212.003	8573.72
212.077	8597.64
212.151	8632.01
212.225	8658.87
212.299	8618.94
212.373	8580.78
212.447	8565.62
212.52	8645.03
212.594	8658.65
212.668	8687.43
212.742	8651.43
212.816	8632.75
212.89	8621.3
212.964	8613.26
213.038	8625.3
213.112	8658.75
213.186	8692.19
213.26	8626.98
213.333	8497.56
213.407	8502.03
213.481	8508.67
213.555	8536.12
213.629	8502.57
213.703	8450.93
213.777	8446.79
213.85	8387.89
213.924	8477.47
213.998	8478.34
214.072	8451.9
214.146	8406.96
214.219	8397.67
214.293	8380.4
214.367	8381.36
214.441	8398.35
214.515	8356.53
214.588	8279.64
214.662	8173.42
214.736	8111.09
214.81	8125.94
214.883	8151.75
214.957	8118.34
215.031	8073.49
215.105	7994.79
215.178	7946.79
215.252	7919.76
215.326	7839.34
215.4	7777.1
215.473	7630.71
215.547	7555.96
215.621	7498.56
215.694	7497.31
215.768	7415.52
215.842	7361.98
215.915	7297.16
215.989	7206.28
216.063	7164.74
216.136	7150.12
216.21	7129.9
216.284	7140.52
216.357	7120.53
216.431	7079.35
216.504	7071.04
216.578	7114.25
216.652	7126.88
216.725	7105.2
216.799	7111.6
216.873	7086.38
216.946	7090.27
217.02	7063.77
217.093	7041.23
217.167	6968.16
217.24	6899.53
217.314	6868.18
217.387	6832.52
217.461	6802.35
217.535	6817.43
217.608	6763.83
217.682	6744.04
217.755	6751.05
217.829	6705.6
217.902	6694.65
217.976	6679.71
218.049	6645.09
218.123	6582.18
218.196	6575.17
218.27	6544.05
218.343	6486.06
218.417	6486.63
218.49	6465.08
218.563	6496.19
218.637	6502.15
218.71	6564.01
218.784	6582.89
218.857	6609.92
218.931	6629.11
219.004	6633.48
219.077	6647.9
219.151	6664.99
219.224	6662.54
219.298	6659.99
219.371	6696.94
219.444	6664.39
219.518	6669.19
219.591	6681.14
219.665	6765.56
219.738	6780.97
219.811	6764.56
219.885	6805.05
219.958	6833.54
220.031	6837.47
220.105	6851.02
220.178	6850.59
220.251	6820.17
220.325	6846.27
220.398	6857.84
220.471	6870.18
220.544	6899.92
220.618	6883.05
220.691	6904.62
220.764	6915.67
220.838	6939.31
220.911	6927.63
220.984	6996.26
221.057	7029.55
221.131	7051.79
221.204	6972.85
221.277	7034.66
221.35	7146
221.424	7133.79
221.497	7144.32
221.57	7166.31
221.643	7196.07
221.716	7238.08
221.79	7247.4
221.863	7254.56
221.936	7268.21
222.009	7281.66
222.082	7305.02
222.155	7314.73
222.229	7366.26
222.302	7389.38
222.375	7393.42
222.448	7424.9
222.521	7428.94
222.594	7430.48
222.667	7413.76
222.74	7461.19
222.814	7452.35
222.887	7429.45
222.96	7471.41
223.033	7507.82
223.106	7531.41
223.179	7552.14
223.252	7562.05
223.325	7583.58
223.398	7592.09
223.471	7611.99
223.544	7630.49
223.617	7641.31
223.69	7658.57
223.763	7626.25
223.837	7645.2
223.91	7672.8
223.983	7632.66
224.056	7608.05
224.129	7621.51
224.202	7662.21
224.275	7651.83
224.348	7625.39
224.42	7605
224.493	7561.49
224.566	7535.81
224.639	7549.85
224.712	7528.54
224.785	7518.25
224.858	7516.9
224.931	7501.71
225.004	7469.31
225.077	7467.05
225.15	7392.14
225.223	7386.66
225.296	7462.28
225.369	7409.8
225.442	7385.95
225.514	7395.27
225.587	7406.23
225.66	7419.6
225.733	7416.47
225.806	7422
225.879	7413.88
225.952	7381.68
226.025	7415.43
226.097	7461.56
226.17	7449.93
226.243	7395.81
226.316	7389.71
226.389	7388.36
226.461	7401.34
226.534	7411.14
226.607	7404.27
226.68	7469.52
226.753	7468.66
226.825	7390.2
226.898	7437.97
226.971	7437.05
227.044	7457.48
227.117	7461.52
227.189	7475.13
227.262	7504.17
227.335	7518.65
227.407	7520.52
227.48	7552.67
227.553	7563.29
227.626	7540.73
227.698	7548.8
227.771	7581.76
227.844	7571.33
227.916	7588.69
227.989	7563.11
228.062	7571.81
228.134	7640.82
228.207	7639.52
228.28	7628.71
228.352	7642.99
228.425	7650.15
228.498	7689.63
228.57	7676.13
228.643	7725.47
228.716	7726.15
228.788	7713.64
228.861	7703.11
228.934	7754.32
229.006	7757.25
229.079	7765.62
229.151	7758.74
229.224	7729.52
229.296	7749.57
229.369	7825.67
229.442	7865.61
229.514	7854.7
229.587	7885.37
229.659	7823.48
229.732	7840.21
229.804	7875.89
229.877	7942.91
229.949	7967.83
230.022	8004.69
230.094	8003.11
230.167	7991.37
230.239	7950.07
230.312	7942.28
230.384	8004.29
230.457	8001.22
230.529	8006.02
230.602	7995.78
230.674	8003.81
230.747	8041.83
230.819	8064.73
230.892	7975.83
230.964	7970.54
231.037	7994.33
231.109	7986.01
231.181	8022.94
231.254	7992.26
231.326	7984.37
231.399	7963.38
231.471	7936.11
231.544	7869.47
231.616	7905.48
231.688	7914
231.761	7907.32
231.833	7906.79
231.905	7835.44
231.978	7832.56
232.05	7821.79
232.122	7832.23
232.195	7811.88
232.267	7836.6
232.339	7818.08
232.412	7865.73
232.484	7846.06
232.556	7820.1
232.629	7875.29
232.701	7884.91
232.773	7893.09
232.846	7879.72
232.918	7879.91
232.99	7903.48
233.062	7943.84
233.135	7950.96
233.207	7923.2
233.279	7957.43
233.351	7984.8
233.424	7992.39
233.496	7970.42
233.568	8038.43
233.64	8006.6
233.713	8017.8
233.785	8017.18
233.857	8027.95
233.929	7989
234.001	8047.29
234.074	8106.81
234.146	8051.76
234.218	8050.75
234.29	8051.28
234.362	8048.64
234.434	8006.69
234.507	7979.51
234.579	7930.64
234.651	7921.17
234.723	7946.52
234.795	7960.03
234.867	7949.88
234.939	7995.15
235.012	8012.7
235.084	8012.46
235.156	8043.43
235.228	8026.55
235.3	8013.42
235.372	8025.35
235.444	8073.1
235.516	8002.41
235.588	8005.15
235.66	8016.55
235.732	7996.83
235.804	8158.79
235.876	8194.28
235.948	8253.8
236.02	8254.76
236.092	8269.81
236.164	8276.64
236.236	8274.24
236.308	8276.31
236.38	8300.89
236.452	8286.46
236.524	8299.68
236.596	8357.52
236.668	8387.78
236.74	8411.4
236.812	8429.2
236.884	8463.56
236.956	8473.09
237.028	8467.99
237.1	8453.17
237.172	8514.2
237.244	8572.09
237.316	8468.86
237.388	8449.34
237.46	8428.4
237.532	8487.39
237.604	8476.91
237.675	8540.54
237.747	8577.74
237.819	8569.13
237.891	8568.84
237.963	8557.78
238.035	8558.88
238.107	8465.78
238.178	8515.76
238.25	8522.35
238.322	8597.64
238.394	8550.53
238.466	8542.3
238.538	8574.87
238.609	8607.25
238.681	8561.42
238.753	8542.7
238.825	8561.72
238.897	8587.07
238.968	8652.84
239.04	8631.47
239.112	8724.1
239.184	8691.31
239.255	8681.59
239.327	8708.58
239.399	8725.09
239.471	8765.31
239.542	8793.9
239.614	8852.47
239.686	8783.34
239.758	8826.42
239.829	8800.41
239.901	8862.06
239.973	8883.53
240.044	8913.99
240.116	8926.56
240.188	8940.37
240.259	8951.82
240.331	8944.55
240.403	8977.71
240.474	8940.15
240.546	8931.2
240.618	8885.03
240.689	8879.5
240.761	8903.33
240.833	8955.56
240.904	8956.86
240.976	8950.99
241.048	8966.01
241.119	8991.29
241.191	9028.84
241.262	9084.8
241.334	9088.41
241.405	9083.89
241.477	9082.64
241.549	9091.21
241.62	9109.26
241.692	9144.45
241.763	9196.03
241.835	9209.41
241.906	9225.3
241.978	9200.08
242.049	9263.09
242.121	9310.94
242.192	9370.7
242.264	9339.74
242.335	9300.89
242.407	9336.08
242.478	9336.47
242.55	9348.02
242.621	9340.56
242.693	9333.72
242.764	9323.65
242.836	9324.42
242.907	9354.91
242.979	9386.15
243.05	9409.13
243.122	9430.31
243.193	9427.81
243.264	9373.4
243.336	9378.84
243.407	9401.57
243.479	9466.43
243.55	9480.49
243.622	9492.87
243.693	9485.65
243.764	9548.39
243.836	9533.56
243.907	9524.7
243.978	9539.34
244.05	9562.41
244.121	9517.82
244.192	9555.33
244.264	9514.88
244.335	9521.47
244.407	9479.15
244.478	9489.79
244.549	9475.05
244.62	9442.4
244.692	9442.21
244.763	9478.76
244.834	9465.66
244.906	9448.61
244.977	9463.83
245.048	9504.45
245.119	9484.32
245.191	9469.73
245.262	9413.05
245.333	9466.97
245.405	9476.98
245.476	9509.44
245.547	9519.17
245.618	9568.62
245.689	9581.38
245.761	9607.25
245.832	9616.16
245.903	9652.17
245.974	9677.22
246.045	9692.34
246.117	9758.33
246.188	9742.97
246.259	9722.98
246.33	9739.41
246.401	9750.96
246.473	9724.57
246.544	9711.27
246.615	9755.96
246.686	9762.75
246.757	9824.83
246.828	9810.14
246.899	9875.56
246.97	9841.61
247.042	9837.38
247.113	9868.4
247.184	9937.11
247.255	9929.26
247.326	9949.2
247.397	9958.79
247.468	9961.97
247.539	9973.34
247.61	9931.38
247.681	9969.85
247.752	10017.29
247.823	10003.62
247.894	10017.01
247.965	9989.8
248.037	9979.63
248.108	9941.73
248.179	9947.46
248.25	9940.33
248.321	9967.88
248.392	9930.1
248.463	9998.01
248.534	9998.44
248.605	10013.72
248.675	9991.31
248.746	10015.39
248.817	10034.37
248.888	10043.82
248.959	9997
249.03	10012.99
249.101	10022.43
249.172	10007.41
249.243	9946.3
249.314	10006.6
249.385	10012.86
249.456	10038.19
249.527	10029.38
249.598	10055
249.669	10053.51
249.739	10063.38
249.81	10072.83
249.881	10035.83
249.952	10025.52
250.023	10016.18
250.094	9974.07
250.165	9953.3
250.235	9946.22
250.306	9948.68
250.377	9932.01
250.448	9957.68
250.519	9909.66
250.59	9957.45
250.66	9957.4
250.731	10016.68
250.802	10006.86
250.873	10023.24
250.944	10044.57
251.014	10040.58
251.085	10104.13
251.156	10115.55
251.227	10153.08
251.297	10192.83
251.368	10229.77
251.439	10265.43
251.51	10309.46
251.58	10301.18
251.651	10296.17
251.722	10343.43
251.792	10303.01
251.863	10300.9
251.934	10347.43
252.005	10431.02
252.075	10437.62
252.146	10476.25
252.217	10515.61
252.287	10549.25
252.358	10555.8
252.429	10615.02
252.499	10604.76
252.57	10617.24
252.641	10662.58
252.711	10670.58
252.782	10634.59
252.852	10706.82
252.923	10705.33
252.994	10723.01
253.064	10761.69
253.135	10741.17
253.205	10724.98
253.276	10779.04
253.347	10836.18
253.417	10818.01
253.488	10807.41
253.558	10799.51
253.629	10803.07
253.699	10814.78
253.77	10835.07
253.841	10823.89
253.911	10837.97
253.982	10851.41
254.052	10871.41
254.123	10882.98
254.193	10886.98
254.264	11001.63
254.334	10968.81
254.405	10939.61
254.475	10910.84
254.546	10921.44
254.616	10976.99
254.687	10996.9
254.757	11019.02
254.827	11012.7
254.898	11039.49
254.968	11050.14
255.039	11035.69
255.109	11066.67
255.18	11046.39
255.25	10986.39
255.321	11016.31
255.391	10982.19
255.461	11056.69
255.532	10989.99
255.602	10976.5
255.673	10929.66
255.743	10901.66
255.813	10840.04
255.884	10887.64
255.954	10917.28
256.024	10959.98
256.095	10957.23
256.165	10929.33
256.235	10944.22
256.306	10934.39
256.376	10968.37
256.446	10998.88
256.517	11027.84
256.587	11058.01
256.657	11070.15
256.728	11091.64
256.798	11095.3
256.868	11091.45
256.938	11062.68
257.009	11109.08
257.079	11138.38
257.149	11221.61
257.219	11169.37
257.29	11199.57
257.36	11149.41
257.43	11180.01
257.5	11126.62
257.571	11123.05
257.641	11150.85
257.711	11123.57
257.781	11145.79
257.852	11161.7
257.922	11108.2
257.992	11113.99
258.062	11115.29
258.132	11156.35
258.202	11164.88
258.273	11187.29
258.343	11243.25
258.413	11234.72
258.483	11235.34
258.553	11213.32
258.623	11191.05
258.693	11211.1
258.764	11273.79
258.834	11328.53
258.904	11338.9
258.974	11333.16
259.044	11339.43
259.114	11372.54
259.184	11394.23
259.254	11410.04
259.324	11363.96
259.394	11401.64
259.464	11460.93
259.535	11468.4
259.605	11460.74
259.675	11448.64
259.745	11466.43
259.815	11451.63
259.885	11452.45
259.955	11540.56
260.025	11528.42
260.095	11541.1
260.165	11575.37
260.235	11622.99
260.305	11611.38
260.375	11587.85
260.445	11668.67
260.515	11723.23
260.585	11754.47
260.655	11764.74
260.725	11795.34
260.795	11825.8
260.865	11888.03
260.934	11861.9
261.004	11873.23
261.074	11877.42
261.144	11928.31
261.214	11957.67
261.284	11953.09
261.354	11985.43
261.424	11955.54
261.494	12016.17
261.564	12011.11
261.634	12025.47
261.703	11970.43
261.773	11990.72
261.843	12021.71
261.913	12010.67
261.983	11964.11
262.053	11981.85
262.123	11982.67
262.192	11947.77
262.262	11982.62
262.332	11937.31
262.402	11956.11
262.472	11970.81
262.541	11925.32
262.611	11968.22
262.681	11944.74
262.751	11977.95
262.821	11984.65
262.89	11953.32
262.96	11975.49
263.03	12049
263.1	12072.53
263.169	12090.46
263.239	12123.86
263.309	12183.15
263.379	12207.4
263.448	12229.96
263.518	12250.44
263.588	12263.94
263.657	12328.43
263.727	12360.97
263.797	12375.05
263.867	12384.54
263.936	12355.67
264.006	12403.91
264.076	12394.95
