Data from 20250626_urea_1M_exp2_MAYP1162681_10-23-58-607.txt Node
Date: Fri Jun 27 10:23:58 BST 2025
User: adleo
Spectrometer: MAYP116268
Trigger mode: 0
Integration Time (sec): 3.000000E0
Scans to average: 1
Electric dark correction enabled: true
Nonlinearity correction enabled: true
Boxcar width: 10
XAxis mode: Wavelengths
Number of Pixels in Spectrum: 2068
>>>>>Begin Spectral Data<<<<<
179.565	3143.49
179.642	3311.43
179.718	3434.73
179.795	3554.56
179.871	3648.3
179.948	3704.05
180.024	3769.57
180.101	3832.94
180.177	3871.07
180.254	3936.86
180.33	3999.22
180.407	4216.76
180.483	4458.42
180.56	4708.24
180.636	4934.58
180.712	4900.7
180.789	4919.76
180.865	4956.95
180.942	4978.58
181.018	5007.17
181.095	5047.48
181.171	5061.61
181.248	5061.32
181.324	5106.66
181.4	5118.4
181.477	5143.75
181.553	5181.34
181.63	5237.65
181.706	5279.44
181.782	5310.51
181.859	5306.87
181.935	5325.85
182.011	5318.33
182.088	5365.3
182.164	5417.72
182.24	5456.72
182.317	5482.35
182.393	5484.31
182.469	5524.24
182.546	5571.5
182.622	5584.3
182.698	5573.9
182.775	5610.33
182.851	5649.07
182.927	5628.36
183.003	5621.41
183.08	5611.29
183.156	5637.62
183.232	5624.62
183.308	5599.64
183.385	5616.32
183.461	5664.55
183.537	5660.57
183.613	5695.29
183.69	5671.03
183.766	5640.46
183.842	5662.67
183.918	5678.78
183.995	5708.46
184.071	5712.49
184.147	5689.52
184.223	5658.71
184.299	5688.69
184.375	5657.14
184.452	5673.31
184.528	5787.21
184.604	5820.53
184.68	5851.12
184.756	5865.22
184.832	5879.13
184.908	5888.81
184.985	5889.96
185.061	5848.15
185.137	5879.95
185.213	5848.69
185.289	5852.81
185.365	5833.3
185.441	5826.34
185.517	5863.01
185.593	5855.81
185.669	5849.67
185.745	5879.79
185.822	5925.95
185.898	5902.58
185.974	5931.3
186.05	5911.87
186.126	5839.56
186.202	5811.37
186.278	5805.56
186.354	5780.43
186.43	5802.41
186.506	5797.81
186.582	5795.89
186.658	5814.96
186.734	5757.05
186.81	5767.16
186.886	5774.4
186.962	5805.47
187.038	5793.96
187.114	5768.14
187.19	5788.53
187.266	5762.06
187.341	5763.17
187.417	5745.14
187.493	5746.67
187.569	5750.32
187.645	5732
187.721	5699.76
187.797	5725.6
187.873	5734.24
187.949	5718.08
188.025	5696.2
188.101	5708.61
188.176	5720.46
188.252	5707.75
188.328	5728.5
188.404	5723.99
188.48	5715.22
188.556	5696.42
188.632	5697.81
188.707	5706.21
188.783	5699.3
188.859	5689.53
188.935	5659.02
189.011	5678.2
189.086	5659.74
189.162	5636.01
189.238	5631.74
189.314	5624.36
189.39	5611.03
189.465	5587.86
189.541	5636.88
189.617	5591.53
189.693	5573.51
189.768	5586.56
189.844	5650.42
189.92	5625.89
189.996	5649.58
190.071	5677.49
190.147	5676.91
190.223	5699.6
190.298	5673.36
190.374	5638.4
190.45	5673.15
190.526	5694.83
190.601	5683.65
190.677	5691.13
190.753	5773.21
190.828	5784.96
190.904	5830.58
190.98	5870.69
191.055	5901.48
191.131	5877.06
191.207	5934.74
191.282	5962.93
191.358	5933.67
191.433	5892.78
191.509	5929.58
191.585	5921.05
191.66	5924.64
191.736	5947.47
191.811	5923.2
191.887	5967.64
191.963	6027.12
192.038	6035.9
192.114	6036.38
192.189	6046.74
192.265	6033.84
192.34	5966.72
192.416	5959.58
192.491	5941.97
192.567	5948.5
192.642	5954.45
192.718	5952.62
192.793	5924.94
192.869	5910.37
192.944	5919.19
193.02	5944.47
193.095	5955.65
193.171	5979.88
193.246	5975.32
193.322	5964.77
193.397	5969.95
193.473	5934.58
193.548	5889.18
193.624	5909.58
193.699	5912.08
193.775	5948.98
193.85	5955.31
193.925	5975.7
194.001	5972.92
194.076	5956.8
194.152	5921.72
194.227	5898.31
194.302	5871.08
194.378	5878.47
194.453	5873.43
194.529	5908.22
194.604	5865.33
194.679	5853.53
194.755	5794.5
194.83	5829.88
194.905	5828.25
194.981	5847.78
195.056	5824.52
195.131	5842.94
195.207	5833.77
195.282	5800.16
195.357	5755.48
195.433	5799.56
195.508	5768.81
195.583	5796.39
195.659	5835.11
195.734	5859.34
195.809	5864.19
195.884	5888.73
195.96	5886.95
196.035	5926.96
196.11	5913.04
196.185	5952.71
196.261	5954
196.336	6039.39
196.411	5998.26
196.486	6010.25
196.561	5994.22
196.637	6025.68
196.712	6066.78
196.787	6078.97
196.862	6125.63
196.937	6145.54
197.013	6161.19
197.088	6193.96
197.163	6252.69
197.238	6297.71
197.313	6293.82
197.388	6329
197.464	6415.39
197.539	6452.15
197.614	6437.75
197.689	6469.77
197.764	6511.56
197.839	6571.61
197.914	6555.38
197.989	6622.31
198.065	6658.46
198.14	6800.43
198.215	6868.77
198.29	6901.16
198.365	6937.86
198.44	6967.73
198.515	7044.11
198.59	7079.95
198.665	7148.47
198.74	7167.45
198.815	7170.92
198.89	7235.82
198.965	7321.19
199.04	7307.5
199.115	7348.67
199.19	7465.54
199.265	7477.83
199.34	7504.08
199.415	7598.11
199.49	7655.96
199.565	7675.82
199.64	7741.2
199.715	7727.87
199.79	7745.46
199.865	7761.77
199.94	7753.69
200.015	7846.51
200.09	7869.84
200.165	7887.48
200.24	7907.73
200.315	8012.71
200.39	8057.34
200.464	8071.29
200.539	8071.67
200.614	8113.51
200.689	8176.81
200.764	8191.78
200.839	8234.22
200.914	8245.38
200.989	8213.76
201.063	8253.84
201.138	8206.74
201.213	8206.74
201.288	8153.45
201.363	8164.89
201.438	8166
201.512	8209.32
201.587	8152.35
201.662	8155.48
201.737	8193.15
201.812	8212.59
201.886	8123.39
201.961	8144.61
202.036	8112.74
202.111	8104.22
202.186	8023.91
202.26	7973.06
202.335	7914.52
202.41	7900.95
202.485	7859.7
202.559	7804.5
202.634	7731.99
202.709	7761.1
202.784	7707.59
202.858	7711.24
202.933	7663.64
203.008	7643.98
203.082	7594.9
203.157	7597.64
203.232	7480.93
203.306	7420.96
203.381	7330.81
203.456	7267.37
203.53	7203.09
203.605	7149.55
203.68	7083.01
203.754	7063.52
203.829	7022
203.904	6963.3
203.978	6930.52
204.053	6938.93
204.127	6903.48
204.202	6887.2
204.277	6833.07
204.351	6812.94
204.426	6788.19
204.5	6768.11
204.575	6672.48
204.65	6697.9
204.724	6668.82
204.799	6694.64
204.873	6681.13
204.948	6680.75
205.022	6645.61
205.097	6621.05
205.171	6658.89
205.246	6680.37
205.32	6680.8
205.395	6678.06
205.469	6657.96
205.544	6673.62
205.618	6624.72
205.693	6658.2
205.767	6629.2
205.842	6691.75
205.916	6673.36
205.991	6644.79
206.065	6658.86
206.14	6700.93
206.214	6683.1
206.289	6666.38
206.363	6698.46
206.438	6709.03
206.512	6729.59
206.586	6785.33
206.661	6809.9
206.735	6748.46
206.81	6753.37
206.884	6794.17
206.958	6764.31
207.033	6806.65
207.107	6823.04
207.181	6913
207.256	6898.68
207.33	6954.68
207.405	6989.11
207.479	7044.16
207.553	7070.52
207.628	7019.73
207.702	7053.5
207.776	7035.19
207.851	7044.9
207.925	7087.87
207.999	7074.28
208.073	7068.27
208.148	7072.93
208.222	7039.58
208.296	7127.25
208.371	7174.91
208.445	7206.01
208.519	7286.67
208.593	7321.7
208.668	7313.19
208.742	7318
208.816	7319.73
208.89	7357.91
208.965	7352.86
209.039	7380.27
209.113	7420.4
209.187	7480.85
209.261	7472.01
209.336	7532.81
209.41	7591.76
209.484	7596.47
209.558	7660.9
209.632	7692.47
209.707	7719.3
209.781	7785.07
209.855	7832.93
209.929	7877.98
210.003	7893.08
210.077	7885.43
210.151	8013.61
210.226	8108.78
210.3	8179.45
210.374	8248.78
210.448	8260.95
210.522	8287.99
210.596	8311.08
210.67	8338.74
210.744	8471.51
210.818	8554.69
210.892	8614.08
210.966	8597.78
211.041	8631.12
211.115	8619.86
211.189	8685.3
211.263	8739.71
211.337	8751.55
211.411	8793.05
211.485	8771.62
211.559	8802.94
211.633	8814.1
211.707	8731.28
211.781	8748.62
211.855	8655.34
211.929	8623.55
212.003	8577.28
212.077	8607.23
212.151	8643.81
212.225	8667.44
212.299	8632.67
212.373	8602.79
212.447	8580.26
212.52	8656.69
212.594	8669.54
212.668	8701.59
212.742	8665.54
212.816	8647.2
212.89	8630.12
212.964	8619.58
213.038	8633.44
213.112	8667.14
213.186	8704.47
213.26	8645.85
213.333	8520.51
213.407	8527.82
213.481	8536.38
213.555	8559.17
213.629	8523.3
213.703	8469.26
213.777	8461.12
213.85	8407.84
213.924	8495.79
213.998	8498.92
214.072	8475.37
214.146	8428.17
214.219	8421.43
214.293	8405.65
214.367	8406.56
214.441	8427.45
214.515	8379.85
214.588	8303.35
214.662	8200.4
214.736	8133.11
214.81	8142.39
214.883	8158.01
214.957	8118.11
215.031	8078.11
215.105	8001.63
215.178	7948.76
215.252	7922.03
215.326	7841.86
215.4	7771.78
215.473	7623.61
215.547	7549.39
215.621	7496.31
215.694	7495.16
215.768	7412.55
215.842	7357.37
215.915	7297.59
215.989	7207.73
216.063	7167.19
216.136	7149.07
216.21	7134.61
216.284	7142.5
216.357	7127.21
216.431	7093.38
216.504	7089.73
216.578	7134.48
216.652	7145.04
216.725	7123.51
216.799	7128.56
216.873	7114.06
216.946	7121.98
217.02	7094.14
217.093	7072.27
217.167	6989.16
217.24	6927.06
217.314	6892.78
217.387	6859.7
217.461	6819.54
217.535	6835.44
217.608	6786.41
217.682	6767.19
217.755	6770.31
217.829	6728.94
217.902	6712.51
217.976	6694.51
218.049	6657.05
218.123	6592.36
218.196	6589.63
218.27	6559.08
218.343	6500.52
218.417	6504.36
218.49	6479.29
218.563	6517.8
218.637	6520.97
218.71	6584.14
218.784	6600.52
218.857	6631.39
218.931	6644.58
219.004	6650.25
219.077	6667.74
219.151	6683.92
219.224	6676.43
219.298	6682.43
219.371	6717.02
219.444	6686.25
219.518	6693.31
219.591	6706.89
219.665	6792.51
219.738	6810.27
219.811	6796.45
219.885	6832.38
219.958	6851.45
220.031	6857.31
220.105	6871
220.178	6874.7
220.251	6848.85
220.325	6868.26
220.398	6875.56
220.471	6896.55
220.544	6928.78
220.618	6907.35
220.691	6929.73
220.764	6944.72
220.838	6963.27
220.911	6953.03
220.984	7022.24
221.057	7055.39
221.131	7077.48
221.204	7000.37
221.277	7055.55
221.35	7157.13
221.424	7153.67
221.497	7167.9
221.57	7193.69
221.643	7215.9
221.716	7254.4
221.79	7263
221.863	7269.35
221.936	7282.85
222.009	7292.07
222.082	7314.42
222.155	7322.93
222.229	7377.16
222.302	7402.06
222.375	7403.5
222.448	7432.87
222.521	7435.51
222.594	7432.15
222.667	7408.23
222.74	7455.28
222.814	7447.73
222.887	7435.89
222.96	7480.32
223.033	7514.03
223.106	7529.45
223.179	7558.22
223.252	7567.21
223.325	7585.28
223.398	7597.4
223.471	7622.49
223.544	7637.34
223.617	7649.8
223.69	7669.99
223.763	7639.45
223.837	7655.65
223.91	7682.87
223.983	7647.01
224.056	7618.99
224.129	7642.11
224.202	7685.44
224.275	7678.13
224.348	7653.81
224.42	7624.81
224.493	7577.32
224.566	7561.35
224.639	7577.98
224.712	7547.77
224.785	7535.08
224.858	7533.54
224.931	7515.65
225.004	7476.72
225.077	7478.55
225.15	7403.44
225.223	7403
225.296	7473.58
225.369	7423.84
225.442	7393.45
225.514	7403.11
225.587	7418.78
225.66	7428.83
225.733	7434.4
225.806	7436.85
225.879	7432.58
225.952	7408.98
226.025	7445.18
226.097	7480.54
226.17	7472.51
226.243	7421.86
226.316	7426.96
226.389	7431.24
226.461	7455.71
226.534	7472.96
226.607	7461.14
226.68	7532.36
226.753	7529.38
226.825	7459.66
226.898	7508.3
226.971	7511.86
227.044	7534.69
227.117	7544.16
227.189	7555.61
227.262	7582.58
227.335	7601.72
227.407	7594.08
227.48	7621.38
227.553	7631.05
227.626	7614.93
227.698	7622.57
227.771	7659.76
227.844	7636.06
227.916	7652.84
227.989	7616.73
228.062	7616.01
228.134	7696.13
228.207	7694.45
228.28	7679.31
228.352	7686.14
228.425	7691.23
228.498	7725.71
228.57	7704.85
228.643	7752.23
228.716	7748.48
228.788	7740.83
228.861	7733.13
228.934	7791.6
229.006	7795.35
229.079	7799.2
229.151	7792.22
229.224	7758.24
229.296	7778.77
229.369	7864.79
229.442	7900.3
229.514	7888.48
229.587	7925.16
229.659	7858.4
229.732	7871.96
229.804	7909.99
229.877	7972.88
229.949	8004.34
230.022	8051.65
230.094	8054.73
230.167	8043.71
230.239	8005.97
230.312	7991.25
230.384	8047.26
230.457	8046.15
230.529	8057.79
230.602	8059.76
230.674	8064.43
230.747	8102.4
230.819	8118.89
230.892	8023.17
230.964	8025
231.037	8051.86
231.109	8048.35
231.181	8083.46
231.254	8050.9
231.326	8042.15
231.399	8022.36
231.471	7996.72
231.544	7927.14
231.616	7967.68
231.688	7973.74
231.761	7966.15
231.833	7962.4
231.905	7892.59
231.978	7885.95
232.05	7867.63
232.122	7866.28
232.195	7848.92
232.267	7875.33
232.339	7859.12
232.412	7910.52
232.484	7884.48
232.556	7855.36
232.629	7912.68
232.701	7925.04
232.773	7930.28
232.846	7922.11
232.918	7925.43
232.99	7935.58
233.062	7971.22
233.135	7970.84
233.207	7935.77
233.279	7978.7
233.351	8008.56
233.424	8011.02
233.496	7991.39
233.568	8065.38
233.64	8034.46
233.713	8045.76
233.785	8046.15
233.857	8062.89
233.929	8019.9
234.001	8080.11
234.074	8138.76
234.146	8070.96
234.218	8067.07
234.29	8071.82
234.362	8060.62
234.434	8015.93
234.507	7990.73
234.579	7944.07
234.651	7934.12
234.723	7962.74
234.795	7972.21
234.867	7961.58
234.939	8008.29
235.012	8023.1
235.084	8021.23
235.156	8054.31
235.228	8038.82
235.3	8026.56
235.372	8030.5
235.444	8079.6
235.516	8010.73
235.588	8017.18
235.66	8031.17
235.732	8011.93
235.804	8170.53
235.876	8206.64
235.948	8269.63
236.02	8279.82
236.092	8303.62
236.164	8309.25
236.236	8307.33
236.308	8308.53
236.38	8334.7
236.452	8318.34
236.524	8332.97
236.596	8386.03
236.668	8417.07
236.74	8439.44
236.812	8458.82
236.884	8487.84
236.956	8504.01
237.028	8498.05
237.1	8477.8
237.172	8538.73
237.244	8597
237.316	8502.4
237.388	8488.83
237.46	8466.74
237.532	8515.92
237.604	8497.88
237.675	8562.95
237.747	8598.04
237.819	8586.01
237.891	8587.26
237.963	8584.33
238.035	8583.27
238.107	8492.81
238.178	8542.55
238.25	8545.58
238.322	8626.23
238.394	8593.51
238.466	8586.19
238.538	8617.17
238.609	8652.49
238.681	8605.17
238.753	8591.07
238.825	8607.39
238.897	8633.08
238.968	8698.85
239.04	8686.04
239.112	8785.37
239.184	8754.37
239.255	8754.94
239.327	8780.44
239.399	8797.38
239.471	8833.43
239.542	8861.97
239.614	8918.33
239.686	8850.06
239.758	8891.35
239.829	8858.26
239.901	8915.64
239.973	8930.27
240.044	8964.83
240.116	8978.02
240.188	8993.71
240.259	9004.49
240.331	8993.56
240.403	9020.94
240.474	8986.65
240.546	8973.76
240.618	8920.32
240.689	8915.99
240.761	8934.86
240.833	8994.94
240.904	8991.96
240.976	8986.09
241.048	9002.22
241.119	9032.56
241.191	9068.37
241.262	9126.5
241.334	9129.39
241.405	9128.09
241.477	9129.15
241.549	9133.38
241.62	9153.51
241.692	9190.53
241.763	9232.96
241.835	9252.84
241.906	9269.21
241.978	9240.43
242.049	9300.46
242.121	9350.38
242.192	9405.9
242.264	9370.95
242.335	9329.2
242.407	9367.67
242.478	9378.31
242.55	9395.59
242.621	9378.26
242.693	9377.05
242.764	9365.87
242.836	9366.02
242.907	9388.9
242.979	9414.32
243.05	9431.7
243.122	9452.89
243.193	9450.19
243.264	9398.24
243.336	9397.76
243.407	9424.97
243.479	9492.72
243.55	9502.73
243.622	9516.99
243.693	9514.53
243.764	9578.05
243.836	9557.93
243.907	9546.85
243.978	9549.16
244.05	9563.51
244.121	9528.8
244.192	9566.03
244.264	9529.18
244.335	9538.33
244.407	9499.52
244.478	9509.2
244.549	9499.47
244.62	9464.32
244.692	9467.5
244.763	9507.12
244.834	9494.7
244.906	9477.41
244.977	9489.6
245.048	9538.06
245.119	9519.81
245.191	9499.01
245.262	9449.26
245.333	9509.49
245.405	9529.23
245.476	9556.58
245.547	9570.26
245.618	9612.49
245.689	9612.88
245.761	9637.44
245.832	9648.08
245.903	9685.11
245.974	9713.97
246.045	9724.37
246.117	9790.79
246.188	9774.56
246.259	9754.53
246.33	9771.77
246.401	9778.03
246.473	9752.3
246.544	9736.59
246.615	9777.97
246.686	9786.73
246.757	9843.37
246.828	9828.39
246.899	9887.8
246.97	9862.8
247.042	9857.7
247.113	9893.49
247.184	9974.34
247.255	9971.45
247.326	9996.07
247.397	10003.87
247.468	10014.04
247.539	10027.77
247.61	9993.66
247.681	10028
247.752	10078.23
247.823	10064.6
247.894	10078.33
247.965	10051.65
248.037	10040.67
248.108	10003.53
248.179	10013.98
248.25	10005.69
248.321	10033.82
248.392	9990.46
248.463	10055.91
248.534	10058.66
248.605	10074.9
248.675	10046.56
248.746	10070.74
248.817	10080.38
248.888	10087.31
248.959	10034.91
249.03	10056.49
249.101	10057.79
249.172	10057.12
249.243	9995.86
249.314	10047.97
249.385	10061.22
249.456	10089.73
249.527	10083.76
249.598	10102.4
249.669	10090.93
249.739	10105.58
249.81	10108.42
249.881	10080.2
249.952	10067.67
250.023	10060.54
250.094	10013.66
250.165	9991.93
250.235	9981.96
250.306	9983.69
250.377	9972.47
250.448	10002.47
250.519	9951.61
250.59	10002.1
250.66	9987.07
250.731	10048.86
250.802	10046.55
250.873	10053.53
250.944	10068.56
251.014	10063.07
251.085	10132.22
251.156	10165.26
251.227	10208.58
251.297	10256.04
251.368	10292.16
251.439	10334.56
251.51	10373.73
251.58	10367.81
251.651	10365.16
251.722	10405.29
251.792	10366.47
251.863	10363.29
251.934	10411.18
252.005	10496.06
252.075	10505.89
252.146	10556.18
252.217	10593.96
252.287	10629.18
252.358	10638
252.429	10701.94
252.499	10696.5
252.57	10707.63
252.641	10739.77
252.711	10737.6
252.782	10698.19
252.852	10765.17
252.923	10762.76
252.994	10785.84
253.064	10822.79
253.135	10807.28
253.205	10791.81
253.276	10853.29
253.347	10908.94
253.417	10883.01
253.488	10876.8
253.558	10869.18
253.629	10869.28
253.699	10875.83
253.77	10897.18
253.841	10892.37
253.911	10898.49
253.982	10914.63
254.052	10938.39
254.123	10945.76
254.193	10947.16
254.264	11060.03
254.334	11029.62
254.405	10994.2
254.475	10956.08
254.546	10965.19
254.616	11014.73
254.687	11043.45
254.757	11058.48
254.827	11053.71
254.898	11083.2
254.968	11090.04
255.039	11068.6
255.109	11090.77
255.18	11072.17
255.25	11013.95
255.321	11041.56
255.391	11007.06
255.461	11078.48
255.532	11013.41
255.602	11002.23
255.673	10960.79
255.743	10925.6
255.813	10862.49
255.884	10911.21
255.954	10946.91
256.024	10999.3
256.095	10998.24
256.165	10965.86
256.235	10982.1
256.306	10970.01
256.376	11007.31
256.446	11037.91
256.517	11070.63
256.587	11113.43
256.657	11130.87
256.728	11149.42
256.798	11151.35
256.868	11148.8
256.938	11117.9
257.009	11154.14
257.079	11183.93
257.149	11263.35
257.219	11226.62
257.29	11270.22
257.36	11222.66
257.43	11246.85
257.5	11195.91
257.571	11188.92
257.641	11224.01
257.711	11201.74
257.781	11232.97
257.852	11235.86
257.922	11183.13
257.992	11178.94
258.062	11167.33
258.132	11199.71
258.202	11204.58
258.273	11215.95
258.343	11280.01
258.413	11268.78
258.483	11271.91
258.553	11250.56
258.623	11234.66
258.693	11254.71
258.764	11305.07
258.834	11365.5
258.904	11380.53
258.974	11366.08
259.044	11377.74
259.114	11399.67
259.184	11415.58
259.254	11412.69
259.324	11377.79
259.394	11418.46
259.464	11486.38
259.535	11491.92
259.605	11490.14
259.675	11483
259.745	11514.48
259.815	11497.51
259.885	11509.08
259.955	11603.99
260.025	11593.68
260.095	11596.91
260.165	11616.52
260.235	11664.24
260.305	11657.69
260.375	11637.25
260.445	11720.48
260.515	11773.89
260.585	11810.04
260.655	11815.77
260.725	11858.38
260.795	11896.75
260.865	11950.64
260.934	11925.62
261.004	11950.2
261.074	11949
261.144	11998.39
261.214	12027.61
261.284	12026.26
261.354	12056.28
261.424	12016.08
261.494	12077.33
261.564	12089.38
261.634	12116.19
261.703	12063.26
261.773	12072.32
261.843	12098.93
261.913	12090.83
261.983	12046.19
262.053	12065.77
262.123	12066.78
262.192	12029.23
262.262	12052.08
262.332	12014
262.402	12036.99
262.472	12047.07
262.541	11999.55
262.611	12044.38
262.681	12022.78
262.751	12050.45
262.821	12047.31
262.89	12022.44
262.96	12043.8
263.03	12101.16
263.1	12114.03
263.169	12137.45
263.239	12172.3
263.309	12230.68
263.379	12256.33
263.448	12271.03
263.518	12298.5
263.588	12314.75
263.657	12376.06
263.727	12411.1
263.797	12418.04
263.867	12426.29
263.936	12392.02
264.006	12444.98
264.076	12430.81
