Data from 20250626_urea_1M_exp2_MAYP1162681_20-13-59-762.txt Node
Date: Thu Jun 26 20:13:59 BST 2025
User: adleo
Spectrometer: MAYP116268
Trigger mode: 0
Integration Time (sec): 3.000000E0
Scans to average: 1
Electric dark correction enabled: true
Nonlinearity correction enabled: true
Boxcar width: 10
XAxis mode: Wavelengths
Number of Pixels in Spectrum: 2068
>>>>>Begin Spectral Data<<<<<
179.565	3034.23
179.642	3196.98
179.718	3311.87
179.795	3424.86
179.871	3511.99
179.948	3566.19
180.024	3622.99
180.101	3681.3
180.177	3723.9
180.254	3783.95
180.33	3848.09
180.407	4057.58
180.483	4293.34
180.56	4533.87
180.636	4752.22
180.712	4718.79
180.789	4740.14
180.865	4771.87
180.942	4799.87
181.018	4825.53
181.095	4868.31
181.171	4878.55
181.248	4878.12
181.324	4926.37
181.4	4941.02
181.477	4972.54
181.553	5005.09
181.63	5061.33
181.706	5104.97
181.782	5131.49
181.859	5136.47
181.935	5148.11
182.011	5139.77
182.088	5185.44
182.164	5235.11
182.24	5272.03
182.317	5299.76
182.393	5292.48
182.469	5324.05
182.546	5358.46
182.622	5371.35
182.698	5362.81
182.775	5399.24
182.851	5435.28
182.927	5410.3
183.003	5402.73
183.08	5387.12
183.156	5411.08
183.232	5404.12
183.308	5380.26
183.385	5394.87
183.461	5438.59
183.537	5438.59
183.613	5476.89
183.69	5450.67
183.766	5421.75
183.842	5442.41
183.918	5461.87
183.995	5501.22
184.071	5513.25
184.147	5498.3
184.223	5470.61
184.299	5497.99
184.375	5465.64
184.452	5484.01
184.528	5589.12
184.604	5617.35
184.68	5652.86
184.756	5671.37
184.832	5680.77
184.908	5692.22
184.985	5694.67
185.061	5648.17
185.137	5677.57
185.213	5640.94
185.289	5645.49
185.365	5629.73
185.441	5624.26
185.517	5655.69
185.593	5646.48
185.669	5635.98
185.745	5664.31
185.822	5706.76
185.898	5688.92
185.974	5717.39
186.05	5696.09
186.126	5633.32
186.202	5613.48
186.278	5600.2
186.354	5575.26
186.43	5592.48
186.506	5585.82
186.582	5582.42
186.658	5603.84
186.734	5545.51
186.81	5552.36
186.886	5562.28
186.962	5593.11
187.038	5583.52
187.114	5561.3
187.19	5575.69
187.266	5554.07
187.341	5557
187.417	5536.73
187.493	5532.12
187.569	5537.93
187.645	5524.36
187.721	5494.77
187.797	5521.13
187.873	5530.77
187.949	5516.44
188.025	5501.38
188.101	5513.36
188.176	5523.95
188.252	5509.15
188.328	5533.38
188.404	5534.58
188.48	5522.45
188.556	5498.39
188.632	5499.3
188.707	5501.79
188.783	5499.97
188.859	5488.86
188.935	5455.77
189.011	5479.84
189.086	5459.85
189.162	5438.47
189.238	5432.1
189.314	5427.21
189.39	5404.54
189.465	5388.24
189.541	5432.54
189.617	5391.7
189.693	5374.02
189.768	5386.35
189.844	5456.04
189.92	5434.96
189.996	5456.05
190.071	5480.31
190.147	5476.91
190.223	5501.99
190.298	5482.95
190.374	5445.32
190.45	5474.65
190.526	5501.4
190.601	5486.34
190.677	5495.78
190.753	5569.92
190.828	5577.73
190.904	5615.18
190.98	5658.01
191.055	5687.98
191.131	5659.49
191.207	5715.63
191.282	5745.87
191.358	5718.59
191.433	5679.77
191.509	5714.89
191.585	5710
191.66	5718.92
191.736	5749.46
191.811	5720.73
191.887	5766.74
191.963	5828.84
192.038	5844.04
192.114	5840.73
192.189	5854.16
192.265	5845.05
192.34	5781.61
192.416	5779.16
192.491	5768.46
192.567	5776.96
192.642	5780.03
192.718	5787.79
192.793	5753.6
192.869	5740.85
192.944	5749.76
193.02	5769.72
193.095	5777.15
193.171	5795.47
193.246	5790.34
193.322	5774.8
193.397	5782.62
193.473	5743.56
193.548	5697.8
193.624	5712.1
193.699	5709.03
193.775	5745.06
193.85	5750.28
193.925	5779.74
194.001	5774.32
194.076	5753.75
194.152	5722.61
194.227	5700.69
194.302	5673.85
194.378	5683.78
194.453	5673.81
194.529	5706.66
194.604	5666.9
194.679	5657.7
194.755	5604.11
194.83	5633.72
194.905	5632.47
194.981	5648.3
195.056	5626.44
195.131	5640.68
195.207	5633.34
195.282	5609.23
195.357	5558.23
195.433	5598.6
195.508	5564.17
195.583	5592.21
195.659	5630.59
195.734	5647.28
195.809	5647.95
195.884	5672.44
195.96	5672.39
196.035	5715.88
196.11	5706.05
196.185	5736.64
196.261	5741.62
196.336	5822.38
196.411	5779.06
196.486	5792.15
196.561	5778.72
196.637	5801.72
196.712	5846.35
196.787	5857.39
196.862	5901.41
196.937	5929.32
197.013	5943.72
197.088	5971.68
197.163	6025.49
197.238	6070.69
197.313	6069.82
197.388	6108.01
197.464	6191.31
197.539	6227.86
197.614	6205.08
197.689	6241.12
197.764	6283.95
197.839	6337.65
197.914	6326.99
197.989	6394.9
198.065	6431.33
198.14	6565.27
198.215	6641.17
198.29	6674.71
198.365	6711.35
198.44	6733.19
198.515	6806.48
198.59	6848.6
198.665	6915.36
198.74	6932.04
198.815	6932.71
198.89	7000.82
198.965	7078.91
199.04	7067.72
199.115	7104.32
199.19	7222.15
199.265	7229.21
199.34	7255.68
199.415	7341.17
199.49	7395.12
199.565	7417.95
199.64	7482.59
199.715	7471.86
199.79	7483.25
199.865	7495.65
199.94	7490.23
200.015	7580.56
200.09	7597.92
200.165	7610.9
200.24	7629.17
200.315	7736.18
200.39	7783.11
200.464	7793.4
200.539	7795.23
200.614	7837.2
200.689	7901.35
200.764	7916.03
200.839	7957.5
200.914	7969.91
200.989	7944.89
201.063	7988.46
201.138	7946.95
201.213	7946.86
201.288	7894.25
201.363	7907.67
201.438	7905.7
201.512	7944.44
201.587	7896.19
201.662	7902.97
201.737	7940.97
201.812	7961.56
201.886	7875.84
201.961	7900.77
202.036	7868.42
202.111	7862.74
202.186	7781.54
202.26	7731.23
202.335	7674.63
202.41	7663.37
202.485	7619.64
202.559	7563.25
202.634	7487.77
202.709	7509.63
202.784	7456.75
202.858	7460.88
202.933	7414.21
203.008	7395.95
203.082	7343.14
203.157	7341.46
203.232	7225.42
203.306	7162.91
203.381	7076.68
203.456	7013.93
203.53	6946.97
203.605	6892.58
203.68	6825.34
203.754	6805.04
203.829	6766.41
203.904	6713.11
203.978	6674.28
204.053	6687.16
204.127	6661.47
204.202	6648.5
204.277	6604.47
204.351	6590.73
204.426	6570.6
204.5	6546.98
204.575	6453.11
204.65	6482.61
204.724	6455.22
204.799	6483.52
204.873	6471.8
204.948	6462.25
205.022	6432.25
205.097	6407.08
205.171	6445.62
205.246	6467.57
205.32	6465.89
205.395	6466.95
205.469	6443.06
205.544	6459.44
205.618	6410.8
205.693	6439.61
205.767	6411.63
205.842	6466.81
205.916	6443.15
205.991	6415.92
206.065	6431.29
206.14	6474.87
206.214	6457.72
206.289	6438.13
206.363	6464.29
206.438	6474.38
206.512	6503.48
206.586	6556.09
206.661	6584.97
206.735	6522.98
206.81	6526.87
206.884	6572.66
206.958	6537.29
207.033	6582.73
207.107	6607
207.181	6691.84
207.256	6672.34
207.33	6718.71
207.405	6753.19
207.479	6808.89
207.553	6828.53
207.628	6786.1
207.702	6820.24
207.776	6806.74
207.851	6820.28
207.925	6860.84
207.999	6846
208.073	6836.11
208.148	6839.85
208.222	6802.91
208.296	6892.18
208.371	6941.08
208.445	6967.89
208.519	7042.14
208.593	7071.3
208.668	7054.18
208.742	7062.99
208.816	7069.28
208.89	7104.8
208.965	7099.36
209.039	7121.23
209.113	7164.38
209.187	7222.85
209.261	7212.23
209.336	7265.33
209.41	7318.92
209.484	7322.82
209.558	7388.76
209.632	7426.77
209.707	7457.29
209.781	7517.41
209.855	7564.44
209.929	7607.18
210.003	7621.79
210.077	7623.09
210.151	7749.31
210.226	7839.35
210.3	7911.02
210.374	7970.28
210.448	7987.49
210.522	8014.34
210.596	8041.42
210.67	8067
210.744	8193.34
210.818	8279.53
210.892	8331.35
210.966	8318.32
211.041	8356.85
211.115	8349.92
211.189	8418.09
211.263	8469.03
211.337	8484.86
211.411	8520.96
211.485	8500.16
211.559	8539.22
211.633	8549.94
211.707	8466.71
211.781	8486.02
211.855	8385.45
211.929	8365.93
212.003	8317.33
212.077	8339.95
212.151	8371.18
212.225	8395.09
212.299	8364.47
212.373	8332.82
212.447	8326.27
212.52	8404.17
212.594	8416.54
212.668	8445.36
212.742	8401.43
212.816	8382.8
212.89	8363.37
212.964	8357.78
213.038	8370.59
213.112	8393.35
213.186	8423.51
213.26	8364.58
213.333	8237.83
213.407	8250.28
213.481	8257.97
213.555	8286.48
213.629	8250.53
213.703	8203.04
213.777	8193.12
213.85	8131.35
213.924	8215.13
213.998	8209.02
214.072	8181
214.146	8136.79
214.219	8118.27
214.293	8106.68
214.367	8105.57
214.441	8132.6
214.515	8097.14
214.588	8025.94
214.662	7927.02
214.736	7866.09
214.81	7882.77
214.883	7903.62
214.957	7869.06
215.031	7826
215.105	7758.51
215.178	7714.37
215.252	7682.49
215.326	7610.42
215.4	7551.71
215.473	7408.28
215.547	7343.12
215.621	7286.99
215.694	7285.69
215.768	7212.1
215.842	7155.83
215.915	7095.63
215.989	7004.98
216.063	6952.81
216.136	6934.4
216.21	6921.72
216.284	6930.28
216.357	6912.26
216.431	6881.71
216.504	6876.18
216.578	6922.99
216.652	6924.91
216.725	6904.54
216.799	6913.43
216.873	6892.69
216.946	6901.19
217.02	6876.76
217.093	6846.26
217.167	6776.86
217.24	6711.41
217.314	6684.63
217.387	6651.08
217.461	6618.86
217.535	6636.15
217.608	6590.48
217.682	6568.97
217.755	6575.21
217.829	6533.18
217.902	6519.11
217.976	6505.95
218.049	6474.17
218.123	6408.2
218.196	6414.25
218.27	6381.51
218.343	6327.57
218.417	6327.81
218.49	6305.68
218.563	6340.91
218.637	6351.33
218.71	6406.36
218.784	6428.35
218.857	6457.97
218.931	6482.78
219.004	6487.87
219.077	6504.15
219.151	6520.42
219.224	6516.58
219.298	6515.33
219.371	6550.88
219.444	6523.52
219.518	6531.58
219.591	6546.17
219.665	6632.87
219.738	6638.92
219.811	6632.83
219.885	6664.71
219.958	6694.1
220.031	6695.16
220.105	6708.37
220.178	6720.52
220.251	6699.34
220.325	6722.02
220.398	6729.03
220.471	6737.33
220.544	6763.7
220.618	6743.96
220.691	6761.53
220.764	6775.36
220.838	6796.59
220.911	6785.16
220.984	6848.93
221.057	6880.68
221.131	6895.04
221.204	6818.71
221.277	6876.95
221.35	6977.99
221.424	6973.09
221.497	6984.82
221.57	7007.19
221.643	7034.25
221.716	7067.31
221.79	7072.31
221.863	7078.32
221.936	7091.58
222.009	7100.85
222.082	7128.82
222.155	7139.48
222.229	7188.94
222.302	7214.45
222.375	7215.17
222.448	7244.87
222.521	7249.01
222.594	7248.19
222.667	7232.06
222.74	7281.07
222.814	7276.88
222.887	7262.16
222.96	7306.14
223.033	7336.34
223.106	7359.63
223.179	7387.63
223.252	7394.07
223.325	7415.69
223.398	7429.92
223.471	7451.98
223.544	7474.04
223.617	7485.77
223.69	7502.35
223.763	7475.81
223.837	7490.76
223.91	7517.97
223.983	7478.13
224.056	7451.51
224.129	7468.14
224.202	7513.73
224.275	7499.21
224.348	7473.21
224.42	7444.56
224.493	7401.88
224.566	7385.29
224.639	7402.93
224.712	7371.33
224.785	7356.52
224.858	7357.67
224.931	7338.06
225.004	7305.91
225.077	7303.55
225.15	7225.34
225.223	7222.16
225.296	7291.14
225.369	7245.82
225.442	7216.98
225.514	7238.6
225.587	7255.8
225.66	7262
225.733	7262.87
225.806	7267.77
225.879	7258.78
225.952	7235.1
226.025	7273.12
226.097	7310.97
226.17	7296.02
226.243	7250.04
226.316	7251.58
226.389	7250.67
226.461	7266.77
226.534	7278.2
226.607	7271.81
226.68	7343.73
226.753	7340.51
226.825	7275.1
226.898	7321.76
226.971	7325.22
227.044	7339.2
227.117	7348.24
227.189	7361.37
227.262	7390.89
227.335	7407.04
227.407	7409.11
227.48	7440.82
227.553	7449.19
227.626	7433.5
227.698	7441.19
227.771	7473.81
227.844	7459.3
227.916	7480.11
227.989	7453.87
228.062	7460.06
228.134	7527.96
228.207	7524.83
228.28	7517.67
228.352	7526.23
228.425	7535.37
228.498	7573.93
228.57	7562.58
228.643	7608.32
228.716	7611.4
228.788	7596.2
228.861	7592.16
228.934	7642.11
229.006	7644.95
229.079	7643.74
229.151	7636.05
229.224	7608.61
229.296	7625.39
229.369	7706.73
229.442	7737.95
229.514	7729.87
229.587	7764.73
229.659	7706.59
229.732	7721.16
229.804	7755.24
229.877	7815.76
229.949	7836.92
230.022	7879.85
230.094	7873.6
230.167	7861.86
230.239	7828.5
230.312	7823.64
230.384	7883.87
230.457	7879.06
230.529	7884.54
230.602	7885.99
230.674	7891.81
230.747	7926.65
230.819	7949.44
230.892	7858.54
230.964	7859.21
231.037	7873.44
231.109	7871.13
231.181	7902.04
231.254	7875.02
231.326	7867.04
231.399	7848.36
231.471	7824.51
231.544	7756.67
231.616	7796.72
231.688	7804.46
231.761	7792.74
231.833	7780.77
231.905	7705.34
231.978	7709.33
232.05	7698.09
232.122	7701.55
232.195	7685.49
232.267	7713.57
232.339	7695.63
232.412	7745.92
232.484	7730.81
232.556	7713.23
232.629	7760.62
232.701	7776.06
232.773	7779.09
232.846	7774.38
232.918	7779.96
232.99	7796.75
233.062	7840.85
233.135	7851.48
233.207	7822.19
233.279	7858.29
233.351	7889.3
233.424	7895.69
233.496	7873.43
233.568	7940.1
233.64	7909.32
233.713	7922.84
233.785	7923.22
233.857	7947.03
233.929	7902.6
234.001	7958.53
234.074	8012.8
234.146	7956.42
234.218	7956.56
234.29	7960.12
234.362	7950.36
234.434	7915
234.507	7890.09
234.579	7841.47
234.651	7826.41
234.723	7853.01
234.795	7868.54
234.867	7861.52
234.939	7906.49
235.012	7920.82
235.084	7923.32
235.156	7958.18
235.228	7943.66
235.3	7929.13
235.372	7927.79
235.444	7983.66
235.516	7912.49
235.588	7914.99
235.66	7926.87
235.732	7897.68
235.804	8056.69
235.876	8087.99
235.948	8137.55
236.02	8146.16
236.092	8162.84
236.164	8168.71
236.236	8165.87
236.308	8163.46
236.38	8182.32
236.452	8170.05
236.524	8194.97
236.596	8247.31
236.668	8276.18
236.74	8299.5
236.812	8326.54
236.884	8358.01
236.956	8365.66
237.028	8363.69
237.1	8356.38
237.172	8420.29
237.244	8487.55
237.316	8391.89
237.388	8381.65
237.46	8362.97
237.532	8418.06
237.604	8407.01
237.675	8471.11
237.747	8501.47
237.819	8492.43
237.891	8504.27
237.963	8498.59
238.035	8488.68
238.107	8396.36
238.178	8441.8
238.25	8446.66
238.322	8516.18
238.394	8485.19
238.466	8478.7
238.538	8516.7
238.609	8544.08
238.681	8498.88
238.753	8484.63
238.825	8498.3
238.897	8526.01
238.968	8586.77
239.04	8566.02
239.112	8663.42
239.184	8631.65
239.255	8631.79
239.327	8660.94
239.399	8676.97
239.471	8710.41
239.542	8739.95
239.614	8796.11
239.686	8734.88
239.758	8776.75
239.829	8744.1
239.901	8788.91
239.973	8801.52
240.044	8827.41
240.116	8839.44
240.188	8847.19
240.259	8853.74
240.331	8849.98
240.403	8881.27
240.474	8846.45
240.546	8840.2
240.618	8781.8
240.689	8779.35
240.761	8799.76
240.833	8853.63
240.904	8853.15
240.976	8858.83
241.048	8870.82
241.119	8904.04
241.191	8938.65
241.262	8988.44
241.334	8998.03
241.405	9001.73
241.477	9005.05
241.549	9009.05
241.62	9033.99
241.692	9075.63
241.763	9126.96
241.835	9142.7
241.906	9154.31
241.978	9132.6
242.049	9191.19
242.121	9242.79
242.192	9300.22
242.264	9267.68
242.335	9227.58
242.407	9258.58
242.478	9265.04
242.55	9280.35
242.621	9263.97
242.693	9261.61
242.764	9255.83
242.836	9260.31
242.907	9289.11
242.979	9316.5
243.05	9332.87
243.122	9350.21
243.193	9344.24
243.264	9288.19
243.336	9292.52
243.407	9320.98
243.479	9392.77
243.55	9408.72
243.622	9426.78
243.693	9423.65
243.764	9487.06
243.836	9466.89
243.907	9459.14
243.978	9456.93
244.05	9481.01
244.121	9448.27
244.192	9484.09
244.264	9443.2
244.335	9445.52
244.407	9403.72
244.478	9420.09
244.549	9417.97
244.62	9380.18
244.692	9382.73
244.763	9417.34
244.834	9407.95
244.906	9390.33
244.977	9398.42
245.048	9433.78
245.119	9419.14
245.191	9401.56
245.262	9348.79
245.333	9413.78
245.405	9433.38
245.476	9463.62
245.547	9477.59
245.618	9517.45
245.689	9526.55
245.761	9550.92
245.832	9559.93
245.903	9599.27
245.974	9627.06
246.045	9639.82
246.117	9715.92
246.188	9707.06
246.259	9698.25
246.33	9712.26
246.401	9717.17
246.473	9692.07
246.544	9682.78
246.615	9721.26
246.686	9727.28
246.757	9795.9
246.828	9775.77
246.899	9834.45
246.97	9810.33
247.042	9808.07
247.113	9843.18
247.184	9916.08
247.255	9919.31
247.326	9944.17
247.397	9952.02
247.468	9954.04
247.539	9960.21
247.61	9921.28
247.681	9953.93
247.752	9997.81
247.823	9977.68
247.894	9993.67
247.965	9974.07
248.037	9960.63
248.108	9923.3
248.179	9927.54
248.25	9914.92
248.321	9939.09
248.392	9898.67
248.463	9963.49
248.534	9957.95
248.605	9969.86
248.675	9945.04
248.746	9963.48
248.817	9979.09
248.888	9991.72
248.959	9949.57
249.03	9970
249.101	9977.56
249.172	9962.97
249.243	9907.1
249.314	9957.57
249.385	9969.76
249.456	9988.98
249.527	9984.79
249.598	10002.7
249.669	9999.81
249.739	10008.53
249.81	10019.85
249.881	9989.31
249.952	9981.51
250.023	9980.55
250.094	9948.99
250.165	9925.33
250.235	9915.84
250.306	9911.46
250.377	9889.4
250.448	9914.97
250.519	9866.85
250.59	9914.16
250.66	9913.34
250.731	9964.92
250.802	9967.91
250.873	9982.12
250.944	10003.17
251.014	9998.3
251.085	10070.77
251.156	10098.42
251.227	10142.02
251.297	10191.65
251.368	10231.39
251.439	10268.49
251.51	10308.53
251.58	10293.6
251.651	10295.19
251.722	10345.44
251.792	10316.1
251.863	10313.84
251.934	10360.47
252.005	10448.44
252.075	10447.14
252.146	10494.39
252.217	10538.67
252.287	10571.68
252.358	10574.86
252.429	10635.38
252.499	10629.21
252.57	10637.36
252.641	10672.14
252.711	10670.89
252.782	10633.02
252.852	10691.9
252.923	10696.72
252.994	10708.67
253.064	10753.96
253.135	10733.39
253.205	10718.01
253.276	10777.56
253.347	10837.45
253.417	10814.37
253.488	10799.09
253.558	10798.08
253.629	10798.85
253.699	10804.83
253.77	10828.73
253.841	10818.18
253.911	10823.14
253.982	10835.57
254.052	10861.84
254.123	10874.18
254.193	10875.43
254.264	10979.14
254.334	10951.19
254.405	10916.78
254.475	10886.09
254.546	10883.59
254.616	10936.63
254.687	10957.31
254.757	10966.22
254.827	10964.25
254.898	10989.69
254.968	11000.63
255.039	10979.62
255.109	11000.77
255.18	10982.32
255.25	10922.66
255.321	10955.71
255.391	10921.98
255.461	10991.47
255.532	10917.49
255.602	10909.78
255.673	10875.57
255.743	10851.03
255.813	10800.2
255.884	10843.43
255.954	10881.01
256.024	10936.14
256.095	10941.54
256.165	10913.59
256.235	10932.82
256.306	10922.99
256.376	10960.97
256.446	10990.56
256.517	11020.1
256.587	11064.78
256.657	11079.52
256.728	11103.85
256.798	11107.08
256.868	11104.38
256.938	11085.78
257.009	11135.32
257.079	11156.43
257.149	11235.27
257.219	11187.22
257.29	11214.87
257.36	11161.53
257.43	11191.36
257.5	11141.58
257.571	11135.65
257.641	11163.31
257.711	11138.68
257.781	11168.95
257.852	11173.67
257.922	11122.49
257.992	11123.5
258.062	11111.36
258.132	11145.96
258.202	11150.54
258.273	11164.56
258.343	11228.86
258.413	11214.83
258.483	11213.34
258.553	11197.96
258.623	11177.19
258.693	11201.34
258.764	11258.73
258.834	11325.23
258.904	11336.32
258.974	11329.04
259.044	11339.16
259.114	11371.64
259.184	11396.47
259.254	11404.75
259.324	11369.91
259.394	11416.27
259.464	11484.52
259.535	11498.06
259.605	11491.6
259.675	11487.27
259.745	11520.86
259.815	11506.69
259.885	11513.77
259.955	11603.34
260.025	11598.23
260.095	11610.76
260.165	11638.23
260.235	11687.83
260.305	11676.41
260.375	11653.85
260.445	11730.96
260.515	11781.38
260.585	11813.48
260.655	11820.28
260.725	11847.08
260.795	11882.36
260.865	11934.22
260.934	11908.34
261.004	11925.01
261.074	11926.7
261.144	11970.94
261.214	11994.9
261.284	11997.94
261.354	12025.07
261.424	11991.23
261.494	12043.38
261.564	12047.23
261.634	12069.12
261.703	12015.47
261.773	12029.73
261.843	12055.67
261.913	12048.48
261.983	12002.69
262.053	12020.87
262.123	12015.03
262.192	11988.91
262.262	12016.53
262.332	11978.4
262.402	12008.29
262.472	12018.12
262.541	11979.08
262.611	12022.03
262.681	11994.8
262.751	12024.78
262.821	12032.39
262.89	12004.87
262.96	12024.54
263.03	12089.85
263.1	12110.63
263.169	12131.31
263.239	12160.71
263.309	12221.55
263.379	12245.84
263.448	12265.36
263.518	12286.47
263.588	12311.92
263.657	12370.59
263.727	12409.29
263.797	12417.59
263.867	12412.67
263.936	12381.1
264.006	12427.12
