Data from 20250626_urea_1M_exp2_MAYP1162681_10-03-58-704.txt Node
Date: Fri Jun 27 10:03:58 BST 2025
User: adleo
Spectrometer: MAYP116268
Trigger mode: 0
Integration Time (sec): 3.000000E0
Scans to average: 1
Electric dark correction enabled: true
Nonlinearity correction enabled: true
Boxcar width: 10
XAxis mode: Wavelengths
Number of Pixels in Spectrum: 2068
>>>>>Begin Spectral Data<<<<<
179.565	3122.83
179.642	3286.69
179.718	3406.77
179.795	3528.67
179.871	3625.12
179.948	3678.17
180.024	3740.82
180.101	3805.45
180.177	3842.64
180.254	3906.67
180.33	3972.13
180.407	4194.09
180.483	4437.37
180.56	4685.9
180.636	4912.24
180.712	4881.67
180.789	4906.67
180.865	4937.97
180.942	4964.4
181.018	4994.95
181.095	5036.21
181.171	5047.95
181.248	5050.96
181.324	5095.86
181.4	5108.18
181.477	5134.72
181.553	5169.96
181.63	5226.03
181.706	5263.6
181.782	5295.53
181.859	5296.2
181.935	5313.46
182.011	5299.56
182.088	5344.71
182.164	5399.48
182.24	5435.84
182.317	5459.07
182.393	5453.47
182.469	5491.62
182.546	5529.53
182.622	5539.98
182.698	5526.17
182.775	5566.01
182.851	5607.29
182.927	5587.01
183.003	5577.76
183.08	5561.51
183.156	5582.75
183.232	5573.39
183.308	5548.85
183.385	5568.89
183.461	5613.67
183.537	5612.76
183.613	5648.33
183.69	5618.41
183.766	5584.88
183.842	5609.91
183.918	5626.4
183.995	5664.04
184.071	5670.95
184.147	5651.77
184.223	5623.98
184.299	5656.16
184.375	5622.74
184.452	5635.89
184.528	5744.06
184.604	5772.91
184.68	5811.36
184.756	5836.69
184.832	5848.83
184.908	5862.01
184.985	5860.47
185.061	5816.07
185.137	5842.65
185.213	5806.83
185.289	5813.4
185.365	5794.42
185.441	5784.58
185.517	5821.1
185.593	5810.69
185.669	5805.75
185.745	5839.47
185.822	5883.42
185.898	5857.85
185.974	5882.83
186.05	5861.43
186.126	5797.96
186.202	5780.7
186.278	5761.57
186.354	5737.63
186.43	5758.22
186.506	5754.53
186.582	5751.51
186.658	5773.22
186.734	5717.46
186.81	5728.48
186.886	5742.29
186.962	5773.84
187.038	5760.94
187.114	5736.07
187.19	5754.78
187.266	5734.74
187.341	5732.58
187.417	5713.4
187.493	5712.88
187.569	5722.9
187.645	5705.02
187.721	5673.98
187.797	5696.18
187.873	5713.15
187.949	5690.39
188.025	5671.29
188.101	5678
188.176	5687.54
188.252	5674.74
188.328	5696.87
188.404	5692.32
188.48	5676.98
188.556	5657.13
188.632	5660.82
188.707	5663.65
188.783	5656.69
188.859	5640.78
188.935	5612.77
189.011	5635.7
189.086	5620.55
189.162	5595.52
189.238	5592.31
189.314	5582.33
189.39	5566.51
189.465	5543.73
189.541	5596.2
189.617	5551.47
189.693	5539.44
189.768	5556.52
189.844	5620.95
189.92	5592.78
189.996	5623.66
190.071	5645.67
190.147	5644.04
190.223	5666.58
190.298	5643.13
190.374	5604.2
190.45	5636.93
190.526	5656.64
190.601	5642.21
190.677	5647.57
190.753	5730.32
190.828	5738.8
190.904	5780.01
190.98	5818.96
191.055	5852.1
191.131	5823.41
191.207	5884.7
191.282	5908.86
191.358	5879.99
191.433	5843.03
191.509	5883.18
191.585	5868.03
191.66	5879.64
191.736	5899.87
191.811	5874.84
191.887	5921.52
191.963	5988.87
192.038	5998.27
192.114	6002.59
192.189	6013.95
192.265	6009.78
192.34	5940.56
192.416	5935.09
192.491	5921.17
192.567	5931.16
192.642	5933.03
192.718	5934.09
192.793	5900.74
192.869	5892.97
192.944	5900.98
193.02	5921.57
193.095	5929.14
193.171	5951.4
193.246	5948.86
193.322	5942.48
193.397	5942.29
193.473	5907.21
193.548	5863.59
193.624	5881.63
193.699	5878.56
193.775	5922.24
193.85	5923.68
193.925	5950.74
194.001	5952.94
194.076	5937.35
194.152	5904.14
194.227	5886.63
194.302	5865.3
194.378	5872.64
194.453	5865.21
194.529	5894.32
194.604	5856.33
194.679	5843.43
194.755	5785.95
194.83	5826.32
194.905	5819.28
194.981	5843.69
195.056	5825.23
195.131	5838.71
195.207	5825.85
195.282	5798.42
195.357	5742.89
195.433	5782.7
195.508	5752.28
195.583	5776.79
195.659	5816.61
195.734	5830.53
195.809	5832.64
195.884	5854.4
195.96	5853.3
196.035	5891.62
196.11	5883.99
196.185	5912.15
196.261	5915.17
196.336	6001.12
196.411	5948.8
196.486	5963.62
196.561	5948.7
196.637	5971.24
196.712	6013.82
196.787	6030.66
196.862	6077.34
196.937	6101.51
197.013	6121.34
197.088	6149.83
197.163	6202.12
197.238	6245.6
197.313	6249.83
197.388	6283.61
197.464	6368.46
197.539	6399.27
197.614	6382.38
197.689	6410.42
197.764	6455.7
197.839	6519.68
197.914	6505.28
197.989	6572.97
198.065	6607.92
198.14	6745.83
198.215	6812.77
198.29	6843.81
198.365	6880.03
198.44	6905.24
198.515	6985.52
198.59	7027.61
198.665	7096.31
198.74	7122.99
198.815	7126.98
198.89	7188.66
198.965	7268.6
199.04	7257.21
199.115	7302.84
199.19	7420.85
199.265	7433.92
199.34	7459.01
199.415	7541.15
199.49	7599
199.565	7622.85
199.64	7697.07
199.715	7688.84
199.79	7712.06
199.865	7726.82
199.94	7724.61
200.015	7810.98
200.09	7821.99
200.165	7838.92
200.24	7856.38
200.315	7961.45
200.39	8003
200.464	8025.12
200.539	8027.67
200.614	8065.51
200.689	8129.88
200.764	8142.72
200.839	8190.27
200.914	8201.71
200.989	8177.31
201.063	8216.42
201.138	8169.18
201.213	8161.44
201.288	8107.81
201.363	8119.16
201.438	8118.77
201.512	8160.89
201.587	8108.36
201.662	8122.36
201.737	8155.41
201.812	8180.09
201.886	8090.27
201.961	8117.07
202.036	8078.27
202.111	8069.18
202.186	7986.91
202.26	7936.87
202.335	7879.34
202.41	7856.55
202.485	7816.32
202.559	7758.86
202.634	7685.72
202.709	7710.71
202.784	7660.32
202.858	7665.75
202.933	7613.07
203.008	7596.96
203.082	7543.6
203.157	7543.17
203.232	7423.87
203.306	7357.12
203.381	7268.79
203.456	7206.07
203.53	7140.54
203.605	7084.45
203.68	7023.21
203.754	7012.75
203.829	6972.47
203.904	6919.97
203.978	6891.95
204.053	6909.2
204.127	6876.64
204.202	6871.26
204.277	6822.47
204.351	6805.12
204.426	6781.38
204.5	6763.61
204.575	6664.24
204.65	6690.77
204.724	6668.75
204.799	6689.91
204.873	6679.82
204.948	6675.79
205.022	6644.63
205.097	6618.25
205.171	6661.6
205.246	6680.77
205.32	6681.35
205.395	6677.22
205.469	6651.79
205.544	6670.29
205.618	6615
205.693	6650.11
205.767	6610.84
205.842	6665.31
205.916	6645.1
205.991	6614.41
206.065	6626.03
206.14	6669.58
206.214	6650.21
206.289	6627.92
206.363	6660.87
206.438	6672.2
206.512	6693.73
206.586	6741.02
206.661	6767.31
206.735	6704.91
206.81	6714.77
206.884	6753.8
206.958	6722.12
207.033	6767.57
207.107	6778.68
207.181	6869.64
207.256	6854.27
207.33	6911.89
207.405	6948.05
207.479	7004.45
207.553	7026.34
207.628	6985.49
207.702	7019.2
207.776	7007.14
207.851	7024.82
207.925	7069.62
207.999	7058.09
208.073	7044.35
208.148	7052.76
208.222	7019.17
208.296	7112.52
208.371	7152.1
208.445	7182.28
208.519	7263.52
208.593	7298.45
208.668	7289.08
208.742	7292.16
208.816	7298.26
208.89	7337.15
208.965	7337.78
209.039	7361.29
209.113	7404.31
209.187	7464.81
209.261	7456.5
209.336	7514.03
209.41	7566.97
209.484	7568.6
209.558	7636.88
209.632	7677.63
209.707	7704.07
209.781	7764.02
209.855	7802.35
209.929	7845.87
210.003	7857.69
210.077	7856.01
210.151	7986.93
210.226	8090.62
210.3	8167.35
210.374	8225.19
210.448	8233.12
210.522	8253.81
210.596	8272.19
210.67	8304.51
210.744	8430.88
210.818	8521.47
210.892	8574.22
210.966	8558.01
211.041	8593.18
211.115	8582.69
211.189	8647.21
211.263	8699.61
211.337	8719.09
211.411	8760.68
211.485	8743.49
211.559	8779.29
211.633	8782.03
211.707	8698.82
211.781	8712.16
211.855	8612.34
211.929	8590.65
212.003	8542.37
212.077	8576.12
212.151	8615.68
212.225	8634.45
212.299	8601.56
212.373	8565.71
212.447	8553.49
212.52	8626.44
212.594	8636.74
212.668	8663.4
212.742	8622.45
212.816	8605.26
212.89	8586.02
212.964	8574.8
213.038	8589.15
213.112	8623.52
213.186	8658.06
213.26	8593.62
213.333	8464.67
213.407	8476.98
213.481	8484.25
213.555	8515.49
213.629	8474.29
213.703	8426.4
213.777	8419.14
213.85	8358.45
213.924	8441.73
213.998	8440.76
214.072	8423.43
214.146	8384.84
214.219	8373.24
214.293	8361.65
214.367	8359.92
214.441	8381.09
214.515	8339.36
214.588	8260.89
214.662	8155.2
214.736	8094.7
214.81	8109.79
214.883	8126.8
214.957	8081.32
215.031	8037.78
215.105	7965.36
215.178	7914.96
215.252	7879.81
215.326	7805.85
215.4	7744.47
215.473	7599.58
215.547	7523.11
215.621	7466.04
215.694	7460.89
215.768	7384.01
215.842	7324.7
215.915	7268.15
215.989	7172.28
216.063	7132.8
216.136	7117.42
216.21	7094.56
216.284	7108.5
216.357	7083.75
216.431	7052.37
216.504	7054.2
216.578	7103.76
216.652	7110.81
216.725	7090.05
216.799	7097.99
216.873	7077.09
216.946	7078.63
217.02	7051.65
217.093	7025.66
217.167	6947.45
217.24	6879.1
217.314	6847.18
217.387	6808.92
217.461	6774.77
217.535	6794.65
217.608	6740.71
217.682	6722.65
217.755	6735.23
217.829	6687.09
217.902	6675.08
217.976	6657.41
218.049	6618.13
218.123	6553.11
218.196	6550.42
218.27	6524.53
218.343	6466.45
218.417	6462.66
218.49	6447.05
218.563	6485.18
218.637	6497.33
218.71	6557.85
218.784	6583.11
218.857	6609.13
218.931	6632.55
219.004	6634.18
219.077	6652.83
219.151	6669.44
219.224	6661.99
219.298	6660.51
219.371	6690.72
219.444	6659.28
219.518	6669.22
219.591	6685.68
219.665	6766.92
219.738	6776.76
219.811	6764.28
219.885	6804.39
219.958	6830.57
220.031	6832.73
220.105	6847.05
220.178	6851.66
220.251	6828.01
220.325	6845.41
220.398	6857.71
220.471	6871.73
220.544	6904.64
220.618	6886.33
220.691	6908.81
220.764	6923.89
220.838	6945.56
220.911	6940.42
220.984	7011.16
221.057	7041.72
221.131	7062.47
221.204	6983.92
221.277	7042.94
221.35	7148.28
221.424	7141.79
221.497	7153.08
221.57	7175.31
221.643	7201.37
221.716	7233.96
221.79	7245.92
221.863	7255.4
221.936	7261.69
222.009	7273.22
222.082	7295.19
222.155	7300.9
222.229	7354.32
222.302	7375.51
222.375	7375.03
222.448	7400.99
222.521	7406.04
222.594	7405.51
222.667	7380.58
222.74	7432.09
222.814	7420.5
222.887	7401.65
222.96	7441.4
223.033	7479.63
223.106	7498.56
223.179	7522.42
223.252	7532.42
223.325	7545.64
223.398	7555.07
223.471	7578.81
223.544	7595.82
223.617	7609.33
223.69	7627.84
223.763	7597.35
223.837	7620.72
223.91	7647.45
223.983	7613.71
224.056	7588.47
224.129	7602.56
224.202	7652
224.275	7643.15
224.348	7623.92
224.42	7596.37
224.493	7552.34
224.566	7526.95
224.639	7541.85
224.712	7514.19
224.785	7505.34
224.858	7500.39
224.931	7481.69
225.004	7445.83
225.077	7449.78
225.15	7371.44
225.223	7371.49
225.296	7429.02
225.369	7379.08
225.442	7356.39
225.514	7361.58
225.587	7373.45
225.66	7382.63
225.733	7377.73
225.806	7379.17
225.879	7370.91
225.952	7343.61
226.025	7384.62
226.097	7429.69
226.17	7422.77
226.243	7373.08
226.316	7373.03
226.389	7377.16
226.461	7398.08
226.534	7422.44
226.607	7414.27
226.68	7482.79
226.753	7477.17
226.825	7420.16
226.898	7462.7
226.971	7461.93
227.044	7485.72
227.117	7489.18
227.189	7503.18
227.262	7539.1
227.335	7550.59
227.407	7550.97
227.48	7575.53
227.553	7578.46
227.626	7560.32
227.698	7567.92
227.771	7602.17
227.844	7583.71
227.916	7599.29
227.989	7569.09
228.062	7564.91
228.134	7630.32
228.207	7631.47
228.28	7622.2
228.352	7626.81
228.425	7638.4
228.498	7680.86
228.57	7663.9
228.643	7710.16
228.716	7713.43
228.788	7696.94
228.861	7696.65
228.934	7748.57
229.006	7757.71
229.079	7758.43
229.151	7743.61
229.224	7714.54
229.296	7729.68
229.369	7810.31
229.442	7855.05
229.514	7842.36
229.587	7880.59
229.659	7823.36
229.732	7831.53
229.804	7866.34
229.877	7931.24
229.949	7954.96
230.022	7994.09
230.094	7997.98
230.167	7989.18
230.239	7954.85
230.312	7947.11
230.384	8005.04
230.457	8006.96
230.529	8014.03
230.602	8015.9
230.674	8030.29
230.747	8063.59
230.819	8089.86
230.892	7997.21
230.964	7993.8
231.037	8015.13
231.109	8008.83
231.181	8039.65
231.254	8010.9
231.326	8000.08
231.399	7983.47
231.471	7953.93
231.544	7888.16
231.616	7925.57
231.688	7932.83
231.761	7915.77
231.833	7906.97
231.905	7835.24
231.978	7828.94
232.05	7813.08
232.122	7822.26
232.195	7796.87
232.267	7824.38
232.339	7807.06
232.412	7860.1
232.484	7832.91
232.556	7807.54
232.629	7861.82
232.701	7877.74
232.773	7886.88
232.846	7883.22
232.918	7885.82
232.99	7904.58
233.062	7935.51
233.135	7941.67
233.207	7910.4
233.279	7947.85
233.351	7973.05
233.424	7978.19
233.496	7958.28
233.568	8036.35
233.64	8003.27
233.713	8022.55
233.785	8024.62
233.857	8032.94
233.929	7985.67
234.001	8042.85
234.074	8098.95
234.146	8037.26
234.218	8034.66
234.29	8031.78
234.362	8016.59
234.434	7977.96
234.507	7951.55
234.579	7909.03
234.651	7892.49
234.723	7918.94
234.795	7936.74
234.867	7933.37
234.939	7975.89
235.012	7987.29
235.084	7986.33
235.156	8018.59
235.228	8001.23
235.3	7981.99
235.372	7996.28
235.444	8051.15
235.516	7989.64
235.588	7999.75
235.66	8011.67
235.732	7986.47
235.804	8156.67
235.876	8192.39
235.948	8244.12
236.02	8251.67
236.092	8266
236.164	8269.75
236.236	8269.08
236.308	8268.74
236.38	8296.69
236.452	8287.6
236.524	8306.16
236.596	8360.63
236.668	8385.79
236.74	8407.15
236.812	8432.02
236.884	8456.03
236.956	8467.77
237.028	8454.31
237.1	8430.84
237.172	8489.5
237.244	8554.7
237.316	8448.68
237.388	8436.8
237.46	8417.69
237.532	8468.36
237.604	8459.32
237.675	8527.13
237.747	8560.34
237.819	8548.6
237.891	8542.1
237.963	8528.59
238.035	8523.49
238.107	8426.44
238.178	8479.59
238.25	8486.71
238.322	8562.88
238.394	8531.17
238.466	8526.35
238.538	8565.51
238.609	8608.28
238.681	8561.35
238.753	8538.87
238.825	8555.19
238.897	8578.62
238.968	8646.65
239.04	8630.62
239.112	8723.31
239.184	8691.05
239.255	8694.13
239.327	8720.16
239.399	8743.79
239.471	8781.95
239.542	8812.26
239.614	8864.91
239.686	8801.17
239.758	8839
239.829	8806.1
239.901	8864.59
239.973	8877.97
240.044	8904.39
240.116	8908.63
240.188	8918.2
240.259	8931.92
240.331	8927.39
240.403	8965.9
240.474	8920.77
240.546	8909.71
240.618	8861.95
240.689	8861.23
240.761	8876.78
240.833	8939.42
240.904	8934.36
240.976	8934.79
241.048	8946.88
241.119	8982.32
241.191	9014.14
241.262	9073.47
241.334	9078.86
241.405	9075.69
241.477	9073.71
241.549	9080.6
241.62	9107.08
241.692	9154.45
241.763	9203.42
241.835	9220.9
241.906	9225.23
241.978	9204.82
242.049	9261.24
242.121	9308.52
242.192	9364.85
242.264	9335
242.335	9292.92
242.407	9330.37
242.478	9335.14
242.55	9356.42
242.621	9346.98
242.693	9343.85
242.764	9333.59
242.836	9336.24
242.907	9359.98
242.979	9390.99
243.05	9407.5
243.122	9424.99
243.193	9419.35
243.264	9361.18
243.336	9359.88
243.407	9392.54
243.479	9458.79
243.55	9477
243.622	9491.88
243.693	9484.17
243.764	9543.74
243.836	9522.99
243.907	9518.03
243.978	9526.89
244.05	9545.1
244.121	9503.49
244.192	9537.73
244.264	9499.39
244.335	9511.15
244.407	9469.25
244.478	9480.91
244.549	9471.27
244.62	9437.62
244.692	9434.44
244.763	9473.87
244.834	9462.84
244.906	9442.13
244.977	9455.52
245.048	9498.79
245.119	9484.29
245.191	9465.51
245.262	9412.88
245.333	9476.43
245.405	9483.8
245.476	9503.97
245.547	9512.79
245.618	9551.35
245.689	9568.07
245.761	9593.74
245.832	9592.39
245.903	9630.91
245.974	9656.54
246.045	9672.48
246.117	9737.54
246.188	9718.19
246.259	9706.78
246.33	9722.72
246.401	9731.48
246.473	9702.82
246.544	9686.68
246.615	9728.78
246.686	9743.27
246.757	9805.78
246.828	9779.63
246.899	9840.62
246.97	9815.05
247.042	9810.33
247.113	9853.49
247.184	9920.23
247.255	9911.85
247.326	9937.48
247.397	9942.01
247.468	9944.8
247.539	9958.77
247.61	9922.78
247.681	9966.03
247.752	10003.01
247.823	9986.55
247.894	10001.48
247.965	9980.43
248.037	9973.98
248.108	9935.39
248.179	9937.32
248.25	9925.95
248.321	9958.26
248.392	9919.43
248.463	9988.79
248.534	9987.24
248.605	10000.01
248.675	9980.4
248.746	10003.13
248.817	10018.26
248.888	10035.65
248.959	9995.48
249.03	10012.05
249.101	10018.89
249.172	10005.45
249.243	9953.44
249.314	10013.94
249.385	10021.6
249.456	10049.29
249.527	10037.63
249.598	10056.42
249.669	10051.41
249.739	10058.3
249.81	10066.44
249.881	10038.21
249.952	10029.78
250.023	10028.92
250.094	9985.89
250.165	9959.63
250.235	9950.43
250.306	9958.67
250.377	9934.87
250.448	9951.63
250.519	9906.16
250.59	9954.29
250.66	9954.44
250.731	10006.74
250.802	10001.97
250.873	10020.42
250.944	10032.07
251.014	10031.21
251.085	10101.32
251.156	10126.51
251.227	10172.57
251.297	10218.58
251.368	10260.49
251.439	10298.02
251.51	10339.17
251.58	10326.6
251.651	10323.76
251.722	10373.57
251.792	10325.88
251.863	10325.01
251.934	10382.39
252.005	10468.68
252.075	10477.11
252.146	10520.41
252.217	10562.33
252.287	10589.65
252.358	10590.23
252.429	10655.14
252.499	10650.13
252.57	10656.78
252.641	10698.21
252.711	10701.78
252.782	10663.09
252.852	10726.89
252.923	10723.9
252.994	10740.24
253.064	10777.77
253.135	10754.21
253.205	10733.68
253.276	10792.5
253.347	10843.09
253.417	10818.32
253.488	10796.69
253.558	10786.28
253.629	10782.04
253.699	10792.25
253.77	10816.16
253.841	10810.14
253.911	10814.76
253.982	10825.31
254.052	10848.45
254.123	10853.07
254.193	10857.94
254.264	10966.23
254.334	10938.18
254.405	10910.76
254.475	10875.73
254.546	10884.41
254.616	10944.78
254.687	10971.43
254.757	10989.35
254.827	10991.47
254.898	11013.01
254.968	11025.35
255.039	11009.79
255.109	11037.54
255.18	11016.1
255.25	10961.26
255.321	10985.11
255.391	10954.07
255.461	11030.31
255.532	10968.04
255.602	10960.91
255.673	10918.55
255.743	10890.16
255.813	10825.41
255.884	10871.72
255.954	10909.59
256.024	10961.4
256.095	10962.99
256.165	10931.67
256.235	10950.85
256.306	10941.84
256.376	10984.59
256.446	11021.5
256.517	11050.37
256.587	11095.38
256.657	11111.14
256.728	11127.14
256.798	11141.69
256.868	11138.61
256.938	11112.63
257.009	11148.87
257.079	11173.2
257.149	11250.21
257.219	11204.19
257.29	11239.55
257.36	11190.59
257.43	11215.89
257.5	11170.06
257.571	11160.57
257.641	11194.49
257.711	11163.6
257.781	11188.61
257.852	11198.05
257.922	11142.92
257.992	11137.91
258.062	11126.63
258.132	11161.14
258.202	11168.37
258.273	11174.78
258.343	11244.37
258.413	11227.65
258.483	11229.14
258.553	11210.88
258.623	11195.12
258.693	11211.79
258.764	11261.23
258.834	11315.64
258.904	11327.64
258.974	11317.33
259.044	11327.35
259.114	11355.94
259.184	11381.67
259.254	11388.08
259.324	11344.27
259.394	11387.02
259.464	11457.19
259.535	11466.01
259.605	11462.01
259.675	11458.64
259.745	11488.57
259.815	11458.88
259.885	11467.74
259.955	11567.82
260.025	11557.99
260.095	11565.41
260.165	11594.76
260.235	11650.92
260.305	11637.66
260.375	11616.02
260.445	11687.73
260.515	11738.05
260.585	11771.46
260.655	11779.94
260.725	11815.03
260.795	11846.26
260.865	11901.16
260.934	11874.74
261.004	11897.5
261.074	11895.38
261.144	11946.8
261.214	11978.81
261.284	11977.21
261.354	12009.7
261.424	11965.16
261.494	12025.11
261.564	12027.18
261.634	12049.21
261.703	11992.96
261.773	12020.29
261.843	12054.37
261.913	12047.86
261.983	12001.2
262.053	12013.06
262.123	12013.25
262.192	11975.37
262.262	12006.36
262.332	11959.7
262.402	11988.53
262.472	12000.05
262.541	11955.47
262.611	11990.9
262.681	11971.81
262.751	12010.27
262.821	12008.59
262.89	11982.07
262.96	12005.65
263.03	12067.11
263.1	12088.94
263.169	12100.56
263.239	12123.45
263.309	12167.56
263.379	12191.62
263.448	12214.03
263.518	12237.12
263.588	12254.13
263.657	12325.18
263.727	12360.08
263.797	12373.48
263.867	12368.47
263.936	12330.39
