Data from 20250626_urea_1M_exp2_MAYP1162681_11-23-58-318.txt Node
Date: Fri Jun 27 11:23:58 BST 2025
User: adleo
Spectrometer: MAYP116268
Trigger mode: 0
Integration Time (sec): 3.000000E0
Scans to average: 1
Electric dark correction enabled: true
Nonlinearity correction enabled: true
Boxcar width: 10
XAxis mode: Wavelengths
Number of Pixels in Spectrum: 2068
>>>>>Begin Spectral Data<<<<<
179.565	3169.26
179.642	3331.5
179.718	3451.76
179.795	3570.5
179.871	3669.99
179.948	3724.49
180.024	3789.26
180.101	3856.1
180.177	3896.8
180.254	3958.27
180.33	4019.3
180.407	4241.88
180.483	4485.56
180.56	4732.7
180.636	4964.35
180.712	4934.3
180.789	4965.34
180.865	5002.16
180.942	5029.83
181.018	5053.21
181.095	5093.13
181.171	5106.73
181.248	5110.23
181.324	5158.3
181.4	5171.38
181.477	5196.25
181.553	5227.57
181.63	5279.28
181.706	5321.69
181.782	5348.89
181.859	5353.83
181.935	5376.88
182.011	5365.28
182.088	5411.11
182.164	5462.76
182.24	5495.62
182.317	5521.88
182.393	5509.23
182.469	5543.89
182.546	5582.62
182.622	5593.6
182.698	5581.13
182.775	5621.69
182.851	5657.94
182.927	5639.91
183.003	5628.6
183.08	5617.53
183.156	5652.14
183.232	5649.5
183.308	5621.17
183.385	5643.93
183.461	5687.52
183.537	5684.26
183.613	5721.28
183.69	5698.93
183.766	5667.17
183.842	5691.73
183.918	5707.22
183.995	5740.63
184.071	5748.55
184.147	5731.14
184.223	5700.71
184.299	5730.45
184.375	5697.13
184.452	5717.48
184.528	5821.34
184.604	5853.65
184.68	5888.7
184.756	5905.06
184.832	5911.44
184.908	5927.79
184.985	5919.73
185.061	5875.67
185.137	5901.52
185.213	5868.34
185.289	5868.19
185.365	5854.24
185.441	5848.3
185.517	5882.61
185.593	5874.7
185.669	5864.14
185.745	5894.65
185.822	5937.55
185.898	5917.35
185.974	5940.79
186.05	5918.24
186.126	5853.86
186.202	5831.47
186.278	5816.31
186.354	5790.11
186.43	5808.25
186.506	5799
186.582	5803.27
186.658	5827.52
186.734	5773.68
186.81	5780.96
186.886	5792.04
186.962	5826.47
187.038	5816.35
187.114	5792.01
187.19	5812.54
187.266	5788.76
187.341	5786.27
187.417	5767.95
187.493	5770.11
187.569	5785.8
187.645	5771.46
187.721	5739.41
187.797	5764.44
187.873	5773.02
187.949	5749.97
188.025	5734.51
188.101	5743.77
188.176	5755.85
188.252	5741.23
188.328	5762.74
188.404	5762.65
188.48	5752.15
188.556	5730.37
188.632	5728.93
188.707	5733.01
188.783	5727.93
188.859	5715.42
188.935	5684.68
189.011	5707.17
189.086	5689.04
189.162	5659.31
189.238	5649.53
189.314	5645.64
189.39	5632.36
189.465	5616.87
189.541	5665.21
189.617	5622.11
189.693	5606.24
189.768	5618.76
189.844	5682.58
189.92	5659.15
189.996	5687.25
190.071	5714.64
190.147	5715.74
190.223	5739.97
190.298	5720.25
190.374	5687.21
190.45	5718.79
190.526	5738.55
190.601	5726.27
190.677	5727.71
190.753	5808.74
190.828	5819.09
190.904	5859.49
190.98	5899.79
191.055	5924.16
191.131	5908.85
191.207	5967.12
191.282	5996.32
191.358	5964.81
191.433	5928.37
191.509	5960.67
191.585	5946.95
191.66	5953.43
191.736	5976.17
191.811	5951.51
191.887	5990.76
191.963	6054.57
192.038	6071.41
192.114	6080
192.189	6089.73
192.265	6083.5
192.34	6019.31
192.416	6018.93
192.491	6006.49
192.567	6016.53
192.642	6026.9
192.718	6023.83
192.793	5987.56
192.869	5973.65
192.944	5980.36
193.02	6002.63
193.095	6013.76
193.171	6031.13
193.246	6019.85
193.322	6008.58
193.397	6009.39
193.473	5974.5
193.548	5925.93
193.624	5940.04
193.699	5937.31
193.775	5979.55
193.85	5984.73
193.925	6007.09
194.001	6003.2
194.076	5977.11
194.152	5943.6
194.227	5923.83
194.302	5897.56
194.378	5910.89
194.453	5899.91
194.529	5934.41
194.604	5891.37
194.679	5881.39
194.755	5829.42
194.83	5870.85
194.905	5866.96
194.981	5894.26
195.056	5875.37
195.131	5888.36
195.207	5876.17
195.282	5840.5
195.357	5790.3
195.433	5828.43
195.508	5800.7
195.583	5827.99
195.659	5874.29
195.734	5892.09
195.809	5894.88
195.884	5918.32
195.96	5917.31
196.035	5964.7
196.11	5953.47
196.185	5986.28
196.261	5990.22
196.336	6076.14
196.411	6031.07
196.486	6042.58
196.561	6021.47
196.637	6051.16
196.712	6098.64
196.787	6107.47
196.862	6159.56
196.937	6183.21
197.013	6204.14
197.088	6229.09
197.163	6278.74
197.238	6320.88
197.313	6321.93
197.388	6355.06
197.464	6436.12
197.539	6470.14
197.614	6453.25
197.689	6486.76
197.764	6536.33
197.839	6596.05
197.914	6581.83
197.989	6649.34
198.065	6687.46
198.14	6831.93
198.215	6904.84
198.29	6939.16
198.365	6982.05
198.44	7006.45
198.515	7081.4
198.59	7123.92
198.665	7197.19
198.74	7225.27
198.815	7229.64
198.89	7294.12
198.965	7371.18
199.04	7360.8
199.115	7405.19
199.19	7520.43
199.265	7530.09
199.34	7554.17
199.415	7646.23
199.49	7698.52
199.565	7725.3
199.64	7794.72
199.715	7778.84
199.79	7795.14
199.865	7807.74
199.94	7804.9
200.015	7901.04
200.09	7924.13
200.165	7939.47
200.24	7957.22
200.315	8061.04
200.39	8105.49
200.464	8121.17
200.539	8130.16
200.614	8176.57
200.689	8246.09
200.764	8260.67
200.839	8308.12
200.914	8322.16
200.989	8292.08
201.063	8338.99
201.138	8288.47
201.213	8289
201.288	8237.83
201.363	8250.24
201.438	8247.54
201.512	8288.84
201.587	8230.82
201.662	8236.01
201.737	8269.21
201.812	8289.61
201.886	8197.91
201.961	8220.92
202.036	8187.16
202.111	8177.78
202.186	8090.78
202.26	8033.62
202.335	7970.65
202.41	7957.53
202.485	7907.72
202.559	7853.66
202.634	7775.08
202.709	7800.64
202.784	7740.16
202.858	7743.71
202.933	7687.8
203.008	7673.13
203.082	7620.73
203.157	7623.91
203.232	7506.95
203.306	7442.41
203.381	7352.16
203.456	7292.9
203.53	7227.99
203.605	7169.78
203.68	7102.95
203.754	7087.5
203.829	7043.81
203.904	6991.98
203.978	6956.89
204.053	6971.35
204.127	6938.3
204.202	6928.7
204.277	6881.62
204.351	6867.69
204.426	6845.97
204.5	6828.34
204.575	6729.62
204.65	6755.19
204.724	6729.04
204.799	6752.36
204.873	6741.69
204.948	6738.52
205.022	6702.95
205.097	6678.15
205.171	6720.21
205.246	6747.41
205.32	6750.82
205.395	6753.6
205.469	6735.13
205.544	6749.93
205.618	6703.24
205.693	6730.04
205.767	6694.85
205.842	6750.72
205.916	6735.26
205.991	6708.12
206.065	6723.83
206.14	6766.33
206.214	6750.85
206.289	6729.04
206.363	6766.26
206.438	6773.52
206.512	6792.06
206.586	6847.28
206.661	6869.68
206.735	6806.03
206.81	6806.13
206.884	6847.62
206.958	6809.64
207.033	6849.44
207.107	6865.64
207.181	6952.29
207.256	6940.37
207.33	6994.21
207.405	7026.14
207.479	7076.82
207.553	7097.76
207.628	7054.02
207.702	7087.12
207.776	7073.61
207.851	7090.05
207.925	7124.95
207.999	7121.44
208.073	7118.75
208.148	7127.16
208.222	7097.17
208.296	7186.34
208.371	7233.09
208.445	7259.76
208.519	7342.83
208.593	7380.75
208.668	7373.58
208.742	7375.75
208.816	7384.01
208.89	7424.02
208.965	7427.48
209.039	7453.49
209.113	7493.68
209.187	7552.6
209.261	7543.04
209.336	7600.73
209.41	7656.31
209.484	7657.81
209.558	7724.79
209.632	7763.25
209.707	7791.71
209.781	7856.72
209.855	7899.86
209.929	7942.75
210.003	7955.59
210.077	7953.76
210.151	8082.57
210.226	8180.59
210.3	8260.89
210.374	8323.4
210.448	8340.19
210.522	8361.85
210.596	8388.26
210.67	8419.19
210.744	8548.55
210.818	8638
210.892	8693.73
210.966	8673.67
211.041	8722.42
211.115	8706.35
211.189	8768.76
211.263	8815
211.337	8826.07
211.411	8865.78
211.485	8851
211.559	8880.1
211.633	8882.99
211.707	8794.15
211.781	8813.9
211.855	8714.79
211.929	8687.27
212.003	8636.63
212.077	8670.09
212.151	8699.26
212.225	8728.09
212.299	8695.68
212.373	8662.76
212.447	8647.55
212.52	8726.38
212.594	8730.38
212.668	8757.57
212.742	8716.56
212.816	8698.9
212.89	8679.36
212.964	8675.9
213.038	8681.72
213.112	8723.07
213.186	8763.1
213.26	8703.52
213.333	8569.75
213.407	8576.43
213.481	8584.8
213.555	8607.16
213.629	8567.97
213.703	8518.45
213.777	8505.84
213.85	8447.31
213.924	8539.88
213.998	8532.57
214.072	8511.48
214.146	8464.46
214.219	8452.96
214.293	8438.62
214.367	8442.62
214.441	8468.36
214.515	8430.38
214.588	8354.94
214.662	8247.85
214.736	8183.59
214.81	8198.54
214.883	8214.59
214.957	8179.87
215.031	8137.43
215.105	8064.92
215.178	8013.98
215.252	7984.31
215.326	7910.04
215.4	7841.31
215.473	7691.72
215.547	7623.61
215.621	7568.51
215.694	7568.36
215.768	7490.62
215.842	7435.01
215.915	7376.95
215.989	7280.79
216.063	7234.38
216.136	7220.68
216.21	7205.45
216.284	7217.75
216.357	7202.56
216.431	7168.64
216.504	7168.78
216.578	7211.71
216.652	7218.87
216.725	7194.93
216.799	7198.3
216.873	7175.04
216.946	7177.01
217.02	7143.69
217.093	7119.38
217.167	7034.77
217.24	6968.58
217.314	6934.92
217.387	6900.31
217.461	6861.78
217.535	6881.67
217.608	6824.65
217.682	6805.24
217.755	6813.6
217.829	6762.91
217.902	6745.99
217.976	6733.03
218.049	6688.26
218.123	6623.53
218.196	6624.58
218.27	6596.25
218.343	6543.4
218.417	6543.59
218.49	6527.5
218.563	6566.97
218.637	6574.56
218.71	6638.4
218.784	6659.83
218.857	6689.02
218.931	6712.58
219.004	6715.7
219.077	6731.9
219.151	6750.91
219.224	6741.5
219.298	6738.13
219.371	6779.36
219.444	6746.85
219.518	6753.72
219.591	6770.62
219.665	6856.67
219.738	6867.71
219.811	6856.38
219.885	6893.71
219.958	6918.02
220.031	6926.61
220.105	6936.27
220.178	6940.79
220.251	6915.08
220.325	6935.27
220.398	6945.88
220.471	6957.45
220.544	6993.44
220.618	6971.34
220.691	6991.99
220.764	7008.18
220.838	7031.44
220.911	7017.55
220.984	7083.74
221.057	7120.78
221.131	7137.64
221.204	7060.43
221.277	7119.64
221.35	7226.67
221.424	7215.86
221.497	7222.88
221.57	7243.77
221.643	7270.55
221.716	7306.27
221.79	7316.5
221.863	7322.03
221.936	7333.32
222.009	7339.14
222.082	7359.95
222.155	7370.33
222.229	7422.5
222.302	7442.73
222.375	7438.55
222.448	7465.95
222.521	7475.81
222.594	7471
222.667	7450.01
222.74	7499.23
222.814	7491.48
222.887	7474.74
222.96	7518.92
223.033	7555.47
223.106	7567.19
223.179	7596.1
223.252	7603.85
223.325	7622.21
223.398	7638.94
223.471	7661.78
223.544	7681.96
223.617	7695.33
223.69	7713.64
223.763	7683.06
223.837	7701.18
223.91	7731.57
223.983	7692.74
224.056	7661.68
224.129	7675.91
224.202	7720.41
224.275	7707.52
224.348	7684.01
224.42	7651.26
224.493	7604.49
224.566	7586.93
224.639	7605.73
224.712	7576.67
224.785	7563.35
224.858	7561.57
224.931	7541.23
225.004	7508.83
225.077	7509.51
225.15	7432.56
225.223	7436.12
225.296	7503.81
225.369	7454.73
225.442	7427.86
225.514	7441.5
225.587	7458.95
225.66	7467.31
225.733	7470.58
225.806	7477.31
225.879	7467.27
225.952	7438.3
226.025	7483.92
226.097	7521.73
226.17	7510.19
226.243	7460.79
226.316	7462.37
226.389	7462.66
226.461	7480.02
226.534	7497.47
226.607	7488.09
226.68	7547.82
226.753	7541.86
226.825	7472.54
226.898	7523.92
226.971	7523.92
227.044	7544.2
227.117	7547.28
227.189	7562.82
227.262	7587.63
227.335	7601.63
227.407	7605.62
227.48	7639.44
227.553	7645.75
227.626	7634.63
227.698	7645.74
227.771	7679.71
227.844	7668.7
227.916	7687.69
227.989	7654.9
228.062	7652.93
228.134	7728.87
228.207	7735.84
228.28	7723.64
228.352	7729.55
228.425	7735.08
228.498	7775.81
228.57	7757.35
228.643	7805.89
228.716	7804.73
228.788	7796.12
228.861	7794.1
228.934	7840.16
229.006	7840.65
229.079	7839.97
229.151	7828.52
229.224	7802.85
229.296	7824.64
229.369	7901.71
229.442	7939.19
229.514	7927.18
229.587	7970.56
229.659	7906.77
229.732	7919.04
229.804	7953.66
229.877	8023.04
229.949	8047.48
230.022	8089.74
230.094	8096.13
230.167	8084.58
230.239	8051.3
230.312	8041.35
230.384	8096.69
230.457	8100.2
230.529	8113.52
230.602	8111.4
230.674	8114.53
230.747	8141.25
230.819	8159.77
230.892	8063.66
230.964	8059.67
231.037	8087.98
231.109	8074.61
231.181	8107.3
231.254	8076.43
231.326	8068.69
231.399	8051.5
231.471	8023.74
231.544	7958.98
231.616	7986.62
231.688	7992.49
231.761	7975.77
231.833	7968.17
231.905	7897.35
231.978	7890.13
232.05	7879.94
232.122	7885.37
232.195	7867.91
232.267	7898.5
232.339	7885.42
232.412	7940.04
232.484	7916.7
232.556	7891.18
232.629	7949.03
232.701	7960.77
232.773	7966.97
232.846	7955.72
232.918	7956.53
232.99	7976.21
233.062	8011.28
233.135	8026.24
233.207	7999.16
233.279	8040.5
233.351	8067.86
233.424	8072.24
233.496	8053.19
233.568	8117.18
233.64	8082.36
233.713	8091.74
233.785	8096.74
233.857	8105.93
233.929	8064.57
234.001	8121.95
234.074	8174.4
234.146	8109.15
234.218	8106.7
234.29	8113.72
234.362	8107.32
234.434	8070.9
234.507	8041.75
234.579	7994.57
234.651	7975.13
234.723	7995.19
234.795	8010.34
234.867	8004.14
234.939	8052.15
235.012	8069.99
235.084	8069.99
235.156	8104.38
235.228	8088.46
235.3	8066.47
235.372	8068.88
235.444	8117.93
235.516	8055.99
235.588	8061.33
235.66	8078.6
235.732	8058.01
235.804	8214.69
235.876	8247.25
235.948	8300.18
236.02	8312.69
236.092	8330.43
236.164	8340.92
236.236	8344.57
236.308	8343.52
236.38	8368.05
236.452	8348.47
236.524	8358.95
236.596	8414.43
236.668	8440.41
236.74	8460.85
236.812	8486.78
236.884	8518.36
236.956	8525.72
237.028	8512.68
237.1	8497.34
237.172	8551.25
237.244	8613.08
237.316	8512.21
237.388	8500.09
237.46	8479.2
237.532	8531.94
237.604	8520.88
237.675	8587.07
237.747	8623.11
237.819	8612.96
237.891	8612.29
237.963	8603.92
238.035	8604.45
238.107	8509.08
238.178	8564.12
238.25	8573.02
238.322	8649.14
238.394	8617.09
238.466	8612.03
238.538	8649.13
238.609	8680.25
238.681	8638.04
238.753	8619.07
238.825	8638.57
238.897	8664.93
238.968	8729.74
239.04	8711.36
239.112	8801.2
239.184	8766.2
239.255	8761.73
239.327	8788.62
239.399	8809.99
239.471	8849.88
239.542	8877.46
239.614	8935.89
239.686	8863.67
239.758	8911.08
239.829	8878.09
239.901	8928.63
239.973	8949.91
240.044	8974.16
240.116	8986.63
240.188	8993.7
240.259	9008.92
240.331	9001.21
240.403	9033.46
240.474	8993.06
240.546	8983.67
240.618	8933.99
240.689	8934.37
240.761	8956.76
240.833	9010.73
240.904	9012.66
240.976	9009.72
241.048	9024.45
241.119	9051.42
241.191	9095.47
241.262	9145.7
241.334	9147.1
241.405	9149.55
241.477	9148.5
241.549	9161.01
241.62	9188.89
241.692	9234.72
241.763	9280.47
241.835	9294.2
241.906	9304.45
241.978	9281.25
242.049	9333.48
242.121	9384.37
242.192	9439.74
242.264	9404.98
242.335	9365.16
242.407	9396.17
242.478	9403.88
242.55	9418.85
242.621	9406.23
242.693	9405.27
242.764	9401.03
242.836	9406.18
242.907	9434.69
242.979	9464.21
243.05	9482.22
243.122	9503.07
243.193	9496.04
243.264	9440.76
243.336	9442.78
243.407	9474.76
243.479	9544.15
243.55	9557.44
243.622	9573.29
243.693	9571.12
243.764	9633.05
243.836	9618.27
243.907	9608.5
243.978	9610.28
244.05	9633.11
244.121	9595.84
244.192	9629.84
244.264	9586.78
244.335	9593.47
244.407	9547.58
244.478	9559.04
244.549	9550.42
244.62	9509.01
244.692	9509.73
244.763	9544.54
244.834	9538.38
244.906	9515.6
244.977	9527.5
245.048	9578.57
245.119	9565.66
245.191	9535.46
245.262	9481.96
245.333	9541.86
245.405	9559.39
245.476	9585.34
245.547	9598.73
245.618	9639.71
245.689	9640.82
245.761	9663.4
245.832	9669.76
245.903	9707.8
245.974	9729.05
246.045	9740.12
246.117	9808.85
246.188	9793.4
246.259	9779.86
246.33	9793.01
246.401	9806.45
246.473	9780.05
246.544	9770.17
246.615	9807.36
246.686	9823.25
246.757	9878.29
246.828	9858.35
246.899	9916.17
246.97	9893.68
247.042	9884.77
247.113	9925.76
247.184	10003.92
247.255	10002.57
247.326	10025.79
247.397	10031.33
247.468	10043.33
247.539	10056.33
247.61	10021.94
247.681	10061.47
247.752	10108.05
247.823	10091.15
247.894	10097.22
247.965	10071.5
248.037	10054.01
248.108	10013.5
248.179	10013.84
248.25	10007.38
248.321	10034.93
248.392	9997.63
248.463	10066.51
248.534	10067.67
248.605	10079.62
248.675	10054.03
248.746	10074.74
248.817	10089.44
248.888	10103.55
248.959	10049.22
249.03	10066.51
249.101	10066.99
249.172	10055.39
249.243	9998.7
249.314	10050.34
249.385	10062.96
249.456	10091.66
249.527	10081.69
249.598	10101.96
249.669	10108.27
249.739	10127.49
249.81	10139.68
249.881	10101.2
249.952	10088.04
250.023	10081.49
250.094	10038.71
250.165	10011.87
250.235	10001.95
250.306	9999.73
250.377	9976.13
250.448	10002.61
250.519	9950.21
250.59	10007.45
250.66	10006.87
250.731	10060.13
250.802	10057.44
250.873	10072.42
250.944	10088.41
251.014	10081.86
251.085	10153.46
251.156	10171.62
251.227	10210.56
251.297	10252.77
251.368	10293.23
251.439	10330.43
251.51	10374.8
251.58	10363.29
251.651	10361.17
251.722	10412.92
251.792	10374.57
251.863	10377.99
251.934	10430.31
252.005	10529.8
252.075	10528.5
252.146	10570.65
252.217	10611.02
252.287	10642.25
252.358	10643.93
252.429	10704.7
252.499	10702.43
252.57	10706
252.641	10737.03
252.711	10745.85
252.782	10704.84
252.852	10771.54
252.923	10765.08
252.994	10780.69
253.064	10826.02
253.135	10809.79
253.205	10790.75
253.276	10851.07
253.347	10903.2
253.417	10882.67
253.488	10867.78
253.558	10858.29
253.629	10853.76
253.699	10862.58
253.77	10883.74
253.841	10879.55
253.911	10893.52
253.982	10904.51
254.052	10939.5
254.123	10953.96
254.193	10952.56
254.264	11068.51
254.334	11039.65
254.405	11018.06
254.475	10982.4
254.546	10992.33
254.616	11038.73
254.687	11065.71
254.757	11080.07
254.827	11080.31
254.898	11097.85
254.968	11097.76
255.039	11088.36
255.109	11116.31
255.18	11091.44
255.25	11034.63
255.321	11060.27
255.391	11018.67
255.461	11097.08
255.532	11023.82
255.602	11013.94
255.673	10969.32
255.743	10934.42
255.813	10878.96
255.884	10916.5
255.954	10950.19
256.024	10993.75
256.095	11002.04
256.165	10970.58
256.235	10992.89
256.306	10975.4
256.376	11010.39
256.446	11037.43
256.517	11059.74
256.587	11100.36
256.657	11119.54
256.728	11143.3
256.798	11151.39
256.868	11153.37
256.938	11125.51
257.009	11171.92
257.079	11200.16
257.149	11277.32
257.219	11234.95
257.29	11266.8
257.36	11222.08
257.43	11251.72
257.5	11207.82
257.571	11200.1
257.641	11228.97
257.711	11203.23
257.781	11239.42
257.852	11253.35
257.922	11205.11
257.992	11212.58
258.062	11204.68
258.132	11236.92
258.202	11241.16
258.273	11252.68
258.343	11304.78
258.413	11290.03
258.483	11288.73
258.553	11265.02
258.623	11242.75
258.693	11262.9
258.764	11311.67
258.834	11369.83
258.904	11385.21
258.974	11369.16
259.044	11376.39
259.114	11403.04
259.184	11425.55
259.254	11430.27
259.324	11390.8
259.394	11432.97
259.464	11490.71
259.535	11498.23
259.605	11498.37
259.675	11491.73
259.745	11522.33
259.815	11512.16
259.885	11512.11
259.955	11601.05
260.025	11598.83
260.095	11611.65
260.165	11633.3
260.235	11691.38
260.305	11678.9
260.375	11653.83
260.445	11730.07
260.515	11791.67
260.585	11822.38
260.655	11829.56
260.725	11868.46
260.795	11902.29
260.865	11960.62
260.934	11932.51
261.004	11951.7
261.074	11951.22
261.144	12003.55
261.214	12032.14
261.284	12031.9
261.354	12064.38
261.424	12033.38
261.494	12089.24
261.564	12095.75
261.634	12117.34
261.703	12063.84
261.773	12086.06
261.843	12112.81
261.913	12105.63
261.983	12055.88
262.053	12084.9
262.123	12082.16
262.192	12051.07
262.262	12084.57
262.332	12038.58
262.402	12067.17
262.472	12079.7
262.541	12036.13
262.611	12074.31
262.681	12056.18
262.751	12088.62
262.821	12096.48
262.89	12064.76
262.96	12087.37
263.03	12147.62
263.1	12172.4
263.169	12182.86
263.239	12204.55
263.309	12258.44
263.379	12284.23
263.448	12295.51
263.518	12309.01
263.588	12323.32
263.657	12375.77
263.727	12404.84
263.797	12424.74
263.867	12427.01
263.936	12391.58
