Data from 20250626_urea_1M_exp2_MAYP1162681_22-03-59-231.txt Node
Date: Thu Jun 26 22:03:59 BST 2025
User: adleo
Spectrometer: MAYP116268
Trigger mode: 0
Integration Time (sec): 3.000000E0
Scans to average: 1
Electric dark correction enabled: true
Nonlinearity correction enabled: true
Boxcar width: 10
XAxis mode: Wavelengths
Number of Pixels in Spectrum: 2068
>>>>>Begin Spectral Data<<<<<
179.565	2922.72
179.642	3075.04
179.718	3196.2
179.795	3312.68
179.871	3402.85
179.948	3447.84
180.024	3504.73
180.101	3566.69
180.177	3601.92
180.254	3659.26
180.33	3718.79
180.407	3918.31
180.483	4148.14
180.56	4376.99
180.636	4588.93
180.712	4556.32
180.789	4583.46
180.865	4617.51
180.942	4645.79
181.018	4676.8
181.095	4710.95
181.171	4724.35
181.248	4726.07
181.324	4767.98
181.4	4779
181.477	4804.52
181.553	4843.56
181.63	4898.97
181.706	4939.16
181.782	4966.72
181.859	4971.22
181.935	4986.88
182.011	4983.15
182.088	5023.77
182.164	5075.48
182.24	5111.1
182.317	5137.57
182.393	5131.06
182.469	5168.81
182.546	5197.55
182.622	5207.03
182.698	5199.8
182.775	5234.92
182.851	5271.47
182.927	5245.64
183.003	5234.01
183.08	5218.35
183.156	5244.84
183.232	5234.53
183.308	5206.41
183.385	5225.57
183.461	5271.38
183.537	5273.97
183.613	5306.36
183.69	5286
183.766	5258
183.842	5275.11
183.918	5283.73
183.995	5317.89
184.071	5324.12
184.147	5313.1
184.223	5282.79
184.299	5311.41
184.375	5280.46
184.452	5298.83
184.528	5404.34
184.604	5434.51
184.68	5467
184.756	5480.09
184.832	5492.6
184.908	5505.82
184.985	5504.96
185.061	5460.1
185.137	5481.29
185.213	5445.5
185.289	5446.88
185.365	5430.45
185.441	5425.13
185.517	5463.59
185.593	5452.37
185.669	5444.08
185.745	5471.02
185.822	5517.38
185.898	5496.14
185.974	5514.78
186.05	5490.08
186.126	5425.98
186.202	5405.48
186.278	5395.89
186.354	5367.32
186.43	5384.44
186.506	5377.69
186.582	5371.7
186.658	5386.98
186.734	5338.97
186.81	5347.69
186.886	5354.73
186.962	5379.89
187.038	5374.62
187.114	5354.61
187.19	5375.18
187.266	5348.25
187.341	5349.89
187.417	5325.93
187.493	5324.49
187.569	5337.43
187.645	5323.97
187.721	5294.58
187.797	5318.25
187.873	5327.02
187.949	5312.46
188.025	5294.52
188.101	5306.55
188.176	5320.87
188.252	5313.5
188.328	5331.84
188.404	5332.99
188.48	5318.18
188.556	5298.97
188.632	5299.83
188.707	5298.73
188.783	5284.73
188.859	5273.77
188.935	5243.81
189.011	5269.4
189.086	5249.13
189.162	5227.47
189.238	5223.11
189.314	5214.2
189.39	5196.95
189.465	5179.7
189.541	5225.13
189.617	5182.3
189.693	5168.26
189.768	5179
189.844	5236.01
189.92	5210.63
189.996	5228.22
190.071	5259.75
190.147	5261.23
190.223	5276.96
190.298	5259.94
190.374	5233.35
190.45	5265.2
190.526	5286.62
190.601	5273.73
190.677	5278.23
190.753	5356.86
190.828	5364.52
190.904	5407.18
190.98	5446.11
191.055	5473.58
191.131	5451.28
191.207	5509.31
191.282	5529.58
191.358	5504.09
191.433	5473.77
191.509	5507.82
191.585	5504.32
191.66	5505.04
191.736	5529.05
191.811	5510.83
191.887	5551.16
191.963	5616.99
192.038	5630.46
192.114	5635.16
192.189	5645.32
192.265	5639.86
192.34	5574.89
192.416	5572.02
192.491	5559.31
192.567	5566.5
192.642	5571.3
192.718	5577.05
192.793	5546.99
192.869	5541.53
192.944	5543.11
193.02	5560.13
193.095	5569.28
193.171	5585.11
193.246	5583.19
193.322	5574.03
193.397	5574.99
193.473	5537.29
193.548	5485.17
193.624	5498.5
193.699	5489.68
193.775	5526.27
193.85	5527.95
193.925	5551.49
194.001	5551.21
194.076	5528.49
194.152	5498.56
194.227	5480.72
194.302	5451.93
194.378	5454.23
194.453	5443.98
194.529	5479.78
194.604	5440.19
194.679	5434.2
194.755	5384.56
194.83	5413.39
194.905	5409.17
194.981	5430.17
195.056	5417.42
195.131	5436.84
195.207	5434.1
195.282	5406.98
195.357	5356.82
195.433	5401.39
195.508	5370.56
195.583	5392.13
195.659	5435.33
195.734	5452.21
195.809	5451.3
195.884	5475.54
195.96	5478.61
196.035	5520.55
196.11	5517.24
196.185	5545.18
196.261	5544.37
196.336	5625.19
196.411	5588.93
196.486	5599.14
196.561	5583.9
196.637	5603.83
196.712	5637.27
196.787	5647.01
196.862	5698.78
196.937	5724.85
197.013	5743.32
197.088	5770.12
197.163	5822.57
197.238	5863.43
197.313	5863.38
197.388	5901.61
197.464	5979.93
197.539	6018.2
197.614	5998.4
197.689	6024.07
197.764	6067.88
197.839	6120.65
197.914	6105.1
197.989	6168.63
198.065	6202.93
198.14	6337.22
198.215	6406
198.29	6440.81
198.365	6474.61
198.44	6496.83
198.515	6567.98
198.59	6604.14
198.665	6669.01
198.74	6696.35
198.815	6702.21
198.89	6765.92
198.965	6840.87
199.04	6826.51
199.115	6860.55
199.19	6971.44
199.265	6981.66
199.34	7010.01
199.415	7095.94
199.49	7147.9
199.565	7168.99
199.64	7233.27
199.715	7218.12
199.79	7232.1
199.865	7248.06
199.94	7244.27
200.015	7326.26
200.09	7341.5
200.165	7350.92
200.24	7374.57
200.315	7469.3
200.39	7507.42
200.464	7521.07
200.539	7521.36
200.614	7568.94
200.689	7628.07
200.764	7642.16
200.839	7685.88
200.914	7697.71
200.989	7671.78
201.063	7718.28
201.138	7674.38
201.213	7672.98
201.288	7624.1
201.363	7637.99
201.438	7642.36
201.512	7682.44
201.587	7634.74
201.662	7647.24
201.737	7688.01
201.812	7706.86
201.886	7623.05
201.961	7649.99
202.036	7614.57
202.111	7609.24
202.186	7528.73
202.26	7486.08
202.335	7436.46
202.41	7423.87
202.485	7382.98
202.559	7334.44
202.634	7259.8
202.709	7282.17
202.784	7236.14
202.858	7236.62
202.933	7190.3
203.008	7170.5
203.082	7120.2
203.157	7119.95
203.232	7010.56
203.306	6949.27
203.381	6858.7
203.456	6793.04
203.53	6727.01
203.605	6677.97
203.68	6613.63
203.754	6597.85
203.829	6555.24
203.904	6493.46
203.978	6453.93
204.053	6460.7
204.127	6432.38
204.202	6420.33
204.277	6376.41
204.351	6354.95
204.426	6334.1
204.5	6315.62
204.575	6223.79
204.65	6247.95
204.724	6222.82
204.799	6238.88
204.873	6228.13
204.948	6222.75
205.022	6198.72
205.097	6177.73
205.171	6216.93
205.246	6241.71
205.32	6242.38
205.395	6244.4
205.469	6227.76
205.544	6248.94
205.618	6204.06
205.693	6232.86
205.767	6206.28
205.842	6260.19
205.916	6247.19
205.991	6222.76
206.065	6231.69
206.14	6273.3
206.214	6260.57
206.289	6239.31
206.363	6269.92
206.438	6279.58
206.512	6299.45
206.586	6347.24
206.661	6367.17
206.735	6310.23
206.81	6309.71
206.884	6348.05
206.958	6312.06
207.033	6348.03
207.107	6363.55
207.181	6445.53
207.256	6426.56
207.33	6478.64
207.405	6509.78
207.479	6561.49
207.553	6582.56
207.628	6537.99
207.702	6571.26
207.776	6554.21
207.851	6568.09
207.925	6610.17
207.999	6596.87
208.073	6593.37
208.148	6603.12
208.222	6580.44
208.296	6658.85
208.371	6699.47
208.445	6724.54
208.519	6800.1
208.593	6836.07
208.668	6828.86
208.742	6834.15
208.816	6838.23
208.89	6868.99
208.965	6867.21
209.039	6892.01
209.113	6937.55
209.187	6998.1
209.261	6988.54
209.336	7038.5
209.41	7090.68
209.484	7098.33
209.558	7162.43
209.632	7197.73
209.707	7220.75
209.781	7271.3
209.855	7315.67
209.929	7361.56
210.003	7379.49
210.077	7377.61
210.151	7498.89
210.226	7587.48
210.3	7665.39
210.374	7727.17
210.448	7744.05
210.522	7771.37
210.596	7792.82
210.67	7816.76
210.744	7947.5
210.818	8028.43
210.892	8084.23
210.966	8070.72
211.041	8106.31
211.115	8091.16
211.189	8156.91
211.263	8201.72
211.337	8215.96
211.411	8250.94
211.485	8232.6
211.559	8263.28
211.633	8272.7
211.707	8193.72
211.781	8212.11
211.855	8114.64
211.929	8090.99
212.003	8043.07
212.077	8063.52
212.151	8092.58
212.225	8111.49
212.299	8066.48
212.373	8031.03
212.447	8017.9
212.52	8094.48
212.594	8100.59
212.668	8133.34
212.742	8095.53
212.816	8084.37
212.89	8069.89
212.964	8061.38
213.038	8072.73
213.112	8101.65
213.186	8131.61
213.26	8072.5
213.333	7951.11
213.407	7960.43
213.481	7966.68
213.555	7992.58
213.629	7961.98
213.703	7913.44
213.777	7906.04
213.85	7856.35
213.924	7944.69
213.998	7940.79
214.072	7914.75
214.146	7872.86
214.219	7861.89
214.293	7847.66
214.367	7842.85
214.441	7865.94
214.515	7832.21
214.588	7762.68
214.662	7665.27
214.736	7608.45
214.81	7632.56
214.883	7652.4
214.957	7618.62
215.031	7580.05
215.105	7506
215.178	7459.28
215.252	7434.04
215.326	7362.57
215.4	7302.24
215.473	7160.58
215.547	7096.01
215.621	7049.75
215.694	7052.1
215.768	6979.64
215.842	6925.79
215.915	6875.7
215.989	6785.79
216.063	6741.57
216.136	6726.3
216.21	6709.06
216.284	6721.07
216.357	6695.04
216.431	6656.81
216.504	6651.72
216.578	6692.51
216.652	6705.32
216.725	6687.69
216.799	6695.47
216.873	6679.82
216.946	6684.62
217.02	6653.77
217.093	6631.97
217.167	6552.17
217.24	6489.66
217.314	6459.24
217.387	6426.67
217.461	6391.09
217.535	6406.4
217.608	6359.12
217.682	6343.71
217.755	6356.48
217.829	6310.43
217.902	6293.48
217.976	6283.55
218.049	6251.87
218.123	6190.97
218.196	6192.27
218.27	6166.68
218.343	6108.53
218.417	6109.44
218.49	6091.93
218.563	6131.04
218.637	6136.27
218.71	6190.94
218.784	6204.91
218.857	6233.7
218.931	6253.17
219.004	6257.49
219.077	6278.19
219.151	6292.97
219.224	6281.93
219.298	6276.27
219.371	6310.45
219.444	6288.57
219.518	6290.78
219.591	6304.6
219.665	6390.84
219.738	6405.28
219.811	6394.87
219.885	6435.73
219.958	6458.68
220.031	6460.98
220.105	6474.43
220.178	6482.49
220.251	6462.8
220.325	6483.27
220.398	6494.65
220.471	6510.15
220.544	6543.28
220.618	6525.36
220.691	6549.12
220.764	6564.63
220.838	6589.31
220.911	6578.32
220.984	6643.03
221.057	6675.34
221.131	6693.49
221.204	6618.53
221.277	6665.89
221.35	6758.07
221.424	6747.6
221.497	6758.36
221.57	6779.38
221.643	6806.24
221.716	6839.29
221.79	6847.36
221.863	6858.22
221.936	6864.03
222.009	6874.88
222.082	6894.53
222.155	6900.59
222.229	6953.01
222.302	6977.13
222.375	6980.11
222.448	7017.05
222.521	7023.25
222.594	7024.64
222.667	7002.9
222.74	7047.14
222.814	7043.29
222.887	7030.55
222.96	7074.95
223.033	7104.99
223.106	7124.24
223.179	7153.29
223.252	7159.25
223.325	7179.09
223.398	7187.83
223.471	7211.14
223.544	7227.47
223.617	7239.82
223.69	7259.85
223.763	7225.44
223.837	7244.85
223.91	7264.75
223.983	7223
224.056	7197.11
224.129	7212.34
224.202	7256.08
224.275	7247.67
224.348	7225.66
224.42	7201.92
224.493	7157.72
224.566	7140.07
224.639	7155.59
224.712	7127.32
224.785	7117.99
224.858	7117.66
224.931	7107.28
225.004	7073.84
225.077	7079.56
225.15	7006.79
225.223	7005.69
225.296	7074.74
225.369	7026.02
225.442	7001.51
225.514	7017.31
225.587	7032.4
225.66	7042.83
225.733	7043.16
225.806	7050.71
225.879	7044.42
225.952	7017.33
226.025	7050.62
226.097	7087.6
226.17	7079.86
226.243	7031.35
226.316	7029.04
226.389	7030.24
226.461	7043.89
226.534	7062.77
226.607	7051.62
226.68	7118.48
226.753	7112.57
226.825	7047.07
226.898	7093.33
226.971	7099.1
227.044	7113.27
227.117	7118.36
227.189	7131.2
227.262	7158.12
227.335	7169.22
227.407	7171.96
227.48	7198.85
227.553	7211.69
227.626	7200.58
227.698	7210.14
227.771	7242.46
227.844	7234.53
227.916	7249.96
227.989	7224.2
228.062	7226.7
228.134	7294.58
228.207	7289.97
228.28	7285.26
228.352	7297.23
228.425	7308.91
228.498	7347.27
228.57	7332.85
228.643	7380.12
228.716	7384.88
228.788	7377.52
228.861	7373.77
228.934	7420.54
229.006	7427.55
229.079	7426.54
229.151	7417.45
229.224	7391.42
229.296	7408.57
229.369	7483.26
229.442	7523.75
229.514	7508.43
229.587	7542.03
229.659	7481.88
229.732	7494.52
229.804	7526.58
229.877	7585.26
229.949	7606.9
230.022	7642.5
230.094	7643.22
230.167	7631.24
230.239	7594.23
230.312	7586.25
230.384	7642.86
230.457	7640.8
230.529	7651.32
230.602	7657.24
230.674	7667
230.747	7698.51
230.819	7720.39
230.892	7630.38
230.964	7627.3
231.037	7656.85
231.109	7651.61
231.181	7681.79
231.254	7654.97
231.326	7644.97
231.399	7629
231.471	7601.39
231.544	7538
231.616	7572.56
231.688	7570.73
231.761	7561.03
231.833	7548.96
231.905	7479.57
231.978	7480.63
232.05	7468.42
232.122	7471.35
232.195	7449.28
232.267	7481.59
232.339	7463.61
232.412	7513.07
232.484	7487.53
232.556	7457.31
232.629	7507.24
232.701	7522
232.773	7531.95
232.846	7524.26
232.918	7526.57
232.99	7542.49
233.062	7578.31
233.135	7589.22
233.207	7567.78
233.279	7601.22
233.351	7630.25
233.424	7640.54
233.496	7620.4
233.568	7680.74
233.64	7648.87
233.713	7662.14
233.785	7654.74
233.857	7673.34
233.929	7630.81
234.001	7689.94
234.074	7748.42
234.146	7693.35
234.218	7689.55
234.29	7689.5
234.362	7680.08
234.434	7641.7
234.507	7618.05
234.579	7577.95
234.651	7560.5
234.723	7579.2
234.795	7591.32
234.867	7591.17
234.939	7629.06
235.012	7639.21
235.084	7644.6
235.156	7676.32
235.228	7660.36
235.3	7647.23
235.372	7650.84
235.444	7701.27
235.516	7639.2
235.588	7636.99
235.66	7649.73
235.732	7633.38
235.804	7793.43
235.876	7826.69
235.948	7876.95
236.02	7882
236.092	7894.5
236.164	7905.94
236.236	7912.19
236.308	7911.42
236.38	7931.24
236.452	7914.11
236.524	7933.3
236.596	7985.82
236.668	8016.47
236.74	8037.96
236.812	8059.31
236.884	8084.76
236.956	8100.39
237.028	8092.56
237.1	8084.67
237.172	8140.77
237.244	8196.47
237.316	8101.26
237.388	8091.84
237.46	8076.68
237.532	8129.69
237.604	8122.63
237.675	8181.52
237.747	8217.07
237.819	8207.21
237.891	8211.01
237.963	8209.38
238.035	8203.61
238.107	8116.35
238.178	8160.59
238.25	8170.54
238.322	8244.43
238.394	8213.64
238.466	8204.21
238.538	8236.09
238.609	8267.07
238.681	8225.68
238.753	8205.14
238.825	8221.6
238.897	8242.47
238.968	8302.25
239.04	8287.77
239.112	8375.99
239.184	8342.84
239.255	8339.03
239.327	8376.31
239.399	8387.47
239.471	8423.12
239.542	8450.78
239.614	8502.93
239.686	8438.49
239.758	8475.92
239.829	8439.52
239.901	8491.49
239.973	8509.19
240.044	8536.28
240.116	8544.46
240.188	8556.11
240.259	8575.45
240.331	8565.29
240.403	8601.57
240.474	8560.8
240.546	8556.32
240.618	8512.28
240.689	8515.17
240.761	8533.65
240.833	8576.63
240.904	8581.11
240.976	8580.39
241.048	8594.63
241.119	8617.55
241.191	8651.86
241.262	8700.63
241.334	8715.89
241.405	8715.41
241.477	8715.22
241.549	8726
241.62	8749.92
241.692	8786.21
241.763	8830.36
241.835	8843.31
241.906	8854.28
241.978	8833.16
242.049	8881.87
242.121	8926.53
242.192	8975.43
242.264	8948.09
242.335	8909.93
242.407	8946.7
242.478	8949.64
242.55	8968.12
242.621	8961.48
242.693	8964.22
242.764	8960.99
242.836	8961.91
242.907	8989.79
242.979	9019.82
243.05	9037.3
243.122	9051.64
243.193	9047.99
243.264	8995.7
243.336	9002.01
243.407	9026.33
243.479	9096.8
243.55	9109.8
243.622	9122.85
243.693	9127.42
243.764	9188.32
243.836	9174.37
243.907	9167.72
243.978	9176.29
244.05	9190.93
244.121	9150.5
244.192	9179.67
244.264	9143.08
244.335	9155.02
244.407	9113.09
244.478	9118.14
244.549	9109.86
244.62	9078.18
244.692	9075.87
244.763	9108.36
244.834	9097.05
244.906	9080.15
244.977	9091.76
245.048	9136.41
245.119	9123.55
245.191	9100.93
245.262	9042.67
245.333	9099.08
245.405	9105.39
245.476	9131.86
245.547	9148
245.618	9195.56
245.689	9201.09
245.761	9226.52
245.832	9224.59
245.903	9264.45
245.974	9288.14
246.045	9300.52
246.117	9367.83
246.188	9355.08
246.259	9341.65
246.33	9359.65
246.401	9365.57
246.473	9336.05
246.544	9322.08
246.615	9369.42
246.686	9379.15
246.757	9440.24
246.828	9423.63
246.899	9482.3
246.97	9456.21
247.042	9450.38
247.113	9486.26
247.184	9563.2
247.255	9563.49
247.326	9582.27
247.397	9584.39
247.468	9590.26
247.539	9600.14
247.61	9562.28
247.681	9603.98
247.752	9649.05
247.823	9630.75
247.894	9648.23
247.965	9628.83
248.037	9620.4
248.108	9580.09
248.179	9579.99
248.25	9572.77
248.321	9600.16
248.392	9561.05
248.463	9625.48
248.534	9625.96
248.605	9636.46
248.675	9610.2
248.746	9627.44
248.817	9641.51
248.888	9658.36
248.959	9616.66
249.03	9630.15
249.101	9640.31
249.172	9622.92
249.243	9566.35
249.314	9612.29
249.385	9621.1
249.456	9648.4
249.527	9646.38
249.598	9656.78
249.669	9660.49
249.739	9666.07
249.81	9676.38
249.881	9649.32
249.952	9644.84
250.023	9636.6
250.094	9594.17
250.165	9569.35
250.235	9560.44
250.306	9564.44
250.377	9544.89
250.448	9569.44
250.519	9525.82
250.59	9565.6
250.66	9571.62
250.731	9628.24
250.802	9630.07
250.873	9644.48
250.944	9659.31
251.014	9644.86
251.085	9714.04
251.156	9742.4
251.227	9785.57
251.297	9822.9
251.368	9862.34
251.439	9893.37
251.51	9940.34
251.58	9933.5
251.651	9932
251.722	9974.44
251.792	9942.61
251.863	9937.74
251.934	9976.76
252.005	10061.87
252.075	10070.92
252.146	10104.69
252.217	10142.46
252.287	10179.89
252.358	10182.11
252.429	10240.4
252.499	10234.62
252.57	10240.79
252.641	10270.22
252.711	10274.08
252.782	10248.55
252.852	10308.34
252.923	10303.18
252.994	10312.82
253.064	10351.64
253.135	10337
253.205	10315.32
253.276	10364.21
253.347	10415.12
253.417	10405.05
253.488	10393.87
253.558	10388.33
253.629	10389.78
253.699	10401.34
253.77	10421.29
253.841	10415.66
253.911	10428.33
253.982	10454.68
254.052	10483.45
254.123	10494.34
254.193	10497.91
254.264	10598.52
254.334	10567.11
254.405	10542.34
254.475	10516.37
254.546	10523.02
254.616	10569.22
254.687	10605.36
254.757	10626.17
254.827	10624.68
254.898	10645.83
254.968	10650.26
255.039	10643.81
255.109	10670.3
255.18	10643.56
255.25	10585.89
255.321	10610.65
255.391	10571.96
255.461	10633.01
255.532	10571.23
255.602	10559.91
255.673	10522.71
255.743	10498.51
255.813	10446.25
255.884	10487.88
255.954	10518.95
256.024	10569.5
256.095	10580.2
256.165	10546.67
256.235	10565.99
256.306	10555.87
256.376	10590.09
256.446	10623.92
256.517	10642.8
256.587	10674.32
256.657	10696.24
256.728	10715.27
256.798	10725.58
256.868	10728.33
256.938	10700.71
257.009	10735.74
257.079	10764.27
257.149	10839.49
257.219	10791.06
257.29	10825.3
257.36	10781.84
257.43	10811.19
257.5	10759.3
257.571	10752.31
257.641	10786.04
257.711	10755.19
257.781	10782.32
257.852	10795.33
257.922	10746.52
257.992	10749.65
258.062	10743.34
258.132	10772.64
258.202	10774.04
258.273	10780.49
258.343	10837.5
258.413	10827.82
258.483	10830.85
258.553	10807.68
258.623	10784.83
258.693	10805.41
258.764	10856.58
258.834	10917.15
258.904	10923.89
258.974	10912.57
259.044	10916.96
259.114	10941.05
259.184	10967.61
259.254	10977.48
259.324	10943.46
259.394	10980.51
259.464	11042.88
259.535	11056.52
259.605	11054.88
259.675	11056.27
259.745	11085.82
259.815	11066.78
259.885	11069.33
259.955	11162.94
260.025	11157.93
260.095	11167.18
260.165	11193.93
260.235	11244.39
260.305	11232.39
260.375	11220.01
260.445	11298.6
260.515	11354.6
260.585	11388.15
260.655	11394.95
260.725	11431.14
260.795	11455.76
260.865	11513.7
260.934	11488.06
261.004	11511.38
261.074	11519.05
261.144	11563.77
261.214	11594.52
261.284	11595.87
261.354	11629.94
261.424	11591.08
261.494	11640
261.564	11646.89
261.634	11663.9
261.703	11605.15
261.773	11618.35
261.843	11637.05
261.913	11630.88
261.983	11586.69
262.053	11599.6
262.123	11600.95
262.192	11564.52
262.262	11595.41
262.332	11558.59
262.402	11585.48
262.472	11593.58
262.541	11541.39
262.611	11585.45
262.681	11565.78
262.751	11589.74
262.821	11593.49
262.89	11573.54
262.96	11600.87
263.03	11664.25
263.1	11689.61
263.169	11712.35
263.239	11739.88
263.309	11793.62
263.379	11821.29
263.448	11832.28
263.518	11859.99
263.588	11876.28
263.657	11943.18
263.727	11978.61
263.797	11991
263.867	11990.47
263.936	11957.07
264.006	12006.22
264.076	11996.24
264.145	11995.76
264.215	11991.95
264.285	12027.81
