Data from 20250626_urea_1M_exp2_MAYP1162681_12-44-00-951.txt Node
Date: Fri Jun 27 12:44:00 BST 2025
User: adleo
Spectrometer: MAYP116268
Trigger mode: 0
Integration Time (sec): 3.000000E0
Scans to average: 1
Electric dark correction enabled: true
Nonlinearity correction enabled: true
Boxcar width: 10
XAxis mode: Wavelengths
Number of Pixels in Spectrum: 2068
>>>>>Begin Spectral Data<<<<<
179.565	3134.6
179.642	3295.25
179.718	3416.94
179.795	3535.83
179.871	3631.03
179.948	3685.87
180.024	3745.54
180.101	3810.26
180.177	3849.43
180.254	3912.04
180.33	3973.95
180.407	4191.97
180.483	4434.25
180.56	4681.78
180.636	4907.97
180.712	4875.1
180.789	4903.22
180.865	4936.96
180.942	4967.17
181.018	4993.55
181.095	5030.36
181.171	5043.58
181.248	5043.72
181.324	5091.69
181.4	5102.76
181.477	5130.41
181.553	5162.82
181.63	5220.95
181.706	5264.99
181.782	5293
181.859	5289.31
181.935	5307.43
182.011	5299.23
182.088	5348.55
182.164	5399.48
182.24	5432.92
182.317	5457.45
182.393	5442.59
182.469	5480.84
182.546	5514.68
182.622	5530.55
182.698	5521.15
182.775	5557.68
182.851	5596.17
182.927	5569.66
183.003	5563.24
183.08	5548.81
183.156	5577.38
183.232	5569.13
183.308	5537.54
183.385	5556.86
183.461	5610.07
183.537	5612.23
183.613	5649.77
183.69	5621.63
183.766	5591.79
183.842	5618.35
183.918	5637
183.995	5676.17
184.071	5685.04
184.147	5666.91
184.223	5638.31
184.299	5675.77
184.375	5641.49
184.452	5665.01
184.528	5778.79
184.604	5810.09
184.68	5846.24
184.756	5861.55
184.832	5873.25
184.908	5885.95
184.985	5887.1
185.061	5844.28
185.137	5869.75
185.213	5836.42
185.289	5840.88
185.365	5823.43
185.441	5812.16
185.517	5844.46
185.593	5838.65
185.669	5831.74
185.745	5862.87
185.822	5905.72
185.898	5877.7
185.974	5907.42
186.05	5879.36
186.126	5810.51
186.202	5789.51
186.278	5775.12
186.354	5754.83
186.43	5773.69
186.506	5773.64
186.582	5770.52
186.658	5785.96
186.734	5729.48
186.81	5733.41
186.886	5742.71
186.962	5777
187.038	5772.97
187.114	5753.91
187.19	5771.33
187.266	5744.62
187.341	5751.29
187.417	5728.71
187.493	5729.91
187.569	5734.8
187.645	5718.17
187.721	5685.93
187.797	5707.31
187.873	5718.15
187.949	5698.88
188.025	5677.34
188.101	5684.86
188.176	5697.52
188.252	5686.02
188.328	5708.49
188.404	5710.41
188.48	5697.03
188.556	5674.2
188.632	5672.96
188.707	5673.48
188.783	5667.25
188.859	5653.31
188.935	5617.42
189.011	5641.35
189.086	5619.73
189.162	5597
189.238	5591.25
189.314	5584.25
189.39	5566.99
189.465	5550.49
189.541	5596.34
189.617	5558.51
189.693	5542.17
189.768	5554.31
189.844	5620.08
189.92	5591.05
189.996	5616.13
190.071	5646.77
190.147	5642.75
190.223	5664.67
190.298	5643.37
190.374	5610.09
190.45	5644.17
190.526	5667.14
190.601	5653.33
190.677	5656.73
190.753	5737.61
190.828	5753.57
190.904	5799.58
190.98	5844.19
191.055	5866.35
191.131	5846.25
191.207	5902.88
191.282	5929.92
191.358	5894.15
191.433	5859.44
191.509	5902.19
191.585	5889.38
191.66	5894.61
191.736	5921.85
191.811	5896.38
191.887	5940.43
191.963	6003.27
192.038	6016.41
192.114	6014.54
192.189	6024.61
192.265	6020.68
192.34	5955.58
192.416	5952.32
192.491	5936.19
192.567	5939.12
192.642	5947.28
192.718	5945.99
192.793	5914.51
192.869	5903.77
192.944	5918.25
193.02	5937.78
193.095	5947.23
193.171	5970.26
193.246	5962.24
193.322	5952.46
193.397	5956.1
193.473	5921.74
193.548	5872.46
193.624	5890.7
193.699	5889.35
193.775	5929.04
193.85	5938.1
193.925	5960.89
194.001	5954.04
194.076	5934.18
194.152	5905.87
194.227	5886.72
194.302	5863.14
194.378	5871.77
194.453	5866.93
194.529	5900.84
194.604	5856.28
194.679	5843.9
194.755	5780.91
194.83	5818.3
194.905	5813.51
194.981	5839.46
195.056	5816.25
195.131	5833.52
195.207	5826.08
195.282	5798.89
195.357	5749.99
195.433	5786.83
195.508	5755.94
195.583	5784.13
195.659	5827.8
195.734	5843.68
195.809	5846.51
195.884	5869.52
195.96	5869.71
196.035	5910.25
196.11	5901.03
196.185	5938.97
196.261	5941.85
196.336	6035.43
196.411	5992.9
196.486	6007.39
196.561	5987.67
196.637	6016.49
196.712	6062.19
196.787	6071.84
196.862	6121.25
196.937	6147.77
197.013	6165.73
197.088	6195.47
197.163	6250.36
197.238	6296.24
197.313	6298.59
197.388	6334.06
197.464	6410.55
197.539	6441.46
197.614	6421.83
197.689	6449.58
197.764	6490.5
197.839	6547.62
197.914	6531.29
197.989	6597.26
198.065	6632.5
198.14	6770.8
198.215	6843.41
198.29	6873.16
198.365	6908.66
198.44	6930.55
198.515	7005.12
198.59	7045.23
198.665	7114.18
198.74	7135.14
198.815	7135.14
198.89	7199.75
198.965	7281.81
199.04	7272.05
199.115	7312.93
199.19	7429.22
199.265	7443.44
199.34	7472.95
199.415	7565.96
199.49	7618.58
199.565	7643.19
199.64	7711.07
199.715	7697.93
199.79	7711.2
199.865	7727.84
199.94	7718.57
200.015	7814.99
200.09	7828.55
200.165	7846.82
200.24	7860.82
200.315	7969.98
200.39	8004.37
200.464	8018.65
200.539	8022.16
200.614	8070.77
200.689	8139.85
200.764	8157.08
200.839	8200.68
200.914	8212.41
200.989	8183.49
201.063	8228.85
201.138	8181.17
201.213	8181.42
201.288	8130.87
201.363	8143.04
201.438	8139.53
201.512	8190.77
201.587	8131.11
201.662	8144.25
201.737	8178.94
201.812	8206.79
201.886	8116.49
201.961	8148.49
202.036	8116.13
202.111	8105.21
202.186	8022.35
202.26	7969.33
202.335	7906.99
202.41	7892.66
202.485	7843.24
202.559	7788.76
202.634	7712.45
202.709	7736.9
202.784	7679.35
202.858	7682.19
202.933	7630.37
203.008	7614.02
203.082	7558.02
203.157	7562.3
203.232	7445.54
203.306	7386.86
203.381	7292.3
203.456	7226.35
203.53	7161.69
203.605	7107.09
203.68	7045.03
203.754	7026.64
203.829	6985.94
203.904	6932.23
203.978	6902.29
204.053	6919.49
204.127	6883.76
204.202	6870.5
204.277	6822.52
204.351	6805.51
204.426	6781.92
204.5	6761.7
204.575	6665.54
204.65	6694.76
204.724	6667.26
204.799	6692.93
204.873	6677.36
204.948	6673.43
205.022	6646.16
205.097	6618
205.171	6657.27
205.246	6682.07
205.32	6679.19
205.395	6680.97
205.469	6658.8
205.544	6677.78
205.618	6623.7
205.693	6656.65
205.767	6629.81
205.842	6687.99
205.916	6671.47
205.991	6643.19
206.065	6661.73
206.14	6708.3
206.214	6687.3
206.289	6665.11
206.363	6693.68
206.438	6700.03
206.512	6723.8
206.586	6776.53
206.661	6804.45
206.735	6740.09
206.81	6739.18
206.884	6783.39
206.958	6744.94
207.033	6791.45
207.107	6804.04
207.181	6894.09
207.256	6879.63
207.33	6935.34
207.405	6968.67
207.479	7025.21
207.553	7050.71
207.628	7002.22
207.702	7032.19
207.776	7018.16
207.851	7032.86
207.925	7074.01
207.999	7066.32
208.073	7062.09
208.148	7065.99
208.222	7030.28
208.296	7120.11
208.371	7166.9
208.445	7189.73
208.519	7276.98
208.593	7304.7
208.668	7292.25
208.742	7297.16
208.816	7298.79
208.89	7333.8
208.965	7327.93
209.039	7348.65
209.113	7392.48
209.187	7449.04
209.261	7439.05
209.336	7498.51
209.41	7550.57
209.484	7556.68
209.558	7617.41
209.632	7652.3
209.707	7679.8
209.781	7739.41
209.855	7786.25
209.929	7824.95
210.003	7848.37
210.077	7836.78
210.151	7968.03
210.226	8065.6
210.3	8141.28
210.374	8206.03
210.448	8219.21
210.522	8243.75
210.596	8268.86
210.67	8297.77
210.744	8434.96
210.818	8525.51
210.892	8576.95
210.966	8565.21
211.041	8599.71
211.115	8592.74
211.189	8658.13
211.263	8709.37
211.337	8726.4
211.411	8765.82
211.485	8755.04
211.559	8783.86
211.633	8792.51
211.707	8705.41
211.781	8723.14
211.855	8627.94
211.929	8603.94
212.003	8551.52
212.077	8581.17
212.151	8615.49
212.225	8640.13
212.299	8599.83
212.373	8564.8
212.447	8556.71
212.52	8630.78
212.594	8643.72
212.668	8672.02
212.742	8632.31
212.816	8616.43
212.89	8600.74
212.964	8589.19
213.038	8595.3
213.112	8628.52
213.186	8667.87
213.26	8608.97
213.333	8477.47
213.407	8488.49
213.481	8497.53
213.555	8524.88
213.629	8493.16
213.703	8440.61
213.777	8427.8
213.85	8376.84
213.924	8466.33
213.998	8463.25
214.072	8443.41
214.146	8397.79
214.219	8385.71
214.293	8368.64
214.367	8362.62
214.441	8387.16
214.515	8348.08
214.588	8276.1
214.662	8174.65
214.736	8110.49
214.81	8127.4
214.883	8149.32
214.957	8111.48
215.031	8067.84
215.105	7992.89
215.178	7936.57
215.252	7912.47
215.326	7838.56
215.4	7771.8
215.473	7624.72
215.547	7553.96
215.621	7495.74
215.694	7497.19
215.768	7414.54
215.842	7361.05
215.915	7303.34
215.989	7208.77
216.063	7165.25
216.136	7148.14
216.21	7131.9
216.284	7139.06
216.357	7119.02
216.431	7083.32
216.504	7078.61
216.578	7122.88
216.652	7134.64
216.725	7120.47
216.799	7125.27
216.873	7103.8
216.946	7109.52
217.02	7080.04
217.093	7052.02
217.167	6976.74
217.24	6900.81
217.314	6874.21
217.387	6837.59
217.461	6807.71
217.535	6828.22
217.608	6776.49
217.682	6753.19
217.755	6757.66
217.829	6712.73
217.902	6699.81
217.976	6684.88
218.049	6646.65
218.123	6579.57
218.196	6580.72
218.27	6550.89
218.343	6490.07
218.417	6490.65
218.49	6470.38
218.563	6503.42
218.637	6513.79
218.71	6579.12
218.784	6605.83
218.857	6631.65
218.931	6653.2
219.004	6656.61
219.077	6667.62
219.151	6680.86
219.224	6678.08
219.298	6677.41
219.371	6714.69
219.444	6682.81
219.518	6690.06
219.591	6706.29
219.665	6797.42
219.738	6804.58
219.811	6786.77
219.885	6826.3
219.958	6848.83
220.031	6851.28
220.105	6863.19
220.178	6864.11
220.251	6831
220.325	6849.11
220.398	6860.21
220.471	6874.09
220.544	6901.37
220.618	6883.5
220.691	6911.41
220.764	6918.85
220.838	6945.52
220.911	6935.09
220.984	7005.31
221.057	7037.02
221.131	7052.24
221.204	6969.46
221.277	7031.08
221.35	7134.82
221.424	7129.39
221.497	7136.74
221.57	7159.94
221.643	7190.36
221.716	7226.9
221.79	7237.75
221.863	7247.75
221.936	7254.48
222.009	7266.34
222.082	7291.05
222.155	7301.87
222.229	7349.37
222.302	7380.22
222.375	7380.36
222.448	7409.59
222.521	7409.78
222.594	7405.12
222.667	7388.16
222.74	7436.89
222.814	7430.06
222.887	7411.25
222.96	7449.57
223.033	7490.25
223.106	7508.12
223.179	7538.91
223.252	7546.6
223.325	7566.31
223.398	7582.32
223.471	7605.82
223.544	7622.79
223.617	7639.19
223.69	7654.71
223.763	7623.31
223.837	7636.87
223.91	7658.46
223.983	7618.9
224.056	7593.86
224.129	7614
224.202	7656.33
224.275	7647.05
224.348	7620.27
224.42	7598.78
224.493	7553.69
224.566	7531.81
224.639	7545.27
224.712	7512.8
224.785	7500.83
224.858	7496.88
224.931	7476.64
225.004	7449.77
225.077	7448.23
225.15	7367.16
225.223	7368.51
225.296	7437.25
225.369	7389.48
225.442	7363.51
225.514	7376.92
225.587	7395.57
225.66	7400.61
225.733	7399.36
225.806	7406
225.879	7397.06
225.952	7364.77
226.025	7409.86
226.097	7451.67
226.17	7444.02
226.243	7391.45
226.316	7385.73
226.389	7387.27
226.461	7406.65
226.534	7417.99
226.607	7409.29
226.68	7477.04
226.753	7472.14
226.825	7401.66
226.898	7450.25
226.971	7456.4
227.044	7476.11
227.117	7480.78
227.189	7497.13
227.262	7529.97
227.335	7542.23
227.407	7548.67
227.48	7584.23
227.553	7586.63
227.626	7571.57
227.698	7582.2
227.771	7616.21
227.844	7603.43
227.916	7619.97
227.989	7591.5
228.062	7596.26
228.134	7668.3
228.207	7668.97
228.28	7662.82
228.352	7675.37
228.425	7682.63
228.498	7718.99
228.57	7701.78
228.643	7744.35
228.716	7744.01
228.788	7730.73
228.861	7727.8
228.934	7774.73
229.006	7784.25
229.079	7786.07
229.151	7775.97
229.224	7744.11
229.296	7760.17
229.369	7844.02
229.442	7884.76
229.514	7867.75
229.587	7900.84
229.659	7836.77
229.732	7842.4
229.804	7873.27
229.877	7938.46
229.949	7964.29
230.022	8000.96
230.094	7999.71
230.167	7989.51
230.239	7954.18
230.312	7943.07
230.384	8002.54
230.457	7992.54
230.529	7999.08
230.602	7997.39
230.674	7999.17
230.747	8036.08
230.819	8064.75
230.892	7968.74
230.964	7963.35
231.037	7990.6
231.109	7983.39
231.181	8022.96
231.254	7998.92
231.326	7988.05
231.399	7967.11
231.471	7942.24
231.544	7878.3
231.616	7917.72
231.688	7921.91
231.761	7910.95
231.833	7901.29
231.905	7829.31
231.978	7831.48
232.05	7810.85
232.122	7815.09
232.195	7799.55
232.267	7828.51
232.339	7809.56
232.412	7863.84
232.484	7837.66
232.556	7810.37
232.629	7866.67
232.701	7879.03
232.773	7883.21
232.846	7878.93
232.918	7883.41
232.99	7898.51
233.062	7937.72
233.135	7945.56
233.207	7919.82
233.279	7959.68
233.351	7990.55
233.424	7993.96
233.496	7976.17
233.568	8048.9
233.64	8017.74
233.713	8030.73
233.785	8029.09
233.857	8037.89
233.929	7997.07
234.001	8055.35
234.074	8110.06
234.146	8049.76
234.218	8042.02
234.29	8047.4
234.362	8034.14
234.434	7993.72
234.507	7964.48
234.579	7918.35
234.651	7901.38
234.723	7924.42
234.795	7933.6
234.867	7927.54
234.939	7974.35
235.012	7984.93
235.084	7983.63
235.156	8016.61
235.228	8002.43
235.3	7985.88
235.372	7999.25
235.444	8047.58
235.516	7981.61
235.588	7986.23
235.66	8001.67
235.732	7979.59
235.804	8136.02
235.876	8172.13
235.948	8226.26
236.02	8234.43
236.092	8248.57
236.164	8260.45
236.236	8259.44
236.308	8260.35
236.38	8283.11
236.452	8265.21
236.524	8288.1
236.596	8343.72
236.668	8367.68
236.74	8385.58
236.812	8407.42
236.884	8432.54
236.956	8441.92
237.028	8440.53
237.1	8423.45
237.172	8478.32
237.244	8544.14
237.316	8448.63
237.388	8437.08
237.46	8423.85
237.532	8482.07
237.604	8474.18
237.675	8530.11
237.747	8566.88
237.819	8562.26
237.891	8566.93
237.963	8558.51
238.035	8550.18
238.107	8457.9
238.178	8513.94
238.25	8518.51
238.322	8591.59
238.394	8561.81
238.466	8557.67
238.538	8585.42
238.609	8620.16
238.681	8576.79
238.753	8555.27
238.825	8575.2
238.897	8603.78
238.968	8667.24
239.04	8645.05
239.112	8738.65
239.184	8711.84
239.255	8712.85
239.327	8736.33
239.399	8749.18
239.471	8787.58
239.542	8825.11
239.614	8877.19
239.686	8813.78
239.758	8860.9
239.829	8831.47
239.901	8881.53
239.973	8894
240.044	8930.29
240.116	8940.68
240.188	8948.91
240.259	8962.49
240.331	8948.43
240.403	8976.05
240.474	8937.72
240.546	8925.88
240.618	8876.54
240.689	8876.68
240.761	8890.31
240.833	8947.93
240.904	8947.74
240.976	8944.9
241.048	8952.36
241.119	8984.05
241.191	9013.99
241.262	9066.39
241.334	9072.55
241.405	9067.5
241.477	9073.66
241.549	9078.38
241.62	9105.67
241.692	9146.98
241.763	9193.5
241.835	9209.53
241.906	9218
241.978	9189.02
242.049	9250.16
242.121	9296.57
242.192	9350.4
242.264	9318.29
242.335	9276.59
242.407	9311.6
242.478	9321.27
242.55	9338.99
242.621	9325.75
242.693	9331.04
242.764	9329.26
242.836	9327.72
242.907	9362.01
242.979	9389.02
243.05	9407.46
243.122	9425.52
243.193	9423.69
243.264	9369.95
243.336	9375.73
243.407	9409.49
243.479	9481.57
243.55	9493.13
243.622	9504.26
243.693	9503.73
243.764	9566.56
243.836	9550.68
243.907	9546.15
243.978	9548.03
244.05	9567.1
244.121	9528.44
244.192	9556.03
244.264	9506.48
244.335	9518.95
244.407	9475.56
244.478	9486.01
244.549	9478.06
244.62	9440.55
244.692	9436.22
244.763	9472.04
244.834	9460.05
244.906	9443.96
244.977	9451.09
245.048	9494.5
245.119	9480.34
245.191	9459.06
245.262	9406.18
245.333	9469.59
245.405	9486.45
245.476	9514.81
245.547	9527.57
245.618	9571.2
245.689	9572.83
245.761	9605.97
245.832	9607.36
245.903	9642.13
245.974	9669.68
246.045	9680.13
246.117	9748.76
246.188	9736.68
246.259	9721.46
246.33	9740.19
246.401	9741.35
246.473	9712.16
246.544	9700.4
246.615	9748.72
246.686	9747.99
246.757	9807.42
246.828	9785.26
246.899	9842.02
246.97	9810.58
247.042	9800.89
247.113	9836.01
247.184	9918.07
247.255	9911.47
247.326	9938.92
247.397	9952.99
247.468	9954.72
247.539	9964.07
247.61	9927.51
247.681	9966.08
247.752	10009.66
247.823	9986.31
247.894	10004.85
247.965	9983.04
248.037	9965.26
248.108	9918.2
248.179	9931.64
248.25	9926.19
248.321	9949.02
248.392	9910.52
248.463	9980.94
248.534	9973.9
248.605	9989.13
248.675	9963.68
248.746	9982.52
248.817	9993.5
248.888	10003.62
248.959	9961.86
249.03	9984.89
249.101	9991
249.172	9981.08
249.243	9926.42
249.314	9982
249.385	9989.47
249.456	10024.91
249.527	10024.53
249.598	10048.95
249.669	10041.82
249.739	10051.74
249.81	10066.92
249.881	10029.78
249.952	10024.77
250.023	10032.53
250.094	9988.68
250.165	9968.06
250.235	9959
250.306	9964.64
250.377	9933.91
250.448	9960.21
250.519	9903.37
250.59	9951.07
250.66	9948.56
250.731	10007.13
250.802	10004.62
250.873	10019.8
250.944	10026.78
251.014	10018.64
251.085	10088.12
251.156	10112.11
251.227	10153.93
251.297	10193.78
251.368	10240.5
251.439	10276.45
251.51	10313.21
251.58	10305.69
251.651	10303.33
251.722	10354.5
251.792	10310.9
251.863	10315.04
251.934	10359.56
252.005	10456.1
252.075	10460.92
252.146	10506.35
252.217	10547.16
252.287	10587.34
252.358	10589.7
252.429	10655.48
252.499	10653.84
252.57	10660.2
252.641	10699.28
252.711	10705.25
252.782	10670.8
252.852	10730.36
252.923	10726.75
252.994	10743.37
253.064	10782.59
253.135	10758.16
253.205	10736.28
253.276	10797.18
253.347	10858.61
253.417	10840.44
253.488	10825.12
253.558	10814.8
253.629	10806.18
253.699	10812.44
253.77	10836.11
253.841	10833.17
253.911	10837.17
253.982	10852.25
254.052	10881.22
254.123	10891.77
254.193	10886.42
254.264	10995.53
254.334	10968.69
254.405	10935.49
254.475	10906.29
254.546	10918.14
254.616	10975.96
254.687	11001.84
254.757	11023.76
254.827	11017.4
254.898	11033.16
254.968	11044.19
255.039	11033.93
255.109	11061.49
255.18	11039.42
255.25	10972.92
255.321	10995.62
255.391	10959.86
255.461	11035.28
255.532	10964.81
255.602	10955.66
255.673	10915.95
255.743	10889.25
255.813	10823
255.884	10869.84
255.954	10893.26
256.024	10942.66
256.095	10941.21
256.165	10912.2
256.235	10924.4
256.306	10909.41
256.376	10950.96
256.446	10974.96
256.517	11002.52
256.587	11041.85
256.657	11057.99
256.728	11083.38
256.798	11092.34
256.868	11097.5
256.938	11066.94
257.009	11108.87
257.079	11137.98
257.149	11220.77
257.219	11178.79
257.29	11217.76
257.36	11173.77
257.43	11217.09
257.5	11157.82
257.571	11150.73
257.641	11183.65
257.711	11159.93
257.781	11193.23
257.852	11205.14
257.922	11161.23
257.992	11159.02
258.062	11152.51
258.132	11188.46
258.202	11185.09
258.273	11196.8
258.343	11259.7
258.413	11247.94
258.483	11245.96
258.553	11223.46
258.623	11203.46
258.693	11219.5
258.764	11277.24
258.834	11330.97
258.904	11341.72
258.974	11336.47
259.044	11352.37
259.114	11376.13
259.184	11399.41
259.254	11399.26
259.324	11359.65
259.394	11392.13
259.464	11459.27
259.535	11467.12
259.605	11463.27
259.675	11462.06
259.745	11491.51
259.815	11469.77
259.885	11475.12
259.955	11568.69
260.025	11556.49
260.095	11561.99
260.165	11582.14
260.235	11626.58
260.305	11618.29
260.375	11594.24
260.445	11676.07
260.515	11725.76
260.585	11757
260.655	11768.66
260.725	11804.95
260.795	11833.97
260.865	11891.76
260.934	11866.65
261.004	11891.57
261.074	11889.74
261.144	11935.57
261.214	11958.75
261.284	11955.47
261.354	11982.7
261.424	11953.39
261.494	12015.61
261.564	12024.72
261.634	12050.32
261.703	11999.08
261.773	12016.96
261.843	12048.58
261.913	12040.19
261.983	11991.22
262.053	12013.54
262.123	12000.53
262.192	11972.24
262.262	12006.17
262.332	11971.85
262.402	11996.62
262.472	12002.51
262.541	11953.93
262.611	11996.97
262.681	11983.47
262.751	12008.73
262.821	12010.23
262.89	11975.57
262.96	11993.16
263.03	12058.38
263.1	12075.16
263.169	12087.78
263.239	12116.9
263.309	12167.66
263.379	12183.85
263.448	12205.21
263.518	12221.5
263.588	12243.38
263.657	12293.75
263.727	12320.22
263.797	12328.89
263.867	12328.8
263.936	12295.63
264.006	12347.15
264.076	12340.74
