Data from 20250626_urea_1M_exp2_MAYP1162681_00-53-58-387.txt Node
Date: Fri Jun 27 00:53:58 BST 2025
User: adleo
Spectrometer: MAYP116268
Trigger mode: 0
Integration Time (sec): 3.000000E0
Scans to average: 1
Electric dark correction enabled: true
Nonlinearity correction enabled: true
Boxcar width: 10
XAxis mode: Wavelengths
Number of Pixels in Spectrum: 2068
>>>>>Begin Spectral Data<<<<<
179.565	2793.65
179.642	2932.46
179.718	3043.96
179.795	3149.94
179.871	3229.06
179.948	3283.42
180.024	3334.45
180.101	3394.66
180.177	3428.13
180.254	3484.26
180.33	3540.07
180.407	3734.08
180.483	3950.38
180.56	4169.41
180.636	4373.07
180.712	4346.79
180.789	4370.81
180.865	4400.12
180.942	4422.26
181.018	4448.19
181.095	4482.89
181.171	4494.13
181.248	4502.99
181.324	4542.77
181.4	4555.12
181.477	4588.52
181.553	4615.41
181.63	4665.9
181.706	4702.95
181.782	4730.98
181.859	4729.31
181.935	4744.72
182.011	4735.29
182.088	4775.31
182.164	4825.04
182.24	4856
182.317	4877.06
182.393	4868.87
182.469	4902.29
182.546	4936.62
182.622	4951.18
182.698	4944.42
182.775	4977.22
182.851	5009.45
182.927	4985.41
183.003	4976.18
183.08	4956.93
183.156	4983.27
183.232	4973.97
183.308	4946.01
183.385	4962.38
183.461	5007.02
183.537	5006.97
183.613	5037.24
183.69	5018.08
183.766	4988.22
183.842	5010.45
183.918	5025.83
183.995	5058.96
184.071	5066.53
184.147	5053.94
184.223	5022.4
184.299	5049.66
184.375	5021.5
184.452	5034.88
184.528	5141.83
184.604	5174.34
184.68	5207.15
184.756	5221.14
184.832	5236.28
184.908	5251.07
184.985	5251.5
185.061	5212.32
185.137	5235.13
185.213	5206.53
185.289	5210.56
185.365	5194.28
185.441	5187.33
185.517	5219.4
185.593	5208.38
185.669	5196.35
185.745	5221.65
185.822	5265.26
185.898	5240.39
185.974	5264.48
186.05	5245.55
186.126	5182.29
186.202	5158.39
186.278	5145.36
186.354	5124.46
186.43	5137.89
186.506	5132.47
186.582	5125
186.658	5145.59
186.734	5097.75
186.81	5102.4
186.886	5111.64
186.962	5139.9
187.038	5125.81
187.114	5100.69
187.19	5118.08
187.266	5099.17
187.341	5102.14
187.417	5082.7
187.493	5085.52
187.569	5095.01
187.645	5081.41
187.721	5052.18
187.797	5075.07
187.873	5088.58
187.949	5069.81
188.025	5056.39
188.101	5061.99
188.176	5078.13
188.252	5062.47
188.328	5081.71
188.404	5080.23
188.48	5063.47
188.556	5046.32
188.632	5050.72
188.707	5058.15
188.783	5052.83
188.859	5043.69
188.935	5015.61
189.011	5035.35
189.086	5019.11
189.162	4991.86
189.238	4987.45
189.314	4978.88
189.39	4961.45
189.465	4942
189.541	4986.5
189.617	4952.41
189.693	4945.27
189.768	4955.09
189.844	5022.2
189.92	5001.14
189.996	5023.46
190.071	5055.26
190.147	5057.08
190.223	5074.05
190.298	5054.64
190.374	5024.32
190.45	5051.61
190.526	5069
190.601	5058.27
190.677	5063.68
190.753	5140.53
190.828	5150.73
190.904	5186.38
190.98	5223.9
191.055	5254.66
191.131	5233.38
191.207	5281.28
191.282	5300.58
191.358	5276.1
191.433	5235.54
191.509	5266.07
191.585	5259.17
191.66	5258.26
191.736	5277.09
191.811	5258.69
191.887	5303.09
191.963	5361.59
192.038	5378.65
192.114	5382.2
192.189	5386.94
192.265	5378.8
192.34	5317.42
192.416	5315.07
192.491	5311.67
192.567	5321.21
192.642	5324.9
192.718	5326.15
192.793	5297.06
192.869	5288.05
192.944	5296.58
193.02	5315.7
193.095	5326.48
193.171	5343.83
193.246	5341
193.322	5335.35
193.397	5336.64
193.473	5298.48
193.548	5254.77
193.624	5266.27
193.699	5263.06
193.775	5308.51
193.85	5312.25
193.925	5336.06
194.001	5326.54
194.076	5301.43
194.152	5270.27
194.227	5249.75
194.302	5222.32
194.378	5231.71
194.453	5223.23
194.529	5249.54
194.604	5212.11
194.679	5200.33
194.755	5144.88
194.83	5174.12
194.905	5168.66
194.981	5191.14
195.056	5174.8
195.131	5189.99
195.207	5183.56
195.282	5156.6
195.357	5103.82
195.433	5143.2
195.508	5114.64
195.583	5144.39
195.659	5185.46
195.734	5203.53
195.809	5201.23
195.884	5225.6
195.96	5225.08
196.035	5264.22
196.11	5262.01
196.185	5291.24
196.261	5298.23
196.336	5380.69
196.411	5342.29
196.486	5352.3
196.561	5333.76
196.637	5357.32
196.712	5395.83
196.787	5404.65
196.862	5447.01
196.937	5468.8
197.013	5482.86
197.088	5508.54
197.163	5557.28
197.238	5595.43
197.313	5593.23
197.388	5633.6
197.464	5710.2
197.539	5740.36
197.614	5722.38
197.689	5746.74
197.764	5788.53
197.839	5839.98
197.914	5827.75
197.989	5890.05
198.065	5927.26
198.14	6061.11
198.215	6121.22
198.29	6150.27
198.365	6186.83
198.44	6216.48
198.515	6291.73
198.59	6326.57
198.665	6392.85
198.74	6414.95
198.815	6418.07
198.89	6476.9
198.965	6546.01
199.04	6536.26
199.115	6574.8
199.19	6681.17
199.265	6686.64
199.34	6709.6
199.415	6791.76
199.49	6845.1
199.565	6865.99
199.64	6927.56
199.715	6912.94
199.79	6931.1
199.865	6945.42
199.94	6940.71
200.015	7017.2
200.09	7029.74
200.165	7047.32
200.24	7062.51
200.315	7156.14
200.39	7198
200.464	7211.55
200.539	7211.69
200.614	7248.39
200.689	7307.22
200.764	7324.91
200.839	7374.38
200.914	7387.54
200.989	7364.65
201.063	7401.86
201.138	7359.42
201.213	7358.98
201.288	7312.56
201.363	7322.22
201.438	7325.11
201.512	7362.14
201.587	7316.28
201.662	7325.7
201.737	7358.05
201.812	7377.33
201.886	7297.87
201.961	7323.31
202.036	7297.66
202.111	7289.73
202.186	7217.13
202.26	7171.99
202.335	7116.63
202.41	7099.67
202.485	7053.56
202.559	6999.71
202.634	6930.48
202.709	6952.84
202.784	6901.64
202.858	6904.52
202.933	6861.68
203.008	6844.24
203.082	6796.65
203.157	6794.48
203.232	6686.97
203.306	6625.23
203.381	6549.91
203.456	6490.51
203.53	6426.58
203.605	6374.14
203.68	6316.46
203.754	6297.77
203.829	6261.99
203.904	6211.41
203.978	6182.41
204.053	6195.37
204.127	6165.1
204.202	6158.09
204.277	6114.53
204.351	6096.24
204.426	6070.85
204.5	6050.17
204.575	5961.78
204.65	5984.87
204.724	5966.58
204.799	5988.1
204.873	5983.68
204.948	5976.39
205.022	5946.76
205.097	5924.09
205.171	5962.99
205.246	5983.2
205.32	5988.14
205.395	5981.99
205.469	5961.58
205.544	5974.39
205.618	5931.02
205.693	5958.18
205.767	5925.85
205.842	5978.3
205.916	5966.02
205.991	5940.6
206.065	5949.86
206.14	5991.4
206.214	5978.87
206.289	5957.9
206.363	5984.71
206.438	5989.94
206.512	6008.47
206.586	6055.66
206.661	6077.99
206.735	6016.91
206.81	6019.26
206.884	6051.54
206.958	6019.03
207.033	6058.63
207.107	6075.49
207.181	6151.42
207.256	6140.1
207.33	6189.85
207.405	6223.09
207.479	6267.05
207.553	6290.22
207.628	6256.8
207.702	6280.02
207.776	6260.29
207.851	6268.74
207.925	6307.68
207.999	6295.39
208.073	6285.22
208.148	6295.97
208.222	6265.01
208.296	6350.96
208.371	6393.53
208.445	6419.45
208.519	6494.31
208.593	6528.78
208.668	6518.93
208.742	6526.81
208.816	6530.46
208.89	6560.29
208.965	6552.02
209.039	6572.77
209.113	6613.97
209.187	6667.27
209.261	6663.23
209.336	6720.38
209.41	6771.82
209.484	6779.79
209.558	6842.19
209.632	6882.71
209.707	6904.52
209.781	6963.74
209.855	6997.8
209.929	7035.94
210.003	7053
210.077	7052.71
210.151	7171.17
210.226	7258.19
210.3	7330
210.374	7394.27
210.448	7409.17
210.522	7438.69
210.596	7466.85
210.67	7492.47
210.744	7614.22
210.818	7699.98
210.892	7747.15
210.966	7736.34
211.041	7764.89
211.115	7752.2
211.189	7812.59
211.263	7859.32
211.337	7873.89
211.411	7911.21
211.485	7896.87
211.559	7932.01
211.633	7939.84
211.707	7856.46
211.781	7872.73
211.855	7780.78
211.929	7754.06
212.003	7709.66
212.077	7731.12
212.151	7755.55
212.225	7779.21
212.299	7744.65
212.373	7707.78
212.447	7695.27
212.52	7763.89
212.594	7774.81
212.668	7811.54
212.742	7770.09
212.816	7755.66
212.89	7736.48
212.964	7729.51
213.038	7737.59
213.112	7760.72
213.186	7793.8
213.26	7746.95
213.333	7628.5
213.407	7643.2
213.481	7650.45
213.555	7674.76
213.629	7646.48
213.703	7601.37
213.777	7594.93
213.85	7540.88
213.924	7630.5
213.998	7630.88
214.072	7604.9
214.146	7567.88
214.219	7554.12
214.293	7542.25
214.367	7538.07
214.441	7560.57
214.515	7523.01
214.588	7458.74
214.662	7366.7
214.736	7306.88
214.81	7315.38
214.883	7336.98
214.957	7299.37
215.031	7254.52
215.105	7192.7
215.178	7143.82
215.252	7119.71
215.326	7048.88
215.4	6990.97
215.473	6849.4
215.547	6782.16
215.621	6736.35
215.694	6735.68
215.768	6662.18
215.842	6611.76
215.915	6559.54
215.989	6476.39
216.063	6438.34
216.136	6427.48
216.21	6412.32
216.284	6419.33
216.357	6402.28
216.431	6369.16
216.504	6367.72
216.578	6415.31
216.652	6423.03
216.725	6410.36
216.799	6417.85
216.873	6399.66
216.946	6405.03
217.02	6378.32
217.093	6360.89
217.167	6290.58
217.24	6230.22
217.314	6200.77
217.387	6166.87
217.461	6138.03
217.535	6157.47
217.608	6113.37
217.682	6090.57
217.755	6097.62
217.829	6067.62
217.902	6054.52
217.976	6039.46
218.049	6004.39
218.123	5944.85
218.196	5944.47
218.27	5913.95
218.343	5861.15
218.417	5858.28
218.49	5843.26
218.563	5880.39
218.637	5883.84
218.71	5940.47
218.784	5957.41
218.857	5984.45
218.931	6005.4
219.004	6011.45
219.077	6026.77
219.151	6039.48
219.224	6033.53
219.298	6030.98
219.371	6053.45
219.444	6021.03
219.518	6030.09
219.591	6041.17
219.665	6125.51
219.738	6131.41
219.811	6125.8
219.885	6160.98
219.958	6186.89
220.031	6185.31
220.105	6191.36
220.178	6202.64
220.251	6186.7
220.325	6208.54
220.398	6224.96
220.471	6234.02
220.544	6261.53
220.618	6239.78
220.691	6264.44
220.764	6275.38
220.838	6294.82
220.911	6289.11
220.984	6359.74
221.057	6388.06
221.131	6406.15
221.204	6325.26
221.277	6378.46
221.35	6468.49
221.424	6467.72
221.497	6473.82
221.57	6497.67
221.643	6521.1
221.716	6549.68
221.79	6549.53
221.863	6553.47
221.936	6553.43
222.009	6567.73
222.082	6587.71
222.155	6594.04
222.229	6639.15
222.302	6666.52
222.375	6673.53
222.448	6699.17
222.521	6703.69
222.594	6703.45
222.667	6689.53
222.74	6738.55
222.814	6736.77
222.887	6720.38
222.96	6753.96
223.033	6786.15
223.106	6800.31
223.179	6828.9
223.252	6838.37
223.325	6862.19
223.398	6874.54
223.471	6899.22
223.544	6916.55
223.617	6928.61
223.69	6951.42
223.763	6924.37
223.837	6942.29
223.91	6967.13
223.983	6938.99
224.056	6910.17
224.129	6925.4
224.202	6961.93
224.275	6948.77
224.348	6925.61
224.42	6900.1
224.493	6864.85
224.566	6850.77
224.639	6866.57
224.712	6842.44
224.785	6831.49
224.858	6824.33
224.931	6816.06
225.004	6785.96
225.077	6785.57
225.15	6719.21
225.223	6718.92
225.296	6781.99
225.369	6735.94
225.442	6708.46
225.514	6716.91
225.587	6733.33
225.66	6744.19
225.733	6748.8
225.806	6753.36
225.879	6745.49
225.952	6727.34
226.025	6758.37
226.097	6795.14
226.17	6783.81
226.243	6736.42
226.316	6730.94
226.389	6730.94
226.461	6744.06
226.534	6760.48
226.607	6752.03
226.68	6813.53
226.753	6804.79
226.825	6740.67
226.898	6784.03
226.971	6786.86
227.044	6805.11
227.117	6809.68
227.189	6821.93
227.262	6852.93
227.335	6870.32
227.407	6869.02
227.48	6897.16
227.553	6905.47
227.626	6891.53
227.698	6905.46
227.771	6942.37
227.844	6929.36
227.916	6945.02
227.989	6919.94
228.062	6917.3
228.134	6986.93
228.207	6991.59
228.28	6988.13
228.352	7000.29
228.425	7013.31
228.498	7049.73
228.57	7035.66
228.643	7082.86
228.716	7084.15
228.788	7068.68
228.861	7063.1
228.934	7111.67
229.006	7113.5
229.079	7116.81
229.151	7106.62
229.224	7080.74
229.296	7092.41
229.369	7177.74
229.442	7217.45
229.514	7202.23
229.587	7236.29
229.659	7175.69
229.732	7180.78
229.804	7214.85
229.877	7273.41
229.949	7292.16
230.022	7331.21
230.094	7329.58
230.167	7317.8
230.239	7284.02
230.312	7276.57
230.384	7329.7
230.457	7322.87
230.529	7331.43
230.602	7328.01
230.674	7333.2
230.747	7365.24
230.819	7387.63
230.892	7293.95
230.964	7289.43
231.037	7311.42
231.109	7309.64
231.181	7342.31
231.254	7318.09
231.326	7300.79
231.399	7284.1
231.471	7260.11
231.544	7202.75
231.616	7238.73
231.688	7242.39
231.761	7229.14
231.833	7220.49
231.905	7159.38
231.978	7166.21
232.05	7148.96
232.122	7155.98
232.195	7144.98
232.267	7175.79
232.339	7160.93
232.412	7209.31
232.484	7190.47
232.556	7171.69
232.629	7224.16
232.701	7236.85
232.773	7235.79
232.846	7230.94
232.918	7236.13
232.99	7252.76
233.062	7284.68
233.135	7286.17
233.207	7255.41
233.279	7293.74
233.351	7322.62
233.424	7327.52
233.496	7304.55
233.568	7374.64
233.64	7346.04
233.713	7353.97
233.785	7347.96
233.857	7361.71
233.929	7325.29
234.001	7381.61
234.074	7434.56
234.146	7378.2
234.218	7374.54
234.29	7377.52
234.362	7371.28
234.434	7331.42
234.507	7306.38
234.579	7262.16
234.651	7250.97
234.723	7279.95
234.795	7291.48
234.867	7285.33
234.939	7326.19
235.012	7345.99
235.084	7343.2
235.156	7376.98
235.228	7360.93
235.3	7351.32
235.372	7357.47
235.444	7405.58
235.516	7336.85
235.588	7337.91
235.66	7353
235.732	7333.97
235.804	7486.69
235.876	7525.76
235.948	7576.73
236.02	7579.95
236.092	7598.49
236.164	7613.97
236.236	7613.73
236.308	7611.47
236.38	7634.21
236.452	7622.19
236.524	7634.93
236.596	7688.64
236.668	7707.44
236.74	7732.29
236.812	7749.26
236.884	7776.53
236.956	7779.27
237.028	7782.44
237.1	7768.16
237.172	7814.24
237.244	7872.47
237.316	7780.09
237.388	7759.08
237.46	7745.37
237.532	7797.64
237.604	7783.9
237.675	7837.58
237.747	7868.12
237.819	7856.1
237.891	7857.88
237.963	7848.46
238.035	7845.33
238.107	7761.76
238.178	7811.61
238.25	7812.28
238.322	7880.95
238.394	7848.15
238.466	7847.33
238.538	7875.16
238.609	7905.65
238.681	7871.44
238.753	7855.18
238.825	7870
238.897	7894.42
238.968	7951.5
239.04	7930.81
239.112	8021.66
239.184	7992.12
239.255	7993.13
239.327	8029.18
239.399	8038.32
239.471	8072.03
239.542	8101.32
239.614	8146.67
239.686	8081.05
239.758	8124.82
239.829	8092.62
239.901	8140.38
239.973	8155.24
240.044	8179.1
240.116	8191.85
240.188	8202.53
240.259	8213.59
240.331	8209.55
240.403	8238.41
240.474	8195.38
240.546	8192.83
240.618	8140.72
240.689	8140.39
240.761	8157.18
240.833	8198.7
240.904	8204.81
240.976	8203.13
241.048	8214.29
241.119	8235.47
241.191	8276.06
241.262	8323.43
241.334	8332.77
241.405	8334.69
241.477	8334.55
241.549	8343.79
241.62	8363.61
241.692	8396.28
241.763	8446.63
241.835	8460.34
241.906	8473.67
241.978	8454.81
242.049	8506.2
242.121	8558.64
242.192	8609.99
242.264	8582.85
242.335	8555.76
242.407	8590.36
242.478	8600.12
242.55	8613.93
242.621	8608.45
242.693	8602.58
242.764	8601.23
242.836	8604.65
242.907	8628.9
242.979	8660.13
243.05	8677.32
243.122	8689.93
243.193	8689.93
243.264	8630.34
243.336	8636.26
243.407	8661.49
243.479	8727.75
243.55	8743.78
243.622	8753.65
243.693	8747.92
243.764	8802.93
243.836	8777.63
243.907	8774.07
243.978	8775.7
244.05	8798.71
244.121	8764.74
244.192	8794.29
244.264	8745.63
244.335	8749.62
244.407	8712.75
244.478	8720.5
244.549	8715.59
244.62	8686.58
244.692	8680.03
244.763	8717.9
244.834	8703.94
244.906	8688.88
244.977	8697.98
245.048	8734.72
245.119	8721.58
245.191	8705.26
245.262	8655.26
245.333	8714.73
245.405	8722.09
245.476	8756.89
245.547	8764.93
245.618	8806.22
245.689	8813.53
245.761	8844.96
245.832	8851.8
245.903	8890.64
245.974	8907.63
246.045	8918.9
246.117	8987.26
246.188	8978.02
246.259	8959.78
246.33	8978.4
246.401	8986.63
246.473	8965.11
246.544	8960.3
246.615	8999.82
246.686	9007.19
246.757	9064.8
246.828	9045.79
246.899	9105.46
246.97	9073.02
247.042	9060.26
247.113	9093.43
247.184	9167.85
247.255	9164.72
247.326	9182.82
247.397	9180.56
247.468	9190.87
247.539	9198.95
247.61	9157.21
247.681	9191.19
247.752	9240.48
247.823	9221.47
247.894	9237.26
247.965	9215.17
248.037	9193.5
248.108	9152.91
248.179	9155.65
248.25	9141.55
248.321	9168.93
248.392	9122.41
248.463	9184.13
248.534	9186.44
248.605	9201.95
248.675	9179.16
248.746	9196.97
248.817	9216.14
248.888	9233.13
248.959	9191.01
249.03	9207.04
249.101	9219.85
249.172	9208.01
249.243	9153.28
249.314	9200.74
249.385	9208.21
249.456	9232.37
249.527	9230.83
249.598	9247.53
249.669	9244.64
249.739	9254.37
249.81	9260.82
249.881	9237.23
249.952	9226.11
250.023	9230.25
250.094	9188.11
250.165	9163.69
250.235	9159.21
250.306	9162.2
250.377	9141.49
250.448	9161.81
250.519	9116.27
250.59	9156.24
250.66	9157.1
250.731	9209.81
250.802	9208.46
250.873	9215.11
250.944	9225.65
251.014	9218.14
251.085	9284.27
251.156	9309.5
251.227	9358.43
251.297	9402.74
251.368	9439.72
251.439	9471.89
251.51	9507.91
251.58	9501.99
251.651	9503.29
251.722	9550.35
251.792	9508.12
251.863	9508.41
251.934	9551.89
252.005	9637.9
252.075	9649.89
252.146	9685.71
252.217	9714.95
252.287	9752.42
252.358	9762.34
252.429	9824.72
252.499	9822.46
252.57	9829.83
252.641	9858.63
252.711	9855.01
252.782	9818.51
252.852	9879.69
252.923	9881.8
252.994	9893.8
253.064	9931.17
253.135	9908.63
253.205	9882.47
253.276	9941.03
253.347	9992.85
253.417	9982.2
253.488	9963.47
253.558	9954.6
253.629	9955.13
253.699	9968.81
253.77	9986.78
253.841	9976.72
253.911	9984.14
253.982	10000.65
254.052	10020.7
254.123	10029.76
254.193	10039.3
254.264	10148.23
254.334	10117.97
254.405	10089.51
254.475	10062.77
254.546	10069.9
254.616	10126.45
254.687	10155.06
254.757	10168.12
254.827	10164.31
254.898	10183.1
254.968	10191.33
255.039	10169.13
255.109	10198.9
255.18	10173.99
255.25	10115.03
255.321	10146
255.391	10117.72
255.461	10184.83
255.532	10128.89
255.602	10125.33
255.673	10081.16
255.743	10049.97
255.813	9999.17
255.884	10037.75
255.954	10065.45
256.024	10113.43
256.095	10118.49
256.165	10092.53
256.235	10109.44
256.306	10104.53
256.376	10147.51
256.446	10181.67
256.517	10213.99
256.587	10246.22
256.657	10267.51
256.728	10289.42
256.798	10288.27
256.868	10284.8
256.938	10259.41
257.009	10296.65
257.079	10324.64
257.149	10399.94
257.219	10354.89
257.29	10384.84
257.36	10344.23
257.43	10377.29
257.5	10326.31
257.571	10309.84
257.641	10337.2
257.711	10312.19
257.781	10330.21
257.852	10333.05
257.922	10284.2
257.992	10286.94
258.062	10287.47
258.132	10317.88
258.202	10321.97
258.273	10339.17
258.343	10394
258.413	10379.17
258.483	10386.64
258.553	10366.4
258.623	10347.9
258.693	10375.36
258.764	10424.64
258.834	10477.58
258.904	10490.84
258.974	10483.13
259.044	10495.7
259.114	10519.02
259.184	10538.83
259.254	10548.85
259.324	10513.72
259.394	10549.37
259.464	10611.29
259.535	10615.34
259.605	10613.12
259.675	10611.68
259.745	10637.55
259.815	10617.12
259.885	10621.36
259.955	10704.94
260.025	10702.19
260.095	10719.35
260.165	10738.33
260.235	10787.68
260.305	10782.43
260.375	10755.11
260.445	10826.6
260.515	10875.52
260.585	10911.13
260.655	10921.44
260.725	10957.34
260.795	10981.1
260.865	11032.71
260.934	11003.89
261.004	11023.45
261.074	11030.25
261.144	11076.31
261.214	11103.64
261.284	11109.37
261.354	11141.51
261.424	11104.87
261.494	11154.26
261.564	11150.02
261.634	11172.86
261.703	11119.9
261.773	11138.4
261.843	11174.88
261.913	11167.41
261.983	11125.1
262.053	11137.97
262.123	11129.15
262.192	11100.09
262.262	11132.38
262.332	11099.23
262.402	11128.14
262.472	11136.82
262.541	11086.18
262.611	11125.46
262.681	11109.12
262.751	11140.83
262.821	11145.99
262.89	11119.14
262.96	11143.38
263.03	11202.04
263.1	11225.51
263.169	11246.19
263.239	11271.25
263.309	11319.69
263.379	11349.62
263.448	11368.89
263.518	11397.18
263.588	11419.45
263.657	11475.21
263.727	11501.48
263.797	11515.88
263.867	11514.39
263.936	11482.44
264.006	11534.04
264.076	11521.8
264.145	11518.04
264.215	11499.1
264.285	11534.18
