Data from 20250626_urea_1M_exp2_MAYP1162681_21-43-59-325.txt Node
Date: Thu Jun 26 21:43:59 BST 2025
User: adleo
Spectrometer: MAYP116268
Trigger mode: 0
Integration Time (sec): 3.000000E0
Scans to average: 1
Electric dark correction enabled: true
Nonlinearity correction enabled: true
Boxcar width: 10
XAxis mode: Wavelengths
Number of Pixels in Spectrum: 2068
>>>>>Begin Spectral Data<<<<<
179.565	2951.62
179.642	3108.29
179.718	3222.53
179.795	3328.93
179.871	3420
179.948	3474.57
180.024	3526.38
180.101	3586.89
180.177	3624.75
180.254	3683.28
180.33	3744.24
180.407	3947.93
180.483	4177.96
180.56	4408.1
180.636	4624.48
180.712	4590.91
180.789	4614.94
180.865	4647.37
180.942	4673.49
181.018	4702.83
181.095	4736.69
181.171	4744.64
181.248	4749.33
181.324	4791.62
181.4	4810.68
181.477	4840.28
181.553	4871.19
181.63	4927.08
181.706	4966.16
181.782	4991.09
181.859	4997.65
181.935	5012.11
182.011	5006.8
182.088	5049.53
182.164	5100.04
182.24	5130.64
182.317	5156.54
182.393	5148.54
182.469	5185.67
182.546	5221.21
182.622	5233.33
182.698	5226.24
182.775	5261.98
182.851	5292.41
182.927	5274.05
183.003	5261.51
183.08	5241.68
183.156	5267.36
183.232	5264.43
183.308	5237.27
183.385	5257.24
183.461	5298.07
183.537	5299.85
183.613	5331.43
183.69	5311.4
183.766	5284.4
183.842	5305.97
183.918	5322.5
183.995	5360.83
184.071	5364.23
184.147	5349.57
184.223	5319.21
184.299	5346.72
184.375	5316.39
184.452	5338.69
184.528	5442.88
184.604	5471.28
184.68	5505.83
184.756	5522.37
184.832	5532.35
184.908	5546.09
184.985	5547.58
185.061	5505.02
185.137	5527.84
185.213	5496.26
185.289	5493.34
185.365	5479.25
185.441	5471.77
185.517	5507.55
185.593	5495.33
185.669	5489.05
185.745	5513.64
185.822	5558.38
185.898	5534.64
185.974	5557.83
186.05	5535.34
186.126	5469.89
186.202	5452.78
186.278	5439.7
186.354	5417.45
186.43	5431.7
186.506	5427.05
186.582	5421.3
186.658	5441.66
186.734	5390.82
186.81	5398.2
186.886	5407.78
186.962	5434.33
187.038	5426.61
187.114	5404.88
187.19	5426.02
187.266	5403.27
187.341	5409.88
187.417	5388.8
187.493	5387.98
187.569	5396.9
187.645	5379.02
187.721	5350.98
187.797	5372.78
187.873	5383.71
187.949	5364.88
188.025	5346.94
188.101	5356.57
188.176	5372.29
188.252	5358.78
188.328	5379.71
188.404	5379.66
188.48	5373.86
188.556	5355.94
188.632	5358.52
188.707	5360.3
188.783	5356.13
188.859	5343.97
188.935	5308.49
189.011	5328.62
189.086	5316.88
189.162	5293.78
189.238	5289.85
189.314	5282.67
189.39	5265.51
189.465	5247.97
189.541	5293.31
189.617	5253.07
189.693	5238.55
189.768	5244.59
189.844	5308.9
189.92	5282.56
189.996	5307.44
190.071	5329.34
190.147	5326.13
190.223	5349.53
190.298	5327.91
190.374	5297.33
190.45	5328.37
190.526	5353.1
190.601	5338.82
190.677	5340.16
190.753	5417.68
190.828	5427.55
190.904	5468.3
190.98	5505.41
191.055	5529.62
191.131	5507.75
191.207	5566.46
191.282	5593.1
191.358	5566.64
191.433	5528.7
191.509	5566.29
191.585	5554.4
191.66	5561.4
191.736	5584.89
191.811	5560.72
191.887	5603.5
191.963	5657.34
192.038	5674.32
192.114	5676.95
192.189	5691
192.265	5683.72
192.34	5620.43
192.416	5616.98
192.491	5603.16
192.567	5610.41
192.642	5620.81
192.718	5618.7
192.793	5589.45
192.869	5574.74
192.944	5583.37
193.02	5602.89
193.095	5610.51
193.171	5629.93
193.246	5629.45
193.322	5621.87
193.397	5619.91
193.473	5584.51
193.548	5540.92
193.624	5553.53
193.699	5546.05
193.775	5583.09
193.85	5586.2
193.925	5613.01
194.001	5608.65
194.076	5587.36
194.152	5557.48
194.227	5535.85
194.302	5516.16
194.378	5522.87
194.453	5517.03
194.529	5552.37
194.604	5514.82
194.679	5504.81
194.755	5454.3
194.83	5484.24
194.905	5483.04
194.981	5506
195.056	5483.63
195.131	5500.16
195.207	5495.32
195.282	5472.08
195.357	5424.89
195.433	5467.07
195.508	5433.21
195.583	5455.69
195.659	5496.84
195.734	5515.97
195.809	5517.12
195.884	5533.84
195.96	5530.96
196.035	5570.94
196.11	5559.72
196.185	5588.67
196.261	5594.47
196.336	5672.14
196.411	5630.4
196.486	5635.87
196.561	5618.8
196.637	5650.19
196.712	5692.65
196.787	5699.51
196.862	5745.58
196.937	5764.76
197.013	5778.53
197.088	5809.64
197.163	5864.26
197.238	5907.33
197.313	5909.63
197.388	5946.85
197.464	6025.12
197.539	6056.92
197.614	6041.43
197.689	6074.15
197.764	6119.42
197.839	6174.88
197.914	6161.2
197.989	6224.16
198.065	6265.13
198.14	6399.23
198.215	6465.33
198.29	6494.15
198.365	6532.95
198.44	6560.59
198.515	6641.21
198.59	6680.73
198.665	6743.49
198.74	6766.6
198.815	6772.41
198.89	6833.54
198.965	6911.62
199.04	6904.32
199.115	6948.74
199.19	7056.45
199.265	7061.06
199.34	7084.94
199.415	7169.55
199.49	7226.8
199.565	7246.4
199.64	7313.01
199.715	7305.6
199.79	7318
199.865	7332.66
199.94	7323.77
200.015	7402.6
200.09	7419.67
200.165	7433.17
200.24	7454.66
200.315	7555.12
200.39	7593.39
200.464	7608.29
200.539	7610.89
200.614	7654.43
200.689	7712.42
200.764	7729.88
200.839	7775.62
200.914	7788.21
200.989	7759.21
201.063	7795.61
201.138	7752.28
201.213	7749.4
201.288	7694.69
201.363	7712.81
201.438	7712.57
201.512	7757.26
201.587	7712.54
201.662	7717.11
201.737	7750.33
201.812	7772.65
201.886	7687.82
201.961	7714.76
202.036	7680.21
202.111	7668.23
202.186	7587.38
202.26	7537.61
202.335	7486.5
202.41	7476.65
202.485	7431.05
202.559	7383.23
202.634	7309.55
202.709	7334.47
202.784	7280.07
202.858	7281.51
202.933	7231.87
203.008	7216.1
203.082	7164.93
203.157	7163.01
203.232	7052.7
203.306	6995.88
203.381	6905.63
203.456	6844.91
203.53	6776.52
203.605	6725.36
203.68	6669.76
203.754	6654.27
203.829	6616.32
203.904	6559.14
203.978	6523.11
204.053	6537.52
204.127	6507.17
204.202	6500.69
204.277	6452.88
204.351	6436.51
204.426	6420.13
204.5	6396.8
204.575	6300.98
204.65	6325
204.724	6303.33
204.799	6325.49
204.873	6315.02
204.948	6313.87
205.022	6282.49
205.097	6263.9
205.171	6305.17
205.246	6321.98
205.32	6321.31
205.395	6323.13
205.469	6302.85
205.544	6315.48
205.618	6266.61
205.693	6293.35
205.767	6262.26
205.842	6321.79
205.916	6303.22
205.991	6278.35
206.065	6293.52
206.14	6335.13
206.214	6324.99
206.289	6303.72
206.363	6332.23
206.438	6339.48
206.512	6360.18
206.586	6405.43
206.661	6431.56
206.735	6368.05
206.81	6371.99
206.884	6409.42
206.958	6371.8
207.033	6408.64
207.107	6423.68
207.181	6510.27
207.256	6493.85
207.33	6544.15
207.405	6573.86
207.479	6627.44
207.553	6645.06
207.628	6602.6
207.702	6633.7
207.776	6610.7
207.851	6622.84
207.925	6663.3
207.999	6654.17
208.073	6647.6
208.148	6660.85
208.222	6620.93
208.296	6704.28
208.371	6748.51
208.445	6777.95
208.519	6855.25
208.593	6893.24
208.668	6886.32
208.742	6889.97
208.816	6901.16
208.89	6934.85
208.965	6929.03
209.039	6951.09
209.113	6995
209.187	7055.38
209.261	7049.57
209.336	7103.61
209.41	7153.58
209.484	7156.76
209.558	7221.2
209.632	7253.87
209.707	7277.27
209.781	7339.01
209.855	7386.75
209.929	7422.31
210.003	7441.63
210.077	7440.09
210.151	7567.5
210.226	7658.98
210.3	7733.95
210.374	7789.89
210.448	7802.73
210.522	7833.46
210.596	7856.54
210.67	7882.94
210.744	8008.49
210.818	8092.75
210.892	8146.48
210.966	8134.08
211.041	8173.13
211.115	8162.6
211.189	8226.52
211.263	8277.59
211.337	8295.92
211.411	8330.46
211.485	8316.94
211.559	8344.06
211.633	8349.35
211.707	8264.54
211.781	8281.44
211.855	8184.59
211.929	8162.66
212.003	8114.12
212.077	8137.36
212.151	8168.3
212.225	8189.76
212.299	8149.08
212.373	8117.05
212.447	8102.9
212.52	8174.67
212.594	8181.55
212.668	8206.42
212.742	8163.6
212.816	8147.49
212.89	8130.89
212.964	8124.35
213.038	8129.21
213.112	8162.36
213.186	8200.79
213.26	8139.12
213.333	8013.07
213.407	8024.75
213.481	8033.88
213.555	8062.86
213.629	8025.47
213.703	7976.74
213.777	7971.5
213.85	7916.9
213.924	8003.47
213.998	8004.38
214.072	7983.83
214.146	7940.83
214.219	7927.98
214.293	7917.07
214.367	7914.86
214.441	7932.7
214.515	7891.71
214.588	7828.62
214.662	7725.48
214.736	7660.97
214.81	7674.27
214.883	7698.05
214.957	7661.87
215.031	7615.88
215.105	7545.15
215.178	7499.38
215.252	7475.78
215.326	7400.84
215.4	7339.06
215.473	7195.57
215.547	7122.54
215.621	7073.24
215.694	7075.31
215.768	7001.78
215.842	6955.33
215.915	6899.18
215.989	6811.19
216.063	6769.09
216.136	6756.45
216.21	6742.09
216.284	6756.99
216.357	6746.37
216.431	6712.13
216.504	6712.85
216.578	6756.09
216.652	6765.11
216.725	6751.27
216.799	6754.69
216.873	6738.07
216.946	6752.86
217.02	6723.68
217.093	6707.36
217.167	6629.13
217.24	6563.94
217.314	6534.29
217.387	6497.77
217.461	6465.46
217.535	6485.87
217.608	6437.72
217.682	6411.16
217.755	6417.6
217.829	6374.76
217.902	6354.4
217.976	6342.54
218.049	6301.74
218.123	6241.6
218.196	6243.43
218.27	6211.55
218.343	6158.73
218.417	6154.84
218.49	6125.18
218.563	6163.53
218.637	6169.91
218.71	6230.45
218.784	6254.17
218.857	6281.61
218.931	6298.35
219.004	6301.14
219.077	6316.32
219.151	6335.89
219.224	6331.67
219.298	6331.81
219.371	6362.74
219.444	6334.62
219.518	6337.64
219.591	6352.42
219.665	6436.65
219.738	6448.27
219.811	6436.99
219.885	6470.74
219.958	6498.02
220.031	6505.21
220.105	6517.27
220.178	6526.63
220.251	6500.31
220.325	6516.02
220.398	6524.56
220.471	6538.19
220.544	6570.99
220.618	6551.11
220.691	6571.7
220.764	6585.24
220.838	6606.42
220.911	6597.44
220.984	6664.79
221.057	6697.63
221.131	6717.94
221.204	6640.34
221.277	6695.44
221.35	6796.74
221.424	6794.34
221.497	6804.48
221.57	6824.49
221.643	6848.61
221.716	6873.26
221.79	6877.01
221.863	6887.05
221.936	6900.69
222.009	6916.15
222.082	6938.21
222.155	6949.06
222.229	6996.78
222.302	7020.85
222.375	7026.32
222.448	7059.57
222.521	7064.81
222.594	7071.15
222.667	7051.18
222.74	7101.14
222.814	7096.57
222.887	7082.19
222.96	7125.88
223.033	7159.72
223.106	7179.02
223.179	7207.78
223.252	7222.2
223.325	7253.28
223.398	7261.16
223.471	7280.19
223.544	7292.92
223.617	7303.45
223.69	7319.4
223.763	7291.28
223.837	7308.77
223.91	7334.87
223.983	7292.54
224.056	7271.02
224.129	7278.76
224.202	7322.41
224.275	7309
224.348	7280.84
224.42	7254.17
224.493	7206.06
224.566	7182.8
224.639	7197.98
224.712	7175.38
224.785	7167.69
224.858	7158.75
224.931	7145.63
225.004	7122.9
225.077	7124.68
225.15	7051.91
225.223	7049.7
225.296	7115.39
225.369	7069.31
225.442	7045.04
225.514	7061.18
225.587	7071.65
225.66	7087.37
225.733	7082.8
225.806	7087.37
225.879	7083.53
225.952	7053.8
226.025	7093.48
226.097	7136.14
226.17	7127.92
226.243	7073.64
226.316	7068.35
226.389	7071.04
226.461	7085.41
226.534	7098.34
226.607	7093.15
226.68	7159.33
226.753	7156.07
226.825	7089.03
226.898	7136.21
226.971	7137.7
227.044	7154.03
227.117	7160.71
227.189	7170.62
227.262	7205.66
227.335	7222.92
227.407	7224.89
227.48	7254.86
227.553	7262.12
227.626	7246.15
227.698	7257.25
227.771	7289.52
227.844	7280.05
227.916	7298.99
227.989	7275.39
228.062	7275.34
228.134	7345.73
228.207	7348.62
228.28	7343.09
228.352	7357.17
228.425	7368.04
228.498	7404.62
228.57	7393.42
228.643	7442.57
228.716	7442.76
228.788	7429.2
228.861	7422.32
228.934	7470.05
229.006	7475.86
229.079	7474.95
229.151	7462.69
229.224	7435.31
229.296	7461.02
229.369	7540.71
229.442	7580.59
229.514	7573.38
229.587	7606.79
229.659	7543.8
229.732	7553.41
229.804	7585.9
229.877	7647.42
229.949	7665.75
230.022	7705.53
230.094	7705.63
230.167	7695.05
230.239	7661.93
230.312	7649.91
230.384	7705.47
230.457	7703.45
230.529	7715.37
230.602	7720.56
230.674	7734.7
230.747	7762.71
230.819	7785.4
230.892	7686.06
230.964	7679.08
231.037	7699.12
231.109	7692.72
231.181	7723.05
231.254	7695.12
231.326	7683.83
231.399	7667.18
231.471	7649.67
231.544	7584.93
231.616	7623.24
231.688	7625.45
231.761	7616.37
231.833	7612.29
231.905	7544.14
231.978	7545.34
232.05	7529.87
232.122	7530.63
232.195	7511.88
232.267	7546.11
232.339	7525.58
232.412	7581.29
232.484	7568.73
232.556	7541.15
232.629	7598.26
232.701	7612.25
232.773	7617.87
232.846	7609.46
232.918	7611.24
232.99	7624.71
233.062	7659.23
233.135	7663.03
233.207	7634.9
233.279	7671.81
233.351	7699.45
233.424	7709.06
233.496	7691.61
233.568	7757.25
233.64	7730.38
233.713	7738.7
233.785	7737.74
233.857	7751.44
233.929	7711.73
234.001	7759.37
234.074	7813.63
234.146	7755.37
234.218	7750.8
234.29	7754.17
234.362	7742.78
234.434	7701.32
234.507	7674.3
234.579	7635.02
234.651	7625.5
234.723	7647.85
234.795	7660.12
234.867	7654.49
234.939	7700.56
235.012	7706.67
235.084	7706.28
235.156	7736.66
235.228	7724.79
235.3	7709.3
235.372	7712.82
235.444	7762
235.516	7695.65
235.588	7700.18
235.66	7712.53
235.732	7693.59
235.804	7844.83
235.876	7884.24
235.948	7942.11
236.02	7950.47
236.092	7965.33
236.164	7969.85
236.236	7973.89
236.308	7968.21
236.38	7989.52
236.452	7973.88
236.524	7995.57
236.596	8047.95
236.668	8073.4
236.74	8092.34
236.812	8113.12
236.884	8148.1
236.956	8153.2
237.028	8149.93
237.1	8135.5
237.172	8190.88
237.244	8256.16
237.316	8168.7
237.388	8156.3
237.46	8137
237.532	8190.78
237.604	8181.94
237.675	8246.03
237.747	8282.7
237.819	8279.86
237.891	8283.23
237.963	8271.97
238.035	8268.99
238.107	8178.99
238.178	8227.56
238.25	8233.72
238.322	8303.66
238.394	8265.7
238.466	8267.67
238.538	8299.99
238.609	8334.57
238.681	8293.09
238.753	8268.5
238.825	8285.2
238.897	8312.03
238.968	8370.66
239.04	8356.61
239.112	8445.72
239.184	8410.1
239.255	8403.26
239.327	8425.92
239.399	8438.04
239.471	8477.44
239.542	8504.58
239.614	8563.47
239.686	8497
239.758	8536.55
239.829	8510.36
239.901	8561.32
239.973	8574.16
240.044	8601.93
240.116	8616.89
240.188	8632.58
240.259	8647.45
240.331	8635.27
240.403	8662.46
240.474	8626.06
240.546	8613.45
240.618	8562.48
240.689	8563.83
240.761	8583.9
240.833	8638.24
240.904	8645.94
240.976	8650.32
241.048	8661.87
241.119	8690.42
241.191	8732.82
241.262	8782.27
241.334	8787.37
241.405	8786.65
241.477	8790.11
241.549	8802.29
241.62	8814.57
241.692	8849.27
241.763	8893.61
241.835	8909.54
241.906	8925.57
241.978	8906.9
242.049	8961.19
242.121	9016.74
242.192	9075.8
242.264	9046.25
242.335	9016.4
242.407	9052.56
242.478	9053.52
242.55	9066.52
242.621	9054.09
242.693	9054.19
242.764	9053.18
242.836	9054.81
242.907	9086.02
242.979	9109.79
243.05	9125.68
243.122	9151.2
243.193	9144.75
243.264	9095.02
243.336	9099.64
243.407	9125.74
243.479	9187.12
243.55	9200.41
243.622	9207.49
243.693	9201.37
243.764	9256.01
243.836	9228.82
243.907	9217.89
243.978	9220.69
244.05	9242.3
244.121	9205.14
244.192	9236.01
244.264	9196.38
244.335	9206.78
244.407	9167.2
244.478	9180.63
244.549	9167.39
244.62	9133.59
244.692	9135.04
244.763	9170.32
244.834	9160.5
244.906	9145.72
244.977	9156.99
245.048	9199.09
245.119	9180.07
245.191	9159.7
245.262	9111.03
245.333	9174.95
245.405	9188.63
245.476	9215.58
245.547	9229.46
245.618	9271.53
245.689	9278.22
245.761	9303.12
245.832	9302.78
245.903	9337.54
245.974	9355.31
246.045	9371.34
246.117	9436.78
246.188	9424.51
246.259	9406.17
246.33	9419.36
246.401	9430.67
246.473	9406.31
246.544	9397.06
246.615	9446.9
246.686	9454.65
246.757	9509.44
246.828	9489.27
246.899	9545.82
246.97	9521.17
247.042	9519.15
247.113	9555.85
247.184	9620.45
247.255	9623.49
247.326	9651.61
247.397	9657.78
247.468	9668.61
247.539	9682
247.61	9642.41
247.681	9679.25
247.752	9729.47
247.823	9712.76
247.894	9718.25
247.965	9698.66
248.037	9681.12
248.108	9634.65
248.179	9638.69
248.25	9638.89
248.321	9668.55
248.392	9631.89
248.463	9700.32
248.534	9696.03
248.605	9708.22
248.675	9685.76
248.746	9692.6
248.817	9705.42
248.888	9716.83
248.959	9677.39
249.03	9700.03
249.101	9710.82
249.172	9701.67
249.243	9644.27
249.314	9696.37
249.385	9710.1
249.456	9736.58
249.527	9737.79
249.598	9762.15
249.669	9759.22
249.739	9765.33
249.81	9770.15
249.881	9735.62
249.952	9725.31
250.023	9720.64
250.094	9679.36
250.165	9663.65
250.235	9659.03
250.306	9661.73
250.377	9635.48
250.448	9653.44
250.519	9592.81
250.59	9640.5
250.66	9640.12
250.731	9692.45
250.802	9690.09
250.873	9705.8
250.944	9721.84
251.014	9713.02
251.085	9779.56
251.156	9801.71
251.227	9843.72
251.297	9891.41
251.368	9930.95
251.439	9967.57
251.51	10009.52
251.58	10002.44
251.651	9998.88
251.722	10047.58
251.792	10008.52
251.863	10008.47
251.934	10052.01
252.005	10148.83
252.075	10148.64
252.146	10187.26
252.217	10227.06
252.287	10257.17
252.358	10260.2
252.429	10318.84
252.499	10312.58
252.57	10325.2
252.641	10368.51
252.711	10375.11
252.782	10331.51
252.852	10397.57
252.923	10391.55
252.994	10405.14
253.064	10443.77
253.135	10420.12
253.205	10404.6
253.276	10468.33
253.347	10526.67
253.417	10516.07
253.488	10498.77
253.558	10495.01
253.629	10491.59
253.699	10504.36
253.77	10529.85
253.841	10527.68
253.911	10534.04
253.982	10554.9
254.052	10573.26
254.123	10579.82
254.193	10580.97
254.264	10695.13
254.334	10665.88
254.405	10641.4
254.475	10620.11
254.546	10629.79
254.616	10688.28
254.687	10713.86
254.757	10721.81
254.827	10724.27
254.898	10747.11
254.968	10752.26
255.039	10737.91
255.109	10771.39
255.18	10747.49
255.25	10687.8
255.321	10707.74
255.391	10674.45
255.461	10737.04
255.532	10674.87
255.602	10669.76
255.673	10625.25
255.743	10596.04
255.813	10540.49
255.884	10575.86
255.954	10601.11
256.024	10645.58
256.095	10644.23
256.165	10613.64
256.235	10638.94
256.306	10626.75
256.376	10657.64
256.446	10690.12
256.517	10712.57
256.587	10750.21
256.657	10771.94
256.728	10794.1
256.798	10798.58
256.868	10802
256.938	10781.57
257.009	10816.26
257.079	10835.78
257.149	10914.56
257.219	10863.91
257.29	10893.73
257.36	10849.26
257.43	10883.86
257.5	10834.42
257.571	10835.19
257.641	10870.32
257.711	10837.02
257.781	10856.19
257.852	10874.94
257.922	10827.57
257.992	10837.36
258.062	10824.63
258.132	10856.01
258.202	10865.5
258.273	10881.79
258.343	10937.93
258.413	10926.99
258.483	10936.39
258.553	10917.4
258.623	10896.97
258.693	10921.06
258.764	10972.23
258.834	11030.63
258.904	11036.61
258.974	11026.68
259.044	11037.72
259.114	11056.9
259.184	11081.53
259.254	11093.57
259.324	11050.73
259.394	11094.39
259.464	11156.41
259.535	11164.99
259.605	11158.77
259.675	11147.79
259.745	11172.71
259.815	11154.92
259.885	11160.22
259.955	11239.66
260.025	11235.03
260.095	11246.99
260.165	11269.88
260.235	11324.44
260.305	11317.35
260.375	11299.43
260.445	11381.25
260.515	11425.69
260.585	11468.1
260.655	11477.12
260.725	11508.83
260.795	11535.81
260.865	11588.79
260.934	11560.2
261.004	11580.3
261.074	11578.81
261.144	11632.92
261.214	11660.64
261.284	11663.53
261.354	11690.52
261.424	11663.62
261.494	11717.69
261.564	11724.78
261.634	11756.64
261.703	11694.7
261.773	11715.95
261.843	11740.92
261.913	11730.75
261.983	11687.95
262.053	11694.51
262.123	11694.36
262.192	11669.4
262.262	11707.72
262.332	11667.37
262.402	11694.41
262.472	11698.41
262.541	11661.84
262.611	11700.35
262.681	11681.07
262.751	11713.84
262.821	11720.4
262.89	11686.27
262.96	11716.06
263.03	11781.18
263.1	11796.32
263.169	11826.2
263.239	11854.44
263.309	11910.07
263.379	11931.42
263.448	11955.47
263.518	11986.76
263.588	11997.94
263.657	12055.44
263.727	12081.04
263.797	12092.03
263.867	12095.21
263.936	12067.88
264.006	12114.67
264.076	12105.32
264.145	12112.79
264.215	12088.88
