Data from 20250626_urea_1M_exp2_MAYP1162681_22-53-58-954.txt Node
Date: Thu Jun 26 22:53:58 BST 2025
User: adleo
Spectrometer: MAYP116268
Trigger mode: 0
Integration Time (sec): 3.000000E0
Scans to average: 1
Electric dark correction enabled: true
Nonlinearity correction enabled: true
Boxcar width: 10
XAxis mode: Wavelengths
Number of Pixels in Spectrum: 2068
>>>>>Begin Spectral Data<<<<<
179.565	2867.75
179.642	3016.51
179.718	3132.11
179.795	3245.41
179.871	3330.87
179.948	3380.85
180.024	3439.48
180.101	3500.25
180.177	3533.48
180.254	3590.36
180.33	3645.75
180.407	3842.97
180.483	4070.5
180.56	4297.15
180.636	4509.36
180.712	4484.23
180.789	4505.48
180.865	4542.25
180.942	4565.4
181.018	4585.41
181.095	4621.75
181.171	4631.99
181.248	4637.06
181.324	4674.65
181.4	4683.41
181.477	4711.37
181.553	4738.97
181.63	4789.68
181.706	4826.17
181.782	4852.96
181.859	4854.87
181.935	4873.07
182.011	4865.98
182.088	4905.02
182.164	4953.85
182.24	4981.94
182.317	5005.07
182.393	5001.48
182.469	5036.53
182.546	5073.36
182.622	5090.08
182.698	5082.55
182.775	5117.62
182.851	5147.26
182.927	5130.5
183.003	5122.69
183.08	5103.88
183.156	5131.94
183.232	5128.44
183.308	5105.55
183.385	5123.98
183.461	5168.54
183.537	5167.77
183.613	5200.2
183.69	5176.11
183.766	5146.82
183.842	5170.34
183.918	5184.91
183.995	5213.74
184.071	5220.5
184.147	5205.84
184.223	5176.88
184.299	5206.07
184.375	5175.17
184.452	5194.01
184.528	5297.88
184.604	5327.53
184.68	5367.1
184.756	5383.87
184.832	5389.67
184.908	5402.51
184.985	5404.09
185.061	5363.84
185.137	5386.03
185.213	5355.22
185.289	5357.38
185.365	5340.14
185.441	5332.13
185.517	5370.16
185.593	5362.21
185.669	5353
185.745	5378.6
185.822	5423.13
185.898	5399.98
185.974	5425.79
186.05	5406.57
186.126	5339.02
186.202	5320.96
186.278	5301.99
186.354	5281.23
186.43	5297.1
186.506	5291.5
186.582	5291.55
186.658	5310.99
186.734	5260.94
186.81	5268.36
186.886	5280.15
186.962	5310.04
187.038	5300.41
187.114	5275.32
187.19	5295.79
187.266	5272.32
187.341	5274.23
187.417	5253.39
187.493	5253.87
187.569	5263.55
187.645	5246.02
187.721	5221.33
187.797	5239.63
187.873	5256.36
187.949	5241.27
188.025	5224.73
188.101	5232.63
188.176	5242.26
188.252	5228.8
188.328	5250.78
188.404	5247.71
188.48	5233.58
188.556	5213.79
188.632	5212.45
188.707	5211.63
188.783	5205.26
188.859	5195.78
188.935	5169.37
189.011	5191.03
189.086	5174.12
189.162	5152.6
189.238	5149.63
189.314	5141.59
189.39	5127.5
189.465	5106.8
189.541	5147.72
189.617	5109.45
189.693	5096.04
189.768	5109.13
189.844	5172.99
189.92	5150.16
189.996	5172.96
190.071	5198.4
190.147	5198.88
190.223	5225.19
190.298	5207.6
190.374	5173.07
190.45	5205.1
190.526	5225.9
190.601	5212.68
190.677	5216.08
190.753	5288.26
190.828	5298.27
190.904	5337.96
190.98	5377.5
191.055	5409.14
191.131	5385.12
191.207	5439.16
191.282	5461.68
191.358	5431.73
191.433	5395.99
191.509	5430.52
191.585	5424
191.66	5430.37
191.736	5455.44
191.811	5429.75
191.887	5471.75
191.963	5534.34
192.038	5544.27
192.114	5543.12
192.189	5555.86
192.265	5546.86
192.34	5484.88
192.416	5480.72
192.491	5465.56
192.567	5468.82
192.642	5477.84
192.718	5478.7
192.793	5450.85
192.869	5443.81
192.944	5450.85
193.02	5465.62
193.095	5475.59
193.171	5494.33
193.246	5493.23
193.322	5484.55
193.397	5486.9
193.473	5453.38
193.548	5410.18
193.624	5426.39
193.699	5426.63
193.775	5465.14
193.85	5473.52
193.925	5498.35
194.001	5499.45
194.076	5478.27
194.152	5455.35
194.227	5432.09
194.302	5409.1
194.378	5414.28
194.453	5402.98
194.529	5439.41
194.604	5400.34
194.679	5388.8
194.755	5334.52
194.83	5367.04
194.905	5360.91
194.981	5386.98
195.056	5366.91
195.131	5382.25
195.207	5373.66
195.282	5343.38
195.357	5291.59
195.433	5327.39
195.508	5293.41
195.583	5311.66
195.659	5350.01
195.734	5361.9
195.809	5359.22
195.884	5383.93
195.96	5382.26
196.035	5426.11
196.11	5417.91
196.185	5450.45
196.261	5457.01
196.336	5536
196.411	5495.61
196.486	5505.77
196.561	5487.03
196.637	5511.99
196.712	5552.33
196.787	5559.96
196.862	5601.12
196.937	5625.13
197.013	5642.36
197.088	5671.83
197.163	5725.23
197.238	5772.04
197.313	5774.48
197.388	5810.78
197.464	5888.95
197.539	5926.78
197.614	5906.79
197.689	5933.03
197.764	5971.03
197.839	6025.29
197.914	6012.96
197.989	6075.14
198.065	6115.77
198.14	6247.02
198.215	6314.54
198.29	6345.46
198.365	6384.05
198.44	6414.67
198.515	6483.12
198.59	6521.53
198.665	6593.25
198.74	6615.92
198.815	6619
198.89	6682.9
198.965	6755.29
199.04	6744.29
199.115	6780.35
199.19	6888.57
199.265	6896.78
199.34	6928.48
199.415	7012.64
199.49	7061.62
199.565	7079.53
199.64	7140.6
199.715	7129.44
199.79	7140.3
199.865	7153.32
199.94	7146.21
200.015	7228.78
200.09	7249.11
200.165	7265.54
200.24	7279.63
200.315	7375.73
200.39	7415.05
200.464	7422.26
200.539	7427.79
200.614	7465.32
200.689	7529.93
200.764	7548.88
200.839	7591.83
200.914	7603.79
200.989	7574.89
201.063	7624.31
201.138	7582.62
201.213	7581.85
201.288	7532.97
201.363	7550.56
201.438	7553.11
201.512	7596.64
201.587	7546.63
201.662	7553.61
201.737	7581.59
201.812	7604.72
201.886	7525.38
201.961	7551.26
202.036	7519.79
202.111	7506.96
202.186	7431.94
202.26	7380.44
202.335	7326.6
202.41	7310.36
202.485	7267.21
202.559	7220.51
202.634	7144.96
202.709	7170.6
202.784	7119.62
202.858	7120.19
202.933	7067.25
203.008	7048.94
203.082	6993.13
203.157	6996.83
203.232	6891.15
203.306	6833.34
203.381	6745.22
203.456	6679.95
203.53	6615.9
203.605	6569.07
203.68	6516.08
203.754	6499.73
203.829	6461.4
203.904	6404.66
203.978	6377.76
204.053	6388.38
204.127	6351.13
204.202	6344.36
204.277	6295.41
204.351	6276.31
204.426	6249.27
204.5	6230.75
204.575	6136.34
204.65	6161.45
204.724	6132.1
204.799	6151.09
204.873	6143.94
204.948	6141.83
205.022	6113.44
205.097	6090.96
205.171	6127.04
205.246	6138.46
205.32	6139.95
205.395	6137.79
205.469	6114.97
205.544	6123.13
205.618	6074.85
205.693	6106.67
205.767	6072.37
205.842	6123.82
205.916	6111.97
205.991	6093.16
206.065	6109.43
206.14	6154.05
206.214	6143.1
206.289	6130.43
206.363	6159.27
206.438	6165.13
206.512	6185.24
206.586	6234.61
206.661	6260.01
206.735	6203.71
206.81	6212.35
206.884	6247.9
206.958	6217.25
207.033	6259.83
207.107	6279
207.181	6359.28
207.256	6341.04
207.33	6392.67
207.405	6428.23
207.479	6470.33
207.553	6493.31
207.628	6449.42
207.702	6476.92
207.776	6460.74
207.851	6468.23
207.925	6508.44
207.999	6499.89
208.073	6491.69
208.148	6496.87
208.222	6459.03
208.296	6540.69
208.371	6578.32
208.445	6605.4
208.519	6680.34
208.593	6714.91
208.668	6705.64
208.742	6718.19
208.816	6724.14
208.89	6762
208.965	6757.48
209.039	6788.04
209.113	6825.17
209.187	6880.73
209.261	6874.82
209.336	6926.5
209.41	6979.45
209.484	6980.65
209.558	7036.62
209.632	7070.86
209.707	7099.25
209.781	7159.83
209.855	7198.91
209.929	7246.48
210.003	7265.37
210.077	7259.26
210.151	7378.13
210.226	7470.36
210.3	7537.62
210.374	7600.61
210.448	7607.34
210.522	7635.56
210.596	7657.54
210.67	7683.69
210.744	7809.64
210.818	7888.69
210.892	7943.95
210.966	7921.69
211.041	7959.2
211.115	7954.83
211.189	8015.85
211.263	8064.27
211.337	8079.8
211.411	8119.97
211.485	8101.68
211.559	8132.89
211.633	8143.89
211.707	8068.14
211.781	8086.34
211.855	7992.54
211.929	7965.05
212.003	7923.34
212.077	7945.27
212.151	7974.19
212.225	7996.5
212.299	7960.84
212.373	7934.73
212.447	7924.14
212.52	7999.07
212.594	8007.87
212.668	8033.5
212.742	7997.24
212.816	7988
212.89	7976.41
212.964	7969.24
213.038	7980.93
213.112	8005.86
213.186	8038.74
213.26	7980.11
213.333	7856.67
213.407	7866.52
213.481	7877
213.555	7902.56
213.629	7871
213.703	7824.54
213.777	7816.65
213.85	7761.68
213.924	7842.36
213.998	7833.65
214.072	7817
214.146	7777.66
214.219	7766.31
214.293	7754.01
214.367	7748.43
214.441	7767.28
214.515	7728.56
214.588	7653.64
214.662	7557.12
214.736	7499.15
214.81	7512.02
214.883	7533.44
214.957	7500.92
215.031	7460.57
215.105	7390.66
215.178	7343.07
215.252	7311.45
215.326	7238.6
215.4	7177.65
215.473	7040.62
215.547	6975.01
215.621	6921.59
215.694	6918.03
215.768	6845.77
215.842	6795.77
215.915	6741.65
215.989	6655.74
216.063	6615.99
216.136	6603.27
216.21	6592.18
216.284	6600.63
216.357	6585.5
216.431	6550.74
216.504	6543.73
216.578	6586.96
216.652	6596.31
216.725	6583.11
216.799	6595.02
216.873	6575.1
216.946	6582.59
217.02	6552.7
217.093	6534.02
217.167	6462.73
217.24	6402.26
217.314	6375.21
217.387	6340.71
217.461	6306.05
217.535	6320.84
217.608	6270.4
217.682	6254.6
217.755	6263
217.829	6218.26
217.902	6206.45
217.976	6192
218.049	6160.71
218.123	6098.24
218.196	6098.62
218.27	6069.68
218.343	6012.55
218.417	6018.11
218.49	5999.55
218.563	6035.19
218.637	6040.76
218.71	6096.34
218.784	6117.13
218.857	6140.63
218.931	6157.32
219.004	6163.65
219.077	6178.16
219.151	6193.79
219.224	6184.58
219.298	6175.46
219.371	6213.05
219.444	6178.84
219.518	6184.55
219.591	6198.71
219.665	6283.97
219.738	6295.34
219.811	6283.21
219.885	6316.95
219.958	6339.03
220.031	6343.01
220.105	6356.7
220.178	6362.75
220.251	6342.58
220.325	6361.41
220.398	6373.74
220.471	6390.78
220.544	6416.32
220.618	6398.12
220.691	6421.16
220.764	6438.77
220.838	6459.51
220.911	6446.59
220.984	6510.91
221.057	6541.29
221.131	6561.36
221.204	6484.92
221.277	6536.12
221.35	6632.6
221.424	6633.76
221.497	6645.38
221.57	6664.52
221.643	6687.25
221.716	6723.71
221.79	6727.93
221.863	6736.1
221.936	6746.09
222.009	6752.52
222.082	6779.62
222.155	6794.65
222.229	6838.71
222.302	6857.58
222.375	6870.21
222.448	6901.39
222.521	6907.44
222.594	6908.5
222.667	6885.75
222.74	6934.16
222.814	6927.33
222.887	6908.44
222.96	6949.18
223.033	6981.05
223.106	7000.15
223.179	7028.61
223.252	7035.44
223.325	7056.76
223.398	7061.57
223.471	7083.09
223.544	7100.95
223.617	7109.32
223.69	7119.5
223.763	7096.34
223.837	7115.94
223.91	7139.34
223.983	7100.87
224.056	7075.08
224.129	7090.16
224.202	7137.12
224.275	7131.02
224.348	7106.81
224.42	7083.4
224.493	7041.08
224.566	7024.88
224.639	7043.37
224.712	7018.04
224.785	7009.14
224.858	7007.61
224.931	6995.31
225.004	6959.72
225.077	6958.08
225.15	6887.01
225.223	6894.07
225.296	6959.51
225.369	6911.72
225.442	6882.26
225.514	6896.57
225.587	6912.85
225.66	6921.65
225.733	6919
225.806	6918.04
225.879	6910.89
225.952	6887.12
226.025	6921.52
226.097	6958.49
226.17	6951.72
226.243	6902.54
226.316	6891.77
226.389	6893.5
226.461	6911.52
226.534	6928.09
226.607	6926.21
226.68	6990.42
226.753	6980.38
226.825	6912.53
226.898	6964.94
226.971	6973.68
227.044	6997.51
227.117	7004.43
227.189	7020.39
227.262	7051.15
227.335	7067.78
227.407	7074.26
227.48	7101.44
227.553	7106.82
227.626	7091.53
227.698	7098.74
227.771	7131
227.844	7123.36
227.916	7142.15
227.989	7114.67
228.062	7119.14
228.134	7184.22
228.207	7185.56
228.28	7179.8
228.352	7191.14
228.425	7196.76
228.498	7228.87
228.57	7207.16
228.643	7252.49
228.716	7252.59
228.788	7239.94
228.861	7237.35
228.934	7282.47
229.006	7286.7
229.079	7291.7
229.151	7286.94
229.224	7260.23
229.296	7283.1
229.369	7363.02
229.442	7401.25
229.514	7393.47
229.587	7429.08
229.659	7369.8
229.732	7381.05
229.804	7415.6
229.877	7476.39
229.949	7499.23
230.022	7529.24
230.094	7533.85
230.167	7522.5
230.239	7488.29
230.312	7477.28
230.384	7532.83
230.457	7532.3
230.529	7545.66
230.602	7544.94
230.674	7548.5
230.747	7580.35
230.819	7597.32
230.892	7503.28
230.964	7502.51
231.037	7525
231.109	7521.77
231.181	7556.09
231.254	7529.08
231.326	7512.83
231.399	7492.48
231.471	7464.16
231.544	7412.8
231.616	7447.83
231.688	7452.84
231.761	7446.78
231.833	7442.75
231.905	7373.64
231.978	7371.14
232.05	7355.24
232.122	7356.97
232.195	7338.99
232.267	7363.94
232.339	7347.16
232.412	7401.51
232.484	7382.61
232.556	7360.99
232.629	7405.53
232.701	7418.32
232.773	7425.38
232.846	7420.19
232.918	7424.14
232.99	7438.66
233.062	7467.84
233.135	7475.29
233.207	7447.69
233.279	7479.98
233.351	7502.81
233.424	7504.59
233.496	7488.2
233.568	7554.36
233.64	7524.56
233.713	7537.78
233.785	7537.69
233.857	7549.17
233.929	7506.5
234.001	7547.68
234.074	7595.54
234.146	7541.53
234.218	7540.09
234.29	7539.13
234.362	7530.96
234.434	7494.08
234.507	7470.24
234.579	7431.97
234.651	7418.51
234.723	7440.58
234.795	7452.98
234.867	7445.62
234.939	7493.85
235.012	7505.19
235.084	7502.79
235.156	7534.02
235.228	7518.21
235.3	7505.52
235.372	7520.86
235.444	7573.97
235.516	7516.2
235.588	7515.14
235.66	7531.49
235.732	7508.36
235.804	7657.65
235.876	7696.19
235.948	7750.01
236.02	7757.94
236.092	7771.73
236.164	7777.98
236.236	7777.84
236.308	7773.03
236.38	7798.56
236.452	7780.57
236.524	7797.74
236.596	7850.16
236.668	7881.23
236.74	7906.9
236.812	7929.98
236.884	7947.59
236.956	7951.72
237.028	7950.66
237.1	7945.38
237.172	7994.4
237.244	8051.15
237.316	7962.98
237.388	7945.05
237.46	7921.19
237.532	7971.4
237.604	7963.52
237.675	8021.97
237.747	8062.66
237.819	8055.93
237.891	8062.09
237.963	8055.55
238.035	8050.79
238.107	7965.33
238.178	8011.77
238.25	8011.58
238.322	8080.79
238.394	8051.26
238.466	8047.55
238.538	8074.96
238.609	8107.57
238.681	8070.96
238.753	8056.66
238.825	8077.12
238.897	8102.26
238.968	8166.95
239.04	8150.59
239.112	8239.48
239.184	8209.21
239.255	8198.19
239.327	8223.92
239.399	8235.42
239.471	8273.85
239.542	8304.87
239.614	8354.37
239.686	8293.35
239.758	8335.73
239.829	8301.65
239.901	8353.85
239.973	8367.85
240.044	8397.96
240.116	8404.46
240.188	8412.88
240.259	8428.03
240.331	8417.11
240.403	8446.93
240.474	8413.04
240.546	8407.61
240.618	8357.18
240.689	8352.75
240.761	8370.32
240.833	8429.32
240.904	8432.97
240.976	8425.95
241.048	8441.83
241.119	8478.22
241.191	8510.75
241.262	8565.01
241.334	8576.75
241.405	8579.4
241.477	8589.03
241.549	8590.47
241.62	8616.41
241.692	8654.95
241.763	8697.6
241.835	8715.94
241.906	8730.38
241.978	8708.01
242.049	8759.55
242.121	8809.88
242.192	8868.4
242.264	8840.35
242.335	8797.95
242.407	8831.64
242.478	8841.26
242.55	8852.04
242.621	8833.22
242.693	8828.21
242.764	8813.38
242.836	8813.28
242.907	8831.29
242.979	8851.21
243.05	8873.26
243.122	8888.86
243.193	8885.25
243.264	8829.89
243.336	8830.13
243.407	8857.67
243.479	8917.4
243.55	8928.96
243.622	8939.69
243.693	8935.07
243.764	8996.3
243.836	8983.59
243.907	8974.16
243.978	8985.56
244.05	9008.29
244.121	8971.38
244.192	9010.03
244.264	8974.5
244.335	8988.08
244.407	8954.05
244.478	8961.51
244.549	8951.54
244.62	8916.36
244.692	8919.82
244.763	8952.31
244.834	8947.01
244.906	8920.48
244.977	8932.52
245.048	8979.1
245.119	8968.89
245.191	8951.75
245.262	8898.47
245.333	8953.33
245.405	8970.61
245.476	8991.8
245.547	9001.04
245.618	9047.78
245.689	9051.68
245.761	9080.47
245.832	9080.9
245.903	9118.11
245.974	9146.61
246.045	9158.26
246.117	9228.75
246.188	9211.33
246.259	9208.39
246.33	9219.46
246.401	9233.62
246.473	9211.22
246.544	9196.97
246.615	9236.4
246.686	9247.14
246.757	9311.07
246.828	9294.03
246.899	9342.24
246.97	9316.73
247.042	9309.5
247.113	9335.99
247.184	9405.21
247.255	9405.36
247.326	9433.05
247.397	9438.44
247.468	9445.09
247.539	9456.74
247.61	9411.91
247.681	9453.83
247.752	9492.21
247.823	9471.27
247.894	9486.15
247.965	9466.99
248.037	9454.42
248.108	9414.4
248.179	9413.63
248.25	9400.05
248.321	9423.64
248.392	9396.33
248.463	9463.6
248.534	9465.23
248.605	9482.96
248.675	9464.89
248.746	9481.12
248.817	9485.31
248.888	9493.78
248.959	9450.88
249.03	9464.8
249.101	9470.53
249.172	9454.54
249.243	9396.97
249.314	9450.7
249.385	9454.12
249.456	9478.43
249.527	9470.68
249.598	9489.74
249.669	9486.71
249.739	9499.81
249.81	9507.37
249.881	9469.57
249.952	9458.83
250.023	9450.88
250.094	9406.91
250.165	9373.58
250.235	9359.42
250.306	9365.25
250.377	9340.21
250.448	9362.02
250.519	9322.68
250.59	9373.2
250.66	9374.21
250.731	9427.26
250.802	9422.16
250.873	9440.89
250.944	9449.9
251.014	9448.55
251.085	9513.63
251.156	9540.93
251.227	9581.01
251.297	9631.35
251.368	9666.93
251.439	9693.66
251.51	9741.3
251.58	9729.75
251.651	9731.67
251.722	9778.3
251.792	9744.54
251.863	9751.23
251.934	9798.09
252.005	9881.08
252.075	9886.95
252.146	9919.6
252.217	9959.68
252.287	9995.52
252.358	9998.75
252.429	10063.01
252.499	10055.55
252.57	10065.33
252.641	10097.55
252.711	10098.95
252.782	10054.29
252.852	10119.29
252.923	10116.93
252.994	10122.22
253.064	10169.9
253.135	10154.58
253.205	10141.82
253.276	10194.08
253.347	10244.75
253.417	10225.91
253.488	10211.21
253.558	10205.96
253.629	10208.23
253.699	10215.36
253.77	10236.41
253.841	10227.74
253.911	10232.8
253.982	10249.18
254.052	10275.11
254.123	10288.31
254.193	10291.05
254.264	10396.43
254.334	10367.71
254.405	10347.91
254.475	10326.96
254.546	10331.97
254.616	10381.87
254.687	10399.41
254.757	10416.85
254.827	10420.66
254.898	10443.59
254.968	10449.95
255.039	10430.58
255.109	10459.54
255.18	10436.84
255.25	10382.31
255.321	10413.33
255.391	10377.05
255.461	10444.31
255.532	10378.48
255.602	10367.69
255.673	10332.23
255.743	10309.87
255.813	10255.68
255.884	10297.16
255.954	10326.7
256.024	10372.52
256.095	10373.77
256.165	10353.54
256.235	10371.85
256.306	10353.5
256.376	10388.82
256.446	10418.45
256.517	10453.95
256.587	10497.85
256.657	10514.76
256.728	10528.68
256.798	10531.48
256.868	10540.68
256.938	10518.22
257.009	10557.59
257.079	10580.62
257.149	10652.51
257.219	10604.66
257.29	10635.72
257.36	10586.77
257.43	10618.63
257.5	10573.67
257.571	10567.31
257.641	10588.99
257.711	10560.51
257.781	10589.76
257.852	10596.5
257.922	10551.88
257.992	10548.71
258.062	10535.93
258.132	10574.19
258.202	10579.16
258.273	10587.11
258.343	10644.64
258.413	10628.26
258.483	10629.52
258.553	10606.39
258.623	10587.16
258.693	10610.1
258.764	10662.52
258.834	10714.98
258.904	10725.87
258.974	10715.56
259.044	10732.04
259.114	10761.15
259.184	10782.25
259.254	10787.5
259.324	10752.09
259.394	10784.9
259.464	10846.1
259.535	10854.58
259.605	10847.74
259.675	10851.3
259.745	10884.31
259.815	10861.9
259.885	10868.65
259.955	10960.32
260.025	10958.93
260.095	10967.94
260.165	10988.03
260.235	11036.09
260.305	11033
260.375	11006.35
260.445	11089.76
260.515	11133.57
260.585	11169.52
260.655	11180.03
260.725	11215.06
260.795	11243.83
260.865	11298.97
260.934	11276.02
261.004	11294.39
261.074	11297.9
261.144	11342.77
261.214	11367.83
261.284	11370.86
261.354	11402.67
261.424	11360.54
261.494	11416.29
261.564	11422.75
261.634	11447.09
261.703	11398.21
261.773	11410.7
261.843	11441.11
261.913	11427.37
261.983	11391.99
262.053	11411.56
262.123	11410.55
262.192	11380.38
262.262	11414.46
262.332	11373.64
262.402	11400.05
262.472	11409.88
262.541	11366.32
262.611	11403.1
262.681	11389.31
262.751	11422.09
262.821	11428.11
262.89	11408.59
262.96	11424.69
263.03	11487.39
263.1	11505.18
263.169	11525.9
263.239	11558
263.309	11605.34
263.379	11624.18
263.448	11634.59
263.518	11644.91
263.588	11657.68
263.657	11714.79
263.727	11740.77
263.797	11756.38
263.867	11753.35
263.936	11734.12
264.006	11779.51
264.076	11772.04
264.145	11773.67
264.215	11752.23
264.285	11783.6
