Data from 20250626_urea_1M_exp2_MAYP1162681_06-53-59-637.txt Node
Date: Fri Jun 27 06:53:59 BST 2025
User: adleo
Spectrometer: MAYP116268
Trigger mode: 0
Integration Time (sec): 3.000000E0
Scans to average: 1
Electric dark correction enabled: true
Nonlinearity correction enabled: true
Boxcar width: 10
XAxis mode: Wavelengths
Number of Pixels in Spectrum: 2068
>>>>>Begin Spectral Data<<<<<
179.565	2889.94
179.642	3037.95
179.718	3145.66
179.795	3253.4
179.871	3341.09
179.948	3390.32
180.024	3445.1
180.101	3506.96
180.177	3545.6
180.254	3602.29
180.33	3659.98
180.407	3857.54
180.483	4080.87
180.56	4307.7
180.636	4515.9
180.712	4486.31
180.789	4509.95
180.865	4540.93
180.942	4562.75
181.018	4585.15
181.095	4619.23
181.171	4634.74
181.248	4637.75
181.324	4682.48
181.4	4696.46
181.477	4725.28
181.553	4755.23
181.63	4812.07
181.706	4849.18
181.782	4871.38
181.859	4874.49
181.935	4892.69
182.011	4882.87
182.088	4928.27
182.164	4978.88
182.24	5011.57
182.317	5030.77
182.393	5024.73
182.469	5061.27
182.546	5096.48
182.622	5111.37
182.698	5100.83
182.775	5134.17
182.851	5169.43
182.927	5146
183.003	5137.43
183.08	5119.91
183.156	5149.12
183.232	5136.71
183.308	5110.85
183.385	5131.48
183.461	5176.76
183.537	5178.63
183.613	5213.75
183.69	5189.45
183.766	5164.28
183.842	5181.63
183.918	5197.25
183.995	5231.64
184.071	5242.18
184.147	5226.56
184.223	5198.17
184.299	5235.08
184.375	5207.48
184.452	5225.56
184.528	5336.24
184.604	5364.02
184.68	5396.64
184.756	5416.83
184.832	5429.1
184.908	5441.12
184.985	5442.03
185.061	5400.29
185.137	5422.15
185.213	5387.94
185.289	5393.64
185.365	5371.61
185.441	5371.03
185.517	5404.31
185.593	5395.54
185.669	5384.95
185.745	5411.74
185.822	5456.09
185.898	5434.56
185.974	5453.29
186.05	5428.69
186.126	5361.33
186.202	5342.75
186.278	5331.44
186.354	5304.5
186.43	5324.64
186.506	5321.57
186.582	5319.08
186.658	5337.38
186.734	5285.78
186.81	5295.36
186.886	5302.45
186.962	5332.73
187.038	5324.05
187.114	5303.67
187.19	5321.6
187.266	5297.31
187.341	5296.97
187.417	5273.26
187.493	5271.25
187.569	5281.93
187.645	5265.93
187.721	5236.31
187.797	5254.99
187.873	5269.9
187.949	5253.8
188.025	5235.34
188.101	5244.01
188.176	5252.68
188.252	5238.17
188.328	5258.04
188.404	5256.55
188.48	5245.77
188.556	5222.82
188.632	5225.65
188.707	5229.44
188.783	5224.79
188.859	5214.11
188.935	5184.45
189.011	5207.59
189.086	5188.48
189.162	5170.03
189.238	5167.11
189.314	5161.6
189.39	5149.19
189.465	5130.4
189.541	5168.88
189.617	5129.12
189.693	5113.32
189.768	5127.07
189.844	5193.09
189.92	5169.83
189.996	5196.04
190.071	5218.99
190.147	5223.11
190.223	5243.62
190.298	5225.26
190.374	5189.19
190.45	5220.7
190.526	5243.6
190.601	5230.14
190.677	5234.21
190.753	5303.51
190.828	5314.44
190.904	5349.95
190.98	5388.01
191.055	5411.98
191.131	5394.96
191.207	5447.86
191.282	5473.29
191.358	5444.83
191.433	5406.03
191.509	5443.04
191.585	5433.21
191.66	5440.07
191.736	5461.2
191.811	5431.39
191.887	5471.53
191.963	5537.53
192.038	5550.19
192.114	5555.32
192.189	5569.6
192.265	5568.74
192.34	5510.74
192.416	5506.81
192.491	5498.18
192.567	5506.14
192.642	5512.81
192.718	5511.95
192.793	5481.12
192.869	5474.56
192.944	5485.24
193.02	5502.88
193.095	5508.25
193.171	5523.88
193.246	5519.13
193.322	5510.36
193.397	5520.23
193.473	5481.34
193.548	5434.01
193.624	5448.97
193.699	5445.14
193.775	5478.81
193.85	5476.56
193.925	5501.97
194.001	5498.62
194.076	5479.4
194.152	5447.46
194.227	5426.51
194.302	5407.06
194.378	5415.4
194.453	5404.24
194.529	5425.8
194.604	5389.33
194.679	5378.4
194.755	5329.92
194.83	5361.72
194.905	5356.64
194.981	5374.71
195.056	5358.33
195.131	5373.43
195.207	5365.42
195.282	5341.27
195.357	5293.31
195.433	5336.88
195.508	5306.34
195.583	5328.47
195.659	5365.1
195.734	5388.12
195.809	5390.23
195.884	5409.63
195.96	5412.65
196.035	5456.41
196.11	5453.87
196.185	5485.69
196.261	5488.95
196.336	5566.36
196.411	5528.18
196.486	5541.12
196.561	5521.85
196.637	5545.86
196.712	5586.44
196.787	5594.31
196.862	5637.69
196.937	5661.84
197.013	5675.13
197.088	5695.79
197.163	5753.23
197.238	5792.49
197.313	5786.64
197.388	5820.74
197.464	5898.57
197.539	5924.66
197.614	5902.03
197.689	5930.42
197.764	5972.08
197.839	6027.28
197.914	6014.23
197.989	6075.36
198.065	6113.88
198.14	6250.54
198.215	6316.1
198.29	6349.81
198.365	6388.69
198.44	6409.28
198.515	6482.54
198.59	6521.33
198.665	6590.74
198.74	6612.75
198.815	6618.08
198.89	6678.51
198.965	6755.62
199.04	6743.47
199.115	6785.28
199.19	6897.74
199.265	6913.05
199.34	6938.03
199.415	7021.8
199.49	7076.54
199.565	7096.76
199.64	7160.9
199.715	7148.54
199.79	7164.83
199.865	7175.5
199.94	7163.16
200.015	7243.7
200.09	7258.27
200.165	7274.46
200.24	7291.18
200.315	7384.26
200.39	7421.75
200.464	7438
200.539	7442.04
200.614	7480.24
200.689	7541.48
200.764	7555.67
200.839	7592.9
200.914	7606.84
200.989	7584.09
201.063	7619.33
201.138	7575.48
201.213	7570.82
201.288	7523.57
201.363	7533.04
201.438	7533.9
201.512	7579.16
201.587	7535.64
201.662	7544.97
201.737	7576.51
201.812	7603.34
201.886	7523.38
201.961	7549.79
202.036	7517.74
202.111	7506.73
202.186	7433.63
202.26	7389.69
202.335	7331.66
202.41	7314.99
202.485	7266.18
202.559	7213.99
202.634	7140.96
202.709	7171.25
202.784	7119.65
202.858	7117.3
202.933	7072.33
203.008	7055.22
203.082	7005.7
203.157	7004.59
203.232	6893.01
203.306	6832.84
203.381	6741.5
203.456	6682.28
203.53	6623.52
203.605	6573.71
203.68	6512.55
203.754	6498.02
203.829	6458.06
203.904	6401.23
203.978	6375.58
204.053	6391.91
204.127	6365.46
204.202	6358.98
204.277	6309.54
204.351	6293.85
204.426	6276.75
204.5	6260.62
204.575	6166.7
204.65	6194.12
204.724	6169.19
204.799	6190.71
204.873	6184.47
204.948	6183.32
205.022	6154.06
205.097	6130.81
205.171	6169.2
205.246	6189.46
205.32	6189.94
205.395	6187.78
205.469	6170.9
205.544	6184.11
205.618	6134.82
205.693	6155.89
205.767	6129.55
205.842	6181.44
205.916	6166.38
205.991	6140.65
206.065	6150.54
206.14	6199.67
206.214	6185.65
206.289	6165.34
206.363	6195
206.438	6202.35
206.512	6221.59
206.586	6268.52
206.661	6293.93
206.735	6231.39
206.81	6232.64
206.884	6271.17
206.958	6235.81
207.033	6277.97
207.107	6295.02
207.181	6380.64
207.256	6368.4
207.33	6418.31
207.405	6454.4
207.479	6502.16
207.553	6522.36
207.628	6481.25
207.702	6509
207.776	6487.54
207.851	6500.16
207.925	6543.4
207.999	6535.52
208.073	6528.66
208.148	6535
208.222	6503.54
208.296	6588.26
208.371	6633.15
208.445	6654.86
208.519	6734.55
208.593	6765.71
208.668	6755.52
208.742	6756.15
208.816	6762.68
208.89	6798.23
208.965	6792.46
209.039	6809.71
209.113	6852.27
209.187	6907.59
209.261	6898.18
209.336	6951.59
209.41	7002.42
209.484	7002.61
209.558	7059.84
209.632	7091.58
209.707	7122.67
209.781	7177.97
209.855	7218.97
209.929	7263.99
210.003	7283.79
210.077	7278.51
210.151	7403.48
210.226	7493.98
210.3	7569.23
210.374	7628.61
210.448	7635.44
210.522	7661.99
210.596	7695.5
210.67	7717.75
210.744	7838.13
210.818	7921.51
210.892	7980.95
210.966	7967.93
211.041	8006.01
211.115	7995.2
211.189	8063.77
211.263	8103.82
211.337	8122.87
211.411	8160.44
211.485	8142.39
211.559	8171.29
211.633	8179.46
211.707	8094.19
211.781	8111.23
211.855	8018.34
211.929	7995.84
212.003	7955.04
212.077	7981.27
212.151	8009.89
212.225	8033.65
212.299	8005.54
212.373	7970.1
212.447	7949.89
212.52	8024.78
212.594	8030.84
212.668	8059.84
212.742	8018.62
212.816	8006.5
212.89	7983.22
212.964	7978.56
213.038	7986.35
213.112	8017.24
213.186	8052.39
213.26	8002.17
213.333	7878.92
213.407	7888.54
213.481	7896.8
213.555	7921.64
213.629	7885.7
213.703	7839.62
213.777	7830.29
213.85	7770.17
213.924	7859.13
213.998	7854.9
214.072	7831.65
214.146	7792.31
214.219	7782.89
214.293	7771.11
214.367	7771.78
214.441	7795.2
214.515	7757.49
214.588	7679.93
214.662	7585.84
214.736	7523.5
214.81	7533.39
214.883	7553.57
214.957	7520.27
215.031	7477.76
215.105	7410.77
215.178	7365.59
215.252	7335.75
215.326	7260.97
215.4	7202.62
215.473	7055.16
215.547	6998.77
215.621	6944.58
215.694	6940.63
215.768	6864.62
215.842	6811.79
215.915	6757.86
215.989	6672.62
216.063	6631.29
216.136	6622.83
216.21	6605.45
216.284	6612.23
216.357	6591.58
216.431	6557.34
216.504	6554.6
216.578	6597.84
216.652	6604.03
216.725	6582.99
216.799	6597.02
216.873	6580.03
216.946	6586.89
217.02	6565.64
217.093	6539.04
217.167	6469.96
217.24	6411.36
217.314	6383.68
217.387	6353.7
217.461	6317.55
217.535	6335.45
217.608	6288.08
217.682	6271.56
217.755	6271.23
217.829	6234.79
217.902	6224.99
217.976	6211.46
218.049	6176.67
218.123	6112.32
218.196	6109.34
218.27	6079.64
218.343	6018.56
218.417	6025.47
218.49	6006.47
218.563	6038.81
218.637	6049.08
218.71	6106.06
218.784	6125.35
218.857	6148.48
218.931	6159.41
219.004	6164.21
219.077	6177.7
219.151	6194.3
219.224	6186.67
219.298	6188.4
219.371	6220.57
219.444	6192.27
219.518	6202.1
219.591	6214.19
219.665	6298.4
219.738	6309
219.811	6303.15
219.885	6337.08
219.958	6359.27
220.031	6363.68
220.105	6380.2
220.178	6380.1
220.251	6355.61
220.325	6373.76
220.398	6385.23
220.471	6400.73
220.544	6432.47
220.618	6418.44
220.691	6437.69
220.764	6453.48
220.838	6477.3
220.911	6469.47
220.984	6537.25
221.057	6563.17
221.131	6581.27
221.204	6509.25
221.277	6567.17
221.35	6665.72
221.424	6664.19
221.497	6673.65
221.57	6692.84
221.643	6717.16
221.716	6752.94
221.79	6758.61
221.863	6763.03
221.936	6772.15
222.009	6787.94
222.082	6810.19
222.155	6815.18
222.229	6863.14
222.302	6885.13
222.375	6889.94
222.448	6921.84
222.521	6920.15
222.594	6922.99
222.667	6902.44
222.74	6946.87
222.814	6942.11
222.887	6923.94
222.96	6956.65
223.033	6986.59
223.106	7004.79
223.179	7027.87
223.252	7037.58
223.325	7060.25
223.398	7079.47
223.471	7103.06
223.544	7122.12
223.617	7129.77
223.69	7146.34
223.763	7114.47
223.837	7128.12
223.91	7151.14
223.983	7107.91
224.056	7088.55
224.129	7108.2
224.202	7153.67
224.275	7143.19
224.348	7119.22
224.42	7094.61
224.493	7058.15
224.566	7041.43
224.639	7056.03
224.712	7031.32
224.785	7024.2
224.858	7016.28
224.931	6997.2
225.004	6965.11
225.077	6964.35
225.15	6896.44
225.223	6895.04
225.296	6960.57
225.369	6918.5
225.442	6893.65
225.514	6910.03
225.587	6922.8
225.66	6926.55
225.733	6925.74
225.806	6929.87
225.879	6922.38
225.952	6895.1
226.025	6929.78
226.097	6965.79
226.17	6963.49
226.243	6916.52
226.316	6908.97
226.389	6912.72
226.461	6927.95
226.534	6946.11
226.607	6939
226.68	6997.58
226.753	6995.66
226.825	6928.5
226.898	6973.36
226.971	6974.99
227.044	6988.59
227.117	6990.7
227.189	7003.1
227.262	7033.04
227.335	7047.7
227.407	7051.74
227.48	7080.07
227.553	7094.87
227.626	7084.53
227.698	7090.59
227.771	7126.27
227.844	7112.29
227.916	7132.18
227.989	7102.44
228.062	7103.3
228.134	7168.44
228.207	7175.21
228.28	7166.33
228.352	7182.9
228.425	7196.75
228.498	7232.65
228.57	7221.55
228.643	7271.11
228.716	7273.37
228.788	7261.93
228.861	7256.45
228.934	7303.84
229.006	7307.82
229.079	7309.79
229.151	7305.23
229.224	7279.14
229.296	7292.41
229.369	7373.28
229.442	7409.2
229.514	7402.29
229.587	7436.74
229.659	7370.65
229.732	7379.35
229.804	7412.03
229.877	7473.05
229.949	7491.47
230.022	7531.11
230.094	7528.9
230.167	7519.86
230.239	7488.33
230.312	7477.9
230.384	7531.14
230.457	7522.72
230.529	7532.67
230.602	7531.03
230.674	7531.76
230.747	7562.26
230.819	7588.89
230.892	7497.21
230.964	7500.48
231.037	7521.81
231.109	7513.92
231.181	7553.62
231.254	7528.19
231.326	7521.65
231.399	7501.25
231.471	7478.03
231.544	7416.52
231.616	7453.19
231.688	7457.42
231.761	7448.53
231.833	7443.68
231.905	7388.66
231.978	7390.01
232.05	7374.16
232.122	7374.49
232.195	7356.37
232.267	7383.96
232.339	7362.9
232.412	7416.25
232.484	7389.51
232.556	7367.22
232.629	7420.7
232.701	7428.25
232.773	7433.78
232.846	7425.99
232.918	7433.88
232.99	7448.16
233.062	7481.04
233.135	7488.83
233.207	7461.43
233.279	7495.59
233.351	7517.12
233.424	7516.35
233.496	7497.08
233.568	7566.51
233.64	7535.41
233.713	7551.23
233.785	7551.51
233.857	7564.01
233.929	7521.57
234.001	7580.41
234.074	7632.84
234.146	7576.95
234.218	7581.81
234.29	7584.31
234.362	7574.5
234.434	7531.75
234.507	7509.49
234.579	7472
234.651	7458.2
234.723	7487.14
234.795	7505.36
234.867	7504.6
234.939	7552.1
235.012	7565.85
235.084	7569.31
235.156	7602.86
235.228	7587.14
235.3	7569.11
235.372	7581.33
235.444	7633.34
235.516	7567.82
235.588	7569.26
235.66	7581.66
235.732	7557.38
235.804	7711.92
235.876	7746.82
235.948	7799.91
236.02	7808.76
236.092	7819.91
236.164	7826.49
236.236	7821.92
236.308	7813.08
236.38	7832.31
236.452	7813.55
236.524	7829.61
236.596	7875.49
236.668	7901.79
236.74	7924.29
236.812	7952.42
236.884	7977.58
236.956	7982.78
237.028	7978.6
237.1	7966.62
237.172	8021.75
237.244	8084.91
237.316	7993.94
237.388	7978.89
237.46	7962.63
237.532	8017.28
237.604	8011.84
237.675	8071.93
237.747	8100.31
237.819	8093.1
237.891	8095.6
237.963	8088.63
238.035	8090.41
238.107	8006.87
238.178	8054.66
238.25	8057.74
238.322	8123.77
238.394	8093.08
238.466	8089.19
238.538	8120.01
238.609	8155.98
238.681	8124.03
238.753	8108.1
238.825	8117.73
238.897	8148.55
238.968	8212.32
239.04	8191.34
239.112	8278.31
239.184	8249.49
239.255	8250.02
239.327	8279.11
239.399	8296.77
239.471	8331.59
239.542	8363.92
239.614	8415.78
239.686	8351.05
239.758	8391.37
239.829	8364.75
239.901	8413.53
239.973	8426.67
240.044	8453.08
240.116	8457.22
240.188	8463.13
240.259	8470.93
240.331	8467.42
240.403	8494.65
240.474	8458.4
240.546	8445.94
240.618	8394.26
240.689	8389.16
240.761	8411.29
240.833	8460.77
240.904	8466.16
240.976	8466.3
241.048	8473.37
241.119	8503.7
241.191	8545.32
241.262	8600.45
241.334	8604.64
241.405	8605.02
241.477	8609.98
241.549	8622.4
241.62	8655.08
241.692	8691.51
241.763	8731.89
241.835	8745.66
241.906	8755.53
241.978	8735.56
242.049	8791.67
242.121	8847.49
242.192	8902.98
242.264	8872.23
242.335	8833.2
242.407	8868.29
242.478	8872.38
242.55	8892.02
242.621	8880.89
242.693	8873.53
242.764	8863.17
242.836	8863.7
242.907	8892.21
242.979	8921.9
243.05	8938.85
243.122	8951.75
243.193	8949.2
243.264	8904.34
243.336	8910.31
243.407	8937.22
243.479	9001.48
243.55	9015.83
243.622	9021.9
243.693	9022.67
243.764	9083.51
243.836	9076.1
243.907	9065.9
243.978	9072.39
244.05	9083.47
244.121	9051.07
244.192	9086.69
244.264	9048.27
244.335	9062.86
244.407	9019.87
244.478	9033.16
244.549	9024.06
244.62	8988.97
244.692	8984.11
244.763	9011.54
244.834	9006.44
244.906	8988.05
244.977	8996.72
245.048	9040.55
245.119	9030.63
245.191	9009.98
245.262	8958.13
245.333	9010.3
245.405	9028.12
245.476	9053.15
245.547	9068.94
245.618	9102.97
245.689	9112.41
245.761	9141.68
245.832	9141.83
245.903	9177.4
245.974	9194.88
246.045	9205.81
246.117	9279.24
246.188	9268.55
246.259	9263.64
246.33	9278.57
246.401	9289.54
246.473	9262.62
246.544	9245.67
246.615	9283.52
246.686	9297.67
246.757	9355.49
246.828	9342.68
246.899	9396.63
246.97	9372.32
247.042	9368.42
247.113	9410.41
247.184	9481.09
247.255	9481.33
247.326	9505.98
247.397	9513.59
247.468	9524.24
247.539	9535.12
247.61	9489.61
247.681	9524.75
247.752	9565.82
247.823	9540.65
247.894	9554.42
247.965	9536.22
248.037	9523.98
248.108	9488.11
248.179	9487.19
248.25	9477.75
248.321	9497.35
248.392	9458.38
248.463	9527.09
248.534	9528.92
248.605	9536.68
248.675	9516.29
248.746	9529.1
248.817	9538.26
248.888	9553.43
248.959	9507.01
249.03	9526.9
249.101	9532.72
249.172	9519.53
249.243	9457.91
249.314	9510.49
249.385	9517.91
249.456	9543.76
249.527	9543.9
249.598	9560.52
249.669	9557.05
249.739	9568.7
249.81	9590.42
249.881	9556.62
249.952	9547.23
250.023	9542.85
250.094	9505.08
250.165	9476.66
250.235	9467.51
250.306	9475.75
250.377	9451.28
250.448	9480.27
250.519	9430.72
250.59	9480.67
250.66	9484.18
250.731	9542.82
250.802	9541.85
250.873	9557.99
250.944	9571.28
251.014	9559.82
251.085	9626.34
251.156	9652.3
251.227	9690.59
251.297	9722.63
251.368	9764.09
251.439	9793.33
251.51	9833.65
251.58	9827.87
251.651	9825.85
251.722	9872.62
251.792	9837.46
251.863	9838.66
251.934	9883.56
252.005	9973.05
252.075	9985.72
252.146	10023.96
252.217	10060.42
252.287	10096.17
252.358	10101.13
252.429	10161.78
252.499	10156.97
252.57	10162.99
252.641	10199.07
252.711	10206.73
252.782	10175.95
252.852	10229.38
252.923	10227.35
252.994	10237.33
253.064	10274.03
253.135	10261.79
253.205	10247.44
253.276	10302.88
253.347	10359.43
253.417	10340.3
253.488	10324.5
253.558	10314.67
253.629	10317.89
253.699	10334.81
253.77	10354.56
253.841	10344.74
253.911	10355.19
253.982	10375.04
254.052	10405.35
254.123	10414.94
254.193	10418.65
254.264	10522.64
254.334	10504.04
254.405	10479.66
254.475	10460.53
254.546	10466.41
254.616	10516.51
254.687	10537.18
254.757	10552.79
254.827	10548.89
254.898	10568.88
254.968	10579.05
255.039	10565.18
255.109	10589.17
255.18	10566.96
255.25	10511.07
255.321	10544.6
255.391	10508.27
255.461	10576.54
255.532	10513.6
255.602	10502.14
255.673	10457.53
255.743	10423.35
255.813	10364.49
255.884	10403.8
255.954	10433.63
256.024	10481.09
256.095	10479.45
256.165	10453.05
256.235	10472.95
256.306	10463.8
256.376	10496.86
256.446	10526.39
256.517	10548.32
256.587	10588.31
256.657	10605.56
256.728	10624.44
256.798	10631.14
256.868	10630.56
256.938	10608.59
257.009	10646.46
257.079	10672.05
257.149	10755.74
257.219	10718.11
257.29	10755.96
257.36	10716.41
257.43	10739.64
257.5	10692.32
257.571	10690.29
257.641	10722.09
257.711	10692.84
257.781	10722.33
257.852	10736.84
257.922	10687.83
257.992	10691.49
258.062	10683.35
258.132	10717.9
258.202	10728.69
258.273	10734.47
258.343	10793.07
258.413	10780.59
258.483	10786.96
258.553	10772.11
258.623	10749.85
258.693	10766.14
258.764	10815.86
258.834	10872.96
258.904	10890.88
258.974	10880.14
259.044	10896.09
259.114	10917.54
259.184	10941.2
259.254	10944.14
259.324	10903.8
259.394	10940.32
259.464	11002.88
259.535	11006.06
259.605	10997.96
259.675	10991.22
259.745	11020.86
259.815	10999.26
259.885	10999.31
259.955	11074.46
260.025	11063.42
260.095	11072.82
260.165	11099.38
260.235	11151.43
260.305	11136.78
260.375	11111.82
260.445	11190.45
260.515	11237.01
260.585	11274.8
260.655	11284.49
260.725	11321.93
260.795	11350.94
260.865	11405.26
260.934	11376.48
261.004	11402.56
261.074	11404.29
261.144	11449.16
261.214	11473.3
261.284	11472.19
261.354	11501.2
261.424	11475.03
261.494	11534.93
261.564	11542.88
261.634	11562.98
261.703	11512.61
261.773	11538.05
261.843	11561.04
261.913	11546.49
261.983	11495.16
262.053	11517.77
262.123	11508.32
262.192	11474.06
262.262	11509.29
262.332	11478.05
262.402	11515.46
262.472	11523.31
262.541	11477.44
262.611	11513.64
262.681	11492.09
262.751	11529.73
262.821	11541.88
262.89	11518.11
262.96	11542.7
263.03	11603.48
263.1	11621.31
263.169	11640.74
263.239	11663.2
263.309	11717.42
263.379	11744.46
263.448	11771.55
263.518	11789.05
263.588	11809.67
263.657	11868.57
263.727	11900.38
263.797	11905.93
263.867	11897.73
263.936	11863.08
264.006	11918.35
264.076	11912.56
264.145	11919.26
