Data from 20250626_urea_1M_exp2_MAYP1162681_05-53-59-918.txt Node
Date: Fri Jun 27 05:53:59 BST 2025
User: adleo
Spectrometer: MAYP116268
Trigger mode: 0
Integration Time (sec): 3.000000E0
Scans to average: 1
Electric dark correction enabled: true
Nonlinearity correction enabled: true
Boxcar width: 10
XAxis mode: Wavelengths
Number of Pixels in Spectrum: 2068
>>>>>Begin Spectral Data<<<<<
179.565	2704.39
179.642	2843.52
179.718	2949.04
179.795	3051.18
179.871	3131.86
179.948	3182.83
180.024	3235.29
180.101	3290.07
180.177	3322.28
180.254	3377.02
180.33	3430.62
180.407	3615.87
180.483	3828.67
180.56	4038.42
180.636	4235.38
180.712	4205.9
180.789	4224.75
180.865	4253.62
180.942	4271.93
181.018	4296.84
181.095	4333.93
181.171	4345.7
181.248	4349.09
181.324	4392.69
181.4	4405.23
181.477	4430.68
181.553	4458.51
181.63	4506.65
181.706	4545.42
181.782	4568.79
181.859	4573
181.935	4589.85
182.011	4582.1
182.088	4618.28
182.164	4666.17
182.24	4697.26
182.317	4719.6
182.393	4717.45
182.469	4751.43
182.546	4786.76
182.622	4799.15
182.698	4785.41
182.775	4816.24
182.851	4850.32
182.927	4827.15
183.003	4816.57
183.08	4803.46
183.156	4827.01
183.232	4820.55
183.308	4796.8
183.385	4816.28
183.461	4855.35
183.537	4858.13
183.613	4882.45
183.69	4865.6
183.766	4840.4
183.842	4859.46
183.918	4878.47
183.995	4907.04
184.071	4912.94
184.147	4901.01
184.223	4872.4
184.299	4904.21
184.375	4875.63
184.452	4892.21
184.528	4992.13
184.604	5021.96
184.68	5057
184.756	5072.82
184.832	5082.25
184.908	5090.24
184.985	5093.69
185.061	5053.09
185.137	5074.36
185.213	5055.15
185.289	5054.1
185.365	5038.07
185.441	5031.55
185.517	5061.07
185.593	5054.42
185.669	5051.16
185.745	5075.83
185.822	5116.41
185.898	5093.75
185.974	5116.87
186.05	5094.63
186.126	5038.2
186.202	5015.17
186.278	4999.99
186.354	4976.85
186.43	4992.91
186.506	4989.8
186.582	4985.1
186.658	5003.86
186.734	4952.02
186.81	4952.69
186.886	4963.27
186.962	4987.64
187.038	4978.92
187.114	4960.85
187.19	4977.04
187.266	4950.42
187.341	4950.04
187.417	4933.81
187.493	4938.17
187.569	4948.42
187.645	4934.91
187.721	4904.25
187.797	4929.91
187.873	4938.63
187.949	4922.16
188.025	4906.83
188.101	4913.82
188.176	4926.89
188.252	4914.59
188.328	4938.75
188.404	4936.31
188.48	4924.2
188.556	4907.92
188.632	4911.12
188.707	4913.38
188.783	4911.46
188.859	4905.1
188.935	4880.91
189.011	4900.78
189.086	4882.49
189.162	4862.04
189.238	4860.99
189.314	4855.96
189.39	4838.29
189.465	4822.25
189.541	4865.3
189.617	4828.78
189.693	4816.76
189.768	4825.29
189.844	4888.54
189.92	4863.71
189.996	4887.41
190.071	4910.01
190.147	4914.37
190.223	4932.81
190.298	4912.21
190.374	4876.64
190.45	4903.29
190.526	4919.39
190.601	4908.8
190.677	4911.29
190.753	4982.38
190.828	4989.75
190.904	5025.49
190.98	5065.06
191.055	5087
191.131	5065.29
191.207	5119.88
191.282	5142.14
191.358	5115.23
191.433	5074.39
191.509	5107.7
191.585	5097.59
191.66	5108.32
191.736	5126.19
191.811	5105.69
191.887	5143.64
191.963	5206.11
192.038	5217.65
192.114	5220.14
192.189	5226.99
192.265	5220.82
192.34	5162.51
192.416	5156.34
192.491	5142.63
192.567	5150.35
192.642	5159.89
192.718	5163.14
192.793	5128.84
192.869	5121.03
192.944	5127.64
193.02	5146.18
193.095	5152.03
193.171	5170.18
193.246	5161.37
193.322	5151.88
193.397	5155.33
193.473	5121.35
193.548	5074.39
193.624	5091.16
193.699	5087.71
193.775	5127.64
193.85	5133.91
193.925	5151.45
194.001	5151.26
194.076	5129.27
194.152	5101.09
194.227	5080.87
194.302	5058.37
194.378	5069.91
194.453	5063.45
194.529	5096.69
194.604	5060.96
194.679	5050.95
194.755	5003.55
194.83	5037.4
194.905	5033.57
194.981	5053.4
195.056	5037.46
195.131	5056.09
195.207	5048.47
195.282	5025.53
195.357	4975.21
195.433	5010.08
195.508	4986.66
195.583	5008.73
195.659	5048.64
195.734	5061.39
195.809	5060.14
195.884	5079.01
195.96	5077.09
196.035	5114.07
196.11	5103.67
196.185	5138.83
196.261	5144.19
196.336	5219.3
196.411	5180.38
196.486	5192.78
196.561	5172.66
196.637	5197.18
196.712	5232.46
196.787	5241.28
196.862	5281.42
196.937	5306.19
197.013	5322.54
197.088	5344.38
197.163	5395.84
197.238	5435.18
197.313	5438.54
197.388	5473.09
197.464	5545.55
197.539	5575.07
197.614	5563.33
197.689	5591.04
197.764	5628.55
197.839	5681.81
197.914	5668.47
197.989	5726.11
198.065	5763.12
198.14	5890.01
198.215	5950.25
198.29	5978.57
198.365	6012.87
198.44	6038.67
198.515	6107.81
198.59	6143.03
198.665	6208.33
198.74	6229.45
198.815	6232.67
198.89	6288.47
198.965	6360.87
199.04	6352.28
199.115	6394.21
199.19	6493.18
199.265	6505.41
199.34	6530.28
199.415	6609.93
199.49	6661.66
199.565	6680.29
199.64	6738.63
199.715	6727.77
199.79	6743.66
199.865	6757.49
199.94	6751.88
200.015	6829.45
200.09	6842.81
200.165	6857.17
200.24	6876.53
200.315	6966.01
200.39	7007.47
200.464	7021.88
200.539	7031.44
200.614	7071.36
200.689	7122.43
200.764	7138.05
200.839	7176.61
200.914	7186.75
200.989	7161.6
201.063	7198.89
201.138	7159.49
201.213	7153.1
201.288	7104.82
201.363	7117.74
201.438	7118.99
201.512	7151.25
201.587	7104.16
201.662	7116.61
201.737	7147.65
201.812	7165.14
201.886	7086.76
201.961	7106.52
202.036	7076.8
202.111	7064.4
202.186	6989.51
202.26	6944.87
202.335	6889.19
202.41	6876.94
202.485	6834.88
202.559	6780.95
202.634	6709.29
202.709	6732.27
202.784	6687.47
202.858	6693.09
202.933	6644.79
203.008	6630.95
203.082	6593.84
203.157	6598.45
203.232	6491.25
203.306	6434.23
203.381	6354.37
203.456	6296
203.53	6239.86
203.605	6192.09
203.68	6135.1
203.754	6124.5
203.829	6091.82
203.904	6040.34
203.978	6007.66
204.053	6015.1
204.127	5988.52
204.202	5985.21
204.277	5939.12
204.351	5926.89
204.426	5909.85
204.5	5892
204.575	5803.45
204.65	5822.79
204.724	5799.7
204.799	5819.58
204.873	5813.01
204.948	5811.52
205.022	5785.49
205.097	5761.39
205.171	5791.7
205.246	5808.73
205.32	5804.23
205.395	5801.73
205.469	5785.92
205.544	5801.61
205.618	5760.66
205.693	5789.48
205.767	5757.5
205.842	5813.82
205.916	5795.03
205.991	5767.21
206.065	5779.44
206.14	5817.42
206.214	5803.89
206.289	5786.95
206.363	5814.96
206.438	5820.52
206.512	5835.73
206.586	5875.57
206.661	5900.97
206.735	5847.2
206.81	5850.51
206.884	5884.79
206.958	5851.61
207.033	5893.37
207.107	5911.03
207.181	5993.15
207.256	5976.94
207.33	6027.29
207.405	6055.92
207.479	6098.37
207.553	6118.95
207.628	6085.82
207.702	6117.24
207.776	6102.41
207.851	6106.49
207.925	6144.03
207.999	6131.6
208.073	6126.76
208.148	6145.28
208.222	6112.84
208.296	6196.99
208.371	6236.23
208.445	6262.01
208.519	6333.49
208.593	6363.43
208.668	6353.16
208.742	6358.06
208.816	6364.25
208.89	6395.51
208.965	6394.41
209.039	6422.64
209.113	6460.66
209.187	6507.8
209.261	6497.53
209.336	6551.64
209.41	6601.86
209.484	6603.88
209.558	6661.55
209.632	6692.94
209.707	6712.15
209.781	6770.64
209.855	6804.94
209.929	6846.72
210.003	6865.79
210.077	6864.88
210.151	6980.57
210.226	7060.64
210.3	7123.45
210.374	7181.93
210.448	7195.53
210.522	7218.84
210.596	7244.46
210.67	7274.73
210.744	7392.88
210.818	7473
210.892	7517.13
210.966	7506.75
211.041	7540.2
211.115	7537.89
211.189	7593.69
211.263	7633.77
211.337	7645.65
211.411	7685.32
211.485	7671.56
211.559	7700.44
211.633	7706.64
211.707	7628.8
211.781	7649.4
211.855	7567.03
211.929	7545.22
212.003	7500.07
212.077	7523.88
212.151	7546.19
212.225	7562.3
212.299	7534.97
212.373	7506.51
212.447	7496.41
212.52	7564.4
212.594	7571.85
212.668	7595.69
212.742	7563.43
212.816	7545.79
212.89	7529.54
212.964	7520.26
213.038	7528.48
213.112	7558.21
213.186	7595.26
213.26	7542.47
213.333	7425.77
213.407	7432.98
213.481	7438.89
213.555	7462.03
213.629	7431.25
213.703	7388.66
213.777	7375.44
213.85	7322.02
213.924	7400.03
213.998	7396.95
214.072	7376.56
214.146	7341.75
214.219	7331.27
214.293	7321.71
214.367	7329.5
214.441	7346.03
214.515	7307.67
214.588	7240.53
214.662	7147.78
214.736	7089.07
214.81	7098.67
214.883	7115.04
214.957	7076.92
215.031	7041.48
215.105	6979.53
215.178	6931.78
215.252	6909.78
215.326	6847.67
215.4	6789.45
215.473	6660.84
215.547	6596.7
215.621	6545.46
215.694	6539.6
215.768	6464.79
215.842	6414.14
215.915	6364.13
215.989	6287
216.063	6253.19
216.136	6237.64
216.21	6222.14
216.284	6231.31
216.357	6212.11
216.431	6183.17
216.504	6185.48
216.578	6223.84
216.652	6236.4
216.725	6219.31
216.799	6223.16
216.873	6208.47
216.946	6210.34
217.02	6178.03
217.093	6158.16
217.167	6089.46
217.24	6029.41
217.314	6004.86
217.387	5974.52
217.461	5940.07
217.535	5953.55
217.608	5904.95
217.682	5890.94
217.755	5895.93
217.829	5855.48
217.902	5843.15
217.976	5829.58
218.049	5796.24
218.123	5737.73
218.196	5735.96
218.27	5709.1
218.343	5655.02
218.417	5652.48
218.49	5637.28
218.563	5674.25
218.637	5678.47
218.71	5734.31
218.784	5756.14
218.857	5782.99
218.931	5796.36
219.004	5801.44
219.077	5817.33
219.151	5832.33
219.224	5827.59
219.298	5828.3
219.371	5861.22
219.444	5835.53
219.518	5843.82
219.591	5855.38
219.665	5935.75
219.738	5940.64
219.811	5931.73
219.885	5969.19
219.958	5990.45
220.031	5995.24
220.105	6011.37
220.178	6019.67
220.251	5999.65
220.325	6020.1
220.398	6025.76
220.471	6042.02
220.544	6072.25
220.618	6052.42
220.691	6077.13
220.764	6089.65
220.838	6111.87
220.911	6100.21
220.984	6163.87
221.057	6190.35
221.131	6207.76
221.204	6136.31
221.277	6185.22
221.35	6277.19
221.424	6270.27
221.497	6280.31
221.57	6298.2
221.643	6315.87
221.716	6350.82
221.79	6359.17
221.863	6370.07
221.936	6380.73
222.009	6391.04
222.082	6408.81
222.155	6424.55
222.229	6472.96
222.302	6492.74
222.375	6495.57
222.448	6523.9
222.521	6528.32
222.594	6532.35
222.667	6514.74
222.74	6560.78
222.814	6557.65
222.887	6544.3
222.96	6583.38
223.033	6615.23
223.106	6633.85
223.179	6658.35
223.252	6662.53
223.325	6684.09
223.398	6687.5
223.471	6708.77
223.544	6723.65
223.617	6736.95
223.69	6747.95
223.763	6714.99
223.837	6726.66
223.91	6747.03
223.983	6712.75
224.056	6688.8
224.129	6701.28
224.202	6741.83
224.275	6727.13
224.348	6706.01
224.42	6684.68
224.493	6648.28
224.566	6630.55
224.639	6651.3
224.712	6628.67
224.785	6617.43
224.858	6612.58
224.931	6601.05
225.004	6574.74
225.077	6573.16
225.15	6502.84
225.223	6499.14
225.296	6558.44
225.369	6523.78
225.442	6503.8
225.514	6513.92
225.587	6525.73
225.66	6531.93
225.733	6531.3
225.806	6537.5
225.879	6533.9
225.952	6512.15
226.025	6543.61
226.097	6582.58
226.17	6572.49
226.243	6530.01
226.316	6528.71
226.389	6530.44
226.461	6550.14
226.534	6567.7
226.607	6564.15
226.68	6626.93
226.753	6626.59
226.825	6566.19
226.898	6603.44
226.971	6599.99
227.044	6615.59
227.117	6625.24
227.189	6635.28
227.262	6662.95
227.335	6673.61
227.407	6673.13
227.48	6693.48
227.553	6701.75
227.626	6688.34
227.698	6692.32
227.771	6717.18
227.844	6699.51
227.916	6713.58
227.989	6683.86
228.062	6686.59
228.134	6750.54
228.207	6754.29
228.28	6754.05
228.352	6761.82
228.425	6770.23
228.498	6803.66
228.57	6792.28
228.643	6836.68
228.716	6844.13
228.788	6833.27
228.861	6837.64
228.934	6882.5
229.006	6888.55
229.079	6884.95
229.151	6873.85
229.224	6851.76
229.296	6873.66
229.369	6956.75
229.442	6992.08
229.514	6984.16
229.587	7010.43
229.659	6955.61
229.732	6962.67
229.804	6980.83
229.877	7038.98
229.949	7063.69
230.022	7101.96
230.094	7102.63
230.167	7094.74
230.239	7061.27
230.312	7054.83
230.384	7105.02
230.457	7103.91
230.529	7116.26
230.602	7123.27
230.674	7131.25
230.747	7164.52
230.819	7180.72
230.892	7093.31
230.964	7089.99
231.037	7108.14
231.109	7102.95
231.181	7131.57
231.254	7105.68
231.326	7101.45
231.399	7090.92
231.471	7068.62
231.544	7009.45
231.616	7047.3
231.688	7047.35
231.761	7039.62
231.833	7033.04
231.905	6970.12
231.978	6968.39
232.05	6949.9
232.122	6949.85
232.195	6931.4
232.267	6946.73
232.339	6935.54
232.412	6982.51
232.484	6958.33
232.556	6937.06
232.629	6986.68
232.701	7000.42
232.773	7008.83
232.846	7006.47
232.918	7004.31
232.99	7017.14
233.062	7052.31
233.135	7055.63
233.207	7029.59
233.279	7059.69
233.351	7079.44
233.424	7080.97
233.496	7067.43
233.568	7126.87
233.64	7104.53
233.713	7119.81
233.785	7125.96
233.857	7129.8
233.929	7096.18
234.001	7153.35
234.074	7204.98
234.146	7153.68
234.218	7144.26
234.29	7145.46
234.362	7138.5
234.434	7101.59
234.507	7074.78
234.579	7033.5
234.651	7022.69
234.723	7044.51
234.795	7063.3
234.867	7063.87
234.939	7110.25
235.012	7122.21
235.084	7131.69
235.156	7154.26
235.228	7143.02
235.3	7130
235.372	7144.13
235.444	7186.02
235.516	7121.35
235.588	7124.04
235.66	7129.14
235.732	7111.07
235.804	7254.82
235.876	7283.98
235.948	7332.53
236.02	7338.92
236.092	7352.61
236.164	7360.11
236.236	7360.3
236.308	7352.85
236.38	7371.11
236.452	7356.64
236.524	7368.46
236.596	7412.73
236.668	7438.4
236.74	7448.06
236.812	7465.75
236.884	7488.97
236.956	7495.12
237.028	7487.05
237.1	7471.15
237.172	7528.61
237.244	7588.26
237.316	7497.48
237.388	7482.53
237.46	7467.44
237.532	7515.07
237.604	7511.8
237.675	7565.56
237.747	7599.61
237.819	7595.14
237.891	7597.4
237.963	7589.95
238.035	7585.86
238.107	7510.29
238.178	7557.53
238.25	7564.79
238.322	7636.23
238.394	7607.1
238.466	7607.72
238.538	7647.18
238.609	7678.61
238.681	7639.46
238.753	7621.14
238.825	7635.57
238.897	7656.95
238.968	7716.8
239.04	7705.74
239.112	7786.95
239.184	7759.92
239.255	7756.31
239.327	7784.81
239.399	7803.33
239.471	7840.11
239.542	7868.86
239.614	7915.65
239.686	7852.35
239.758	7892.07
239.829	7857.9
239.901	7903.39
239.973	7916.95
240.044	7939.89
240.116	7955.18
240.188	7966.82
240.259	7981.15
240.331	7971.96
240.403	8000.28
240.474	7965.58
240.546	7954.86
240.618	7909.41
240.689	7903.3
240.761	7917.88
240.833	7962.81
240.904	7958.53
240.976	7953.14
241.048	7966.22
241.119	7990.38
241.191	8026.25
241.262	8076.84
241.334	8090.84
241.405	8091.46
241.477	8089.49
241.549	8095.17
241.62	8112.01
241.692	8144.91
241.763	8192.31
241.835	8211.02
241.906	8224.88
241.978	8199.68
242.049	8249.31
242.121	8295.44
242.192	8352.64
242.264	8326.38
242.335	8287.89
242.407	8319.11
242.478	8322
242.55	8333.06
242.621	8322.19
242.693	8316.8
242.764	8304.28
242.836	8300.48
242.907	8319.73
242.979	8347.58
243.05	8366.54
243.122	8378.19
243.193	8374.86
243.264	8322.94
243.336	8321.65
243.407	8348.69
243.479	8413.06
243.55	8427.5
243.622	8437.22
243.693	8432.94
243.764	8491.73
243.836	8478.18
243.907	8472.21
243.978	8475.67
244.05	8496.37
244.121	8461.25
244.192	8492.86
244.264	8457.87
244.335	8463.6
244.407	8431.7
244.478	8442.62
244.549	8435.31
244.62	8412.02
244.692	8409.95
244.763	8441.42
244.834	8435.06
244.906	8417.5
244.977	8427.66
245.048	8470.89
245.119	8454.53
245.191	8434.27
245.262	8380.91
245.333	8432.09
245.405	8443.64
245.476	8473.47
245.547	8485.36
245.618	8520.87
245.689	8529.29
245.761	8559.61
245.832	8563.6
245.903	8599.4
245.974	8620.34
246.045	8629.1
246.117	8687.67
246.188	8680.74
246.259	8662.02
246.33	8682.33
246.401	8686.09
246.473	8663.51
246.544	8646.03
246.615	8689.35
246.686	8705.13
246.757	8771.01
246.828	8760.33
246.899	8814.3
246.97	8779.9
247.042	8770.56
247.113	8808.2
247.184	8873.65
247.255	8874.61
247.326	8899.74
247.397	8906
247.468	8911.39
247.539	8921.31
247.61	8889.2
247.681	8917.25
247.752	8957.29
247.823	8935.06
247.894	8954.26
247.965	8933.04
248.037	8927.6
248.108	8893.13
248.179	8894.05
248.25	8875.03
248.321	8892.4
248.392	8858.46
248.463	8921.69
248.534	8920.44
248.605	8930.89
248.675	8912.78
248.746	8920.14
248.817	8927.17
248.888	8936.18
248.959	8897.53
249.03	8915
249.101	8922.37
249.172	8913.8
249.243	8864.67
249.314	8909.62
249.385	8913.86
249.456	8935.66
249.527	8925.3
249.598	8939.46
249.669	8927.86
249.739	8939.8
249.81	8951.64
249.881	8917.42
249.952	8910.87
250.023	8911.26
250.094	8874.33
250.165	8850.97
250.235	8848.66
250.306	8850.68
250.377	8829.36
250.448	8848.13
250.519	8802.83
250.59	8840.34
250.66	8842.75
250.731	8894.81
250.802	8892.26
250.873	8905.07
250.944	8920.43
251.014	8914.94
251.085	8979.81
251.156	9007.72
251.227	9042.78
251.297	9080.63
251.368	9123.46
251.439	9157.37
251.51	9195.79
251.58	9184.14
251.651	9180.14
251.722	9220.93
251.792	9188.29
251.863	9194.35
251.934	9240.14
252.005	9323.24
252.075	9332.29
252.146	9367.58
252.217	9399.36
252.287	9433.84
252.358	9436.44
252.429	9490.72
252.499	9485.47
252.57	9495.83
252.641	9524.91
252.711	9529.34
252.782	9494.53
252.852	9551.75
252.923	9549
252.994	9558.06
253.064	9595.12
253.135	9576.93
253.205	9556.22
253.276	9610.29
253.347	9659.45
253.417	9640.14
253.488	9624.72
253.558	9617.26
253.629	9617.16
253.699	9630.07
253.77	9650.02
253.841	9642.99
253.911	9650.65
253.982	9667.78
254.052	9685.27
254.123	9696.54
254.193	9696.4
254.264	9800.84
254.334	9770.97
254.405	9750.6
254.475	9726.18
254.546	9730.23
254.616	9780.79
254.687	9809.88
254.757	9827.41
254.827	9829.19
254.898	9853.61
254.968	9861.12
255.039	9850.58
255.109	9872.97
255.18	9848.12
255.25	9799.14
255.321	9825.67
255.391	9797.2
255.461	9862.76
255.532	9802.63
255.602	9797.14
255.673	9762.47
255.743	9732.93
255.813	9681.84
255.884	9715.75
255.954	9744.36
256.024	9794.17
256.095	9793.15
256.165	9768.54
256.235	9787.91
256.306	9769.66
256.376	9800.06
256.446	9827.51
256.517	9848.9
256.587	9884.55
256.657	9903.81
256.728	9923.7
256.798	9929.67
256.868	9930.59
256.938	9913
257.009	9951.73
257.079	9975.91
257.149	10049.66
257.219	10007.7
257.29	10040.19
257.36	9992.37
257.43	10023.3
257.5	9976.43
257.571	9975.9
257.641	10001.24
257.711	9970.31
257.781	10001.71
257.852	10018.81
257.922	9969.88
257.992	9974.69
258.062	9966.79
258.132	10002.83
258.202	10008.27
258.273	10024.36
258.343	10079.86
258.413	10061.02
258.483	10059.24
258.553	10040.26
258.623	10027.59
258.693	10049.32
258.764	10099.31
258.834	10155.37
258.904	10164.67
258.974	10153.65
259.044	10164.53
259.114	10183.32
259.184	10209.72
259.254	10210.25
259.324	10168.29
259.394	10205.71
259.464	10263.72
259.535	10274.76
259.605	10271.09
259.675	10256.65
259.745	10281.89
259.815	10259.29
259.885	10265.12
259.955	10347.92
260.025	10339.54
260.095	10345.22
260.165	10369.26
260.235	10410.17
260.305	10400.97
260.375	10376.93
260.445	10451.88
260.515	10490.29
260.585	10531.29
260.655	10535.97
260.725	10568.25
260.795	10594.7
260.865	10649.43
260.934	10622.3
261.004	10645.19
261.074	10648.57
261.144	10704.49
261.214	10726.76
261.284	10730.66
261.354	10760.48
261.424	10728.48
261.494	10781.08
261.564	10786.86
261.634	10809.18
261.703	10768.46
261.773	10790.91
261.843	10820.25
261.913	10808.69
261.983	10773.75
262.053	10782.24
262.123	10778.33
262.192	10751.4
262.262	10785.52
262.332	10751.11
262.402	10780.31
262.472	10778.24
262.541	10735.56
262.611	10769.1
262.681	10754.3
262.751	10787.22
262.821	10794.88
262.89	10774.11
262.96	10803.31
263.03	10860.9
263.1	10877.48
263.169	10894.44
263.239	10917.91
263.309	10972.18
263.379	11001.28
263.448	11017.04
263.518	11045.38
263.588	11060.51
263.657	11117.85
263.727	11138.67
263.797	11146.23
263.867	11145.56
263.936	11126.04
264.006	11169.02
264.076	11156.87
264.145	11161.59
264.215	11143.23
264.285	11172.72
264.354	11143.19
264.424	11129.65
264.494	11091.04
