Data from 20250626_urea_1M_exp2_MAYP1162681_13-24-00-739.txt Node
Date: Fri Jun 27 13:24:00 BST 2025
User: adleo
Spectrometer: MAYP116268
Trigger mode: 0
Integration Time (sec): 3.000000E0
Scans to average: 1
Electric dark correction enabled: true
Nonlinearity correction enabled: true
Boxcar width: 10
XAxis mode: Wavelengths
Number of Pixels in Spectrum: 2068
>>>>>Begin Spectral Data<<<<<
179.565	3131.12
179.642	3296.32
179.718	3418.31
179.795	3535.29
179.871	3626.29
179.948	3683.42
180.024	3749.08
180.101	3813.65
180.177	3855.6
180.254	3912.91
180.33	3975.45
180.407	4194.29
180.483	4437.81
180.56	4683.95
180.636	4912.58
180.712	4886.13
180.789	4908.02
180.865	4939.75
180.942	4967.76
181.018	4998.36
181.095	5040.82
181.171	5055.86
181.248	5059.12
181.324	5105.17
181.4	5119.02
181.477	5149.59
181.553	5180.32
181.63	5236.35
181.706	5280.06
181.782	5305.29
181.859	5317.41
181.935	5333.85
182.011	5323.64
182.088	5369.22
182.164	5424.61
182.24	5460.98
182.317	5479.61
182.393	5475.35
182.469	5514.07
182.546	5550.12
182.622	5560.57
182.698	5548.25
182.775	5581.95
182.851	5617.9
182.927	5594.79
183.003	5587.22
183.08	5573.08
183.156	5599.93
183.232	5587.74
183.308	5555.39
183.385	5576.95
183.461	5621.79
183.537	5626.11
183.613	5665.57
183.69	5637.23
183.766	5604.7
183.842	5623.12
183.918	5642.87
183.995	5674.13
184.071	5685.69
184.147	5672.7
184.223	5644.04
184.299	5679.06
184.375	5649.43
184.452	5666.71
184.528	5776.51
184.604	5807.57
184.68	5840.36
184.756	5862.72
184.832	5879.89
184.908	5893.41
184.985	5893.89
185.061	5847.28
185.137	5866.41
185.213	5830.54
185.289	5839.7
185.365	5822.2
185.441	5815.39
185.517	5851.72
185.593	5843.37
185.669	5834.5
185.745	5863.33
185.822	5904.54
185.898	5879.35
185.974	5904.09
186.05	5880.72
186.126	5812.7
186.202	5790.83
186.278	5776.83
186.354	5748.77
186.43	5760.62
186.506	5762.39
186.582	5756.5
186.658	5774.23
186.734	5721.84
186.81	5730.56
186.886	5740.05
186.962	5771.84
187.038	5759.76
187.114	5736.62
187.19	5758.02
187.266	5730.83
187.341	5727.72
187.417	5713.19
187.493	5710.02
187.569	5720.1
187.645	5705.14
187.721	5673.14
187.797	5695.1
187.873	5712.22
187.949	5695.06
188.025	5680.67
188.101	5683.97
188.176	5700.99
188.252	5690.35
188.328	5714.74
188.404	5708.84
188.48	5692.07
188.556	5669.81
188.632	5672.31
188.707	5671.78
188.783	5666.12
188.859	5656.73
188.935	5632.89
189.011	5659.79
189.086	5642.49
189.162	5615.82
189.238	5609.4
189.314	5608.73
189.39	5596.36
189.465	5575.21
189.541	5622.4
189.617	5581.31
189.693	5571.01
189.768	5581.8
189.844	5646.62
189.92	5621.27
189.996	5648.27
190.071	5680.3
190.147	5679.87
190.223	5706.3
190.298	5684.76
190.374	5645.83
190.45	5671.86
190.526	5690.37
190.601	5672.33
190.677	5679
190.753	5765.64
190.828	5778.19
190.904	5817.58
190.98	5853.51
191.055	5883.01
191.131	5861.13
191.207	5914.84
191.282	5936.08
191.358	5904.14
191.433	5866.51
191.509	5905.18
191.585	5892.66
191.66	5897.56
191.736	5921.06
191.811	5899.66
191.887	5946.74
191.963	6016.53
192.038	6036.15
192.114	6038.98
192.189	6047.23
192.265	6036.45
192.34	5965.92
192.416	5963.9
192.491	5953.54
192.567	5966.93
192.642	5975.57
192.718	5976.72
192.793	5942.33
192.869	5935.57
192.944	5947.74
193.02	5967.61
193.095	5976.58
193.171	5998.6
193.246	5991.78
193.322	5979.84
193.397	5978.16
193.473	5940.01
193.548	5884.63
193.624	5903.74
193.699	5895.77
193.775	5937.72
193.85	5942.9
193.925	5969.67
194.001	5962.48
194.076	5939.21
194.152	5902.07
194.227	5876.11
194.302	5850.41
194.378	5862.98
194.453	5853.05
194.529	5882.56
194.604	5842.65
194.679	5832.72
194.755	5778.35
194.83	5812.24
194.905	5811.66
194.981	5836.99
195.056	5814.75
195.131	5836.47
195.207	5823.85
195.282	5798.15
195.357	5746.66
195.433	5786.7
195.508	5754.03
195.583	5779.16
195.659	5820.71
195.734	5837.93
195.809	5838.56
195.884	5857.87
195.96	5860.42
196.035	5903.01
196.11	5895.38
196.185	5926.65
196.261	5925.79
196.336	6013.05
196.411	5975.32
196.486	5987.98
196.561	5968.55
196.637	5997.27
196.712	6045.43
196.787	6055.41
196.862	6103.66
196.937	6127.46
197.013	6147.38
197.088	6174.43
197.163	6229.36
197.238	6268.47
197.313	6277.2
197.388	6320.11
197.464	6412.02
197.539	6449.27
197.614	6428.59
197.689	6461.57
197.764	6508.68
197.839	6573.68
197.914	6562.87
197.989	6624.86
198.065	6661.73
198.14	6804.22
198.215	6874.96
198.29	6899.61
198.365	6938.66
198.44	6968.87
198.515	7046.99
198.59	7083.16
198.665	7149.94
198.74	7176.33
198.815	7180.51
198.89	7237.3
198.965	7310.17
199.04	7291.76
199.115	7331.31
199.19	7448.98
199.265	7459.16
199.34	7486.32
199.415	7571.02
199.49	7622.15
199.565	7645.47
199.64	7713.78
199.715	7699.39
199.79	7715.54
199.865	7735.88
199.94	7727.33
200.015	7810.62
200.09	7824.81
200.165	7844.91
200.24	7870.64
200.315	7975.66
200.39	8026.02
200.464	8043.33
200.539	8051.22
200.614	8100.41
200.689	8161.7
200.764	8179.99
200.839	8227.53
200.914	8234.12
200.989	8206.35
201.063	8249.31
201.138	8195.69
201.213	8195.11
201.288	8147.83
201.363	8160.24
201.438	8160
201.512	8203.26
201.587	8155.54
201.662	8166.84
201.737	8203.45
201.812	8221.35
201.886	8132.97
201.961	8157.61
202.036	8128.48
202.111	8120.44
202.186	8033.64
202.26	7989.61
202.335	7927.75
202.41	7908.61
202.485	7865.59
202.559	7814.67
202.634	7734.27
202.709	7772.75
202.784	7720.25
202.858	7720.58
202.933	7668.23
203.008	7644.24
203.082	7596.07
203.157	7593.67
203.232	7478.45
203.306	7411.94
203.381	7321.36
203.456	7255.37
203.53	7183.35
203.605	7127.15
203.68	7059.51
203.754	7046.5
203.829	6998.82
203.904	6945.02
203.978	6910.18
204.053	6925.6
204.127	6887.03
204.202	6882.37
204.277	6829.15
204.351	6815.27
204.426	6789.85
204.5	6774.62
204.575	6677.65
204.65	6704.85
204.724	6682.26
204.799	6706.3
204.873	6700.1
204.948	6701.3
205.022	6670.3
205.097	6645.59
205.171	6686.98
205.246	6706.73
205.32	6702.32
205.395	6703.18
205.469	6680.3
205.544	6699.8
205.618	6647.84
205.693	6684.2
205.767	6652.99
205.842	6710.82
205.916	6687.25
205.991	6661.03
206.065	6673.47
206.14	6722.68
206.214	6704.42
206.289	6679.39
206.363	6710.32
206.438	6717.52
206.512	6738.32
206.586	6790.71
206.661	6820.36
206.735	6752.16
206.81	6756.39
206.884	6796.82
206.958	6762.01
207.033	6807.84
207.107	6824.52
207.181	6914.57
207.256	6894.92
207.33	6949.63
207.405	6983.39
207.479	7030.75
207.553	7052.31
207.628	7008
207.702	7040.32
207.776	7022.69
207.851	7033.36
207.925	7077.1
207.999	7068.07
208.073	7057.79
208.148	7066.05
208.222	7030.54
208.296	7121.19
208.371	7165.81
208.445	7197.68
208.519	7272.86
208.593	7305.58
208.668	7290.63
208.742	7293.23
208.816	7298.13
208.89	7333.28
208.965	7327.17
209.039	7356.02
209.113	7400.33
209.187	7456.51
209.261	7444.5
209.336	7500.88
209.41	7559.19
209.484	7555.88
209.558	7618.72
209.632	7653.61
209.707	7679.23
209.781	7745.1
209.855	7792.67
209.929	7839.6
210.003	7854.7
210.077	7855.37
210.151	7985.23
210.226	8084.34
210.3	8158.96
210.374	8223.33
210.448	8233.62
210.522	8262.44
210.596	8290.73
210.67	8317.67
210.744	8453.42
210.818	8545.94
210.892	8602.48
210.966	8589.93
211.041	8631.12
211.115	8618.03
211.189	8690.4
211.263	8741.11
211.337	8751.65
211.411	8787.36
211.485	8767.91
211.559	8799.23
211.633	8810.44
211.707	8728.73
211.781	8743.99
211.855	8649.85
211.929	8627.87
212.003	8579.45
212.077	8605.2
212.151	8636.54
212.225	8667.92
212.299	8628.96
212.373	8589.5
212.447	8574.77
212.52	8646.77
212.594	8659.62
212.668	8693.06
212.742	8649.75
212.816	8632.42
212.89	8623.09
212.964	8614.03
213.038	8626.5
213.112	8658.85
213.186	8691.47
213.26	8630.44
213.333	8500.64
213.407	8511.36
213.481	8518.43
213.555	8549.3
213.629	8516.18
213.703	8467.57
213.777	8451.11
213.85	8391.73
213.924	8474.56
213.998	8469.46
214.072	8450.88
214.146	8403.19
214.219	8385.04
214.293	8369.27
214.367	8373.4
214.441	8389.19
214.515	8350.2
214.588	8275.53
214.662	8171.48
214.736	8110.88
214.81	8123.71
214.883	8145.38
214.957	8108.27
215.031	8062.6
215.105	7986.97
215.178	7932.82
215.252	7898.96
215.326	7823.7
215.4	7761.65
215.473	7620.46
215.547	7550.63
215.621	7496.06
215.694	7498.51
215.768	7423.42
215.842	7366.08
215.915	7304.56
215.989	7209.95
216.063	7163.88
216.136	7148.02
216.21	7134.66
216.284	7136.78
216.357	7111.69
216.431	7076.66
216.504	7072.77
216.578	7116.27
216.652	7116.94
216.725	7101.04
216.799	7112.67
216.873	7094.03
216.946	7102.39
217.02	7074.64
217.093	7055.47
217.167	6975.19
217.24	6905.4
217.314	6872.08
217.387	6841.26
217.461	6803.5
217.535	6823.49
217.608	6774.64
217.682	6754.56
217.755	6757.87
217.829	6718.43
217.902	6706.56
217.976	6689.37
218.049	6647.3
218.123	6586.22
218.196	6592.32
218.27	6559.38
218.343	6496.77
218.417	6495.67
218.49	6473.2
218.563	6507.96
218.637	6513.77
218.71	6575.11
218.784	6596.87
218.857	6626.2
218.931	6641.56
219.004	6646.12
219.077	6660.63
219.151	6675.75
219.224	6662.45
219.298	6658.42
219.371	6693.15
219.444	6666.12
219.518	6674.33
219.591	6687.92
219.665	6771.37
219.738	6784.09
219.811	6772.67
219.885	6810.95
219.958	6836.6
220.031	6839.24
220.105	6854.47
220.178	6860.62
220.251	6835.11
220.325	6849.57
220.398	6865.42
220.471	6883
220.544	6914.85
220.618	6895.15
220.691	6915.56
220.764	6930.69
220.838	6956.68
220.911	6939.33
220.984	7003.74
221.057	7034.2
221.131	7058.12
221.204	6983.12
221.277	7042.48
221.35	7143.34
221.424	7133.11
221.497	7138.06
221.57	7159.09
221.643	7186.16
221.716	7217.93
221.79	7220.43
221.863	7232.4
221.936	7239.99
222.009	7253.35
222.082	7274.5
222.155	7287.04
222.229	7342.81
222.302	7377.36
222.375	7375.1
222.448	7406.29
222.521	7407.98
222.594	7406.92
222.667	7386.65
222.74	7434.61
222.814	7424.03
222.887	7408.16
222.96	7456.52
223.033	7495.85
223.106	7512.09
223.179	7543.55
223.252	7554.08
223.325	7578.26
223.398	7593.26
223.471	7616.91
223.544	7627.92
223.617	7642.92
223.69	7659.46
223.763	7628.87
223.837	7642.86
223.91	7673.06
223.983	7636.63
224.056	7612.6
224.129	7629.42
224.202	7674.54
224.275	7656.56
224.348	7632.38
224.42	7608
224.493	7560.31
224.566	7541.31
224.639	7559.72
224.712	7522.97
224.785	7511.86
224.858	7509.22
224.931	7484.7
225.004	7450.28
225.077	7452.4
225.15	7376.8
225.223	7373.24
225.296	7441.42
225.369	7393.78
225.442	7365.56
225.514	7377.14
225.587	7392.23
225.66	7402.85
225.733	7401.27
225.806	7411.07
225.879	7399.11
225.952	7376.19
226.025	7415.56
226.097	7451.59
226.17	7442.12
226.243	7392.43
226.316	7388.29
226.389	7390.02
226.461	7409.74
226.534	7420.5
226.607	7411.99
226.68	7474.84
226.753	7469.7
226.825	7391.53
226.898	7435.51
226.971	7435.27
227.044	7453.77
227.117	7462.81
227.189	7475.89
227.262	7503.64
227.335	7519.94
227.407	7527.48
227.48	7545.41
227.553	7555.46
227.626	7546.99
227.698	7556.41
227.771	7596.58
227.844	7585.57
227.916	7602.25
227.989	7579.66
228.062	7581.53
228.134	7660.94
228.207	7662.48
228.28	7657.04
228.352	7672.33
228.425	7679.74
228.498	7715.9
228.57	7701.38
228.643	7751.31
228.716	7750.2
228.788	7740.34
228.861	7736.06
228.934	7786.16
229.006	7797.51
229.079	7803.67
229.151	7783.85
229.224	7758.95
229.296	7778.14
229.369	7856.75
229.442	7895.24
229.514	7877.98
229.587	7912.84
229.659	7843.57
229.732	7855.94
229.804	7885.17
229.877	7949.16
229.949	7977.01
230.022	8027.35
230.094	8027.16
230.167	8011.28
230.239	7975.7
230.312	7965.6
230.384	8020.55
230.457	8013.82
230.529	8021.61
230.602	8016.27
230.674	8030.94
230.747	8063.53
230.819	8085.27
230.892	7984.89
230.964	7988.3
231.037	8010.84
231.109	8009.79
231.181	8043.54
231.254	8014.59
231.326	8005.6
231.399	7988.56
231.471	7957.87
231.544	7888.63
231.616	7927.24
231.688	7936.95
231.761	7926.34
231.833	7921.14
231.905	7848.07
231.978	7846.91
232.05	7836.09
232.122	7837.15
232.195	7812.86
232.267	7839.61
232.339	7819.07
232.412	7877.24
232.484	7850.44
232.556	7825.02
232.629	7875.2
232.701	7886.41
232.773	7894.39
232.846	7889.78
232.918	7891.17
232.99	7908.97
233.062	7942.11
233.135	7946.39
233.207	7909.74
233.279	7952.28
233.351	7974.31
233.424	7979.26
233.496	7961.56
233.568	8029.87
233.64	8002.03
233.713	8020.35
233.785	8029.06
233.857	8044.98
233.929	8000.89
234.001	8055.13
234.074	8116.82
234.146	8063.26
234.218	8062.44
234.29	8064.12
234.362	8049.08
234.434	8007.71
234.507	7982.93
234.579	7939.65
234.651	7924.93
234.723	7949.56
234.795	7963.12
234.867	7962.11
234.939	8009.01
235.012	8022.57
235.084	8020.36
235.156	8051.18
235.228	8030.31
235.3	8004.96
235.372	8011.55
235.444	8066.85
235.516	8000.06
235.588	7992.84
235.66	8004.43
235.732	7981.44
235.804	8138.35
235.876	8177.78
235.948	8237.1
236.02	8247.2
236.092	8264.27
236.164	8281.83
236.236	8285.82
236.308	8281.68
236.38	8300.11
236.452	8290.34
236.524	8303.43
236.596	8358.51
236.668	8387.48
236.74	8410.61
236.812	8432.55
236.884	8457.14
236.956	8461.14
237.028	8456.95
237.1	8446.04
237.172	8500.76
237.244	8565.09
237.316	8475.55
237.388	8462.66
237.46	8438.11
237.532	8488.92
237.604	8478.15
237.675	8532.78
237.747	8568.39
237.819	8558.73
237.891	8565.27
237.963	8557.77
238.035	8558.44
238.107	8471.11
238.178	8515.98
238.25	8516.94
238.322	8588.78
238.394	8555.67
238.466	8553.55
238.538	8586.31
238.609	8623.79
238.681	8580.42
238.753	8561.84
238.825	8571.37
238.897	8597.25
238.968	8665.19
239.04	8648.63
239.112	8746.22
239.184	8722.64
239.255	8724.13
239.327	8751.69
239.399	8765.7
239.471	8797.46
239.542	8825.8
239.614	8876.29
239.686	8813.85
239.758	8860.2
239.829	8836.36
239.901	8883.04
239.973	8899.5
240.044	8933.05
240.116	8948.07
240.188	8958.27
240.259	8968.43
240.331	8961.93
240.403	8993.26
240.474	8957.24
240.546	8948.77
240.618	8895.43
240.689	8884.5
240.761	8897.55
240.833	8953.64
240.904	8952.1
240.976	8955.71
241.048	8968.9
241.119	8997.36
241.191	9030.57
241.262	9090.82
241.334	9094.14
241.405	9099.63
241.477	9100.64
241.549	9104.4
241.62	9126.98
241.692	9171.61
241.763	9216.92
241.835	9234.88
241.906	9245.52
241.978	9217.99
242.049	9278.07
242.121	9327.9
242.192	9385.91
242.264	9358.71
242.335	9318.99
242.407	9360.54
242.478	9359.24
242.55	9374.84
242.621	9361.7
242.693	9361.89
242.764	9342.14
242.836	9341.94
242.907	9375.37
242.979	9400.5
243.05	9419.04
243.122	9432.96
243.193	9425.68
243.264	9369.25
243.336	9373.06
243.407	9405.81
243.479	9478.03
243.55	9488.15
243.622	9499.42
243.693	9498.7
243.764	9554.07
243.836	9537.95
243.907	9528.75
243.978	9538.18
244.05	9559.57
244.121	9522.01
244.192	9558.27
244.264	9525.38
244.335	9534.77
244.407	9484.26
244.478	9499.38
244.549	9487.34
244.62	9451.9
244.692	9447.56
244.763	9488.2
244.834	9483
244.906	9461.28
244.977	9469.47
245.048	9506.95
245.119	9490.72
245.191	9469.87
245.262	9414.06
245.333	9476.89
245.405	9492.25
245.476	9515.27
245.547	9531.12
245.618	9569.3
245.689	9580.18
245.761	9605.27
245.832	9607.01
245.903	9650.83
245.974	9668.74
246.045	9682.04
246.117	9752.45
246.188	9745.13
246.259	9731.99
246.33	9741.95
246.401	9746.58
246.473	9720.57
246.544	9712.08
246.615	9759
246.686	9767.09
246.757	9838.56
246.828	9815.15
246.899	9872.24
246.97	9844.46
247.042	9838.44
247.113	9876.88
247.184	9947.61
247.255	9945.49
247.326	9971.22
247.397	9967.12
247.468	9979.26
247.539	9992.41
247.61	9950.55
247.681	9987.1
247.752	10025.82
247.823	10004.11
247.894	10023.32
247.965	9993.81
248.037	9977.47
248.108	9934.55
248.179	9940.57
248.25	9922.03
248.321	9946.44
248.392	9909.25
248.463	9983.61
248.534	9980.62
248.605	10000.62
248.675	9978.02
248.746	9997.48
248.817	10015.74
248.888	10038.96
248.959	9996.38
249.03	10012.18
249.101	10020.27
249.172	10008.42
249.243	9952.08
249.314	10008.77
249.385	10012.28
249.456	10044.21
249.527	10037.66
249.598	10057.02
249.669	10055.58
249.739	10062.42
249.81	10073.3
249.881	10036.7
249.952	10024.56
250.023	10017.33
250.094	9975.17
250.165	9947.61
250.235	9940.14
250.306	9943.37
250.377	9921.41
250.448	9945.87
250.519	9897.18
250.59	9947.62
250.66	9942.56
250.731	9999.87
250.802	9993.95
250.873	10010.81
250.944	10029.11
251.014	10023.76
251.085	10091.32
251.156	10116.41
251.227	10168.84
251.297	10213.55
251.368	10256.13
251.439	10290.77
251.51	10337.36
251.58	10327.58
251.651	10325.17
251.722	10367.04
251.792	10327.39
251.863	10327.63
251.934	10373.84
252.005	10463.54
252.075	10467.59
252.146	10510.41
252.217	10555.17
252.287	10595.26
252.358	10598.63
252.429	10659.35
252.499	10663.06
252.57	10677.47
252.641	10710.18
252.711	10715.82
252.782	10678.82
252.852	10737.22
252.923	10735.49
252.994	10749.85
253.064	10793.54
253.135	10776.63
253.205	10764.54
253.276	10820.91
253.347	10874.05
253.417	10849.47
253.488	10841.81
253.558	10838
253.629	10835.64
253.699	10839.88
253.77	10859.69
253.841	10858.05
253.911	10866.83
253.982	10879.45
254.052	10904.61
254.123	10912.37
254.193	10911.74
254.264	11026.1
254.334	11001.91
254.405	10973.34
254.475	10946.26
254.546	10955.12
254.616	11004.27
254.687	11026.58
254.757	11038.96
254.827	11036.94
254.898	11056.89
254.968	11061.61
255.039	11047.73
255.109	11086.43
255.18	11066.33
255.25	11005.13
255.321	11029.23
255.391	10990.43
255.461	11062.43
255.532	10991.34
255.602	10989.17
255.673	10946.91
255.743	10917.41
255.813	10852.23
255.884	10895.84
255.954	10922.68
256.024	10965.71
256.095	10972.8
256.165	10939.98
256.235	10965
256.306	10946.35
256.376	10980.37
256.446	11006.11
256.517	11023.7
256.587	11056.23
256.657	11076.57
256.728	11098.73
256.798	11102.54
256.868	11105.38
256.938	11076.03
257.009	11117.95
257.079	11144.36
257.149	11223.83
257.219	11180.79
257.29	11224.15
257.36	11177.99
257.43	11207.77
257.5	11155.92
257.571	11146.66
257.641	11176.25
257.711	11145.07
257.781	11176.97
257.852	11202.85
257.922	11160.49
257.992	11167.43
258.062	11161.21
258.132	11192.25
258.202	11199.81
258.273	11223.96
258.343	11281.79
258.413	11271.24
258.483	11268.54
258.553	11238.37
258.623	11212.3
258.693	11226.9
258.764	11279.04
258.834	11336
258.904	11341.88
258.974	11328.83
259.044	11336.29
259.114	11369.79
259.184	11388.64
259.254	11396.68
259.324	11353.16
259.394	11386.99
259.464	11454.9
259.535	11455.19
259.605	11452.88
259.675	11443.53
259.745	11467.1
259.815	11445.84
259.885	11448.16
259.955	11545.24
260.025	11537.82
260.095	11547.07
260.165	11575.12
260.235	11624.97
260.305	11611.09
260.375	11593.93
260.445	11677.06
260.515	11727.72
260.585	11765.12
260.655	11768.59
260.725	11801.85
260.795	11828.5
260.865	11886.97
260.934	11854.91
261.004	11880.46
261.074	11889.04
261.144	11942.97
261.214	11973.29
261.284	11971.22
261.354	12002.49
261.424	11962.48
261.494	12029.18
261.564	12040.13
261.634	12056.23
261.703	11999.11
261.773	12027.2
261.843	12050.39
261.913	12044.17
261.983	12005.08
262.053	12020.12
262.123	12026.43
262.192	11998.72
262.262	12037.33
262.332	11999.11
262.402	12027.06
262.472	12040.8
262.541	11982.05
262.611	12014.49
262.681	11990.97
262.751	12030.64
262.821	12035.55
262.89	12011.16
262.96	12032.66
263.03	12096.58
263.1	12119.77
263.169	12135.82
263.239	12160.26
263.309	12218.39
263.379	12240.37
263.448	12256.18
263.518	12274.74
263.588	12289.44
263.657	12346.37
263.727	12369.6
263.797	12375.63
263.867	12381.41
263.936	12344.39
264.006	12396.54
