Data from 20250626_urea_1M_exp2_MAYP1162681_19-43-59-909.txt Node
Date: Thu Jun 26 19:43:59 BST 2025
User: adleo
Spectrometer: MAYP116268
Trigger mode: 0
Integration Time (sec): 3.000000E0
Scans to average: 1
Electric dark correction enabled: true
Nonlinearity correction enabled: true
Boxcar width: 10
XAxis mode: Wavelengths
Number of Pixels in Spectrum: 2068
>>>>>Begin Spectral Data<<<<<
179.565	3047.64
179.642	3207.11
179.718	3323.63
179.795	3439.53
179.871	3529.98
179.948	3587.9
180.024	3646.92
180.101	3712.96
180.177	3748.4
180.254	3810.2
180.33	3873.3
180.407	4086.76
180.483	4323.44
180.56	4566.08
180.636	4788.73
180.712	4758.74
180.789	4785.7
180.865	4824.84
180.942	4853.42
181.018	4881.72
181.095	4918.85
181.171	4930.05
181.248	4932.88
181.324	4979.73
181.4	4995.59
181.477	5022.41
181.553	5048.88
181.63	5109.59
181.706	5152.71
181.782	5178.27
181.859	5183.49
181.935	5196.52
182.011	5186.27
182.088	5231.94
182.164	5278.68
182.24	5311.59
182.317	5334.19
182.393	5324.8
182.469	5358.11
182.546	5387.15
182.622	5399.32
182.698	5390.31
182.775	5428.08
182.851	5462.82
182.927	5442.11
183.003	5432.82
183.08	5420.99
183.156	5452.85
183.232	5442.26
183.308	5412.73
183.385	5436.3
183.461	5477.91
183.537	5484.33
183.613	5519.95
183.69	5495.98
183.766	5467.3
183.842	5488.49
183.918	5507.76
183.995	5544.19
184.071	5554.31
184.147	5544.53
184.223	5512
184.299	5541.11
184.375	5506.46
184.452	5525.12
184.528	5637.11
184.604	5666.64
184.68	5699.81
184.756	5719.38
184.832	5730.07
184.908	5743.44
184.985	5744.59
185.061	5699.34
185.137	5720.87
185.213	5688.9
185.289	5694.36
185.365	5677.25
185.441	5670.83
185.517	5704.27
185.593	5697.74
185.669	5691.46
185.745	5720.86
185.822	5766.61
185.898	5744.6
185.974	5771.44
186.05	5750.09
186.126	5677.03
186.202	5653.78
186.278	5637.77
186.354	5607.7
186.43	5626.55
186.506	5621.71
186.582	5619.84
186.658	5638
186.734	5582.65
186.81	5589.59
186.886	5596.59
186.962	5631.78
187.038	5623.92
187.114	5601.55
187.19	5619.92
187.266	5594.42
187.341	5592.7
187.417	5571.8
187.493	5571.6
187.569	5580.91
187.645	5565.71
187.721	5537.37
187.797	5559.99
187.873	5575
187.949	5562.64
188.025	5541.57
188.101	5546.75
188.176	5556.72
188.252	5548.14
188.328	5574.01
188.404	5570.03
188.48	5556.28
188.556	5530.53
188.632	5528.56
188.707	5531.83
188.783	5523.72
188.859	5510.36
188.935	5479.28
189.011	5502.77
189.086	5486.33
189.162	5457.71
189.238	5450.81
189.314	5439.02
189.39	5425.93
189.465	5406.66
189.541	5446.65
189.617	5404.76
189.693	5394.79
189.768	5411.1
189.844	5471.97
189.92	5443.8
189.996	5469.74
190.071	5497.73
190.147	5503.72
190.223	5527.8
190.298	5507.08
190.374	5471.66
190.45	5501.99
190.526	5523.22
190.601	5509.75
190.677	5516.51
190.753	5600.63
190.828	5613.71
190.904	5660.18
190.98	5697.68
191.055	5723.14
191.131	5700.99
191.207	5754.1
191.282	5780.94
191.358	5749.73
191.433	5714.84
191.509	5751.4
191.585	5742.24
191.66	5744.73
191.736	5767.17
191.811	5745.88
191.887	5786.61
191.963	5850.58
192.038	5867.9
192.114	5873.75
192.189	5888.28
192.265	5876.54
192.34	5813.03
192.416	5810.59
192.491	5799.5
192.567	5810.45
192.642	5821.96
192.718	5827.62
192.793	5797.46
192.869	5782.54
192.944	5789.21
193.02	5808.4
193.095	5820.19
193.171	5838.56
193.246	5838.99
193.322	5825.52
193.397	5826.38
193.473	5789.48
193.548	5741.42
193.624	5753.32
193.699	5750.44
193.775	5789.36
193.85	5795.01
193.925	5817.17
194.001	5812.43
194.076	5792.67
194.152	5760.09
194.227	5741.57
194.302	5712.57
194.378	5725.09
194.453	5714.59
194.529	5751.95
194.604	5715.36
194.679	5701.46
194.755	5649.02
194.83	5679.01
194.905	5675.23
194.981	5695.51
195.056	5680.13
195.131	5699.74
195.207	5692.92
195.282	5662.77
195.357	5611.38
195.433	5655.35
195.508	5625.04
195.583	5651.46
195.659	5691.28
195.734	5710.32
195.809	5706.73
195.884	5728.48
195.96	5727.43
196.035	5774.62
196.11	5760.65
196.185	5794.7
196.261	5799.64
196.336	5883.61
196.411	5844.56
196.486	5858.13
196.561	5837.79
196.637	5867.52
196.712	5908.89
196.787	5916.76
196.862	5960.25
196.937	5982.5
197.013	5993.26
197.088	6016.71
197.163	6070.38
197.238	6113.04
197.313	6115.05
197.388	6152.62
197.464	6233.6
197.539	6266.9
197.614	6244.69
197.689	6274.3
197.764	6315.16
197.839	6376.16
197.914	6361.76
197.989	6426.47
198.065	6468.56
198.14	6608.26
198.215	6671.69
198.29	6701.77
198.365	6740.09
198.44	6772.21
198.515	6850.64
198.59	6892.43
198.665	6963.8
198.74	6987.69
198.815	6993.79
198.89	7053.74
198.965	7131.55
199.04	7126.02
199.115	7169.16
199.19	7278.63
199.265	7293.33
199.34	7318.46
199.415	7404.83
199.49	7462.48
199.565	7487.62
199.64	7549.29
199.715	7541.3
199.79	7555.96
199.865	7571.1
199.94	7563.95
200.015	7645.78
200.09	7661.46
200.165	7680.54
200.24	7696.7
200.315	7797.08
200.39	7833.68
200.464	7845.46
200.539	7851.04
200.614	7892.77
200.689	7958.57
200.764	7982.53
200.839	8029.15
200.914	8044.2
200.989	8016.87
201.063	8051.93
201.138	8004.99
201.213	8000.37
201.288	7947.62
201.363	7964.4
201.438	7965.94
201.512	8009.87
201.587	7959.41
201.662	7968.26
201.737	8000.54
201.812	8021.56
201.886	7931.7
201.961	7959.28
202.036	7929.43
202.111	7919.85
202.186	7839.41
202.26	7788.71
202.335	7731.24
202.41	7709.26
202.485	7664.18
202.559	7609.28
202.634	7538.36
202.709	7563.05
202.784	7514.93
202.858	7517.87
202.933	7469.36
203.008	7449.61
203.082	7400.97
203.157	7400.97
203.232	7288.7
203.306	7227.25
203.381	7145.92
203.456	7083.94
203.53	7020.82
203.605	6970.17
203.68	6906.82
203.754	6889.59
203.829	6844.66
203.904	6791.11
203.978	6762.18
204.053	6775.35
204.127	6744.47
204.202	6738.18
204.277	6690.06
204.351	6672.53
204.426	6650.38
204.5	6624.98
204.575	6529.9
204.65	6554.4
204.724	6538.35
204.799	6557.11
204.873	6545.82
204.948	6542.26
205.022	6516.59
205.097	6486.12
205.171	6524.53
205.246	6543.69
205.32	6545.42
205.395	6545.61
205.469	6518.7
205.544	6532.01
205.618	6483.17
205.693	6512.22
205.767	6481.6
205.842	6537.07
205.916	6520.03
205.991	6492.18
206.065	6506.39
206.14	6551.95
206.214	6536.62
206.289	6506.02
206.363	6540.26
206.438	6546.98
206.512	6565.47
206.586	6612.47
206.661	6636.88
206.735	6574.83
206.81	6582.66
206.884	6620.35
206.958	6591.64
207.033	6638.62
207.107	6649.92
207.181	6737.6
207.256	6718
207.33	6766.31
207.405	6799.15
207.479	6851.31
207.553	6873.77
207.628	6831.59
207.702	6862.46
207.776	6846.81
207.851	6861.45
207.925	6900.53
207.999	6893.03
208.073	6886.6
208.148	6892.94
208.222	6861.85
208.296	6947.11
208.371	6985.86
208.445	7015.94
208.519	7086.84
208.593	7118.02
208.668	7112.92
208.742	7115.62
208.816	7124.45
208.89	7158.97
208.965	7154.97
209.039	7179.11
209.113	7223.85
209.187	7281.83
209.261	7273.86
209.336	7330.57
209.41	7381.13
209.484	7383.63
209.558	7446.99
209.632	7483.8
209.707	7518.17
209.781	7580.07
209.855	7622.97
209.929	7672.1
210.003	7687.06
210.077	7684.75
210.151	7813.48
210.226	7904.3
210.3	7976.35
210.374	8038.55
210.448	8051.83
210.522	8078.91
210.596	8099.4
210.67	8126.29
210.744	8252.67
210.818	8335.27
210.892	8390.41
210.966	8374.06
211.041	8410.48
211.115	8400.14
211.189	8465.61
211.263	8513.53
211.337	8531.14
211.411	8567.43
211.485	8543.12
211.559	8579.39
211.633	8592.13
211.707	8507.01
211.781	8530.65
211.855	8437.06
211.929	8413.83
212.003	8365.75
212.077	8390.4
212.151	8420.86
212.225	8445.93
212.299	8413.67
212.373	8386.44
212.447	8372.91
212.52	8450.86
212.594	8463.56
212.668	8490.5
212.742	8443.3
212.816	8421.45
212.89	8405.05
212.964	8401.53
213.038	8416.79
213.112	8446.39
213.186	8483.72
213.26	8423.96
213.333	8294.27
213.407	8305.04
213.481	8311.82
213.555	8342.34
213.629	8310.53
213.703	8265.88
213.777	8256.68
213.85	8201.4
213.924	8286.98
213.998	8279.23
214.072	8264.55
214.146	8217.59
214.219	8205.75
214.293	8196.47
214.367	8197.91
214.441	8216.15
214.515	8177.41
214.588	8100.25
214.662	7998.18
214.736	7933.98
214.81	7949.55
214.883	7973.38
214.957	7937
215.031	7895.91
215.105	7823.51
215.178	7774.46
215.252	7744.26
215.326	7668.87
215.4	7603.61
215.473	7458.3
215.547	7391.31
215.621	7335.83
215.694	7334.97
215.768	7262
215.842	7210.77
215.915	7151.48
215.989	7057.08
216.063	7006.31
216.136	6996.65
216.21	6975.57
216.284	6981.19
216.357	6962.98
216.431	6928.97
216.504	6924.5
216.578	6969.24
216.652	6973.75
216.725	6956.7
216.799	6965.73
216.873	6944.31
216.946	6951.66
217.02	6925.45
217.093	6903.35
217.167	6824.19
217.24	6761.63
217.314	6731.39
217.387	6690.16
217.461	6657.21
217.535	6680.5
217.608	6635.56
217.682	6613.9
217.755	6626.14
217.829	6584.83
217.902	6569.13
217.976	6547.91
218.049	6509.59
218.123	6443.29
218.196	6440.21
218.27	6406.99
218.343	6347.28
218.417	6348.77
218.49	6331.72
218.563	6364.23
218.637	6373.88
218.71	6431.07
218.784	6455.52
218.857	6481.1
218.931	6506.19
219.004	6510.52
219.077	6525.07
219.151	6537.46
219.224	6532.99
219.298	6526.75
219.371	6565.17
219.444	6533.45
219.518	6546.6
219.591	6561.91
219.665	6648.32
219.738	6667.86
219.811	6656.11
219.885	6696.69
219.958	6722.05
220.031	6724.06
220.105	6736.75
220.178	6740.54
220.251	6717.38
220.325	6733.77
220.398	6744.19
220.471	6756.34
220.544	6786.41
220.618	6771.46
220.691	6800.28
220.764	6814.4
220.838	6836.16
220.911	6822.13
220.984	6893.05
221.057	6921.39
221.131	6941.75
221.204	6864.46
221.277	6918.43
221.35	7023.36
221.424	7013.71
221.497	7022.26
221.57	7041.75
221.643	7073.53
221.716	7104.67
221.79	7114.23
221.863	7120.14
221.936	7128.21
222.009	7137.33
222.082	7159.69
222.155	7167.13
222.229	7217.22
222.302	7238.65
222.375	7248.89
222.448	7275.66
222.521	7279.65
222.594	7285.65
222.667	7263.08
222.74	7308.97
222.814	7299.78
222.887	7279.68
222.96	7325.44
223.033	7358.52
223.106	7378.36
223.179	7396.97
223.252	7407.79
223.325	7428.93
223.398	7445.47
223.471	7471.28
223.544	7490.45
223.617	7505.31
223.69	7520.11
223.763	7489.58
223.837	7508.09
223.91	7527.32
223.983	7487.53
224.056	7464.89
224.129	7476.62
224.202	7520.24
224.275	7515.67
224.348	7495.34
224.42	7471.74
224.493	7427.51
224.566	7410.54
224.639	7430.05
224.712	7401.68
224.785	7391.87
224.858	7389.8
224.931	7369.18
225.004	7337.17
225.077	7338.95
225.15	7264.18
225.223	7267.93
225.296	7337.87
225.369	7289.53
225.442	7261.17
225.514	7280.62
225.587	7294.46
225.66	7304.13
225.733	7308.45
225.806	7307.25
225.879	7302.06
225.952	7277.85
226.025	7315.72
226.097	7356.61
226.17	7346.13
226.243	7297.12
226.316	7290.78
226.389	7290.63
226.461	7310.01
226.534	7329.47
226.607	7321.78
226.68	7387.7
226.753	7379.14
226.825	7307.47
226.898	7356.58
226.971	7364.9
227.044	7381.96
227.117	7384.56
227.189	7394.8
227.262	7423.31
227.335	7445.29
227.407	7443.99
227.48	7472.53
227.553	7476.81
227.626	7465.12
227.698	7474.78
227.771	7517.58
227.844	7510.56
227.916	7524.5
227.989	7495.57
228.062	7492.92
228.134	7568.13
228.207	7569.05
228.28	7563.38
228.352	7578.38
228.425	7589.34
228.498	7621.8
228.57	7606.85
228.643	7650.42
228.716	7657.06
228.788	7649.94
228.861	7640.18
228.934	7693.49
229.006	7698.44
229.079	7700.51
229.151	7687.72
229.224	7659.41
229.296	7673.06
229.369	7753.93
229.442	7800.3
229.514	7789.68
229.587	7824.69
229.659	7759.37
229.732	7766.49
229.804	7802.21
229.877	7868.6
229.949	7889.29
230.022	7933.51
230.094	7937.84
230.167	7929.9
230.239	7897.78
230.312	7882.44
230.384	7938.83
230.457	7932.86
230.529	7941.23
230.602	7940.65
230.674	7946.52
230.747	7978.62
230.819	8006.95
230.892	7912.68
230.964	7907.96
231.037	7930.45
231.109	7929.15
231.181	7960.83
231.254	7937.27
231.326	7924.87
231.399	7900.8
231.471	7875.16
231.544	7812.33
231.616	7846.18
231.688	7851.42
231.761	7839.65
231.833	7834.36
231.905	7768.31
231.978	7766.1
232.05	7750.23
232.122	7759.95
232.195	7740.09
232.267	7771.11
232.339	7750.57
232.412	7799.37
232.484	7777.52
232.556	7750.04
232.629	7802.54
232.701	7820.24
232.773	7832.16
232.846	7822.02
232.918	7824.95
232.99	7847.37
233.062	7882.19
233.135	7888.59
233.207	7859.01
233.279	7893.19
233.351	7919.54
233.424	7921.8
233.496	7903.57
233.568	7973.61
233.64	7940.14
233.713	7956.73
233.785	7949.18
233.857	7966.35
233.929	7928.36
234.001	7983.66
234.074	8038.07
234.146	7976.05
234.218	7972.93
234.29	7971.39
234.362	7967.54
234.434	7926.7
234.507	7892.31
234.579	7846.77
234.651	7834.99
234.723	7862.64
234.795	7877.31
234.867	7874.18
234.939	7923.44
235.012	7936.42
235.084	7932.86
235.156	7962.67
235.228	7945.5
235.3	7939.35
235.372	7941.37
235.444	7988.25
235.516	7919.73
235.588	7927.71
235.66	7937.96
235.732	7911.5
235.804	8068.98
235.876	8101.44
235.948	8160.33
236.02	8171.87
236.092	8189.95
236.164	8196.49
236.236	8194.32
236.308	8187.69
236.38	8210.3
236.452	8189.61
236.524	8209.62
236.596	8270.34
236.668	8298.05
236.74	8315.75
236.812	8334.46
236.884	8364.82
236.956	8377.09
237.028	8372.77
237.1	8361.03
237.172	8420.61
237.244	8486.19
237.316	8385.95
237.388	8376.86
237.46	8356.84
237.532	8407.94
237.604	8397.75
237.675	8453.18
237.747	8486.87
237.819	8484.18
237.891	8491.59
237.963	8486.97
238.035	8483.07
238.107	8389.49
238.178	8438.55
238.25	8449.28
238.322	8519.52
238.394	8490.3
238.466	8487.03
238.538	8520.65
238.609	8553.95
238.681	8518.23
238.753	8492.72
238.825	8511.21
238.897	8532.71
238.968	8596.36
239.04	8578.79
239.112	8667.67
239.184	8643.02
239.255	8641.43
239.327	8672.71
239.399	8679.73
239.471	8716.64
239.542	8738.58
239.614	8792.72
239.686	8731.73
239.758	8774.56
239.829	8745.19
239.901	8790.33
239.973	8807.51
240.044	8836.29
240.116	8844.04
240.188	8850.73
240.259	8875.28
240.331	8865.75
240.403	8898.38
240.474	8860.67
240.546	8847.78
240.618	8797.28
240.689	8794.83
240.761	8819.04
240.833	8872.43
240.904	8874.5
240.976	8877.3
241.048	8897.61
241.119	8929.49
241.191	8959.95
241.262	9012.54
241.334	9015.43
241.405	9017.89
241.477	9021.84
241.549	9036.76
241.62	9064.44
241.692	9102.62
241.763	9148.66
241.835	9169.41
241.906	9181.25
241.978	9160.99
242.049	9220.29
242.121	9276.61
242.192	9331.3
242.264	9301.79
242.335	9258.17
242.407	9299.24
242.478	9303.23
242.55	9325.96
242.621	9310.41
242.693	9315.36
242.764	9310.79
242.836	9320.47
242.907	9348.4
242.979	9375.17
243.05	9386.92
243.122	9402.71
243.193	9402.42
243.264	9347.67
243.336	9345.8
243.407	9375.94
243.479	9439.84
243.55	9452.41
243.622	9466.62
243.693	9460.45
243.764	9514.86
243.836	9501.05
243.907	9495.94
243.978	9507.4
244.05	9523.68
244.121	9493.2
244.192	9525.85
244.264	9480.92
244.335	9489.3
244.407	9445
244.478	9451.74
244.549	9445
244.62	9413.6
244.692	9412.88
244.763	9447.21
244.834	9443.21
244.906	9422.6
244.977	9440.13
245.048	9493.13
245.119	9476.37
245.191	9463.66
245.262	9417.14
245.333	9472.7
245.405	9478.19
245.476	9499.47
245.547	9506.79
245.618	9546.37
245.689	9560.78
245.761	9592.75
245.832	9592.08
245.903	9635.17
245.974	9662.92
246.045	9680.83
246.117	9748.94
246.188	9736.13
246.259	9724.52
246.33	9739.79
246.401	9750.14
246.473	9718.73
246.544	9700.42
246.615	9743.82
246.686	9749.8
246.757	9809.89
246.828	9792.41
246.899	9852.49
246.97	9826.73
247.042	9821.91
247.113	9856.93
247.184	9923.52
247.255	9920.83
247.326	9948.23
247.397	9946.98
247.468	9952.33
247.539	9956.28
247.61	9918.13
247.681	9960.89
247.752	10003.95
247.823	9982.09
247.894	10000.15
247.965	9977.9
248.037	9968.7
248.108	9928.77
248.179	9933.97
248.25	9924.57
248.321	9951.01
248.392	9914.83
248.463	9979.85
248.534	9980.28
248.605	9999.03
248.675	9976.04
248.746	9995.06
248.817	10007.54
248.888	10032.21
248.959	9985.39
249.03	10003.7
249.101	10005.33
249.172	9988.76
249.243	9931.17
249.314	9988.29
249.385	9992.33
249.456	10019.74
249.527	10012.65
249.598	10032.02
249.669	10028.93
249.739	10043.58
249.81	10052.97
249.881	10023.98
249.952	10017.66
250.023	10019.06
250.094	9969.49
250.165	9951.08
250.235	9940.48
250.306	9944.24
250.377	9917.99
250.448	9944.72
250.519	9899.39
250.59	9943.23
250.66	9937.93
250.731	9997.65
250.802	9988.79
250.873	10006.18
250.944	10021.31
251.014	10016.2
251.085	10084.04
251.156	10111.83
251.227	10152.07
251.297	10193.94
251.368	10232.33
251.439	10264.75
251.51	10306.77
251.58	10308.26
251.651	10303.83
251.722	10353.69
251.792	10318.38
251.863	10323.97
251.934	10372.87
252.005	10461.22
252.075	10471.92
252.146	10511.23
252.217	10548.13
252.287	10591.5
252.358	10596.37
252.429	10661.18
252.499	10654.39
252.57	10671.01
252.641	10704.21
252.711	10710.96
252.782	10677.66
252.852	10736.98
252.923	10737.9
252.994	10749.32
253.064	10792.39
253.135	10770.08
253.205	10747.68
253.276	10804.14
253.347	10848.46
253.417	10827.21
253.488	10814.54
253.558	10811.94
253.629	10816.32
253.699	10826.01
253.77	10851.41
253.841	10842.01
253.911	10841.29
253.982	10853.53
254.052	10876.04
254.123	10883.5
254.193	10885.91
254.264	10997.15
254.334	10972.08
254.405	10947.99
254.475	10915.32
254.546	10913.73
254.616	10967.31
254.687	10991.07
254.757	11012.75
254.827	11021.19
254.898	11046.1
254.968	11051.93
255.039	11035.59
255.109	11065.95
255.18	11037.33
255.25	10971.5
255.321	11003.21
255.391	10977.95
255.461	11057.47
255.532	10986.28
255.602	10985.22
255.673	10935.59
255.743	10907.25
255.813	10848.08
255.884	10890.1
255.954	10923.69
256.024	10976.51
256.095	10983.54
256.165	10960.46
256.235	10977.24
256.306	10957.48
256.376	10992.57
256.446	11026.49
256.517	11055.02
256.587	11093.14
256.657	11115.07
256.728	11137.86
256.798	11139.88
256.868	11139.3
256.938	11111.64
257.009	11155.45
257.079	11177.76
257.149	11261.23
257.219	11224.35
257.29	11256.39
257.36	11204.83
257.43	11235.53
257.5	11180.88
257.571	11175.48
257.641	11206.56
257.711	11175.43
257.781	11203.96
257.852	11209.21
257.922	11156.73
257.992	11162.75
258.062	11152.49
258.132	11182.22
258.202	11189.31
258.273	11200.39
258.343	11258.37
258.413	11245.17
258.483	11246.27
258.553	11228.78
258.623	11210.85
258.693	11221.36
258.764	11276.68
258.834	11332.24
258.904	11341.45
258.974	11333.54
259.044	11343.04
259.114	11365.45
259.184	11391.91
259.254	11393.93
259.324	11361.4
259.394	11401.54
259.464	11459.96
259.535	11469.79
259.605	11471.29
259.675	11464.06
259.745	11498.09
259.815	11482.13
259.885	11489.12
259.955	11580.18
260.025	11572.85
260.095	11575.99
260.165	11608.28
260.235	11665.88
260.305	11655.66
260.375	11637.35
260.445	11715.08
260.515	11761.5
260.585	11803.53
260.655	11802.95
260.725	11845.51
260.795	11877.13
260.865	11934.97
260.934	11909.28
261.004	11935.94
261.074	11939.26
261.144	11989.33
261.214	12015.75
261.284	12012.67
261.354	12042.79
261.424	12005.77
261.494	12054.92
261.564	12060.03
261.634	12077.1
261.703	12018.77
261.773	12040.32
261.843	12074.97
261.913	12070.59
261.983	12030.82
262.053	12043.16
262.123	12049.52
262.192	12016.27
262.262	12046.2
262.332	12001.8
262.402	12023.69
262.472	12023.3
262.541	11977.23
262.611	12009.04
262.681	11984.36
262.751	12017.28
262.821	12021.67
262.89	11992.99
262.96	12024.03
263.03	12090.65
263.1	12113.93
263.169	12130.75
263.239	12159.82
263.309	12207.88
263.379	12229.28
263.448	12243.93
263.518	12262.98
263.588	12279.03
263.657	12344.68
263.727	12376.25
263.797	12391.05
263.867	12396.79
263.936	12371.33
264.006	12422.37
