Data from 20250626_urea_1M_exp2_MAYP1162681_00-23-58-522.txt Node
Date: Fri Jun 27 00:23:58 BST 2025
User: adleo
Spectrometer: MAYP116268
Trigger mode: 0
Integration Time (sec): 3.000000E0
Scans to average: 1
Electric dark correction enabled: true
Nonlinearity correction enabled: true
Boxcar width: 10
XAxis mode: Wavelengths
Number of Pixels in Spectrum: 2068
>>>>>Begin Spectral Data<<<<<
179.565	2798.69
179.642	2941.01
179.718	3046.6
179.795	3156.7
179.871	3238.39
179.948	3289.78
180.024	3342.03
180.101	3403.94
180.177	3441.36
180.254	3497.63
180.33	3554.86
180.407	3744.71
180.483	3963.92
180.56	4185.2
180.636	4388.81
180.712	4358.08
180.789	4374.68
180.865	4406.24
180.942	4434.17
181.018	4461.01
181.095	4494.56
181.171	4509.06
181.248	4514.27
181.324	4557.45
181.4	4569.8
181.477	4598.85
181.553	4625.45
181.63	4680.11
181.706	4711.8
181.782	4735.29
181.859	4741.94
181.935	4759.32
182.011	4754.44
182.088	4799.93
182.164	4845.87
182.24	4876.83
182.317	4904.49
182.393	4899.66
182.469	4932.6
182.546	4964.54
182.622	4972.53
182.698	4969.56
182.775	5002.56
182.851	5035.12
182.927	5014.67
183.003	5003.71
183.08	4990.54
183.156	5018.32
183.232	5009.31
183.308	4985.13
183.385	4999.73
183.461	5038.15
183.537	5041.17
183.613	5076.09
183.69	5049.6
183.766	5019.64
183.842	5041.63
183.918	5049.3
183.995	5083.01
184.071	5090.58
184.147	5073.38
184.223	5047.97
184.299	5071.74
184.375	5040.37
184.452	5061.75
184.528	5165.69
184.604	5194.27
184.68	5220.42
184.756	5235.61
184.832	5244.33
184.908	5261.62
184.985	5266.74
185.061	5224.69
185.137	5242.46
185.213	5207.54
185.289	5210.23
185.365	5200.89
185.441	5192.45
185.517	5231.71
185.593	5226.25
185.669	5220.17
185.745	5245.84
185.822	5287.3
185.898	5266.7
185.974	5295.91
186.05	5270.03
186.126	5205.66
186.202	5183.06
186.278	5176.35
186.354	5152.87
186.43	5170.85
186.506	5163.81
186.582	5161.46
186.658	5182
186.734	5129.85
186.81	5138.81
186.886	5146.23
186.962	5171.76
187.038	5164.72
187.114	5140.84
187.19	5158.62
187.266	5137.07
187.341	5144.07
187.417	5129.51
187.493	5131.33
187.569	5137.03
187.645	5122.42
187.721	5097.88
187.797	5124.9
187.873	5137.21
187.949	5124.42
188.025	5109.71
188.101	5118.61
188.176	5127.33
188.252	5114.4
188.328	5139.48
188.404	5135.6
188.48	5121.38
188.556	5097.57
188.632	5098.24
188.707	5098.2
188.783	5085.59
188.859	5071.71
188.935	5041.77
189.011	5060.11
189.086	5043.69
189.162	5018.3
189.238	5016.14
189.314	5010.06
189.39	4989.7
189.465	4970.11
189.541	5010.59
189.617	4970.03
189.693	4956.77
189.768	4967.45
189.844	5024.39
189.92	5003.66
189.996	5025.55
190.071	5054.63
190.147	5056.97
190.223	5081.56
190.298	5067.66
190.374	5042.61
190.45	5073.97
190.526	5094.09
190.601	5077.46
190.677	5080.48
190.753	5151.2
190.828	5162.64
190.904	5196.48
190.98	5236.92
191.055	5263.56
191.131	5242.33
191.207	5293.72
191.282	5316.85
191.358	5289.84
191.433	5259.87
191.509	5292
191.585	5286.05
191.66	5290.27
191.736	5312.88
191.811	5288.49
191.887	5324.01
191.963	5381.28
192.038	5396.52
192.114	5401.74
192.189	5412.52
192.265	5401.89
192.34	5345.5
192.416	5339.08
192.491	5329.3
192.567	5338.8
192.642	5344.74
192.718	5345.17
192.793	5317.09
192.869	5305.45
192.944	5315.17
193.02	5328.07
193.095	5335.59
193.171	5351.12
193.246	5346.37
193.322	5335.54
193.397	5334.39
193.473	5302.27
193.548	5256.69
193.624	5271.98
193.699	5264.31
193.775	5304.97
193.85	5315.41
193.925	5339.18
194.001	5335.06
194.076	5312.97
194.152	5282.05
194.227	5261.25
194.302	5236.39
194.378	5248.71
194.453	5241.76
194.529	5272.77
194.604	5239.75
194.679	5227.59
194.755	5178.26
194.83	5212.4
194.905	5210.05
194.981	5234.35
195.056	5216.77
195.131	5230.9
195.207	5222.66
195.282	5197.37
195.357	5150.77
195.433	5180.71
195.508	5150.47
195.583	5174.71
195.659	5215.55
195.734	5228.25
195.809	5229.21
195.884	5254.35
195.96	5254.06
196.035	5291.05
196.11	5281.7
196.185	5312.03
196.261	5317.73
196.336	5398.04
196.411	5358.63
196.486	5372.38
196.561	5356.61
196.637	5384.97
196.712	5425.63
196.787	5433.79
196.862	5477.96
196.937	5495.6
197.013	5518.18
197.088	5543.1
197.163	5594.81
197.238	5633.69
197.313	5643.18
197.388	5678.37
197.464	5751.58
197.539	5779.67
197.614	5765.77
197.689	5797.47
197.764	5841.76
197.839	5892.11
197.914	5877.24
197.989	5933.88
198.065	5968.31
198.14	6094.54
198.215	6154.85
198.29	6182.45
198.365	6217.62
198.44	6239.98
198.515	6311.77
198.59	6345.42
198.665	6408.72
198.74	6431.2
198.815	6432.83
198.89	6486.97
198.965	6557.09
199.04	6545.95
199.115	6581.75
199.19	6686.98
199.265	6695.81
199.34	6714.68
199.415	6797.23
199.49	6847.78
199.565	6874.25
199.64	6945.77
199.715	6939.09
199.79	6950.52
199.865	6965.94
199.94	6958.02
200.015	7040.42
200.09	7055.84
200.165	7071.98
200.24	7088.65
200.315	7183.21
200.39	7226.99
200.464	7241.02
200.539	7243.8
200.614	7286.08
200.689	7348.03
200.764	7363.9
200.839	7400.93
200.914	7413.8
200.989	7384.71
201.063	7424.08
201.138	7375.87
201.213	7365.68
201.288	7314.98
201.363	7329.3
201.438	7333.38
201.512	7374.11
201.587	7324.75
201.662	7338.78
201.737	7373.1
201.812	7395.6
201.886	7311.76
201.961	7333.41
202.036	7303.77
202.111	7298.14
202.186	7220.65
202.26	7174.79
202.335	7128.45
202.41	7116.44
202.485	7073.79
202.559	7028.54
202.634	6958.35
202.709	6984.51
202.784	6928.6
202.858	6927.73
202.933	6883.69
203.008	6863.99
203.082	6816.64
203.157	6815.97
203.232	6704.02
203.306	6648.81
203.381	6567.25
203.456	6510.01
203.53	6447.19
203.605	6398.53
203.68	6341.67
203.754	6327.91
203.829	6294.48
203.904	6235.35
203.978	6206.54
204.053	6218.4
204.127	6189.61
204.202	6184.24
204.277	6140.67
204.351	6132.32
204.426	6111.58
204.5	6089.94
204.575	6000.5
204.65	6025.46
204.724	6003.13
204.799	6025.76
204.873	6014.76
204.948	6009.01
205.022	5984.55
205.097	5963.37
205.171	5992.68
205.246	6010.92
205.32	6009.96
205.395	6002.67
205.469	5981.68
205.544	5993.2
205.618	5948.67
205.693	5973.57
205.767	5943.5
205.842	5995.9
205.916	5977.87
205.991	5951.87
206.065	5965.73
206.14	6004.79
206.214	5987.88
206.289	5976.08
206.363	6006.3
206.438	6013.84
206.512	6032.74
206.586	6076.83
206.661	6102.23
206.735	6047.15
206.81	6053.39
206.884	6090.03
206.958	6059.1
207.033	6099.47
207.107	6114.5
207.181	6195.44
207.256	6181.91
207.33	6228.73
207.405	6262.51
207.479	6306.75
207.553	6332.61
207.628	6292.61
207.702	6327.45
207.776	6319.53
207.851	6323.66
207.925	6354.92
207.999	6343.25
208.073	6337.93
208.148	6343.45
208.222	6310.03
208.296	6395.46
208.371	6433.61
208.445	6467.89
208.519	6540.22
208.593	6570.31
208.668	6561.48
208.742	6563.93
208.816	6566.95
208.89	6604.37
208.965	6599.38
209.039	6624.45
209.113	6660.27
209.187	6715.96
209.261	6702.76
209.336	6749.97
209.41	6802.42
209.484	6807.27
209.558	6867.61
209.632	6900.35
209.707	6927.82
209.781	6984.93
209.855	7025.11
209.929	7061.37
210.003	7070.16
210.077	7070.93
210.151	7194.1
210.226	7287.71
210.3	7358.18
210.374	7419.51
210.448	7426.34
210.522	7448.31
210.596	7475.71
210.67	7503.01
210.744	7619.8
210.818	7703.35
210.892	7756.77
210.966	7744.85
211.041	7778.5
211.115	7766.2
211.189	7825.08
211.263	7873.88
211.337	7893.11
211.411	7922.79
211.485	7912.11
211.559	7943.69
211.633	7947.73
211.707	7870.5
211.781	7886.33
211.855	7794.53
211.929	7773.58
212.003	7727.79
212.077	7752.08
212.151	7780.75
212.225	7799.12
212.299	7772.36
212.373	7745.63
212.447	7730.23
212.52	7802.9
212.594	7818
212.668	7847.57
212.742	7814.01
212.816	7796.4
212.89	7779.96
212.964	7778.66
213.038	7790.16
213.112	7819.21
213.186	7852.62
213.26	7793.43
213.333	7665.74
213.407	7680.11
213.481	7690.25
213.555	7717.48
213.629	7688.43
213.703	7644.47
213.777	7641.25
213.85	7584.99
213.924	7659.41
213.998	7656.33
214.072	7627.94
214.146	7586.01
214.219	7570.58
214.293	7560.72
214.367	7552.65
214.441	7566.73
214.515	7530.86
214.588	7457.64
214.662	7362.23
214.736	7307.21
214.81	7323.34
214.883	7346.43
214.957	7310.74
215.031	7267.18
215.105	7198.69
215.178	7146.46
215.252	7115.51
215.326	7046.85
215.4	6985.96
215.473	6852.67
215.547	6787.98
215.621	6741.92
215.694	6738.99
215.768	6668.43
215.842	6619.16
215.915	6574.04
215.989	6491.52
216.063	6451.59
216.136	6441.99
216.21	6423.66
216.284	6428.46
216.357	6408.15
216.431	6379.68
216.504	6374.3
216.578	6414.84
216.652	6429.27
216.725	6419.81
216.799	6425.58
216.873	6409.55
216.946	6417.66
217.02	6392.19
217.093	6371.6
217.167	6304.54
217.24	6245.34
217.314	6220.16
217.387	6183.81
217.461	6151.89
217.535	6171.95
217.608	6124.25
217.682	6101.64
217.755	6114.17
217.829	6080.42
217.902	6062.81
217.976	6052.69
218.049	6024.38
218.123	5967.1
218.196	5965.52
218.27	5934.43
218.343	5885.03
218.417	5883.02
218.49	5868.29
218.563	5902.73
218.637	5909.88
218.71	5960.46
218.784	5980.71
218.857	6005.56
218.931	6025.45
219.004	6022.43
219.077	6037.13
219.151	6048.49
219.224	6045.04
219.298	6037.55
219.371	6070.58
219.444	6043.29
219.518	6043.92
219.591	6056.2
219.665	6135.2
219.738	6143.45
219.811	6135.16
219.885	6168.46
219.958	6189.77
220.031	6193.99
220.105	6206.95
220.178	6214.97
220.251	6197.88
220.325	6223.66
220.398	6234.51
220.471	6248.85
220.544	6284.66
220.618	6261.28
220.691	6284.26
220.764	6295.25
220.838	6319.92
220.911	6306.67
220.984	6373.94
221.057	6403.55
221.131	6422.56
221.204	6353.48
221.277	6408.85
221.35	6501.51
221.424	6496.71
221.497	6512.99
221.57	6526.19
221.643	6547.27
221.716	6579.36
221.79	6582.52
221.863	6585.41
221.936	6593.04
222.009	6603.74
222.082	6623.77
222.155	6636.54
222.229	6688.61
222.302	6710.41
222.375	6715.69
222.448	6740.76
222.521	6747.01
222.594	6749.74
222.667	6730.31
222.74	6776.74
222.814	6768.91
222.887	6752.66
222.96	6788.5
223.033	6818.67
223.106	6840.8
223.179	6866.56
223.252	6873.05
223.325	6892.79
223.398	6900.76
223.471	6926.94
223.544	6941.63
223.617	6953.4
223.69	6974.63
223.763	6941.86
223.837	6962.57
223.91	6987.5
223.983	6951.92
224.056	6929.2
224.129	6943.08
224.202	6980.43
224.275	6965.49
224.348	6941.67
224.42	6922.35
224.493	6882.25
224.566	6855.96
224.639	6869.03
224.712	6843.79
224.785	6834.42
224.858	6832.93
224.931	6817.94
225.004	6787.21
225.077	6787.4
225.15	6718.4
225.223	6710.81
225.296	6779.27
225.369	6734.56
225.442	6709.67
225.514	6726.52
225.587	6741.6
225.66	6754.48
225.733	6756.92
225.806	6763.03
225.879	6759.81
225.952	6734.12
226.025	6776.77
226.097	6823.16
226.17	6821.81
226.243	6778.31
226.316	6770.58
226.389	6770.72
226.461	6790.9
226.534	6803.86
226.607	6797.05
226.68	6859.22
226.753	6860.28
226.825	6797.15
226.898	6838.84
226.971	6834.9
227.044	6847.96
227.117	6854.73
227.189	6864.25
227.262	6890.53
227.335	6908.89
227.407	6911.48
227.48	6939.81
227.553	6948.17
227.626	6931.1
227.698	6934.99
227.771	6960.96
227.844	6955.15
227.916	6974.95
227.989	6947.18
228.062	6949.58
228.134	7017.82
228.207	7020.94
228.28	7009.99
228.352	7018.59
228.425	7028.3
228.498	7069.04
228.57	7060.3
228.643	7103.18
228.716	7104.81
228.788	7104.48
228.861	7099.81
228.934	7145.46
229.006	7151.13
229.079	7148.53
229.151	7142.04
229.224	7116.92
229.296	7139.69
229.369	7215.99
229.442	7250.66
229.514	7236.97
229.587	7272.72
229.659	7219.61
229.732	7225.42
229.804	7260.59
229.877	7321.41
229.949	7341.65
230.022	7377.82
230.094	7377.05
230.167	7364.45
230.239	7330.44
230.312	7316.31
230.384	7367.95
230.457	7367.13
230.529	7373.81
230.602	7375.69
230.674	7380.45
230.747	7412.96
230.819	7433.2
230.892	7346.72
230.964	7345.18
231.037	7368.52
231.109	7358.76
231.181	7388.79
231.254	7363.9
231.326	7352.27
231.399	7330.34
231.471	7309.33
231.544	7252.5
231.616	7290.26
231.688	7293.34
231.761	7286.81
231.833	7279.74
231.905	7211.19
231.978	7209.26
232.05	7194.85
232.122	7195.96
232.195	7177.6
232.267	7203.51
232.339	7187.16
232.412	7235.69
232.484	7211.89
232.556	7191.48
232.629	7247.27
232.701	7253.37
232.773	7266.34
232.846	7253.9
232.918	7259.29
232.99	7277.7
233.062	7308.51
233.135	7310.29
233.207	7286.59
233.279	7319.79
233.351	7344.2
233.424	7348.57
233.496	7327.71
233.568	7393.23
233.64	7365.03
233.713	7381.94
233.785	7382.52
233.857	7397.09
233.929	7356.82
234.001	7411.84
234.074	7463.01
234.146	7404.67
234.218	7404.05
234.29	7399.92
234.362	7401.5
234.434	7364.43
234.507	7335.11
234.579	7298.97
234.651	7287.39
234.723	7315.03
234.795	7329.97
234.867	7326.32
234.939	7375.21
235.012	7390.01
235.084	7389.24
235.156	7416.44
235.228	7393.23
235.3	7377.84
235.372	7384.72
235.444	7427.92
235.516	7360.69
235.588	7359.53
235.66	7376.65
235.732	7361.17
235.804	7512.65
235.876	7538.79
235.948	7586.35
236.02	7593.22
236.092	7606.24
236.164	7613.79
236.236	7616.19
236.308	7610.42
236.38	7630.18
236.452	7611.19
236.524	7628.64
236.596	7682.06
236.668	7714.33
236.74	7740.52
236.812	7761.14
236.884	7788.56
236.956	7802.36
237.028	7802.7
237.1	7795.87
237.172	7844.21
237.244	7900.14
237.316	7803.66
237.388	7794.33
237.46	7776.97
237.532	7828.42
237.604	7818.47
237.675	7876.29
237.747	7902.12
237.819	7891.54
237.891	7893.03
237.963	7886.45
238.035	7883.8
238.107	7794.26
238.178	7837.72
238.25	7842.33
238.322	7913.12
238.394	7880.37
238.466	7879.02
238.538	7907.43
238.609	7939.46
238.681	7904.38
238.753	7889.37
238.825	7907.85
238.897	7929.63
238.968	7995.07
239.04	7977.9
239.112	8062.59
239.184	8035.36
239.255	8033.29
239.327	8065.31
239.399	8074.26
239.471	8108.3
239.542	8135.91
239.614	8193.1
239.686	8131.75
239.758	8170.95
239.829	8139.33
239.901	8190.61
239.973	8202.63
240.044	8233.51
240.116	8240.58
240.188	8243.95
240.259	8248.71
240.331	8242.36
240.403	8275.21
240.474	8234.93
240.546	8231.32
240.618	8188.93
240.689	8188.78
240.761	8209.62
240.833	8257.45
240.904	8267.84
240.976	8266.01
241.048	8275.97
241.119	8298.74
241.191	8337.27
241.262	8392.01
241.334	8397.64
241.405	8394.56
241.477	8396
241.549	8406.39
241.62	8425.16
241.692	8466.78
241.763	8521.07
241.835	8535.46
241.906	8546.86
241.978	8525.55
242.049	8578.58
242.121	8624.48
242.192	8675.1
242.264	8641.71
242.335	8604.03
242.407	8634.69
242.478	8643.25
242.55	8653.79
242.621	8643.92
242.693	8642.09
242.764	8629.86
242.836	8630.87
242.907	8654.51
242.979	8676.59
243.05	8689.4
243.122	8712.6
243.193	8705.47
243.264	8650.03
243.336	8653.35
243.407	8680.3
243.479	8743.93
243.55	8750.81
243.622	8765.83
243.693	8760.05
243.764	8818.24
243.836	8803.57
243.907	8799.91
243.978	8803.13
244.05	8827.63
244.121	8793.23
244.192	8820.76
244.264	8777.68
244.335	8791.15
244.407	8753.66
244.478	8767.72
244.549	8756.74
244.62	8724.5
244.692	8726.76
244.763	8759.1
244.834	8752.5
244.906	8730.45
244.977	8740.81
245.048	8783.57
245.119	8761.67
245.191	8748.38
245.262	8698.86
245.333	8761.65
245.405	8772.2
245.476	8799.24
245.547	8816.29
245.618	8857.63
245.689	8866.77
245.761	8899.22
245.832	8899.55
245.903	8937.43
245.974	8954.47
246.045	8963.81
246.117	9025.86
246.188	9015.9
246.259	8999.49
246.33	9014.17
246.401	9026.78
246.473	9000.93
246.544	8990.48
246.615	9032.31
246.686	9036.79
246.757	9094.07
246.828	9067.35
246.899	9120.52
246.97	9093.18
247.042	9077.77
247.113	9109.7
247.184	9173.81
247.255	9174.63
247.326	9200.15
247.397	9203.61
247.468	9216.23
247.539	9233.32
247.61	9190.13
247.681	9222.19
247.752	9266.52
247.823	9249.87
247.894	9264.36
247.965	9247.32
248.037	9233.55
248.108	9195.75
248.179	9198.83
248.25	9191.9
248.321	9225.31
248.392	9191.74
248.463	9252.54
248.534	9248.69
248.605	9262.46
248.675	9239.19
248.746	9249.06
248.817	9258.07
248.888	9274.54
248.959	9229.28
249.03	9238.33
249.101	9252.53
249.172	9239.54
249.243	9193.37
249.314	9238.58
249.385	9244.89
249.456	9266.26
249.527	9262.55
249.598	9276.36
249.669	9272.51
249.739	9284.02
249.81	9281.28
249.881	9250.9
249.952	9245.31
250.023	9244.25
250.094	9204.19
250.165	9182.08
250.235	9181.6
250.306	9182.94
250.377	9163.15
250.448	9188.76
250.519	9145.63
250.59	9189.02
250.66	9191.57
250.731	9232.34
250.802	9233.02
250.873	9248.62
250.944	9267.59
251.014	9266.63
251.085	9329.19
251.156	9355.48
251.227	9389.15
251.297	9437.26
251.368	9471.54
251.439	9503.57
251.51	9547.01
251.58	9539.11
251.651	9543.64
251.722	9583.42
251.792	9548.56
251.863	9545.19
251.934	9589.02
252.005	9677.91
252.075	9680.51
252.146	9720.23
252.217	9764.26
252.287	9799.81
252.358	9804.19
252.429	9856.89
252.499	9849.52
252.57	9863.2
252.641	9897.78
252.711	9901.93
252.782	9869.75
252.852	9931.65
252.923	9929.24
252.994	9944.18
253.064	9983.47
253.135	9963.92
253.205	9948.84
253.276	10003.74
253.347	10052.72
253.417	10030.23
253.488	10019.34
253.558	10015.48
253.629	10010.14
253.699	10013.51
253.77	10032.88
253.841	10022.81
253.911	10028.79
253.982	10038.42
254.052	10060.97
254.123	10065.93
254.193	10074.36
254.264	10175.74
254.334	10148.18
254.405	10130.5
254.475	10100.68
254.546	10101.93
254.616	10153.86
254.687	10178.14
254.757	10195.72
254.827	10196.3
254.898	10219.18
254.968	10224.86
255.039	10212.68
255.109	10241.58
255.18	10219.52
255.25	10167.78
255.321	10187.81
255.391	10159.77
255.461	10231.36
255.532	10174.46
255.602	10173.64
255.673	10126.77
255.743	10105.85
255.813	10050.81
255.884	10084.14
255.954	10115.11
256.024	10170.81
256.095	10172.5
256.165	10144.89
256.235	10153.71
256.306	10143.45
256.376	10178.33
256.446	10206.09
256.517	10229.83
256.587	10260.33
256.657	10285.38
256.728	10301.18
256.798	10317.95
256.868	10320.02
256.938	10298.09
257.009	10339.29
257.079	10359.76
257.149	10438.24
257.219	10386.15
257.29	10417.21
257.36	10374.68
257.43	10404.12
257.5	10347.75
257.571	10340.33
257.641	10374.53
257.711	10356.66
257.781	10382.19
257.852	10389.56
257.922	10348.18
257.992	10354.2
258.062	10355.31
258.132	10386.77
258.202	10392.55
258.273	10399.3
258.343	10452.06
258.413	10434.67
258.483	10431.53
258.553	10415.59
258.623	10397.81
258.693	10422.43
258.764	10473.78
258.834	10532.79
258.904	10542
258.974	10543.83
259.044	10551.1
259.114	10571.2
259.184	10593.7
259.254	10604.49
259.324	10571
259.394	10598.51
259.464	10651.57
259.535	10654.41
259.605	10649.11
259.675	10644.29
259.745	10677.64
259.815	10657.69
259.885	10662.89
259.955	10752.73
260.025	10743.87
260.095	10753.94
260.165	10779.86
260.235	10825.12
260.305	10806.04
260.375	10784.45
260.445	10849.54
260.515	10890.84
260.585	10924.67
260.655	10932.19
260.725	10963.22
260.795	10992.47
260.865	11053.05
260.934	11035.26
261.004	11059.36
261.074	11061.48
261.144	11100.99
261.214	11123.3
261.284	11129.32
261.354	11167.05
261.424	11135.77
261.494	11185.97
261.564	11189.97
261.634	11207.18
261.703	11162.36
261.773	11189.25
261.843	11216.14
261.913	11213.49
261.983	11186.16
262.053	11202.36
262.123	11206.12
262.192	11170.7
262.262	11204.82
262.332	11166.31
262.402	11188.48
262.472	11194.7
262.541	11149.12
262.611	11195.58
262.681	11179.82
262.751	11207.72
262.821	11209.65
262.89	11178.66
262.96	11210.61
263.03	11270.37
263.1	11288.93
263.169	11307.87
263.239	11333.03
263.309	11384.84
263.379	11404.22
263.448	11422.29
263.518	11446.05
263.588	11452.07
263.657	11515.21
263.727	11542.49
263.797	11555.5
263.867	11550.92
263.936	11523.64
264.006	11570.96
264.076	11559.24
264.145	11558.86
264.215	11549.89
