Data from 20250626_urea_1M_exp2_MAYP1162681_19-53-59-860.txt Node
Date: Thu Jun 26 19:53:59 BST 2025
User: adleo
Spectrometer: MAYP116268
Trigger mode: 0
Integration Time (sec): 3.000000E0
Scans to average: 1
Electric dark correction enabled: true
Nonlinearity correction enabled: true
Boxcar width: 10
XAxis mode: Wavelengths
Number of Pixels in Spectrum: 2068
>>>>>Begin Spectral Data<<<<<
179.565	3041.71
179.642	3203.51
179.718	3320.84
179.795	3436.13
179.871	3530.08
179.948	3586.23
180.024	3645.16
180.101	3711.79
180.177	3750.56
180.254	3808.77
180.33	3875.91
180.407	4084.82
180.483	4326.52
180.56	4563.89
180.636	4787.31
180.712	4758.57
180.789	4782.85
180.865	4816.67
180.942	4844.58
181.018	4876.47
181.095	4912.4
181.171	4922.16
181.248	4922.21
181.324	4966.62
181.4	4983.34
181.477	5009.11
181.553	5038.31
181.63	5090.48
181.706	5131.54
181.782	5157.77
181.859	5164.62
181.935	5176.32
182.011	5174.16
182.088	5215.04
182.164	5270.94
182.24	5304.71
182.317	5330.04
182.393	5323.43
182.469	5356.35
182.546	5386.83
182.622	5393.58
182.698	5383.76
182.775	5419.37
182.851	5459.29
182.927	5441.51
183.003	5428.24
183.08	5414.15
183.156	5443.48
183.232	5440.94
183.308	5411.99
183.385	5427.42
183.461	5466.82
183.537	5466.43
183.613	5499.61
183.69	5473.58
183.766	5442.02
183.842	5461.15
183.918	5474.47
183.995	5508.36
184.071	5521.02
184.147	5509.37
184.223	5483.31
184.299	5515.29
184.375	5485.96
184.452	5497.09
184.528	5604.38
184.604	5638.12
184.68	5671.14
184.756	5687.73
184.832	5699.2
184.908	5710.55
184.985	5719.75
185.061	5678.72
185.137	5704.38
185.213	5669.91
185.289	5671.97
185.365	5652.71
185.441	5647.29
185.517	5680.73
185.593	5671.04
185.669	5662.7
185.745	5688.87
185.822	5733.63
185.898	5710.46
185.974	5738.36
186.05	5716.39
186.126	5645.88
186.202	5624.55
186.278	5613.76
186.354	5590.6
186.43	5606.48
186.506	5600.11
186.582	5594.21
186.658	5617.69
186.734	5562.19
186.81	5570.58
186.886	5586.58
186.962	5617.74
187.038	5606.28
187.114	5587.38
187.19	5607.57
187.266	5581.2
187.341	5582.69
187.417	5562.61
187.493	5565.87
187.569	5569.32
187.645	5553.31
187.721	5524.68
187.797	5546.11
187.873	5553.83
187.949	5535.14
188.025	5515.08
188.101	5522.99
188.176	5533.1
188.252	5515.28
188.328	5538.56
188.404	5535.39
188.48	5518.14
188.556	5498.29
188.632	5503.85
188.707	5508.27
188.783	5503.76
188.859	5491.5
188.935	5462.44
189.011	5483.39
189.086	5466.66
189.162	5447.34
189.238	5443.46
189.314	5437.18
189.39	5417.43
189.465	5401.95
189.541	5450.08
189.617	5409.3
189.693	5399.67
189.768	5412.67
189.844	5477.75
189.92	5453.37
189.996	5475.9
190.071	5504.43
190.147	5508.5
190.223	5529.27
190.298	5507.54
190.374	5471.88
190.45	5507.29
190.526	5528.86
190.601	5515.48
190.677	5513.18
190.753	5588.33
190.828	5602.8
190.904	5644.53
190.98	5689.27
191.055	5719.34
191.131	5694.35
191.207	5752.16
191.282	5772.67
191.358	5745.68
191.433	5711.18
191.509	5746.92
191.585	5738.05
191.66	5740.64
191.736	5763.99
191.811	5739.96
191.887	5780.07
191.963	5843.76
192.038	5855.22
192.114	5861.69
192.189	5870.42
192.265	5867.07
192.34	5801.12
192.416	5797.43
192.491	5780.4
192.567	5791.34
192.642	5796.62
192.718	5802.52
192.793	5770.05
192.869	5759.12
192.944	5767.99
193.02	5789.43
193.095	5798.88
193.171	5818.25
193.246	5817.77
193.322	5807.37
193.397	5804.06
193.473	5770.67
193.548	5717.28
193.624	5734.98
193.699	5729.04
193.775	5770.35
193.85	5774.85
193.925	5801.57
194.001	5795.34
194.076	5782.25
194.152	5745.88
194.227	5725.15
194.302	5695.63
194.378	5708.48
194.453	5701.1
194.529	5728.15
194.604	5687.28
194.679	5675.82
194.755	5623.29
194.83	5656.89
194.905	5652.38
194.981	5675.4
195.056	5656.22
195.131	5678.04
195.207	5670.12
195.282	5643.42
195.357	5588.97
195.433	5631.12
195.508	5592.18
195.583	5621.57
195.659	5658.31
195.734	5679.95
195.809	5678.03
195.884	5699.4
195.96	5691.97
196.035	5734.17
196.11	5727.31
196.185	5759.39
196.261	5760.83
196.336	5850.85
196.411	5806.22
196.486	5815.67
196.561	5796.29
196.637	5819.98
196.712	5858.99
196.787	5867.39
196.862	5911.94
196.937	5937.73
197.013	5955.88
197.088	5988.1
197.163	6037.69
197.238	6083.99
197.313	6083.37
197.388	6124.68
197.464	6209.61
197.539	6247.94
197.614	6228.8
197.689	6262.21
197.764	6309.26
197.839	6365.16
197.914	6344.8
197.989	6415.61
198.065	6455.01
198.14	6600.15
198.215	6672.21
198.29	6709.3
198.365	6745.75
198.44	6772.4
198.515	6851.02
198.59	6886.42
198.665	6958.56
198.74	6980.52
198.815	6976.15
198.89	7036.66
198.965	7107.89
199.04	7093.42
199.115	7134.73
199.19	7253.24
199.265	7262.56
199.34	7281.49
199.415	7370.88
199.49	7425.93
199.565	7442.03
199.64	7504.66
199.715	7497.82
199.79	7511.62
199.865	7526.71
199.94	7521.24
200.015	7607.83
200.09	7623.36
200.165	7640.57
200.24	7658.27
200.315	7766.06
200.39	7813.85
200.464	7829.72
200.539	7836.02
200.614	7879.05
200.689	7942.39
200.764	7956.82
200.839	7994.45
200.914	8009.45
200.989	7986.36
201.063	8027.04
201.138	7978.95
201.213	7982.85
201.288	7927.11
201.363	7941.73
201.438	7942.31
201.512	7983.6
201.587	7931.79
201.662	7939.34
201.737	7977.29
201.812	8001.25
201.886	7908.89
201.961	7930.02
202.036	7896.85
202.111	7892.04
202.186	7810.12
202.26	7763.79
202.335	7709.83
202.41	7698.72
202.485	7654.7
202.559	7603.07
202.634	7528.93
202.709	7557.85
202.784	7501.79
202.858	7503.96
202.933	7449.41
203.008	7426.62
203.082	7379.9
203.157	7380.63
203.232	7268.85
203.306	7206.92
203.381	7116.5
203.456	7056.53
203.53	6990.74
203.605	6934.85
203.68	6867.95
203.754	6852.35
203.829	6806.08
203.904	6749.31
203.978	6720.62
204.053	6733.74
204.127	6698.92
204.202	6693.21
204.277	6645.96
204.351	6629.15
204.426	6605.22
204.5	6590.33
204.575	6497.42
204.65	6519.57
204.724	6495.88
204.799	6519.67
204.873	6508.04
204.948	6502
205.022	6469.8
205.097	6445.92
205.171	6488.21
205.246	6507.28
205.32	6511.79
205.395	6511.69
205.469	6488.81
205.544	6502.74
205.618	6455.34
205.693	6480.79
205.767	6447.43
205.842	6504.73
205.916	6493.3
205.991	6464.02
206.065	6472.51
206.14	6521.1
206.214	6506.39
206.289	6485.64
206.363	6515.99
206.438	6519.01
206.512	6543.17
206.586	6594.38
206.661	6622.54
206.735	6560.79
206.81	6566.17
206.884	6601.69
206.958	6569.39
207.033	6608.88
207.107	6624.16
207.181	6708.48
207.256	6698.58
207.33	6750.87
207.405	6783.66
207.479	6826.64
207.553	6853.77
207.628	6812.45
207.702	6843.47
207.776	6824.26
207.851	6836.17
207.925	6874.04
207.999	6868.28
208.073	6858.48
208.148	6866.55
208.222	6836.76
208.296	6919.66
208.371	6964.32
208.445	6994.16
208.519	7069.9
208.593	7101.46
208.668	7092.13
208.742	7096.7
208.816	7098.24
208.89	7134.25
208.965	7126.5
209.039	7154.05
209.113	7199.61
209.187	7259.85
209.261	7248.18
209.336	7305.89
209.41	7361.79
209.484	7360.88
209.558	7423.13
209.632	7459.21
209.707	7491.56
209.781	7547.41
209.855	7592.13
209.929	7641.65
210.003	7658.14
210.077	7660.16
210.151	7797.4
210.226	7891.88
210.3	7967.6
210.374	8031.52
210.448	8044.07
210.522	8074.52
210.596	8099.58
210.67	8124.69
210.744	8251.32
210.818	8333
210.892	8386.07
210.966	8369.05
211.041	8408.34
211.115	8393.05
211.189	8457.94
211.263	8506.53
211.337	8523.75
211.411	8562.06
211.485	8543.67
211.559	8575.8
211.633	8585.03
211.707	8496.93
211.781	8512.87
211.855	8414.75
211.929	8392.05
212.003	8341.09
212.077	8367.32
212.151	8401.4
212.225	8422.95
212.299	8389.01
212.373	8359.52
212.447	8343.49
212.52	8419.81
212.594	8435.93
212.668	8470.81
212.742	8436.5
212.816	8415.42
212.89	8400.03
212.964	8393.62
213.038	8395.93
213.112	8424.91
213.186	8455.98
213.26	8396.03
213.333	8270.38
213.407	8280.29
213.481	8290.77
213.555	8324.27
213.629	8288.27
213.703	8240.2
213.777	8225.91
213.85	8170.04
213.924	8254.36
213.998	8252.58
214.072	8229.62
214.146	8183.38
214.219	8176.5
214.293	8156.59
214.367	8158.52
214.441	8176.89
214.515	8141.91
214.588	8075.38
214.662	7976.64
214.736	7916.39
214.81	7929.36
214.883	7950.89
214.957	7913.69
215.031	7865.77
215.105	7792.75
215.178	7742.45
215.252	7712.11
215.326	7643.16
215.4	7581.47
215.473	7436.16
215.547	7371.58
215.621	7320.25
215.694	7319.53
215.768	7237.04
215.842	7186.68
215.915	7130.42
215.989	7045.05
216.063	6999.13
216.136	6981.16
216.21	6962.43
216.284	6968.77
216.357	6953.06
216.431	6916.26
216.504	6916.21
216.578	6963.12
216.652	6967.39
216.725	6952.49
216.799	6956.05
216.873	6935.45
216.946	6942.79
217.02	6917.79
217.093	6894.73
217.167	6818.4
217.24	6753.2
217.314	6723.87
217.387	6688.79
217.461	6656.22
217.535	6666.74
217.608	6615.84
217.682	6594.32
217.755	6603.2
217.829	6563.96
217.902	6547.92
217.976	6538.84
218.049	6500.53
218.123	6436.77
218.196	6438.64
218.27	6407.24
218.343	6346.77
218.417	6348.02
218.49	6329.96
218.563	6366.69
218.637	6369.81
218.71	6429.02
218.784	6450.73
218.857	6479.29
218.931	6498.38
219.004	6501.46
219.077	6522.12
219.151	6538.72
219.224	6531.42
219.298	6529.55
219.371	6562.41
219.444	6535.19
219.518	6541.91
219.591	6556.6
219.665	6639.93
219.738	6654.29
219.811	6641.33
219.885	6681.86
219.958	6706.07
220.031	6706.84
220.105	6722.16
220.178	6735.8
220.251	6711.15
220.325	6731.58
220.398	6742.29
220.471	6755.68
220.544	6782.15
220.618	6764.46
220.691	6788.57
220.764	6809.27
220.838	6830.02
220.911	6817.58
220.984	6883.37
221.057	6912.67
221.131	6935.19
221.204	6858.92
221.277	6913.75
221.35	7014.25
221.424	7010.03
221.497	7024.64
221.57	7045.52
221.643	7075.56
221.716	7105.22
221.79	7114.39
221.863	7122.13
221.936	7130.16
222.009	7144.13
222.082	7170.66
222.155	7179.7
222.229	7230.75
222.302	7252.51
222.375	7260.68
222.448	7292.79
222.521	7294.28
222.594	7292.45
222.667	7268.15
222.74	7320.52
222.814	7312.83
222.887	7301.82
222.96	7344.21
223.033	7374.98
223.106	7394.15
223.179	7413.25
223.252	7422.43
223.325	7444.58
223.398	7456.32
223.471	7483.52
223.544	7499.9
223.617	7507.55
223.69	7526.1
223.763	7491.82
223.837	7509.08
223.91	7532.97
223.983	7493.13
224.056	7472.9
224.129	7494.29
224.202	7543
224.275	7525.12
224.348	7501.23
224.42	7474.83
224.493	7432.82
224.566	7413.93
224.639	7430.75
224.712	7405.11
224.785	7393.67
224.858	7385.88
224.931	7372.81
225.004	7337.1
225.077	7336.24
225.15	7269.35
225.223	7270.31
225.296	7340.58
225.369	7291.47
225.442	7265.13
225.514	7280.84
225.587	7294.58
225.66	7295.06
225.733	7290.25
225.806	7300.11
225.879	7293.81
225.952	7270.17
226.025	7308.62
226.097	7349.94
226.17	7341.91
226.243	7292.76
226.316	7288.96
226.389	7294.49
226.461	7310.74
226.534	7329.53
226.607	7324.91
226.68	7384.2
226.753	7378.67
226.825	7310.81
226.898	7359.58
226.971	7358.57
227.044	7373.23
227.117	7376.45
227.189	7390.83
227.262	7419.19
227.335	7431.69
227.407	7432.46
227.48	7457.3
227.553	7460.53
227.626	7439.17
227.698	7446.52
227.771	7481.78
227.844	7470.29
227.916	7484.23
227.989	7450.83
228.062	7452.41
228.134	7522.86
228.207	7534.74
228.28	7526.57
228.352	7539.02
228.425	7546.76
228.498	7587.29
228.57	7573.07
228.643	7625.73
228.716	7629.72
228.788	7623.85
228.861	7624.96
228.934	7678.37
229.006	7683.13
229.079	7685.92
229.151	7677.46
229.224	7645.89
229.296	7668.19
229.369	7749.44
229.442	7791.24
229.514	7786.53
229.587	7821.15
229.659	7762.57
229.732	7765.89
229.804	7800.5
229.877	7862.85
229.949	7887.63
230.022	7925.79
230.094	7926.89
230.167	7910.53
230.239	7873.28
230.312	7862.79
230.384	7918.46
230.457	7909.27
230.529	7919.08
230.602	7922.69
230.674	7932.4
230.747	7967.82
230.819	7989.56
230.892	7893.37
230.964	7887.98
231.037	7907.11
231.109	7904.13
231.181	7934.66
231.254	7909.46
231.326	7890.66
231.399	7874.83
231.471	7851.4
231.544	7790.88
231.616	7830.15
231.688	7835.25
231.761	7831.02
231.833	7825.02
231.905	7753.43
231.978	7757.18
232.05	7742.62
232.122	7747.09
232.195	7726.32
232.267	7759.21
232.339	7735.41
232.412	7794.54
232.484	7772.41
232.556	7747.95
232.629	7799.82
232.701	7809.44
232.773	7811.61
232.846	7809.49
232.918	7806.41
232.99	7819.78
233.062	7850.23
233.135	7857.87
233.207	7834.69
233.279	7871.71
233.351	7894.55
233.424	7896.47
233.496	7873.87
233.568	7946.84
233.64	7917.31
233.713	7936.5
233.785	7932.07
233.857	7947.9
233.929	7900.97
234.001	7956.74
234.074	8017.03
234.146	7959.63
234.218	7958.04
234.29	7961.07
234.362	7954.14
234.434	7917.01
234.507	7889.93
234.579	7852.37
234.651	7835.64
234.723	7855.31
234.795	7868.53
234.867	7864.16
234.939	7914.23
235.012	7934.09
235.084	7927.54
235.156	7953.17
235.228	7933.21
235.3	7919.26
235.372	7930.52
235.444	7989.82
235.516	7927.11
235.588	7927.26
235.66	7935.72
235.732	7916.39
235.804	8072.66
235.876	8112.09
235.948	8173.05
236.02	8185.07
236.092	8198.77
236.164	8209.06
236.236	8209.06
236.308	8207.19
236.38	8227.68
236.452	8212.86
236.524	8228.35
236.596	8279.48
236.668	8306.67
236.74	8326.67
236.812	8346.54
236.884	8376.18
236.956	8376.13
237.028	8367.57
237.1	8354.01
237.172	8411.71
237.244	8473.49
237.316	8381.4
237.388	8366.87
237.46	8345.69
237.532	8396.31
237.604	8394.34
237.675	8454.78
237.747	8493.57
237.819	8481.16
237.891	8489.44
237.963	8475.78
238.035	8470.49
238.107	8387.31
238.178	8441.13
238.25	8453.78
238.322	8532.93
238.394	8496.98
238.466	8493.81
238.538	8531.13
238.609	8563.17
238.681	8523.03
238.753	8507.34
238.825	8528.23
238.897	8549.21
238.968	8608.43
239.04	8587.35
239.112	8672.81
239.184	8640.42
239.255	8638.78
239.327	8669.33
239.399	8678.47
239.471	8721.49
239.542	8753.97
239.614	8807.1
239.686	8743.03
239.758	8778.93
239.829	8745.36
239.901	8797.53
239.973	8811.97
240.044	8842.82
240.116	8858.51
240.188	8868.76
240.259	8880.56
240.331	8867.94
240.403	8897.35
240.474	8866.04
240.546	8860.37
240.618	8804.53
240.689	8804.91
240.761	8821.09
240.833	8871.49
240.904	8880.54
240.976	8876.64
241.048	8889.3
241.119	8917.95
241.191	8954.05
241.262	9014.88
241.334	9022.53
241.405	9021.62
241.477	9025.08
241.549	9028.21
241.62	9040.97
241.692	9081.55
241.763	9128.84
241.835	9143.48
241.906	9159.8
241.978	9133.13
242.049	9195.62
242.121	9254.54
242.192	9311.88
242.264	9285.4
242.335	9251.94
242.407	9286.99
242.478	9293.87
242.55	9310.58
242.621	9303.41
242.693	9299.56
242.764	9287.08
242.836	9284.29
242.907	9307.06
242.979	9337.83
243.05	9359.11
243.122	9379.72
243.193	9369.08
243.264	9316.01
243.336	9322.18
243.407	9347.99
243.479	9411.84
243.55	9421.76
243.622	9430.91
243.693	9426.38
243.764	9484.55
243.836	9461.21
243.907	9450.23
243.978	9456.73
244.05	9473.63
244.121	9436.27
244.192	9470.84
244.264	9428.89
244.335	9447.68
244.407	9410.94
244.478	9423.12
244.549	9413.83
244.62	9387.73
244.692	9392.59
244.763	9428.32
244.834	9418.93
244.906	9404.38
244.977	9423.22
245.048	9468.31
245.119	9451.36
245.191	9436.82
245.262	9381.39
245.333	9442.29
245.405	9450.91
245.476	9478.69
245.547	9492.56
245.618	9531.85
245.689	9541.87
245.761	9571.49
245.832	9568.12
245.903	9610.68
245.974	9636.41
246.045	9649.31
246.117	9713.56
246.188	9701.23
246.259	9682.5
246.33	9695.6
246.401	9703.6
246.473	9677.29
246.544	9669.87
246.615	9720.93
246.686	9725.51
246.757	9794.56
246.828	9777.23
246.899	9844.19
246.97	9820.64
247.042	9814.33
247.113	9852.53
247.184	9927.27
247.255	9927.89
247.326	9955.44
247.397	9957.23
247.468	9962.91
247.539	9978.66
247.61	9939.11
247.681	9975.04
247.752	10023.1
247.823	10006.59
247.894	10023.64
247.965	9992.91
248.037	9976.72
248.108	9933.76
248.179	9937.71
248.25	9923.93
248.321	9960.19
248.392	9926.18
248.463	9982.91
248.534	9985.42
248.605	10001.12
248.675	9980.3
248.746	9995
248.817	10012.1
248.888	10025.06
248.959	9976.89
249.03	9990.19
249.101	9993.37
249.172	9980.65
249.243	9920.94
249.314	9971.46
249.385	9979.6
249.456	10008.74
249.527	9999
249.598	10012.59
249.669	10014.22
249.739	10028.53
249.81	10033.97
249.881	9994.67
249.952	9993.47
250.023	9984.8
250.094	9941.58
250.165	9914.36
250.235	9906.41
250.306	9905.25
250.377	9885.36
250.448	9914.59
250.519	9871.53
250.59	9929.87
250.66	9938.92
250.731	9996.23
250.802	9994.5
250.873	10004.66
250.944	10022.44
251.014	10015.5
251.085	10093.17
251.156	10114.12
251.227	10156.38
251.297	10200.95
251.368	10247.91
251.439	10288.29
251.51	10335.65
251.58	10325.01
251.651	10325.49
251.722	10375.4
251.792	10339.56
251.863	10343.22
251.934	10388.89
252.005	10476
252.075	10479.95
252.146	10515.98
252.217	10551.11
252.287	10586.91
252.358	10593.94
252.429	10661.55
252.499	10658.13
252.57	10667.04
252.641	10707.08
252.711	10710.84
252.782	10668.77
252.852	10727.9
252.923	10722.31
252.994	10728.87
253.064	10774.15
253.135	10752.04
253.205	10735.03
253.276	10798.09
253.347	10849.93
253.417	10830.47
253.488	10812.01
253.558	10802.04
253.629	10797.22
253.699	10818.47
253.77	10840.45
253.841	10831.39
253.911	10834.04
253.982	10848.59
254.052	10869.51
254.123	10874.66
254.193	10874.47
254.264	10990.52
254.334	10964.25
254.405	10933.51
254.475	10908.21
254.546	10913.03
254.616	10965.02
254.687	10988.34
254.757	11001.31
254.827	11001.93
254.898	11021.93
254.968	11024.44
255.039	11012.68
255.109	11041.83
255.18	11011.09
255.25	10953.5
255.321	10984.82
255.391	10952.34
255.461	11027.76
255.532	10959.22
255.602	10957.01
255.673	10914.17
255.743	10879.27
255.813	10822.56
255.884	10867.33
255.954	10903.85
256.024	10952.38
256.095	10961.16
256.165	10935.09
256.235	10950.32
256.306	10936.1
256.376	10974.27
256.446	11011.38
256.517	11033.55
256.587	11071.81
256.657	11093.79
256.728	11115.32
256.798	11120.53
256.868	11116.72
256.938	11088.24
257.009	11134.26
257.079	11160.04
257.149	11241.1
257.219	11194.4
257.29	11223.02
257.36	11177
257.43	11202.78
257.5	11147.55
257.571	11140.95
257.641	11170.83
257.711	11143.6
257.781	11168.94
257.852	11185.43
257.922	11138.39
257.992	11144.03
258.062	11134.2
258.132	11162.35
258.202	11168.66
258.273	11184.32
258.343	11245.72
258.413	11233.82
258.483	11237.92
258.553	11211.89
258.623	11194.93
258.693	11223.21
258.764	11282.68
258.834	11344.41
258.904	11358.73
258.974	11351.6
259.044	11355.26
259.114	11376.9
259.184	11398.35
259.254	11411.02
259.324	11363.64
259.394	11404.13
259.464	11466.45
259.535	11475.41
259.605	11477.92
259.675	11470.5
259.745	11497.29
259.815	11478.54
259.885	11486.64
259.955	11573.31
260.025	11567.63
260.095	11574.37
260.165	11592.64
260.235	11631.68
260.305	11619.64
260.375	11600.93
260.445	11678.09
260.515	11730.72
260.585	11773.29
260.655	11781.19
260.725	11813.15
260.795	11850.06
260.865	11902.65
260.934	11886.21
261.004	11912.73
261.074	11916.68
261.144	11967.96
261.214	11994.42
261.284	11995.62
261.354	12023.38
261.424	11987.33
261.494	12048.1
261.564	12053.88
261.634	12081.75
261.703	12040.2
261.773	12058.7
261.843	12081.26
261.913	12076.3
261.983	12036.53
262.053	12052.44
262.123	12051.91
262.192	12021.01
262.262	12047.43
262.332	12009.83
262.402	12029.83
262.472	12040.1
262.541	11989.3
262.611	12027.14
262.681	12007.81
262.751	12041.89
262.821	12046.62
262.89	12016.68
262.96	12035.29
263.03	12096.7
263.1	12114.2
263.169	12133.24
263.239	12160.52
263.309	12212.48
263.379	12242.66
263.448	12256.93
263.518	12280.06
263.588	12296.12
263.657	12359.02
263.727	12391.17
263.797	12408.19
263.867	12407.08
263.936	12382.11
