Data from 20250626_urea_1M_exp2_MAYP1162681_17-44-00-473.txt Node
Date: Thu Jun 26 17:44:00 BST 2025
User: adleo
Spectrometer: MAYP116268
Trigger mode: 0
Integration Time (sec): 3.000000E0
Scans to average: 1
Electric dark correction enabled: true
Nonlinearity correction enabled: true
Boxcar width: 10
XAxis mode: Wavelengths
Number of Pixels in Spectrum: 2068
>>>>>Begin Spectral Data<<<<<
179.565	3267.2
179.642	3434.42
179.718	3564.92
179.795	3693.73
179.871	3791.02
179.948	3850.19
180.024	3912.63
180.101	3982.88
180.177	4022.92
180.254	4089.34
180.33	4154.41
180.407	4384.95
180.483	4637.34
180.56	4891.24
180.636	5132.94
180.712	5100.02
180.789	5123.97
180.865	5158.98
180.942	5181.25
181.018	5214.55
181.095	5258.31
181.171	5274.22
181.248	5280.6
181.324	5327.49
181.4	5342.11
181.477	5372.26
181.553	5405.79
181.63	5465.52
181.706	5507.62
181.782	5540.91
181.859	5541.24
181.935	5561.05
182.011	5553.13
182.088	5598.06
182.164	5658.6
182.24	5692.15
182.317	5720.96
182.393	5717.79
182.469	5755.53
182.546	5795.19
182.622	5805.6
182.698	5792.5
182.775	5834.14
182.851	5872.31
182.927	5846.46
183.003	5831.55
183.08	5818.08
183.156	5846.37
183.232	5838.65
183.308	5812.22
183.385	5832.12
183.461	5881.53
183.537	5880.23
183.613	5914
183.69	5893.04
183.766	5863.33
183.842	5884.72
183.918	5902.23
183.995	5936.33
184.071	5946.79
184.147	5931.87
184.223	5901.44
184.299	5939.34
184.375	5902.36
184.452	5920.46
184.528	6033.51
184.604	6070.96
184.68	6102.62
184.756	6121.91
184.832	6136.6
184.908	6147.91
184.985	6146.52
185.061	6100.76
185.137	6128.93
185.213	6097.89
185.289	6102.54
185.365	6082.02
185.441	6076.5
185.517	6111.64
185.593	6107.32
185.669	6099.21
185.745	6127.28
185.822	6170.62
185.898	6149.41
185.974	6172.04
186.05	6149.24
186.126	6086.14
186.202	6062.63
186.278	6048.24
186.354	6023.67
186.43	6039.95
186.506	6034.1
186.582	6032.23
186.658	6049.25
186.734	5989.1
186.81	5996.35
186.886	6001.43
186.962	6037.26
187.038	6025.37
187.114	6003.47
187.19	6022.43
187.266	5996.43
187.341	5994.51
187.417	5973.46
187.493	5968.95
187.569	5979.6
187.645	5961.27
187.721	5923.07
187.797	5942.45
187.873	5955.21
187.949	5934.59
188.025	5914.72
188.101	5924.21
188.176	5933.8
188.252	5922.1
188.328	5949.86
188.404	5944.78
188.48	5936.81
188.556	5909.75
188.632	5913.93
188.707	5918.73
188.783	5908.79
188.859	5893.55
188.935	5863.61
189.011	5893.01
189.086	5879.06
189.162	5855.31
189.238	5853.34
189.314	5847.25
189.39	5833.72
189.465	5820.53
189.541	5868.65
189.617	5825.63
189.693	5813.69
189.768	5825.3
189.844	5890.62
189.92	5864.31
189.996	5889.44
190.071	5916.16
190.147	5916.93
190.223	5939.15
190.298	5915.01
190.374	5885.41
190.45	5922.19
190.526	5947.23
190.601	5936.25
190.677	5931.93
190.753	6014.76
190.828	6023.92
190.904	6068.65
190.98	6111.55
191.055	6140.01
191.131	6114.86
191.207	6168.77
191.282	6193.91
191.358	6169.01
191.433	6133.62
191.509	6168.28
191.585	6157.44
191.66	6159.89
191.736	6181.52
191.811	6156.95
191.887	6204.15
191.963	6260.49
192.038	6278.1
192.114	6278.82
192.189	6280.4
192.265	6272.49
192.34	6207.65
192.416	6203.96
192.491	6188.98
192.567	6195.85
192.642	6204.2
192.718	6203.63
192.793	6176.27
192.869	6165.67
192.944	6168.69
193.02	6191.78
193.095	6203.39
193.171	6227.29
193.246	6229.93
193.322	6225.42
193.397	6227.82
193.473	6188.55
193.548	6145.01
193.624	6152.93
193.699	6149.96
193.775	6199.03
193.85	6208.71
193.925	6234.82
194.001	6233.34
194.076	6213.86
194.152	6182.07
194.227	6158.21
194.302	6133.71
194.378	6143.79
194.453	6130.36
194.529	6170.43
194.604	6130.12
194.679	6115
194.755	6054.76
194.83	6089.05
194.905	6078.98
194.981	6101.68
195.056	6081.53
195.131	6102.21
195.207	6095.92
195.282	6064.93
195.357	6003.29
195.433	6048.73
195.508	6007.99
195.583	6030.01
195.659	6070.43
195.734	6088.23
195.809	6086.46
195.884	6111.35
195.96	6107.41
196.035	6153.62
196.11	6144.54
196.185	6174.34
196.261	6182.26
196.336	6274.77
196.411	6229.01
196.486	6246.62
196.561	6225.46
196.637	6251.51
196.712	6292
196.787	6301.98
196.862	6349.44
196.937	6377.94
197.013	6394.56
197.088	6428.63
197.163	6489.11
197.238	6539.33
197.313	6539.38
197.388	6581.58
197.464	6669.35
197.539	6707.22
197.614	6687.25
197.689	6715.93
197.764	6765.17
197.839	6821.5
197.914	6806.07
197.989	6873.7
198.065	6911.69
198.14	7063.94
198.215	7138.17
198.29	7169.8
198.365	7211.65
198.44	7235.72
198.515	7316.84
198.59	7358.99
198.665	7429.06
198.74	7452.14
198.815	7451.37
198.89	7516.2
198.965	7597.57
199.04	7587.04
199.115	7633.27
199.19	7754.06
199.265	7767.04
199.34	7790.93
199.415	7887.73
199.49	7951.23
199.565	7978.07
199.64	8051.21
199.715	8035.33
199.79	8050.38
199.865	8062.07
199.94	8053.27
200.015	8146.06
200.09	8169.15
200.165	8182.91
200.24	8204.85
200.315	8311.68
200.39	8355.02
200.464	8371.91
200.539	8373.54
200.614	8417.17
200.689	8480.64
200.764	8499.8
200.839	8543.51
200.914	8565.98
200.989	8530.36
201.063	8570.83
201.138	8520.97
201.213	8513.18
201.288	8459.2
201.363	8469.3
201.438	8474.5
201.512	8524.51
201.587	8477.4
201.662	8481.25
201.737	8514.31
201.812	8537.36
201.886	8444.48
201.961	8472.26
202.036	8439.8
202.111	8428.1
202.186	8345.16
202.26	8294.05
202.335	8236.36
202.41	8222.6
202.485	8169.46
202.559	8122.08
202.634	8037.61
202.709	8063.76
202.784	8010.23
202.858	8007.87
202.933	7955.46
203.008	7940.16
203.082	7878.27
203.157	7874.81
203.232	7753.21
203.306	7692.46
203.381	7601.07
203.456	7533.91
203.53	7464.23
203.605	7405.67
203.68	7336.81
203.754	7314.19
203.829	7274.14
203.904	7212.2
203.978	7176.76
204.053	7187.19
204.127	7150.58
204.202	7145.82
204.277	7099.07
204.351	7085.23
204.426	7063.74
204.5	7044.43
204.575	6940.64
204.65	6971.5
204.724	6943.99
204.799	6970.83
204.873	6959.19
204.948	6953.19
205.022	6923.42
205.097	6901.78
205.171	6946.74
205.246	6980.58
205.32	6982.36
205.395	6981.49
205.469	6960.32
205.544	6980.17
205.618	6927.04
205.693	6958.13
205.767	6924.65
205.842	6982.7
205.916	6960.75
205.991	6937.59
206.065	6952.15
206.14	6998.56
206.214	6983.65
206.289	6967.65
206.363	7002.86
206.438	7014.5
206.512	7039.44
206.586	7094.48
206.661	7117.32
206.735	7049.91
206.81	7049.47
206.884	7093.23
206.958	7053.36
207.033	7090.09
207.107	7103.13
207.181	7202.15
207.256	7183.99
207.33	7239.48
207.405	7275.37
207.479	7329.91
207.553	7350.95
207.628	7310.32
207.702	7341.84
207.776	7323.48
207.851	7330.69
207.925	7372.91
207.999	7363.83
208.073	7353.97
208.148	7361.14
208.222	7328.21
208.296	7418.94
208.371	7466.04
208.445	7496.81
208.519	7581.48
208.593	7619.02
208.668	7612.53
208.742	7608.29
208.816	7621.56
208.89	7659.17
208.965	7654.45
209.039	7679.9
209.113	7722.06
209.187	7782.88
209.261	7771.83
209.336	7827.84
209.41	7890.07
209.484	7889.78
209.558	7956.35
209.632	7989.72
209.707	8014.2
209.781	8076.09
209.855	8123.52
209.929	8169.79
210.003	8185.09
210.077	8178.98
210.151	8315.85
210.226	8414.32
210.3	8495.21
210.374	8556.73
210.448	8566.45
210.522	8590.51
210.596	8617.17
210.67	8649.65
210.744	8782.41
210.818	8878.42
210.892	8935.89
210.966	8916.21
211.041	8960.69
211.115	8947.35
211.189	9018.05
211.263	9071.09
211.337	9086.97
211.411	9125.54
211.485	9106.03
211.559	9144.1
211.633	9158.39
211.707	9070.16
211.781	9089.14
211.855	8991.65
211.929	8967.83
212.003	8915.69
212.077	8944.58
212.151	8974.82
212.225	8997.93
212.299	8959.39
212.373	8922.86
212.447	8911.54
212.52	8989.48
212.594	8997.47
212.668	9033.91
212.742	8994.53
212.816	8977.25
212.89	8965.79
212.964	8955.83
213.038	8964.69
213.112	8997.53
213.186	9032.23
213.26	8971.28
213.333	8835.65
213.407	8847.73
213.481	8852.92
213.555	8890.2
213.629	8848.74
213.703	8798.29
213.777	8792.28
213.85	8732.64
213.924	8831.88
213.998	8825.86
214.072	8802.5
214.146	8755.33
214.219	8737.9
214.293	8722.46
214.367	8722.17
214.441	8743.39
214.515	8706.23
214.588	8627.35
214.662	8516.53
214.736	8448.3
214.81	8461.72
214.883	8483.64
214.957	8438.72
215.031	8394.97
215.105	8314.4
215.178	8264.85
215.252	8238.3
215.326	8156.99
215.4	8090.5
215.473	7929.28
215.547	7859.57
215.621	7805.71
215.694	7803.98
215.768	7719.04
215.842	7661.73
215.915	7604.38
215.989	7504.25
216.063	7455.43
216.136	7441.44
216.21	7421.64
216.284	7432.12
216.357	7411.93
216.431	7374.53
216.504	7376.45
216.578	7420.16
216.652	7429.77
216.725	7407.8
216.799	7413.33
216.873	7392.52
216.946	7402.61
217.02	7371.01
217.093	7348.95
217.167	7262.78
217.24	7193.64
217.314	7162.66
217.387	7127.61
217.461	7090.07
217.535	7110.35
217.608	7059.52
217.682	7037.89
217.755	7049.33
217.829	7005.06
217.902	6992.28
217.976	6978.15
218.049	6933.81
218.123	6870.5
218.196	6865.89
218.27	6834.18
218.343	6774.01
218.417	6777.56
218.49	6756.57
218.563	6797.06
218.637	6806.24
218.71	6871.92
218.784	6893.35
218.857	6924.33
218.931	6944.11
219.004	6953.81
219.077	6971.31
219.151	6990.42
219.224	6984.61
219.298	6981.78
219.371	7013.78
219.444	6982.9
219.518	6992.8
219.591	7008.45
219.665	7100.64
219.738	7115.87
219.811	7106.31
219.885	7147.3
219.958	7173.54
220.031	7177.82
220.105	7191.47
220.178	7196.52
220.251	7171.66
220.325	7195.12
220.398	7207.91
220.471	7225.63
220.544	7251.59
220.618	7229.28
220.691	7249.51
220.764	7260.18
220.838	7287.58
220.911	7280.22
220.984	7351.96
221.057	7380.17
221.131	7405.26
221.204	7316.34
221.277	7382.69
221.35	7496.68
221.424	7484.75
221.497	7487.06
221.57	7511.56
221.643	7540.8
221.716	7571.24
221.79	7584.65
221.863	7591.68
221.936	7593.98
222.009	7608.06
222.082	7639.71
222.155	7653.89
222.229	7708.96
222.302	7739
222.375	7735.93
222.448	7767.04
222.521	7771.89
222.594	7774.68
222.667	7747.44
222.74	7802.72
222.814	7789.64
222.887	7766.92
222.96	7815.93
223.033	7858.4
223.106	7873.78
223.179	7900.54
223.252	7913.19
223.325	7934.4
223.398	7951.76
223.471	7984.17
223.544	7997.01
223.617	8001.91
223.69	8022.21
223.763	7987.86
223.837	8007.49
223.91	8037.02
223.983	7998.89
224.056	7968.45
224.129	7985.14
224.202	8037.82
224.275	8023.53
224.348	7996.07
224.42	7969.95
224.493	7926.33
224.566	7904.01
224.639	7927.24
224.712	7900.92
224.785	7895.77
224.858	7891.58
224.931	7869.89
225.004	7830.94
225.077	7831.9
225.15	7752.39
225.223	7752.92
225.296	7822.74
225.369	7769.66
225.442	7738.78
225.514	7754.74
225.587	7770.75
225.66	7788.46
225.733	7785.91
225.806	7794.61
225.879	7793.7
225.952	7765
226.025	7802.27
226.097	7846.98
226.17	7837.21
226.243	7781.92
226.316	7769.32
226.389	7769.99
226.461	7789.57
226.534	7808.03
226.607	7801.3
226.68	7872.63
226.753	7865.03
226.825	7798.24
226.898	7849.88
226.971	7858.49
227.044	7872.91
227.117	7878.49
227.189	7884.7
227.262	7919.19
227.335	7929.58
227.407	7927.56
227.48	7957.7
227.553	7963.96
227.626	7948.22
227.698	7950.86
227.771	7988.31
227.844	7975.71
227.916	7994.95
227.989	7967.15
228.062	7971.23
228.134	8052.89
228.207	8060.29
228.28	8051.06
228.352	8067.03
228.425	8075.21
228.498	8117.64
228.57	8102.06
228.643	8157.01
228.716	8161.68
228.788	8148.98
228.861	8150.13
228.934	8208.62
229.006	8216.56
229.079	8223.01
229.151	8211.17
229.224	8186.79
229.296	8207.71
229.369	8298.05
229.442	8335.92
229.514	8324.1
229.587	8360.9
229.659	8288.72
229.732	8291.89
229.804	8334.36
229.877	8398.19
229.949	8422.98
230.022	8460.72
230.094	8468.17
230.167	8457.39
230.239	8417.37
230.312	8407.6
230.384	8469.31
230.457	8459.44
230.529	8473.06
230.602	8475.66
230.674	8486.92
230.747	8517.5
230.819	8540.88
230.892	8441.99
230.964	8441.99
231.037	8463.58
231.109	8456.8
231.181	8493.89
231.254	8473.15
231.326	8457.76
231.399	8440.95
231.471	8416.65
231.544	8349.79
231.616	8382.74
231.688	8387.99
231.761	8380.3
231.833	8373.75
231.905	8298.38
231.978	8299.73
232.05	8276.98
232.122	8283.19
232.195	8264.76
232.267	8296.56
232.339	8281.74
232.412	8335.43
232.484	8314.1
232.556	8287.66
232.629	8343.93
232.701	8355.24
232.773	8363.42
232.846	8356.49
232.918	8356.44
232.99	8378.29
233.062	8418.23
233.135	8430.55
233.207	8397.92
233.279	8440.69
233.351	8467.58
233.424	8473.54
233.496	8454.3
233.568	8531
233.64	8496.03
233.713	8507.72
233.785	8511.81
233.857	8521.63
233.929	8475.68
234.001	8533.65
234.074	8595.27
234.146	8533.17
234.218	8532.07
234.29	8535.92
234.362	8527.4
234.434	8492.51
234.507	8462.91
234.579	8420.08
234.651	8402.38
234.723	8431.44
234.795	8441.88
234.867	8441.64
234.939	8495.11
235.012	8511.85
235.084	8516.86
235.156	8548.95
235.228	8535.24
235.3	8518.39
235.372	8533.7
235.444	8588.98
235.516	8521.63
235.588	8525.38
235.66	8543.67
235.732	8523.69
235.804	8688.85
235.876	8725.8
235.948	8780.34
236.02	8791.36
236.092	8807.62
236.164	8822.01
236.236	8823.21
236.308	8819.5
236.38	8839.43
236.452	8823.93
236.524	8838.7
236.596	8891.84
236.668	8919.37
236.74	8941.89
236.812	8969.04
236.884	8998.69
236.956	9018.38
237.028	9013.91
237.1	8997.07
237.172	9057.97
237.244	9122.62
237.316	9022.6
237.388	9013.65
237.46	8991.06
237.532	9042.43
237.604	9035.07
237.675	9098.1
237.747	9140.03
237.819	9133.58
237.891	9139.7
237.963	9134.45
238.035	9138.25
238.107	9046.03
238.178	9104.02
238.25	9110.86
238.322	9186.43
238.394	9155.42
238.466	9146.7
238.538	9183.04
238.609	9225.64
238.681	9184.66
238.753	9168.67
238.825	9184.52
238.897	9214.46
238.968	9289.5
239.04	9276.59
239.112	9367.2
239.184	9337.68
239.255	9336.77
239.327	9371.81
239.399	9391.21
239.471	9430.79
239.542	9458.66
239.614	9512.25
239.686	9445.5
239.758	9496.97
239.829	9470.53
239.901	9520.17
239.973	9543.57
240.044	9582.1
240.116	9589.42
240.188	9603.48
240.259	9616.29
240.331	9612
240.403	9640.65
240.474	9600.81
240.546	9593.97
240.618	9543.93
240.689	9536.52
240.761	9554
240.833	9606.02
240.904	9610.26
240.976	9605.88
241.048	9620.95
241.119	9658.28
241.191	9699.75
241.262	9750.62
241.334	9754.53
241.405	9757.46
241.477	9755.15
241.549	9760.6
241.62	9792.43
241.692	9829.42
241.763	9887.04
241.835	9905.63
241.906	9919.74
241.978	9897.78
242.049	9955.43
242.121	10010.63
242.192	10074.97
242.264	10045.98
242.335	10012.21
242.407	10053.3
242.478	10067.61
242.55	10088.13
242.621	10083.79
242.693	10085.53
242.764	10088.18
242.836	10094.58
242.907	10128.31
242.979	10159.95
243.05	10183.9
243.122	10200.23
243.193	10201
243.264	10140.64
243.336	10154.08
243.407	10185.44
243.479	10254.52
243.55	10275
243.622	10291.19
243.693	10286.8
243.764	10353.76
243.836	10334.45
243.907	10325.35
243.978	10327.37
244.05	10346.93
244.121	10301.6
244.192	10333.11
244.264	10284.45
244.335	10293.6
244.407	10247.11
244.478	10256.07
244.549	10243.35
244.62	10214.21
244.692	10211.37
244.763	10251.15
244.834	10229.14
244.906	10213.91
244.977	10230.49
245.048	10270.73
245.119	10258.06
245.191	10243.46
245.262	10182.14
245.333	10252.46
245.405	10266.29
245.476	10304.11
245.547	10322.18
245.618	10370.78
245.689	10381.43
245.761	10411.73
245.832	10418.77
245.903	10463.62
245.974	10491.08
246.045	10509.25
246.117	10579.54
246.188	10576.94
246.259	10562.15
246.33	10584.75
246.401	10598.38
246.473	10571.45
246.544	10560.89
246.615	10605.8
246.686	10620.11
246.757	10693.87
246.828	10672.28
246.899	10738.69
246.97	10701.31
247.042	10693.69
247.113	10736.44
247.184	10815.87
247.255	10815.38
247.326	10843.04
247.397	10847.48
247.468	10858.9
247.539	10875.33
247.61	10838.27
247.681	10884.04
247.752	10934.64
247.823	10912.96
247.894	10925.24
247.965	10904.48
248.037	10896.38
248.108	10856.68
248.179	10862.07
248.25	10850.17
248.321	10880.24
248.392	10834.64
248.463	10909.18
248.534	10910.96
248.605	10921.57
248.675	10897.8
248.746	10912.84
248.817	10923.39
248.888	10939.82
248.959	10894.29
249.03	10908.12
249.101	10916.26
249.172	10895.11
249.243	10828.33
249.314	10887.17
249.385	10899.31
249.456	10923.59
249.527	10913.04
249.598	10933.66
249.669	10934.29
249.739	10948.26
249.81	10957.23
249.881	10926.15
249.952	10920.17
250.023	10915.3
250.094	10880.51
250.165	10849.57
250.235	10851.97
250.306	10856.65
250.377	10837.66
250.448	10864.16
250.519	10816.8
250.59	10861.18
250.66	10866.1
250.731	10934.61
250.802	10931.76
250.873	10943.09
250.944	10962.56
251.014	10964.87
251.085	11040.15
251.156	11064.87
251.227	11108.2
251.297	11152.26
251.368	11198.08
251.439	11238.62
251.51	11284.45
251.58	11272.45
251.651	11278.76
251.722	11328.12
251.792	11287.88
251.863	11289.23
251.934	11340.17
252.005	11439.3
252.075	11454.68
252.146	11492.7
252.217	11539.21
252.287	11579.5
252.358	11591.5
252.429	11658.45
252.499	11653.87
252.57	11665.15
252.641	11699.28
252.711	11709.16
252.782	11674.41
252.852	11740.15
252.923	11737.69
252.994	11751.72
253.064	11794.75
253.135	11775.14
253.205	11750.56
253.276	11814.13
253.347	11876.39
253.417	11857.93
253.488	11837.4
253.558	11827.33
253.629	11832.82
253.699	11841.5
253.77	11868.2
253.841	11863.14
253.911	11872.73
253.982	11892.44
254.052	11920.31
254.123	11931.39
254.193	11927.44
254.264	12044.57
254.334	12018.5
254.405	11986.11
254.475	11958.05
254.546	11964.08
254.616	12018.98
254.687	12052.43
254.757	12071.66
254.827	12066.31
254.898	12092
254.968	12096.53
255.039	12081.83
255.109	12111.91
255.18	12082.21
255.25	12021.82
255.321	12053.97
255.391	12016.27
255.461	12083.95
255.532	12012.7
255.602	12011.45
255.673	11971.06
255.743	11942.42
255.813	11880.3
255.884	11923.29
255.954	11961.81
256.024	12019.65
256.095	12026.11
256.165	11995.16
256.235	12007.55
256.306	11989.48
256.376	12034.26
256.446	12067.57
256.517	12099.28
256.587	12134.71
256.657	12157.99
256.728	12179.35
256.798	12184.79
256.868	12184.79
256.938	12163.05
257.009	12215.02
257.079	12232.13
257.149	12318.41
257.219	12268.76
257.29	12305.77
257.36	12259.93
257.43	12289.77
257.5	12230.24
257.571	12223.83
257.641	12258.34
257.711	12235.59
257.781	12270.63
257.852	12274.49
257.922	12227.2
257.992	12227.92
258.062	12223.97
258.132	12257.71
258.202	12263.98
258.273	12272.46
258.343	12339.23
258.413	12326.16
258.483	12319.85
258.553	12305.29
258.623	12278.06
258.693	12301.19
258.764	12363.28
258.834	12432.98
258.904	12448.07
258.974	12437.66
259.044	12449.03
259.114	12472.89
259.184	12502.25
259.254	12509.24
259.324	12474.58
259.394	12519.74
259.464	12585.5
259.535	12589.64
259.605	12588.15
259.675	12575.76
259.745	12613.41
259.815	12594.95
259.885	12608.11
259.955	12708.66
260.025	12700.37
260.095	12721.53
260.165	12749.06
260.235	12793.94
260.305	12776.39
260.375	12755.09
260.445	12837.08
260.515	12889.77
260.585	12935.81
260.655	12947.09
260.725	12985.89
260.795	13016.65
260.865	13072.42
260.934	13054.44
261.004	13080.86
261.074	13084.33
261.144	13137.16
261.214	13158.47
261.284	13154.27
261.354	13178.66
261.424	13134.89
261.494	13200.26
261.564	13200.4
261.634	13226.05
261.703	13174.76
261.773	13197.32
261.843	13223.16
261.913	13222.34
261.983	13176.01
262.053	13194.33
262.123	13192.64
262.192	13159.48
262.262	13188.83
262.332	13149.64
262.402	13174.85
262.472	13186.13
262.541	13146.22
262.611	13190.52
262.681	13166.37
262.751	13207.73
262.821	13213.85
262.89	13183.05
262.96	13209.03
263.03	13277.97
263.1	13297.25
263.169	13317.26
263.239	13343.24
263.309	13402.63
263.379	13428.56
263.448	13447.56
263.518	13466.74
263.588	13480.77
263.657	13548.5
