Data from 20250626_urea_1M_exp2_MAYP1162681_08-53-59-047.txt Node
Date: Fri Jun 27 08:53:59 BST 2025
User: adleo
Spectrometer: MAYP116268
Trigger mode: 0
Integration Time (sec): 3.000000E0
Scans to average: 1
Electric dark correction enabled: true
Nonlinearity correction enabled: true
Boxcar width: 10
XAxis mode: Wavelengths
Number of Pixels in Spectrum: 2068
>>>>>Begin Spectral Data<<<<<
179.565	3006.26
179.642	3162.04
179.718	3281.87
179.795	3395.63
179.871	3488.2
179.948	3540.93
180.024	3599.87
180.101	3664.71
180.177	3701.47
180.254	3760.38
180.33	3821.1
180.407	4026.99
180.483	4260.22
180.56	4496.83
180.636	4716.36
180.712	4687.01
180.789	4708.17
180.865	4743
180.942	4768.79
181.018	4795.74
181.095	4832.87
181.171	4848.96
181.248	4852.5
181.324	4894.51
181.4	4908.88
181.477	4936.76
181.553	4968.73
181.63	5019.5
181.706	5059.22
181.782	5086.88
181.859	5091.91
181.935	5108.49
182.011	5101.83
182.088	5147.63
182.164	5202.86
182.24	5234.03
182.317	5260.42
182.393	5256.25
182.469	5295.97
182.546	5326.4
182.622	5341.92
182.698	5330.61
182.775	5364.97
182.851	5400
182.927	5380.74
183.003	5366.85
183.08	5350.89
183.156	5376.91
183.232	5373.51
183.308	5347.39
183.385	5364.88
183.461	5403.94
183.537	5405.52
183.613	5438.54
183.69	5411.84
183.766	5380.28
183.842	5403
183.918	5415.66
183.995	5444.31
184.071	5451.7
184.147	5441.01
184.223	5405.52
184.299	5436.3
184.375	5405.24
184.452	5424.24
184.528	5530.17
184.604	5562.56
184.68	5593.13
184.756	5612.46
184.832	5623.77
184.908	5635.94
184.985	5636.28
185.061	5595.21
185.137	5615.87
185.213	5583.47
185.289	5590.37
185.365	5572.64
185.441	5562.48
185.517	5603.59
185.593	5595.3
185.669	5586.62
185.745	5614.95
185.822	5660.84
185.898	5641.61
185.974	5665.53
186.05	5641.06
186.126	5578.05
186.202	5557.97
186.278	5548.57
186.354	5524.21
186.43	5540.09
186.506	5532.67
186.582	5535.21
186.658	5560.02
186.734	5511.38
186.81	5519.91
186.886	5530.84
186.962	5558.3
187.038	5552.69
187.114	5522.37
187.19	5547.78
187.266	5520.13
187.341	5521
187.417	5503.89
187.493	5499.72
187.569	5508.49
187.645	5495.17
187.721	5462.99
187.797	5488.68
187.873	5499.42
187.949	5475.03
188.025	5455.46
188.101	5461.88
188.176	5472.9
188.252	5458.48
188.328	5481.9
188.404	5481.09
188.48	5466.81
188.556	5446.96
188.632	5447.49
188.707	5455.26
188.783	5447.78
188.859	5441.6
188.935	5406.55
189.011	5425.87
189.086	5413.17
189.162	5392.03
189.238	5388.19
189.314	5378.99
189.39	5359.82
189.465	5342.75
189.541	5393.13
189.617	5353.26
189.693	5341.05
189.768	5349.34
189.844	5416.69
189.92	5390.06
189.996	5415.36
190.071	5445.57
190.147	5443.12
190.223	5467.1
190.298	5444.03
190.374	5405.21
190.45	5434.82
190.526	5459.46
190.601	5445.94
190.677	5444.89
190.753	5520.65
190.828	5528.51
190.904	5567.25
190.98	5604.8
191.055	5629.39
191.131	5609.68
191.207	5666.14
191.282	5694.27
191.358	5669.06
191.433	5627.84
191.509	5660.84
191.585	5652.74
191.66	5651.59
191.736	5677.09
191.811	5652.78
191.887	5694.08
191.963	5756.27
192.038	5766.58
192.114	5768.45
192.189	5780.91
192.265	5778.66
192.34	5715.59
192.416	5714.2
192.491	5704.18
192.567	5718.86
192.642	5724.86
192.718	5723.13
192.793	5696.66
192.869	5683.43
192.944	5688.99
193.02	5709.67
193.095	5718.77
193.171	5735.22
193.246	5736.9
193.322	5730.14
193.397	5729.52
193.473	5697.95
193.548	5653.16
193.624	5673.16
193.699	5666.49
193.775	5705.88
193.85	5708.81
193.925	5731.25
194.001	5726.56
194.076	5704.17
194.152	5669.81
194.227	5656.72
194.302	5634.34
194.378	5641.34
194.453	5634.92
194.529	5670.12
194.604	5631.42
194.679	5623.17
194.755	5569.07
194.83	5599.73
194.905	5589.71
194.981	5615.89
195.056	5595.72
195.131	5613.5
195.207	5607.46
195.282	5583.78
195.357	5534.99
195.433	5572.05
195.508	5540.93
195.583	5565.67
195.659	5606.81
195.734	5621.25
195.809	5616.41
195.884	5634.57
195.96	5631.74
196.035	5672.78
196.11	5661.7
196.185	5693.49
196.261	5700.68
196.336	5784.02
196.411	5738.48
196.486	5754.31
196.561	5735.65
196.637	5759.43
196.712	5798.39
196.787	5804.29
196.862	5847.78
196.937	5869.84
197.013	5889.22
197.088	5918.14
197.163	5968.63
197.238	6016.42
197.313	6017.33
197.388	6055.57
197.464	6141.73
197.539	6178.19
197.614	6159.72
197.689	6188.8
197.764	6228.6
197.839	6280.43
197.914	6267.75
197.989	6334.7
198.065	6373.62
198.14	6507.31
198.215	6577.93
198.29	6608.91
198.365	6648.48
198.44	6671.04
198.515	6751
198.59	6789.28
198.665	6854.02
198.74	6885.2
198.815	6881.74
198.89	6943.5
198.965	7017.7
199.04	7005.63
199.115	7039.25
199.19	7149.15
199.265	7162.98
199.34	7193.69
199.415	7280.8
199.49	7333.55
199.565	7354.88
199.64	7420.24
199.715	7407.69
199.79	7424.75
199.865	7444.75
199.94	7434.56
200.015	7524.7
200.09	7536.86
200.165	7550.75
200.24	7569.89
200.315	7665.74
200.39	7709.54
200.464	7724.78
200.539	7729.06
200.614	7773.19
200.689	7838.4
200.764	7857.59
200.839	7894.88
200.914	7905.27
200.989	7873.9
201.063	7913.24
201.138	7869.38
201.213	7866.39
201.288	7819.04
201.363	7828.7
201.438	7831.3
201.512	7878.69
201.587	7833.04
201.662	7843.14
201.737	7872.33
201.812	7898.74
201.886	7815.29
201.961	7840.84
202.036	7810.9
202.111	7798.97
202.186	7714.84
202.26	7668.28
202.335	7614.23
202.41	7601.68
202.485	7558.09
202.559	7509.35
202.634	7436
202.709	7460.78
202.784	7408.68
202.858	7415.6
202.933	7365.43
203.008	7342.83
203.082	7284.35
203.157	7283.73
203.232	7171.48
203.306	7120.76
203.381	7029.24
203.456	6965.87
203.53	6901.13
203.605	6848.13
203.68	6787.2
203.754	6773.62
203.829	6733.65
203.904	6676.45
203.978	6645.18
204.053	6656.8
204.127	6623.24
204.202	6620.74
204.277	6573.11
204.351	6557.56
204.426	6531.95
204.5	6518.84
204.575	6426.94
204.65	6459.12
204.724	6432.35
204.799	6454.56
204.873	6442.17
204.948	6440.35
205.022	6408.01
205.097	6386.53
205.171	6423.53
205.246	6446.49
205.32	6443.85
205.395	6444.91
205.469	6419.3
205.544	6435.63
205.618	6384.83
205.693	6418.16
205.767	6384.17
205.842	6437.62
205.916	6419.57
205.991	6393.21
206.065	6399.84
206.14	6440.89
206.214	6420.95
206.289	6400.44
206.363	6428.19
206.438	6433.09
206.512	6451.48
206.586	6503.17
206.661	6527
206.735	6467.61
206.81	6471.6
206.884	6508.74
206.958	6469.82
207.033	6517.17
207.107	6530.97
207.181	6619.88
207.256	6606.96
207.33	6660.92
207.405	6700.68
207.479	6750.38
207.553	6770.69
207.628	6732.59
207.702	6761.68
207.776	6745.3
207.851	6757.89
207.925	6802.77
207.999	6792.06
208.073	6783.9
208.148	6788.07
208.222	6756.85
208.296	6844.2
208.371	6888.05
208.445	6918.5
208.519	6995
208.593	7027.71
208.668	7022.9
208.742	7020.98
208.816	7023.81
208.89	7061.07
208.965	7050.1
209.039	7075.72
209.113	7116.75
209.187	7173.54
209.261	7168.11
209.336	7227.45
209.41	7277.63
209.484	7280.18
209.558	7345.69
209.632	7383.45
209.707	7415.89
209.781	7472.93
209.855	7510.34
209.929	7557.21
210.003	7573.89
210.077	7575.72
210.151	7703.19
210.226	7793.76
210.3	7868.16
210.374	7930.5
210.448	7937.28
210.522	7966.86
210.596	7991.63
210.67	8018.51
210.744	8143.31
210.818	8226.81
210.892	8276.75
210.966	8262.08
211.041	8296.33
211.115	8286.86
211.189	8349.14
211.263	8392.2
211.337	8406.67
211.411	8446.42
211.485	8426.73
211.559	8457.95
211.633	8465.3
211.707	8376.58
211.781	8394.98
211.855	8303.41
211.929	8279.85
212.003	8231.25
212.077	8261.72
212.151	8288.91
212.225	8316.19
212.299	8278.54
212.373	8245.25
212.447	8232.69
212.52	8309.81
212.594	8317.32
212.668	8345.36
212.742	8311.44
212.816	8298.02
212.89	8279.69
212.964	8280.42
213.038	8288.69
213.112	8319.01
213.186	8354.85
213.26	8301.49
213.333	8170.56
213.407	8184.07
213.481	8190.27
213.555	8221.22
213.629	8184.65
213.703	8141.83
213.777	8132.59
213.85	8073.9
213.924	8161.15
213.998	8158.21
214.072	8132.46
214.146	8088.64
214.219	8079.16
214.293	8060.88
214.367	8059.78
214.441	8085.75
214.515	8042.01
214.588	7970.49
214.662	7872.19
214.736	7809.01
214.81	7824.05
214.883	7847.35
214.957	7810.73
215.031	7766.23
215.105	7691.3
215.178	7637.26
215.252	7606.39
215.326	7531.2
215.4	7473.31
215.473	7329.17
215.547	7261.95
215.621	7212.6
215.694	7221.35
215.768	7139.54
215.842	7087.56
215.915	7035.34
215.989	6945.27
216.063	6902.73
216.136	6887.49
216.21	6871.98
216.284	6882.31
216.357	6860.26
216.431	6825.34
216.504	6817.41
216.578	6857.78
216.652	6867.28
216.725	6849.41
216.799	6857.53
216.873	6837.7
216.946	6846.34
217.02	6820.95
217.093	6801.21
217.167	6725.33
217.24	6653.3
217.314	6628.15
217.387	6593.46
217.461	6553.84
217.535	6571.56
217.608	6520.14
217.682	6501.55
217.755	6506.02
217.829	6458.32
217.902	6445.12
217.976	6433.41
218.049	6400.19
218.123	6341.96
218.196	6337.36
218.27	6308.17
218.343	6247.85
218.417	6248.23
218.49	6226.39
218.563	6258.6
218.637	6261.24
218.71	6319.39
218.784	6339.79
218.857	6368.88
218.931	6388.4
219.004	6394.21
219.077	6408.33
219.151	6429.11
219.224	6418.94
219.298	6418.02
219.371	6455.24
219.444	6427.31
219.518	6433.65
219.591	6444.88
219.665	6535.8
219.738	6553.03
219.811	6545.83
219.885	6586.36
219.958	6610.9
220.031	6617.52
220.105	6636.78
220.178	6641.49
220.251	6616.89
220.325	6641.2
220.398	6649.75
220.471	6662.66
220.544	6690.61
220.618	6671.73
220.691	6689.17
220.764	6703.09
220.838	6726.63
220.911	6712.74
220.984	6778.38
221.057	6803.11
221.131	6824.33
221.204	6741.43
221.277	6790.82
221.35	6886.37
221.424	6880.89
221.497	6891.03
221.57	6907.59
221.643	6927.73
221.716	6958.05
221.79	6969.14
221.863	6972.27
221.936	6984.71
222.009	7002.28
222.082	7022.99
222.155	7031.74
222.229	7080.04
222.302	7108
222.375	7106.8
222.448	7140.57
222.521	7143.65
222.594	7149.18
222.667	7126.94
222.74	7177.92
222.814	7174.51
222.887	7159.69
222.96	7198.29
223.033	7234.2
223.106	7255.09
223.179	7283.32
223.252	7297.98
223.325	7315.28
223.398	7324.36
223.471	7348.25
223.544	7360.88
223.617	7373.1
223.69	7392.46
223.763	7364.63
223.837	7381.21
223.91	7406.59
223.983	7368.15
224.056	7342.73
224.129	7358.59
224.202	7402.1
224.275	7387.25
224.348	7363.61
224.42	7338.27
224.493	7295.89
224.566	7273.91
224.639	7289.48
224.712	7264.62
224.785	7260.15
224.858	7257.31
224.931	7250.92
225.004	7214.35
225.077	7216.08
225.15	7141.44
225.223	7141.82
225.296	7207.56
225.369	7156.73
225.442	7135.24
225.514	7147.73
225.587	7166.81
225.66	7175.65
225.733	7181.9
225.806	7185.07
225.879	7179.83
225.952	7153.13
226.025	7192.58
226.097	7234.9
226.17	7226.59
226.243	7176.62
226.316	7167.15
226.389	7169.17
226.461	7177.15
226.534	7189.16
226.607	7180.8
226.68	7249.68
226.753	7243.19
226.825	7176.77
226.898	7225.97
226.971	7226.84
227.044	7244.52
227.117	7248.22
227.189	7264.81
227.262	7285.58
227.335	7303.03
227.407	7301.87
227.48	7329.11
227.553	7335.75
227.626	7321.17
227.698	7327.42
227.771	7359.26
227.844	7347.54
227.916	7364.74
227.989	7337.45
228.062	7335.96
228.134	7405.77
228.207	7406.92
228.28	7398.47
228.352	7410.96
228.425	7418.18
228.498	7451.73
228.57	7434.05
228.643	7472.66
228.716	7470.16
228.788	7465.11
228.861	7460.01
228.934	7513.56
229.006	7519.18
229.079	7517.88
229.151	7503.41
229.224	7483.71
229.296	7502.45
229.369	7581.91
229.442	7623.86
229.514	7610.98
229.587	7652.22
229.659	7587.98
229.732	7597.36
229.804	7635.38
229.877	7696.37
229.949	7720.28
230.022	7762.9
230.094	7773.43
230.167	7764.82
230.239	7729.2
230.312	7713.72
230.384	7771.64
230.457	7765.19
230.529	7776.78
230.602	7779.57
230.674	7786.78
230.747	7816.33
230.819	7837.88
230.892	7747.27
230.964	7739.28
231.037	7762.01
231.109	7754.12
231.181	7793.44
231.254	7768.78
231.326	7758.01
231.399	7738.96
231.471	7715.87
231.544	7649.92
231.616	7680.59
231.688	7684.78
231.761	7677.86
231.833	7676.08
231.905	7609.65
231.978	7606.81
232.05	7589.61
232.122	7594.27
232.195	7577.68
232.267	7601.34
232.339	7581.87
232.412	7624.16
232.484	7606.46
232.556	7584.65
232.629	7639.64
232.701	7646.81
232.773	7649.93
232.846	7637.72
232.918	7644.55
232.99	7656.05
233.062	7691.63
233.135	7699.76
233.207	7676.96
233.279	7709.5
233.351	7734.07
233.424	7733.49
233.496	7716.23
233.568	7783.41
233.64	7753.46
233.713	7766.88
233.785	7768.51
233.857	7779.52
233.929	7742.99
234.001	7797.22
234.074	7849.32
234.146	7789.24
234.218	7787.7
234.29	7796.01
234.362	7786.5
234.434	7744.12
234.507	7722.68
234.579	7682.57
234.651	7664.3
234.723	7688.87
234.795	7706.47
234.867	7699.89
234.939	7743.84
235.012	7761.73
235.084	7768.66
235.156	7799.23
235.228	7779.09
235.3	7768.27
235.372	7777.79
235.444	7828.46
235.516	7762.98
235.588	7771.11
235.66	7786.3
235.732	7763.46
235.804	7919.29
235.876	7957.89
235.948	8012.68
236.02	8016.15
236.092	8024.8
236.164	8032.78
236.236	8033.4
236.308	8030.81
236.38	8051.39
236.452	8036.58
236.524	8050.04
236.596	8098.62
236.668	8123.25
236.74	8149.12
236.812	8167.35
236.884	8192.18
236.956	8198.77
237.028	8193.09
237.1	8177.46
237.172	8231.79
237.244	8296.35
237.316	8202.77
237.388	8189.06
237.46	8172.8
237.532	8224.94
237.604	8222.01
237.675	8286
237.747	8316.41
237.819	8300.4
237.891	8307.18
237.963	8299.63
238.035	8294.73
238.107	8203.47
238.178	8254.02
238.25	8255.75
238.322	8325.74
238.394	8295.91
238.466	8296.25
238.538	8331.98
238.609	8362.72
238.681	8318.69
238.753	8296.5
238.825	8301.51
238.897	8322.96
238.968	8384.58
239.04	8370.04
239.112	8463.48
239.184	8433.21
239.255	8430.22
239.327	8466.82
239.399	8481.02
239.471	8522.73
239.542	8554.24
239.614	8605.44
239.686	8537.24
239.758	8579.53
239.829	8551.6
239.901	8600.35
239.973	8616.32
240.044	8638.41
240.116	8648.18
240.188	8663.33
240.259	8677.05
240.331	8672.09
240.403	8701.3
240.474	8662.06
240.546	8655.9
240.618	8606.9
240.689	8603.77
240.761	8623.41
240.833	8671.25
240.904	8671.06
240.976	8671.21
241.048	8680.69
241.119	8713.76
241.191	8753.61
241.262	8807.39
241.334	8809.8
241.405	8817.36
241.477	8817.65
241.549	8824.92
241.62	8850.09
241.692	8889.61
241.763	8940.36
241.835	8960.05
241.906	8977.57
241.978	8960.19
242.049	9012.9
242.121	9059.49
242.192	9113.02
242.264	9084.19
242.335	9047.7
242.407	9085.39
242.478	9088.71
242.55	9106.05
242.621	9099.69
242.693	9094.97
242.764	9088.76
242.836	9093.09
242.907	9119.24
242.979	9151.01
243.05	9166.9
243.122	9182.83
243.193	9175.08
243.264	9114.23
243.336	9117.89
243.407	9144.76
243.479	9209.9
243.55	9225.16
243.622	9237.35
243.693	9236.72
243.764	9294.78
243.836	9274.38
243.907	9264.32
243.978	9269.47
244.05	9290.08
244.121	9252.38
244.192	9286.18
244.264	9246.45
244.335	9261.23
244.407	9216.6
244.478	9223.54
244.549	9223.49
244.62	9189.11
244.692	9189.88
244.763	9229.84
244.834	9221.22
244.906	9202.25
244.977	9209.71
245.048	9246.18
245.119	9228.8
245.191	9207.47
245.262	9159.61
245.333	9218.96
245.405	9238.17
245.476	9258.2
245.547	9272.31
245.618	9308.22
245.689	9316.46
245.761	9344.14
245.832	9340.58
245.903	9382.37
245.974	9398.89
246.045	9407.12
246.117	9482.24
246.188	9468.62
246.259	9454.8
246.33	9465.35
246.401	9476.04
246.473	9443.19
246.544	9435.53
246.615	9482.83
246.686	9495.15
246.757	9553.36
246.828	9535.93
246.899	9590.08
246.97	9563.99
247.042	9558.64
247.113	9593.94
247.184	9670.98
247.255	9666.75
247.326	9690.25
247.397	9696.75
247.468	9710.43
247.539	9719.87
247.61	9677.44
247.681	9715.23
247.752	9757.51
247.823	9744.85
247.894	9759.83
247.965	9747.21
248.037	9734.25
248.108	9690.76
248.179	9691.77
248.25	9682.53
248.321	9709.06
248.392	9673.02
248.463	9740.39
248.534	9735.19
248.605	9751.13
248.675	9719.09
248.746	9734.07
248.817	9751.22
248.888	9764.85
248.959	9717.12
249.03	9735.38
249.101	9743.71
249.172	9733.55
249.243	9673.84
249.314	9723.54
249.385	9728.41
249.456	9748.39
249.527	9745.79
249.598	9764.57
249.669	9765.72
249.739	9772.08
249.81	9777.57
249.881	9743.81
249.952	9731.91
250.023	9725.8
250.094	9681.53
250.165	9661.97
250.235	9661.2
250.306	9663.08
250.377	9637.94
250.448	9661.82
250.519	9620.16
250.59	9664.96
250.66	9657.78
250.731	9716.53
250.802	9715.08
250.873	9728.09
250.944	9741.24
251.014	9737.05
251.085	9805.12
251.156	9824.96
251.227	9864.18
251.297	9918.95
251.368	9965.09
251.439	9999.88
251.51	10046.51
251.58	10036.78
251.651	10035.04
251.722	10074.74
251.792	10032.11
251.863	10034.33
251.934	10084.33
252.005	10166.8
252.075	10170.17
252.146	10212.46
252.217	10254.08
252.287	10284.05
252.358	10291.71
252.429	10361.38
252.499	10349.91
252.57	10354.69
252.641	10393.32
252.711	10403.39
252.782	10362.34
252.852	10417.61
252.923	10423.44
252.994	10439.49
253.064	10480.38
253.135	10464.15
253.205	10450.08
253.276	10514.77
253.347	10566.46
253.417	10542.32
253.488	10525.27
253.558	10524.74
253.629	10526.71
253.699	10534.81
253.77	10564.01
253.841	10555.34
253.911	10557.17
253.982	10574.7
254.052	10604.82
254.123	10610.9
254.193	10611.81
254.264	10714.07
254.334	10686.84
254.405	10658.85
254.475	10623.24
254.546	10629.99
254.616	10678.98
254.687	10704.09
254.757	10720.57
254.827	10717.05
254.898	10740.03
254.968	10748.95
255.039	10727.55
255.109	10749.19
255.18	10731.6
255.25	10672.24
255.321	10703.36
255.391	10671.84
255.461	10741.09
255.532	10674.44
255.602	10668.61
255.673	10631.7
255.743	10602.93
255.813	10537.12
255.884	10574.8
255.954	10602.94
256.024	10658.26
256.095	10664.43
256.165	10637.35
256.235	10652.19
256.306	10640.29
256.376	10682.99
256.446	10714.07
256.517	10741
256.587	10776.81
256.657	10788.66
256.728	10808.51
256.798	10807.45
256.868	10803.88
256.938	10778.58
257.009	10815.88
257.079	10838.87
257.149	10917.7
257.219	10877.12
257.29	10914.11
257.36	10869.84
257.43	10907.23
257.5	10849.84
257.571	10844.39
257.641	10873.45
257.711	10846.32
257.781	10873.97
257.852	10886.84
257.922	10837.21
257.992	10843.04
258.062	10838.41
258.132	10872.1
258.202	10870.9
258.273	10885.59
258.343	10947.47
258.413	10936.39
258.483	10945.55
258.553	10931.28
258.623	10909.16
258.693	10927.95
258.764	10985.34
258.834	11048.51
258.904	11057.67
258.974	11053.14
259.044	11058.1
259.114	11077.86
259.184	11098.87
259.254	11106.49
259.324	11060.8
259.394	11101.66
259.464	11158.34
259.535	11171.06
259.605	11161.95
259.675	11158
259.745	11190.68
259.815	11170.53
259.885	11172.17
259.955	11263.61
260.025	11251.76
260.095	11262.7
260.165	11286.46
260.235	11332.88
260.305	11317.94
260.375	11300.59
260.445	11372.34
260.515	11425.55
260.585	11465.5
260.655	11477.65
260.725	11505.55
260.795	11541.75
260.865	11595.05
260.934	11572.93
261.004	11596.16
261.074	11601.22
261.144	11654.95
261.214	11678.72
261.284	11680.45
261.354	11709.08
261.424	11671.28
261.494	11724.87
261.564	11723.47
261.634	11739.96
261.703	11691.47
261.773	11712.77
261.843	11739.91
261.913	11733.4
261.983	11690.5
262.053	11705.16
262.123	11699.08
262.192	11672.82
262.262	11699.18
262.332	11661.3
262.402	11682.41
262.472	11684.29
262.541	11638.46
262.611	11671.72
262.681	11651.81
262.751	11687.19
262.821	11696.49
262.89	11664
262.96	11684.68
263.03	11751.49
263.1	11778.1
263.169	11790.68
263.239	11813.57
263.309	11863.46
263.379	11893.59
263.448	11911.95
263.518	11938.46
263.588	11954.71
263.657	12015.77
263.727	12048.46
263.797	12056.17
263.867	12062.67
263.936	12036.69
264.006	12086.38
264.076	12083.39
264.145	12083.2
