Data from 20250626_urea_1M_exp2_MAYP1162681_10-43-58-523.txt Node
Date: Fri Jun 27 10:43:58 BST 2025
User: adleo
Spectrometer: MAYP116268
Trigger mode: 0
Integration Time (sec): 3.000000E0
Scans to average: 1
Electric dark correction enabled: true
Nonlinearity correction enabled: true
Boxcar width: 10
XAxis mode: Wavelengths
Number of Pixels in Spectrum: 2068
>>>>>Begin Spectral Data<<<<<
179.565	3144.81
179.642	3307.31
179.718	3432.36
179.795	3553.62
179.871	3646.58
179.948	3706.68
180.024	3767.05
180.101	3835
180.177	3874.22
180.254	3940.18
180.33	4002.16
180.407	4221.28
180.483	4468.97
180.56	4715.16
180.636	4942.16
180.712	4913.84
180.789	4937.45
180.865	4975.55
180.942	5002.6
181.018	5033.92
181.095	5074.66
181.171	5095.98
181.248	5100.82
181.324	5145.92
181.4	5158.33
181.477	5192.06
181.553	5224.29
181.63	5282.18
181.706	5319.9
181.782	5349.2
181.859	5348.24
181.935	5365.64
182.011	5358.55
182.088	5401.83
182.164	5454.97
182.24	5490.8
182.317	5512.22
182.393	5511.22
182.469	5542.8
182.546	5579.57
182.622	5591.46
182.698	5577.21
182.775	5609.1
182.851	5643.14
182.927	5620.07
183.003	5611.69
183.08	5592.99
183.156	5621.04
183.232	5615.19
183.308	5584.8
183.385	5603.87
183.461	5648.9
183.537	5650.43
183.613	5683.95
183.69	5659.01
183.766	5630.99
183.842	5655.07
183.918	5671.76
183.995	5700.19
184.071	5712.18
184.147	5701.24
184.223	5666.36
184.299	5697.3
184.375	5665.27
184.452	5683.21
184.528	5788.02
184.604	5823.07
184.68	5856.77
184.756	5869.48
184.832	5879.61
184.908	5897.34
184.985	5895.56
185.061	5846.9
185.137	5873.62
185.213	5838.04
185.289	5841.78
185.365	5821.98
185.441	5815.55
185.517	5853.95
185.593	5854.09
185.669	5849.2
185.745	5876.73
185.822	5924.76
185.898	5903.79
185.974	5927.91
186.05	5905.41
186.126	5843.77
186.202	5817.44
186.278	5803.82
186.354	5784.44
186.43	5803.11
186.506	5797.41
186.582	5798.42
186.658	5823.19
186.734	5764.94
186.81	5778.27
186.886	5782.77
186.962	5815.33
187.038	5802.24
187.114	5777.47
187.19	5791.43
187.266	5763.86
187.341	5761.46
187.417	5741.75
187.493	5739.64
187.569	5748.85
187.645	5735.81
187.721	5704
187.797	5730.9
187.873	5746.68
187.949	5725.59
188.025	5706.39
188.101	5715.07
188.176	5725.81
188.252	5716.56
188.328	5744.59
188.404	5741.52
188.48	5737.54
188.556	5717.35
188.632	5721.76
188.707	5720.32
188.783	5715.72
188.859	5702.25
188.935	5673.91
189.011	5693.86
189.086	5676.79
189.162	5653.91
189.238	5651.9
189.314	5647.3
189.39	5625.67
189.465	5607.49
189.541	5656.7
189.617	5617.19
189.693	5601.38
189.768	5612.27
189.844	5679.06
189.92	5652.32
189.996	5678.27
190.071	5706.42
190.147	5705.7
190.223	5729.4
190.298	5709.11
190.374	5672.19
190.45	5707.89
190.526	5731.39
190.601	5720.79
190.677	5726.74
190.753	5806.08
190.828	5813.8
190.904	5853.57
190.98	5898
191.055	5926.87
191.131	5902.6
191.207	5957.36
191.282	5990.01
191.358	5962.01
191.433	5924.32
191.509	5958.54
191.585	5948.51
191.66	5950.1
191.736	5974.03
191.811	5948.03
191.887	5997.51
191.963	6061.55
192.038	6074.6
192.114	6076.04
192.189	6085.63
192.265	6075.14
192.34	6010.8
192.416	6009.7
192.491	5998.27
192.567	6003.27
192.642	6004.04
192.718	6009.12
192.793	5978.56
192.869	5963.45
192.944	5970.26
193.02	5987.05
193.095	5996.12
193.171	6012.24
193.246	6008.06
193.322	5995.16
193.397	6000.24
193.473	5956.33
193.548	5905.94
193.624	5918.33
193.699	5911.95
193.775	5952.17
193.85	5963.05
193.925	5986.46
194.001	5980.57
194.076	5959.12
194.152	5931.1
194.227	5912.58
194.302	5878.87
194.378	5888.8
194.453	5879.26
194.529	5913.66
194.604	5873.36
194.679	5859.88
194.755	5807.34
194.83	5843.01
194.905	5841.52
194.981	5862.58
195.056	5847
195.131	5865.27
195.207	5859.61
195.282	5835.34
195.357	5782.6
195.433	5819.53
195.508	5790.22
195.583	5812.66
195.659	5857.39
195.734	5872.02
195.809	5877.35
195.884	5904.91
195.96	5900.74
196.035	5942.23
196.11	5933.54
196.185	5969.81
196.261	5980.69
196.336	6067.86
196.411	6021.83
196.486	6034.1
196.561	6015.11
196.637	6042.54
196.712	6087.67
196.787	6098.85
196.862	6142.16
196.937	6172.29
197.013	6186.07
197.088	6214.04
197.163	6273.49
197.238	6315.1
197.313	6318.41
197.388	6349.56
197.464	6430.47
197.539	6467.43
197.614	6449.24
197.689	6478.19
197.764	6521.56
197.839	6578.88
197.914	6558.43
197.989	6627.04
198.065	6668.95
198.14	6811.11
198.215	6879.07
198.29	6913.29
198.365	6954.07
198.44	6988.26
198.515	7061.49
198.59	7106.41
198.665	7178.77
198.74	7201.65
198.815	7202.57
198.89	7261.32
198.965	7341.98
199.04	7331.41
199.115	7371.67
199.19	7490.41
199.265	7502.46
199.34	7523.57
199.415	7610.09
199.49	7669.34
199.565	7695.06
199.64	7759.43
199.715	7747.64
199.79	7759.9
199.865	7774.47
199.94	7766.69
200.015	7851.96
200.09	7869.28
200.165	7884.57
200.24	7897.89
200.315	8005.52
200.39	8051.35
200.464	8072.51
200.539	8077.23
200.614	8119.98
200.689	8186.75
200.764	8202.44
200.839	8244.74
200.914	8257.87
200.989	8228.56
201.063	8265.16
201.138	8211.48
201.213	8210.86
201.288	8155.69
201.363	8169.49
201.438	8168.82
201.512	8210.07
201.587	8157.24
201.662	8168.89
201.737	8205.3
201.812	8226.62
201.886	8136.21
201.961	8161.29
202.036	8124.41
202.111	8113.92
202.186	8035.19
202.26	7984.38
202.335	7930.12
202.41	7916.61
202.485	7873.87
202.559	7821.17
202.634	7751.11
202.709	7776.57
202.784	7722.82
202.858	7726.08
202.933	7679.74
203.008	7659.54
203.082	7611.76
203.157	7612.19
203.232	7488.8
203.306	7426.28
203.381	7337.62
203.456	7270.86
203.53	7205.76
203.605	7152.41
203.68	7090.1
203.754	7069.56
203.829	7024.66
203.904	6966.48
203.978	6936.78
204.053	6951.2
204.127	6916.52
204.202	6911
204.277	6866.09
204.351	6842.74
204.426	6819.92
204.5	6798.92
204.575	6705.21
204.65	6722.46
204.724	6694.67
204.799	6716.89
204.873	6707.52
204.948	6706.22
205.022	6674.64
205.097	6649.54
205.171	6691.85
205.246	6713.18
205.32	6720.24
205.395	6722.06
205.469	6700.52
205.544	6715.41
205.618	6662.15
205.693	6694.76
205.767	6664.36
205.842	6717.83
205.916	6709.04
205.991	6684.21
206.065	6700.49
206.14	6740.36
206.214	6728.44
206.289	6707.93
206.363	6745.91
206.438	6754.23
206.512	6774.88
206.586	6830.44
206.661	6856.2
206.735	6789.73
206.81	6795.01
206.884	6830.89
206.958	6795.31
207.033	6836.11
207.107	6847.89
207.181	6938.61
207.256	6922.76
207.33	6971.55
207.405	7006.13
207.479	7056.33
207.553	7080.64
207.628	7033.15
207.702	7066.92
207.776	7049.72
207.851	7058.17
207.925	7098.07
207.999	7085.2
208.073	7074.92
208.148	7079.48
208.222	7051.12
208.296	7137.83
208.371	7179.72
208.445	7205.91
208.519	7284.13
208.593	7319.54
208.668	7316.85
208.742	7328.06
208.816	7335.07
208.89	7373.3
208.965	7367.67
209.039	7390.94
209.113	7430.93
209.187	7487.06
209.261	7476.3
209.336	7534.13
209.41	7594.61
209.484	7597.06
209.558	7659.66
209.632	7699.41
209.707	7728.49
209.781	7779.75
209.855	7831.79
209.929	7877.23
210.003	7893.38
210.077	7888.38
210.151	8016.27
210.226	8113.37
210.3	8185.98
210.374	8246.65
210.448	8254.97
210.522	8292.31
210.596	8312.81
210.67	8339.74
210.744	8474.09
210.818	8567.82
210.892	8624.08
210.966	8606.62
211.041	8642.37
211.115	8636.35
211.189	8702.75
211.263	8750.92
211.337	8769.35
211.411	8800.35
211.485	8780.75
211.559	8818.81
211.633	8828.38
211.707	8744.74
211.781	8759.62
211.855	8656.09
211.929	8632.43
212.003	8586.6
212.077	8612.7
212.151	8651.11
212.225	8682.29
212.299	8644.25
212.373	8609.7
212.447	8594.53
212.52	8673.03
212.594	8688.87
212.668	8719.04
212.742	8674.13
212.816	8656.42
212.89	8639.2
212.964	8640.4
213.038	8653.74
213.112	8682.52
213.186	8718.99
213.26	8653.31
213.333	8525.36
213.407	8540.08
213.481	8548.25
213.555	8578.5
213.629	8539.55
213.703	8487.19
213.777	8468.03
213.85	8412.3
213.924	8500.59
213.998	8494.77
214.072	8472.96
214.146	8426.8
214.219	8415.54
214.293	8404.14
214.367	8403.23
214.441	8424.3
214.515	8379.4
214.588	8302.99
214.662	8203.07
214.736	8140.5
214.81	8157.89
214.883	8175.53
214.957	8137.69
215.031	8090.83
215.105	8015.53
215.178	7963.01
215.252	7932.52
215.326	7858.41
215.4	7791.03
215.473	7644.33
215.547	7580.89
215.621	7532.33
215.694	7528.34
215.768	7443.43
215.842	7392.14
215.915	7338.71
215.989	7251.92
216.063	7210.08
216.136	7197.92
216.21	7174.28
216.284	7186.73
216.357	7167.46
216.431	7135.65
216.504	7126.42
216.578	7178.34
216.652	7187.84
216.725	7170.3
216.799	7179.87
216.873	7161.71
216.946	7170.84
217.02	7136.75
217.093	7109.07
217.167	7022.49
217.24	6954.58
217.314	6928.22
217.387	6892.64
217.461	6856.22
217.535	6871.07
217.608	6817.99
217.682	6794.35
217.755	6802.47
217.829	6756.29
217.902	6742.75
217.976	6722.14
218.049	6688.43
218.123	6623.12
218.196	6623.98
218.27	6590.31
218.343	6531.41
218.417	6529.34
218.49	6509.08
218.563	6544.71
218.637	6553.78
218.71	6618.68
218.784	6640.25
218.857	6663.72
218.931	6680.67
219.004	6680.28
219.077	6699.89
219.151	6715.01
219.224	6705.22
219.298	6702.48
219.371	6731.88
219.444	6703.31
219.518	6713.88
219.591	6726.5
219.665	6812.22
219.738	6816.59
219.811	6806.13
219.885	6839.12
219.958	6865.74
220.031	6870.78
220.105	6886.2
220.178	6890.19
220.251	6858.52
220.325	6882.26
220.398	6890.14
220.471	6906.42
220.544	6936.97
220.618	6910.73
220.691	6935.57
220.764	6948.53
220.838	6972.22
220.911	6966.6
220.984	7031.06
221.057	7066.42
221.131	7084.48
221.204	7004.43
221.277	7063.35
221.35	7169.56
221.424	7165.14
221.497	7176.53
221.57	7201.31
221.643	7230.69
221.716	7262.12
221.79	7271.64
221.863	7280.92
221.936	7296.15
222.009	7303.11
222.082	7330.76
222.155	7343.06
222.229	7390.8
222.302	7420.5
222.375	7427.9
222.448	7459.63
222.521	7465.25
222.594	7456.51
222.667	7436.91
222.74	7489.54
222.814	7483.38
222.887	7465.24
222.96	7510.43
223.033	7549.68
223.106	7563.23
223.179	7592.48
223.252	7602.67
223.325	7628.68
223.398	7636.85
223.471	7659.4
223.544	7679.19
223.617	7685.21
223.69	7705.15
223.763	7676.01
223.837	7691.06
223.91	7712.32
223.983	7671.6
224.056	7643.68
224.129	7669.16
224.202	7709.9
224.275	7693.74
224.348	7669.56
224.42	7644.8
224.493	7602.68
224.566	7580.99
224.639	7596.66
224.712	7565.34
224.785	7555.39
224.858	7547.65
224.931	7528.75
225.004	7497.27
225.077	7493.37
225.15	7417.69
225.223	7412.88
225.296	7480.38
225.369	7434.14
225.442	7411.16
225.514	7420.43
225.587	7434.99
225.66	7435.37
225.733	7441.14
225.806	7449.46
225.879	7447.06
225.952	7418.75
226.025	7453.32
226.097	7492.48
226.17	7486.52
226.243	7434.71
226.316	7433.12
226.389	7433.17
226.461	7455.63
226.534	7474.99
226.607	7468.41
226.68	7538.13
226.753	7536.69
226.825	7470.97
226.898	7520
226.971	7515.77
227.044	7538.79
227.117	7550.76
227.189	7568.46
227.262	7597.12
227.335	7611.02
227.407	7609.53
227.48	7636.25
227.553	7643.22
227.626	7623.64
227.698	7630.61
227.771	7663.09
227.844	7646.46
227.916	7664.82
227.989	7629.49
228.062	7620.74
228.134	7694.8
228.207	7694.08
228.28	7682.5
228.352	7692.5
228.425	7697.21
228.498	7737.89
228.57	7722.61
228.643	7764.12
228.716	7764.65
228.788	7756.13
228.861	7752.04
228.934	7796.66
229.006	7799.16
229.079	7809.94
229.151	7795.7
229.224	7766.81
229.296	7786.77
229.369	7873.99
229.442	7907.67
229.514	7898.39
229.587	7944.75
229.659	7886.78
229.732	7897.7
229.804	7939.2
229.877	7998.52
229.949	8022.58
230.022	8065.7
230.094	8065.65
230.167	8057.33
230.239	8022.37
230.312	8008.81
230.384	8067.52
230.457	8070.88
230.529	8079.59
230.602	8073.14
230.674	8089.45
230.747	8121.79
230.819	8147.67
230.892	8049.06
230.964	8052.76
231.037	8074.44
231.109	8065.73
231.181	8095.64
231.254	8068.43
231.326	8051.16
231.399	8034.31
231.471	8006.41
231.544	7940.64
231.616	7976.17
231.688	7982.76
231.761	7967.96
231.833	7962.19
231.905	7887.42
231.978	7880.2
232.05	7870.78
232.122	7870.59
232.195	7845.67
232.267	7877.08
232.339	7856.4
232.412	7910.63
232.484	7885.86
232.556	7864.76
232.629	7915.48
232.701	7927.89
232.773	7932.89
232.846	7918.47
232.918	7920.06
232.99	7940.11
233.062	7978.94
233.135	7988.22
233.207	7960.41
233.279	8000.03
233.351	8031.1
233.424	8038.79
233.496	8018.06
233.568	8086.52
233.64	8060.07
233.713	8076.52
233.785	8073.77
233.857	8081.42
233.929	8036.89
234.001	8094.65
234.074	8150.66
234.146	8091.23
234.218	8089.79
234.29	8092.82
234.362	8088.25
234.434	8051.5
234.507	8020.81
234.579	7977.52
234.651	7958.71
234.723	7982.66
234.795	8000.51
234.867	7992.09
234.939	8038.66
235.012	8055.64
235.084	8052.84
235.156	8085.55
235.228	8068.81
235.3	8052.98
235.372	8063.9
235.444	8119.65
235.516	8052.32
235.588	8054.87
235.66	8064.82
235.732	8041.3
235.804	8199.22
235.876	8233.51
235.948	8286.53
236.02	8297.4
236.092	8308.8
236.164	8320.97
236.236	8315.72
236.308	8315.77
236.38	8339.78
236.452	8323.13
236.524	8339.2
236.596	8395.63
236.668	8419.79
236.74	8440.61
236.812	8466.11
236.884	8490.37
236.956	8495.04
237.028	8489.89
237.1	8478.01
237.172	8538.12
237.244	8601.4
237.316	8510.94
237.388	8499.68
237.46	8480.81
237.532	8535.67
237.604	8521.87
237.675	8582.71
237.747	8619.86
237.819	8605.33
237.891	8608.17
237.963	8600.86
238.035	8601.44
238.107	8512.61
238.178	8565.87
238.25	8572.22
238.322	8645.11
238.394	8615.23
238.466	8609.69
238.538	8649.05
238.609	8683.02
238.681	8637.48
238.753	8616.54
238.825	8627.09
238.897	8649.02
238.968	8714.89
239.04	8694.77
239.112	8790.44
239.184	8760.64
239.255	8758.86
239.327	8786.76
239.399	8803.22
239.471	8842.44
239.542	8870.79
239.614	8920.07
239.686	8848.58
239.758	8890.41
239.829	8858.96
239.901	8910.6
239.973	8927.74
240.044	8954.79
240.116	8962.59
240.188	8972.74
240.259	8987.76
240.331	8984.92
240.403	9016.78
240.474	8977.19
240.546	8969.25
240.618	8918.7
240.689	8920.39
240.761	8937.62
240.833	8992.46
240.904	8986.78
240.976	8979.22
241.048	8993.33
241.119	9026.17
241.191	9065.11
241.262	9119.97
241.334	9124.35
241.405	9120.16
241.477	9122.38
241.549	9128.44
241.62	9152.9
241.692	9199.12
241.763	9247.71
241.835	9262.93
241.906	9282.52
241.978	9255.13
242.049	9313.05
242.121	9365.28
242.192	9416.9
242.264	9389.12
242.335	9352.24
242.407	9389.7
242.478	9398.8
242.55	9409.05
242.621	9398.6
242.693	9398.41
242.764	9391.28
242.836	9393.78
242.907	9422.73
242.979	9454.36
243.05	9466.06
243.122	9483.21
243.193	9475.5
243.264	9420.84
243.336	9425.8
243.407	9450.9
243.479	9519.94
243.55	9529.96
243.622	9539.88
243.693	9533.67
243.764	9589.67
243.836	9567
243.907	9561.7
243.978	9566.61
244.05	9588.91
244.121	9551.5
244.192	9588.97
244.264	9549.95
244.335	9565.12
244.407	9526.84
244.478	9534.89
244.549	9534.74
244.62	9499.01
244.692	9494.39
244.763	9535.22
244.834	9525.44
244.906	9509.45
244.977	9525.21
245.048	9568.76
245.119	9559.18
245.191	9542.03
245.262	9488.44
245.333	9550.64
245.405	9565.96
245.476	9591.72
245.547	9608.58
245.618	9650.13
245.689	9661.69
245.761	9686.79
245.832	9688.52
245.903	9731.62
245.974	9748.86
246.045	9757.24
246.117	9825.88
246.188	9818.99
246.259	9800.35
246.33	9819.14
246.401	9828.34
246.473	9799.87
246.544	9785.99
246.615	9833.63
246.686	9842.88
246.757	9905.14
246.828	9885.83
246.899	9942.87
246.97	9911.91
247.042	9901.89
247.113	9935.03
247.184	10003.85
247.255	10003.37
247.326	10021.19
247.397	10020.66
247.468	10033.86
247.539	10045.66
247.61	10009.53
247.681	10045.41
247.752	10089.43
247.823	10063.23
247.894	10075.61
247.965	10050.81
248.037	10042.43
248.108	9991.03
248.179	9994.69
248.25	9992.04
248.321	10019.93
248.392	9976.71
248.463	10051.99
248.534	10051.46
248.605	10067.41
248.675	10040.03
248.746	10051.83
248.817	10069.95
248.888	10086.81
248.959	10038.59
249.03	10059.36
249.101	10063.89
249.172	10050.06
249.243	9987.65
249.314	10041.4
249.385	10049.54
249.456	10078.68
249.527	10080.6
249.598	10099.2
249.669	10096.4
249.739	10109.31
249.81	10114.9
249.881	10090.77
249.952	10080.12
250.023	10079.54
250.094	10035.94
250.165	10011.56
250.235	10009.25
250.306	10006.79
250.377	9979.82
250.448	10007.84
250.519	9951.73
250.59	10002.75
250.66	10004.34
250.731	10061.36
250.802	10062.9
250.873	10077.89
250.944	10089.93
251.014	10077.45
251.085	10150.6
251.156	10171.84
251.227	10209.71
251.297	10256.4
251.368	10291.71
251.439	10327.17
251.51	10363.79
251.58	10354.97
251.651	10362.25
251.722	10408.26
251.792	10371.17
251.863	10374.4
251.934	10420.89
252.005	10517.87
252.075	10521.24
252.146	10558.81
252.217	10597.94
252.287	10631.77
252.358	10638.95
252.429	10709.25
252.499	10697.06
252.57	10712
252.641	10755.37
252.711	10756.67
252.782	10715.42
252.852	10782.17
252.923	10775.42
252.994	10790.7
253.064	10833.86
253.135	10806.93
253.205	10788.66
253.276	10851.63
253.347	10916.15
253.417	10892.3
253.488	10875.72
253.558	10869.6
253.629	10868.97
253.699	10875.81
253.77	10897.6
253.841	10885.7
253.911	10890.13
253.982	10914.41
254.052	10936.34
254.123	10944.01
254.193	10949.93
254.264	11066.95
254.334	11034.9
254.405	11008.15
254.475	10983.19
254.546	10991.29
254.616	11041.88
254.687	11065.16
254.757	11077.01
254.827	11071.9
254.898	11097.73
254.968	11105.3
255.039	11085.25
255.109	11119.85
255.18	11104
255.25	11041.35
255.321	11068.82
255.391	11034.36
255.461	11100.52
255.532	11035.17
255.602	11029.24
255.673	10978.5
255.743	10943.75
255.813	10884.63
255.884	10926.79
255.954	10952.24
256.024	11001.11
256.095	11001.97
256.165	10972.05
256.235	10998.36
256.306	10977.89
256.376	11008.73
256.446	11040.06
256.517	11070.7
256.587	11109.02
256.657	11129.4
256.728	11146.94
256.798	11159.09
256.868	11150.41
256.938	11122.6
257.009	11157.59
257.079	11187.71
257.149	11278.79
257.219	11236
257.29	11270.78
257.36	11221
257.43	11260.62
257.5	11208.14
257.571	11204.91
257.641	11241.05
257.711	11208.08
257.781	11242.44
257.852	11264.03
257.922	11210.35
257.992	11218.64
258.062	11207.79
258.132	11237.72
258.202	11249.14
258.273	11256.71
258.343	11317.82
258.413	11308.86
258.483	11311.61
258.553	11286.74
258.623	11261.19
258.693	11281.19
258.764	11334.06
258.834	11397.86
258.904	11406.29
258.974	11391.69
259.044	11403.41
259.114	11419.74
259.184	11447.17
259.254	11455.36
259.324	11410.34
259.394	11446.78
259.464	11501.34
259.535	11505.97
259.605	11497.05
259.675	11488.81
259.745	11522.64
259.815	11503.56
259.885	11509.92
259.955	11600.64
260.025	11587.19
260.095	11595
260.165	11628.5
260.235	11680.75
260.305	11670.05
260.375	11644.36
260.445	11727.49
260.515	11776.08
260.585	11824.09
260.655	11825.58
260.725	11860.87
260.795	11894.7
260.865	11961.17
260.934	11942.71
261.004	11965.07
261.074	11970.38
261.144	12019.73
261.214	12042.33
261.284	12045.85
261.354	12075.15
261.424	12041.94
261.494	12105.27
261.564	12109.94
261.634	12121.03
261.703	12071.09
261.773	12091.05
261.843	12115.2
261.913	12105.7
261.983	12060.15
262.053	12062.66
262.123	12062.51
262.192	12026.94
262.262	12055.38
262.332	12013.01
262.402	12033.16
262.472	12041.21
262.541	12000.24
262.611	12040.25
262.681	12019.28
262.751	12054.04
262.821	12060.69
262.89	12031.91
262.96	12056.69
263.03	12121.57
263.1	12145.19
263.169	12160.03
263.239	12187.75
263.309	12248.87
263.379	12278.52
263.448	12295.44
263.518	12321.81
263.588	12337.76
263.657	12401.43
263.727	12433.73
263.797	12445.98
263.867	12444.14
263.936	12413.34
264.006	12462.74
