Data from 20250626_urea_1M_exp2_MAYP1162681_13-54-00-581.txt Node
Date: Fri Jun 27 13:54:00 BST 2025
User: adleo
Spectrometer: MAYP116268
Trigger mode: 0
Integration Time (sec): 3.000000E0
Scans to average: 1
Electric dark correction enabled: true
Nonlinearity correction enabled: true
Boxcar width: 10
XAxis mode: Wavelengths
Number of Pixels in Spectrum: 2068
>>>>>Begin Spectral Data<<<<<
179.565	3158.67
179.642	3329.67
179.718	3453.47
179.795	3573.96
179.871	3669.46
179.948	3721.05
180.024	3782.17
180.101	3848.23
180.177	3885.7
180.254	3948.73
180.33	4014.1
180.407	4236.44
180.483	4486.14
180.56	4734.39
180.636	4963.45
180.712	4932.55
180.789	4956.31
180.865	4990.86
180.942	5021.22
181.018	5046.98
181.095	5083.41
181.171	5099.6
181.248	5102
181.324	5147.38
181.4	5163.73
181.477	5190.7
181.553	5226.9
181.63	5283.55
181.706	5327.98
181.782	5362.74
181.859	5368.39
181.935	5386.37
182.011	5375.49
182.088	5415.71
182.164	5471.25
182.24	5506.56
182.317	5533.2
182.393	5525.96
182.469	5563.35
182.546	5601.89
182.622	5616.7
182.698	5609.37
182.775	5639.48
182.851	5674
182.927	5653.04
183.003	5641.78
183.08	5631.48
183.156	5663.17
183.232	5658.46
183.308	5629.41
183.385	5644.61
183.461	5691.27
183.537	5688.49
183.613	5722.96
183.69	5699.85
183.766	5672.69
183.842	5694.27
183.918	5709.28
183.995	5750.75
184.071	5758.95
184.147	5742.03
184.223	5713.71
184.299	5741.43
184.375	5708.59
184.452	5728.65
184.528	5834.23
184.604	5867.89
184.68	5900.74
184.756	5919.4
184.832	5933.36
184.908	5946.69
184.985	5946.16
185.061	5899.55
185.137	5927.32
185.213	5894.52
185.289	5897.54
185.365	5871.22
185.441	5866.86
185.517	5908.04
185.593	5894.65
185.669	5888.7
185.745	5917.72
185.822	5959.66
185.898	5938.17
185.974	5967.85
186.05	5943.61
186.126	5881.39
186.202	5855.07
186.278	5844.08
186.354	5815.11
186.43	5821.97
186.506	5815.88
186.582	5815.21
186.658	5833.62
186.734	5779.43
186.81	5792.43
186.886	5801.3
186.962	5838.46
187.038	5827.33
187.114	5803.09
187.19	5819.4
187.266	5797.82
187.341	5803
187.417	5784.21
187.493	5782.53
187.569	5788.96
187.645	5771.07
187.721	5737.68
187.797	5754.27
187.873	5763.52
187.949	5743.82
188.025	5731.01
188.101	5738.34
188.176	5751
188.252	5740.98
188.328	5762.16
188.404	5756.84
188.48	5746.73
188.556	5722.75
188.632	5723.42
188.707	5724.66
188.783	5725.29
188.859	5710.67
188.935	5677.09
189.011	5703.52
189.086	5690.24
189.162	5666.21
189.238	5663.43
189.314	5658.88
189.39	5649.91
189.465	5630.87
189.541	5684.59
189.617	5644.56
189.693	5624.67
189.768	5636.95
189.844	5701.63
189.92	5679.01
189.996	5706.35
190.071	5740.12
190.147	5743.9
190.223	5769.95
190.298	5747.98
190.374	5710
190.45	5741.78
190.526	5761.59
190.601	5744.8
190.677	5746.91
190.753	5830
190.828	5842.47
190.904	5880.42
190.98	5920.81
191.055	5946.04
191.131	5917.78
191.207	5975.66
191.282	6010.13
191.358	5983.61
191.433	5947.84
191.509	5982.5
191.585	5968.73
191.66	5969.06
191.736	5995.26
191.811	5967.48
191.887	6012.69
191.963	6077.31
192.038	6089.59
192.114	6095.11
192.189	6105.71
192.265	6099.77
192.34	6036.96
192.416	6029.72
192.491	6019.21
192.567	6030.63
192.642	6038.31
192.718	6039.75
192.793	6005.69
192.869	5996.19
192.944	6001.03
193.02	6018.12
193.095	6030.78
193.171	6052.71
193.246	6043.26
193.322	6030.2
193.397	6035.82
193.473	5995.6
193.548	5947.08
193.624	5966.66
193.699	5962.34
193.775	6000.55
193.85	6005.06
193.925	6025.64
194.001	6025.98
194.076	6004.49
194.152	5974.15
194.227	5954.48
194.302	5929.88
194.378	5940.15
194.453	5926.1
194.529	5958.39
194.604	5917.47
194.679	5901.78
194.755	5847.5
194.83	5886.34
194.905	5880.48
194.981	5899.87
195.056	5883.37
195.131	5897.62
195.207	5885.86
195.282	5857.51
195.357	5804.78
195.433	5846.51
195.508	5815.99
195.583	5837.91
195.659	5878.89
195.734	5892.33
195.809	5894.63
195.884	5919.32
195.96	5918.94
196.035	5964.36
196.11	5957.16
196.185	5989.97
196.261	5994.05
196.336	6080.79
196.411	6037.39
196.486	6046.89
196.561	6033.51
196.637	6059.6
196.712	6106.21
196.787	6117.59
196.862	6163.54
196.937	6191.46
197.013	6205.96
197.088	6235.08
197.163	6293.05
197.238	6338.64
197.313	6340.61
197.388	6379.49
197.464	6461.23
197.539	6500.3
197.614	6478.76
197.689	6512.7
197.764	6556.02
197.839	6616.03
197.914	6598.93
197.989	6662.65
198.065	6701.68
198.14	6835.52
198.215	6905.45
198.29	6933.13
198.365	6970.65
198.44	7000.91
198.515	7084.32
198.59	7126.31
198.665	7193.39
198.74	7211.75
198.815	7213.82
198.89	7278.77
198.965	7353.91
199.04	7337.43
199.115	7371.69
199.19	7497.45
199.265	7501.48
199.34	7530.23
199.415	7619.55
199.49	7674.95
199.565	7698.32
199.64	7767.74
199.715	7759.7
199.79	7779.08
199.865	7792.64
199.94	7788.84
200.015	7874.16
200.09	7882.53
200.165	7899.6
200.24	7918.46
200.315	8030.51
200.39	8076.78
200.464	8089.38
200.539	8092.36
200.614	8140.98
200.689	8209.19
200.764	8222.67
200.839	8269.49
200.914	8282.04
200.989	8249.03
201.063	8291.8
201.138	8247.82
201.213	8247.39
201.288	8197.8
201.363	8210.49
201.438	8212.51
201.512	8254.39
201.587	8201.61
201.662	8213.83
201.737	8245.44
201.812	8271.43
201.886	8179.91
201.961	8205.37
202.036	8172.82
202.111	8166.33
202.186	8083.85
202.26	8030.25
202.335	7969.92
202.41	7954.44
202.485	7908.91
202.559	7858.66
202.634	7782.63
202.709	7811.65
202.784	7756.98
202.858	7757.8
202.933	7700.92
203.008	7689.28
203.082	7640.39
203.157	7642.17
203.232	7526.56
203.306	7467.5
203.381	7373.78
203.456	7312.88
203.53	7241.62
203.605	7188.84
203.68	7123.41
203.754	7106.08
203.829	7067.82
203.904	7008.88
203.978	6975.86
204.053	6988.93
204.127	6956.7
204.202	6948.63
204.277	6893.43
204.351	6875.61
204.426	6854.17
204.5	6839.91
204.575	6742.68
204.65	6765.94
204.724	6742
204.799	6762.06
204.873	6750.38
204.948	6751.19
205.022	6714.28
205.097	6702.07
205.171	6745.81
205.246	6769.89
205.32	6770.66
205.395	6768.5
205.469	6743.79
205.544	6759.16
205.618	6707.29
205.693	6738.27
205.767	6707.54
205.842	6765.57
205.916	6749.39
205.991	6724.99
206.065	6736.9
206.14	6778.49
206.214	6761.67
206.289	6737.07
206.363	6766.32
206.438	6773.62
206.512	6788.9
206.586	6841.72
206.661	6863.78
206.735	6799.7
206.81	6799.55
206.884	6841.71
206.958	6809.64
207.033	6856.92
207.107	6874.7
207.181	6962.5
207.256	6945.44
207.33	6999.62
207.405	7037.66
207.479	7089.21
207.553	7105.06
207.628	7058.78
207.702	7090.96
207.776	7075.15
207.851	7087.4
207.925	7134.61
207.999	7125.34
208.073	7121.49
208.148	7127.6
208.222	7088.76
208.296	7172.79
208.371	7222.62
208.445	7251.7
208.519	7327.56
208.593	7361.54
208.668	7348.94
208.742	7357.07
208.816	7361.25
208.89	7398.81
208.965	7391.64
209.039	7415.54
209.113	7461.44
209.187	7522.47
209.261	7514.35
209.336	7575.16
209.41	7634.69
209.484	7631.85
209.558	7696.86
209.632	7729.88
209.707	7754.64
209.781	7818.87
209.855	7863.46
209.929	7905.34
210.003	7917.21
210.077	7916.64
210.151	8049.39
210.226	8149.38
210.3	8227.32
210.374	8297.28
210.448	8307.91
210.522	8337.55
210.596	8364.16
210.67	8391.91
210.744	8519.96
210.818	8610.72
210.892	8662.5
210.966	8647.21
211.041	8692.58
211.115	8676.13
211.189	8744.79
211.263	8801.28
211.337	8811.14
211.411	8849.89
211.485	8833.13
211.559	8872.93
211.633	8882.11
211.707	8798.37
211.781	8812.87
211.855	8715.49
211.929	8686.68
212.003	8635.99
212.077	8663.24
212.151	8693.57
212.225	8718.59
212.299	8690.08
212.373	8655.43
212.447	8640.12
212.52	8716.22
212.594	8723.34
212.668	8761.16
212.742	8720.01
212.816	8701.24
212.89	8690.85
212.964	8684.73
213.038	8693.21
213.112	8720.12
213.186	8750.14
213.26	8686.71
213.333	8559.01
213.407	8571.51
213.481	8580.31
213.555	8607.96
213.629	8572.77
213.703	8522.81
213.777	8511.74
213.85	8451.58
213.924	8539.87
213.998	8537.18
214.072	8510.65
214.146	8468.73
214.219	8453.38
214.293	8443.76
214.367	8445.01
214.441	8465.55
214.515	8428.25
214.588	8354.64
214.662	8250.44
214.736	8191.8
214.81	8205.89
214.883	8226.65
214.957	8185.3
215.031	8138.67
215.105	8064.29
215.178	8012.05
215.252	7984.4
215.326	7905.19
215.4	7835.78
215.473	7681.06
215.547	7604.92
215.621	7554.64
215.694	7551.08
215.768	7473.61
215.842	7413
215.915	7355.86
215.989	7264.54
216.063	7213.42
216.136	7197.9
216.21	7181.03
216.284	7189.35
216.357	7168.59
216.431	7131.3
216.504	7127.74
216.578	7175.96
216.652	7184.7
216.725	7167.78
216.799	7173.26
216.873	7155.39
216.946	7165.14
217.02	7139.98
217.093	7122.92
217.167	7042.49
217.24	6976.3
217.314	6945.14
217.387	6911.49
217.461	6873.01
217.535	6894.1
217.608	6844.2
217.682	6823.63
217.755	6830.26
217.829	6786.05
217.902	6772.55
217.976	6762.76
218.049	6721.69
218.123	6655.18
218.196	6657.43
218.27	6624.39
218.343	6564.09
218.417	6564.71
218.49	6544.35
218.563	6578.93
218.637	6585.03
218.71	6645.41
218.784	6664.67
218.857	6690.74
218.931	6705.96
219.004	6710.42
219.077	6720.9
219.151	6738.71
219.224	6731.36
219.298	6725.36
219.371	6757.5
219.444	6723.8
219.518	6724.95
219.591	6739.02
219.665	6830.21
219.738	6840.44
219.811	6828.25
219.885	6867.06
219.958	6892.96
220.031	6894.06
220.105	6914.39
220.178	6921.02
220.251	6897.28
220.325	6918.52
220.398	6929.47
220.471	6946.52
220.544	6974.19
220.618	6950.5
220.691	6973.99
220.764	6989.79
220.838	7017.13
220.911	7005.36
220.984	7075.01
221.057	7109.84
221.131	7135.15
221.204	7050.73
221.277	7113.99
221.35	7221.35
221.424	7214.05
221.497	7222.41
221.57	7249.69
221.643	7271.13
221.716	7304.11
221.79	7309.83
221.863	7317.19
221.936	7325.88
222.009	7338.42
222.082	7362.41
222.155	7377.74
222.229	7431.93
222.302	7455.09
222.375	7457.21
222.448	7492.01
222.521	7497.15
222.594	7494.61
222.667	7469.77
222.74	7515.43
222.814	7502.49
222.887	7482.19
222.96	7530.31
223.033	7567.58
223.106	7582.24
223.179	7607.54
223.252	7622.11
223.325	7642.2
223.398	7653.94
223.471	7678.84
223.544	7695.95
223.617	7706.09
223.69	7720.37
223.763	7687.72
223.837	7708.97
223.91	7736.43
223.983	7698.74
224.056	7669.76
224.129	7689.51
224.202	7730.11
224.275	7721.56
224.348	7700.64
224.42	7672.37
224.493	7623.42
224.566	7604.18
224.639	7615.96
224.712	7589.36
224.785	7569.5
224.858	7566.81
224.931	7548.77
225.004	7516.66
225.077	7518.54
225.15	7447.65
225.223	7442.27
225.296	7508.08
225.369	7454.49
225.442	7426.94
225.514	7437.94
225.587	7456.3
225.66	7463.22
225.733	7468.56
225.806	7478.42
225.879	7464.57
225.952	7437.28
226.025	7480.59
226.097	7518.6
226.17	7514.66
226.243	7458.14
226.316	7457.47
226.389	7457.9
226.461	7478.01
226.534	7489.97
226.607	7475.7
226.68	7539.66
226.753	7541.05
226.825	7467.74
226.898	7514.55
226.971	7515.27
227.044	7533.39
227.117	7538.15
227.189	7551.14
227.262	7576.1
227.335	7585.57
227.407	7587.69
227.48	7615.75
227.553	7614.84
227.626	7596.94
227.698	7606.89
227.771	7645.56
227.844	7634.51
227.916	7651.24
227.989	7617.78
228.062	7620.08
228.134	7699.49
228.207	7703.82
228.28	7693.34
228.352	7706.41
228.425	7716.23
228.498	7755.9
228.57	7745.66
228.643	7789.48
228.716	7785.49
228.788	7776.3
228.861	7776.73
228.934	7823.8
229.006	7829.09
229.079	7832.7
229.151	7823.94
229.224	7794.24
229.296	7813.47
229.369	7892.62
229.442	7935.2
229.514	7925.78
229.587	7962.32
229.659	7899.02
229.732	7905.17
229.804	7937.1
229.877	7999.94
229.949	8025.1
230.022	8064.8
230.094	8059.18
230.167	8049.56
230.239	8019.75
230.312	8009.45
230.384	8061.57
230.457	8060.7
230.529	8071.14
230.602	8074.46
230.674	8079.99
230.747	8112.34
230.819	8134.17
230.892	8040.08
230.964	8035.94
231.037	8057.91
231.109	8050.84
231.181	8079.45
231.254	8053.77
231.326	8050.64
231.399	8031.05
231.471	8002.76
231.544	7937.76
231.616	7978.58
231.688	7991.72
231.761	7978.89
231.833	7977.06
231.905	7910.95
231.978	7905.9
232.05	7886.67
232.122	7890.13
232.195	7870.27
232.267	7902.83
232.339	7885.61
232.412	7938.22
232.484	7912.14
232.556	7892.62
232.629	7948.78
232.701	7958.98
232.773	7962.97
232.846	7947.87
232.918	7952.01
232.99	7968.99
233.062	8001.41
233.135	8006.13
233.207	7972.07
233.279	8014.14
233.351	8029.86
233.424	8033.04
233.496	8014.42
233.568	8083.07
233.64	8051.66
233.713	8063.69
233.785	8060.22
233.857	8074.12
233.929	8033.39
234.001	8091.72
234.074	8141.68
234.146	8083.5
234.218	8082.78
234.29	8089.56
234.362	8082.49
234.434	8045.97
234.507	8020.53
234.579	7978.01
234.651	7963.05
234.723	7988.79
234.795	8001
234.867	8007.35
234.939	8047.62
235.012	8064.11
235.084	8067.05
235.156	8097.88
235.228	8083.5
235.3	8061.32
235.372	8070.8
235.444	8116.39
235.516	8051.37
235.588	8054.07
235.66	8063.78
235.732	8037.57
235.804	8192.85
235.876	8227.38
235.948	8279.34
236.02	8286.36
236.092	8301.75
236.164	8306.99
236.236	8303.96
236.308	8302.81
236.38	8316.76
236.452	8304.68
236.524	8317.43
236.596	8371.94
236.668	8404.28
236.74	8426.93
236.812	8451.66
236.884	8478.03
236.956	8484.91
237.028	8480.44
237.1	8467.16
237.172	8527.14
237.244	8596.71
237.316	8505.77
237.388	8492.01
237.46	8477.57
237.532	8535.61
237.604	8526.09
237.675	8589.52
237.747	8620.99
237.819	8612.29
237.891	8614.64
237.963	8606.66
238.035	8607.77
238.107	8518.03
238.178	8561.61
238.25	8568.05
238.322	8648.75
238.394	8615.11
238.466	8615.54
238.538	8647.58
238.609	8682.27
238.681	8638.85
238.753	8619.74
238.825	8627.68
238.897	8648.61
238.968	8711.93
239.04	8688
239.112	8777.56
239.184	8745.4
239.255	8744.34
239.327	8771.96
239.399	8792.18
239.471	8832.84
239.542	8862.34
239.614	8918.6
239.686	8857.41
239.758	8899.09
239.829	8866.87
239.901	8916.79
239.973	8930.6
240.044	8958.13
240.116	8968.48
240.188	8978.25
240.259	8988.65
240.331	8981.76
240.403	9018.24
240.474	8974.47
240.546	8967.39
240.618	8918.43
240.689	8921.66
240.761	8941.78
240.833	8997.15
240.904	8998.79
240.976	8998.12
241.048	9011.02
241.119	9045.02
241.191	9074.04
241.262	9131.22
241.334	9134.06
241.405	9137.62
241.477	9138.73
241.549	9144.94
241.62	9168.34
241.692	9213.26
241.763	9263.97
241.835	9281.3
241.906	9289.58
241.978	9269.8
242.049	9323.67
242.121	9375.42
242.192	9425.01
242.264	9398.44
242.335	9351.49
242.407	9388.95
242.478	9390.01
242.55	9403.21
242.621	9387.99
242.693	9398.72
242.764	9384.37
242.836	9386.49
242.907	9413.84
242.979	9444.03
243.05	9464.54
243.122	9483.33
243.193	9469.84
243.264	9413.16
243.336	9415.43
243.407	9448.08
243.479	9513.76
243.55	9532.74
243.622	9545.5
243.693	9546.51
243.764	9606.27
243.836	9596.16
243.907	9588.94
243.978	9597.32
244.05	9621.64
244.121	9583.55
244.192	9608.79
244.264	9573.29
244.335	9584.08
244.407	9536.6
244.478	9547.34
244.549	9533.32
244.62	9498.94
244.692	9502.41
244.763	9541.12
244.834	9531.29
244.906	9510.68
244.977	9527.49
245.048	9569.07
245.119	9551.78
245.191	9531.94
245.262	9480.8
245.333	9538.62
245.405	9550.76
245.476	9579.46
245.547	9596.37
245.618	9636.05
245.689	9651.51
245.761	9677.95
245.832	9681.66
245.903	9725.72
245.974	9746.67
246.045	9760.49
246.117	9836.88
246.188	9822.97
246.259	9809.97
246.33	9827.59
246.401	9840.6
246.473	9809.67
246.544	9793.58
246.615	9838.95
246.686	9845.36
246.757	9902.62
246.828	9884.7
246.899	9940.78
246.97	9904.81
247.042	9894.12
247.113	9932.32
247.184	10001.85
247.255	10000.02
247.326	10023.34
247.397	10022.85
247.468	10036.34
247.539	10050.99
247.61	10001.8
247.681	10041.77
247.752	10081.46
247.823	10064.56
247.894	10080.16
247.965	10055.51
248.037	10043.22
248.108	10003.72
248.179	10011.81
248.25	10005.26
248.321	10030.79
248.392	9989.35
248.463	10063.28
248.534	10062.27
248.605	10076.39
248.675	10045.5
248.746	10064.57
248.817	10076.42
248.888	10096.99
248.959	10047.38
249.03	10068.15
249.101	10075.37
249.172	10062.7
249.243	10004.48
249.314	10055.34
249.385	10058.91
249.456	10091.27
249.527	10084.43
249.598	10101.05
249.669	10099.02
249.739	10109.24
249.81	10114.39
249.881	10079.9
249.952	10070.41
250.023	10069.5
250.094	10023.15
250.165	10001.18
250.235	9992.94
250.306	9997.04
250.377	9971.7
250.448	9996.45
250.519	9942.02
250.59	9994.54
250.66	9986.78
250.731	10047.95
250.802	10046.79
250.873	10058.93
250.944	10068.42
251.014	10060.67
251.085	10134.82
251.156	10156.88
251.227	10197.12
251.297	10251.42
251.368	10301.95
251.439	10340.11
251.51	10382.75
251.58	10374.13
251.651	10373.26
251.722	10421.59
251.792	10381.94
251.863	10383.39
251.934	10433.69
252.005	10527.48
252.075	10531.58
252.146	10573.92
252.217	10610.44
252.287	10639.55
252.358	10646.05
252.429	10706.04
252.499	10707.49
252.57	10718.53
252.641	10752.01
252.711	10759.48
252.782	10715.97
252.852	10776.45
252.923	10777.85
252.994	10791.92
253.064	10835.61
253.135	10817.64
253.205	10793.89
253.276	10859.32
253.347	10911.3
253.417	10890.53
253.488	10872.27
253.558	10863.26
253.629	10867.69
253.699	10882.24
253.77	10912.36
253.841	10903.64
253.911	10919.4
253.982	10933.18
254.052	10953.76
254.123	10963.98
254.193	10963.06
254.264	11073.43
254.334	11045.67
254.405	11008.18
254.475	10971.17
254.546	10975.89
254.616	11022.68
254.687	11045.04
254.757	11055.21
254.827	11060.89
254.898	11079.78
254.968	11090.24
255.039	11081.9
255.109	11111.2
255.18	11085.13
255.25	11025.42
255.321	11053.27
255.391	11017.8
255.461	11084.98
255.532	11017.79
255.602	11011.14
255.673	10970.23
255.743	10937.89
255.813	10874
255.884	10921.27
255.954	10952.98
256.024	11009.08
256.095	11022.38
256.165	11001.03
256.235	11018.34
256.306	11007.69
256.376	11047.49
256.446	11079.88
256.517	11098.19
256.587	11133.81
256.657	11156.56
256.728	11171.64
256.798	11174.29
256.868	11171.88
256.938	11147.64
257.009	11186.19
257.079	11211.35
257.149	11290.72
257.219	11248.55
257.29	11280.05
257.36	11230.47
257.43	11266.86
257.5	11204.88
257.571	11193.75
257.641	11223.43
257.711	11197.74
257.781	11221.02
257.852	11232.59
257.922	11185.65
257.992	11189.5
258.062	11181.93
258.132	11210.32
258.202	11221.21
258.273	11243.14
258.343	11297.6
258.413	11292.64
258.483	11295.39
258.553	11273.55
258.623	11250.37
258.693	11271.14
258.764	11333.12
258.834	11395.67
258.904	11406.51
258.974	11404.34
259.044	11418.03
259.114	11440.63
259.184	11464.78
259.254	11477.65
259.324	11439.14
259.394	11476.25
259.464	11538.28
259.535	11552.11
259.605	11544.54
259.675	11529.37
259.745	11555.68
259.815	11544.21
259.885	11543.83
259.955	11635.85
260.025	11628.76
260.095	11633.25
260.165	11654.65
260.235	11701.31
260.305	11686.17
260.375	11665.45
260.445	11741.3
260.515	11791.48
260.585	11834.77
260.655	11842.24
260.725	11868.46
260.795	11899.01
260.865	11954.4
260.934	11932.66
261.004	11944.23
261.074	11948.66
261.144	12002.88
261.214	12029.73
261.284	12025
261.354	12053.73
261.424	12021.82
261.494	12080.47
261.564	12085.92
261.634	12115.66
261.703	12061.77
261.773	12080.81
261.843	12103.99
261.913	12095.6
261.983	12048.46
262.053	12059.02
262.123	12057.19
262.192	12024.94
262.262	12053.82
262.332	12010.38
262.402	12030.34
262.472	12046.63
262.541	12003.64
262.611	12039.22
262.681	12021.19
262.751	12052.47
262.821	12064.76
262.89	12031.26
262.96	12053.82
263.03	12123.52
263.1	12138.03
263.169	12152.25
263.239	12177.7
263.309	12236.13
263.379	12261.87
263.448	12275.07
263.518	12301.97
263.588	12310.65
263.657	12373.6
263.727	12403.34
263.797	12422.77
263.867	12426.77
263.936	12392.5
