Data from 20250626_urea_1M_exp2_MAYP1162681_08-43-59-096.txt Node
Date: Fri Jun 27 08:43:59 BST 2025
User: adleo
Spectrometer: MAYP116268
Trigger mode: 0
Integration Time (sec): 3.000000E0
Scans to average: 1
Electric dark correction enabled: true
Nonlinearity correction enabled: true
Boxcar width: 10
XAxis mode: Wavelengths
Number of Pixels in Spectrum: 2068
>>>>>Begin Spectral Data<<<<<
179.565	3015.78
179.642	3173.1
179.718	3289.2
179.795	3397.83
179.871	3484.41
179.948	3537.87
180.024	3596.04
180.101	3657.95
180.177	3696.27
180.254	3759.71
180.33	3817.34
180.407	4024.96
180.483	4258.14
180.56	4492.64
180.636	4712.84
180.712	4686.79
180.789	4707.42
180.865	4738.09
180.942	4759.81
181.018	4789.54
181.095	4824.37
181.171	4837.39
181.248	4841.61
181.324	4880.98
181.4	4895.78
181.477	4930.84
181.553	4961.9
181.63	5015.84
181.706	5056.22
181.782	5085.08
181.859	5086.04
181.935	5107.55
182.011	5098.83
182.088	5143.91
182.164	5200.87
182.24	5231.04
182.317	5250.86
182.393	5245.64
182.469	5283.68
182.546	5322.78
182.622	5332.31
182.698	5325.51
182.775	5359.58
182.851	5392.98
182.927	5377.03
183.003	5366.15
183.08	5348.33
183.156	5373.68
183.232	5365
183.308	5340.08
183.385	5357.18
183.461	5402.34
183.537	5399.13
183.613	5432.87
183.69	5406.31
183.766	5376.86
183.842	5397.38
183.918	5411.95
183.995	5444.63
184.071	5454.6
184.147	5440.27
184.223	5414.41
184.299	5443.94
184.375	5414.56
184.452	5427.51
184.528	5533.2
184.604	5567.31
184.68	5601.15
184.756	5619.85
184.832	5633.23
184.908	5645.83
184.985	5646.31
185.061	5599.72
185.137	5625.42
185.213	5597.47
185.289	5604.61
185.365	5586.74
185.441	5580.22
185.517	5617.39
185.593	5613.37
185.669	5604.69
185.745	5630.72
185.822	5670.48
185.898	5643.3
185.974	5671.43
186.05	5653.64
186.126	5589.71
186.202	5564.46
186.278	5552.37
186.354	5529.45
186.43	5545.81
186.506	5539.25
186.582	5538.86
186.658	5558.6
186.734	5506.8
186.81	5513.41
186.886	5518.35
186.962	5545.76
187.038	5536.37
187.114	5513.82
187.19	5529.5
187.266	5505.06
187.341	5503.09
187.417	5486.75
187.493	5485.07
187.569	5490.82
187.645	5478.5
187.721	5446.81
187.797	5471.01
187.873	5480.74
187.949	5461.96
188.025	5445.7
188.101	5456.09
188.176	5466.16
188.252	5454.56
188.328	5473.24
188.404	5469.6
188.48	5459.39
188.556	5437.54
188.632	5446.21
188.707	5446.59
188.783	5447.07
188.859	5436.87
188.935	5409.64
189.011	5432.55
189.086	5420.67
189.162	5395.46
189.238	5386.26
189.314	5379.02
189.39	5366.94
189.465	5348.34
189.541	5394.27
189.617	5357.12
189.693	5343.18
189.768	5353.92
189.844	5419.05
189.92	5395.87
189.996	5418.88
190.071	5444.38
190.147	5446.54
190.223	5463.23
190.298	5442.99
190.374	5402.97
190.45	5433.87
190.526	5456.31
190.601	5442.74
190.677	5444.42
190.753	5520.03
190.828	5537.95
190.904	5576.89
190.98	5611.61
191.055	5636.63
191.131	5614.67
191.207	5667.45
191.282	5695
191.358	5668.54
191.433	5631.12
191.509	5671.35
191.585	5660.66
191.66	5668.29
191.736	5689.48
191.811	5667.61
191.887	5710.25
191.963	5774.85
192.038	5788.85
192.114	5786.55
192.189	5797.57
192.265	5791.44
192.34	5732.65
192.416	5721.77
192.491	5711.98
192.567	5723.89
192.642	5727.67
192.718	5729.45
192.793	5696.89
192.869	5684.33
192.944	5692.81
193.02	5712.19
193.095	5720.29
193.171	5744.51
193.246	5740.91
193.322	5729.98
193.397	5735.2
193.473	5698.79
193.548	5650.01
193.624	5664.88
193.699	5665.36
193.775	5703.32
193.85	5714.53
193.925	5735.3
194.001	5735.25
194.076	5715.01
194.152	5683.25
194.227	5673.18
194.302	5646.44
194.378	5650.71
194.453	5643.14
194.529	5674.79
194.604	5635.32
194.679	5622.91
194.755	5568.08
194.83	5600.61
194.905	5599.03
194.981	5616.05
195.056	5601
195.131	5617.01
195.207	5608.95
195.282	5579.05
195.357	5526.67
195.433	5564.5
195.508	5531.07
195.583	5552.6
195.659	5592.74
195.734	5614.76
195.809	5610.06
195.884	5631.48
195.96	5638.29
196.035	5678.85
196.11	5668.73
196.185	5702.2
196.261	5704.26
196.336	5785.1
196.411	5741.44
196.486	5755.54
196.561	5741.92
196.637	5765.46
196.712	5809.56
196.787	5820.69
196.862	5870.84
196.937	5896.49
197.013	5909.07
197.088	5936.49
197.163	5991.64
197.238	6034.63
197.313	6028.15
197.388	6066.44
197.464	6149.14
197.539	6183.2
197.614	6163.25
197.689	6192.9
197.764	6232.32
197.839	6294.12
197.914	6280.11
197.989	6348.26
198.065	6378.44
198.14	6511.61
198.215	6577.81
198.29	6610
198.365	6642.55
198.44	6664.3
198.515	6742.15
198.59	6786.38
198.665	6857.89
198.74	6880
198.815	6880.28
198.89	6940.88
198.965	7016.53
199.04	7002.16
199.115	7039.57
199.19	7151.83
199.265	7163.5
199.34	7189.25
199.415	7273.35
199.49	7327.62
199.565	7351.36
199.64	7422.73
199.715	7418.35
199.79	7432.91
199.865	7447.38
199.94	7439.21
200.015	7525.17
200.09	7540.51
200.165	7555.46
200.24	7569.88
200.315	7673.04
200.39	7722.62
200.464	7742.52
200.539	7752
200.614	7797.61
200.689	7862.2
200.764	7879.23
200.839	7922.53
200.914	7939.06
200.989	7909.62
201.063	7949.73
201.138	7902.93
201.213	7899.08
201.288	7839.61
201.363	7850.47
201.438	7851.19
201.512	7897.62
201.587	7858.03
201.662	7864.09
201.737	7895.5
201.812	7923.68
201.886	7836.48
201.961	7859.87
202.036	7824.3
202.111	7807.9
202.186	7730.59
202.26	7676.05
202.335	7621.52
202.41	7609.55
202.485	7564.37
202.559	7511.64
202.634	7439.05
202.709	7464.03
202.784	7414.62
202.858	7417.55
202.933	7373.39
203.008	7358.44
203.082	7309.47
203.157	7299.76
203.232	7187.47
203.306	7127.08
203.381	7035.95
203.456	6971.52
203.53	6899.57
203.605	6849.21
203.68	6788.66
203.754	6767.12
203.829	6728.2
203.904	6669.9
203.978	6634.59
204.053	6645.78
204.127	6614.14
204.202	6612.08
204.277	6559.84
204.351	6541.98
204.426	6525.55
204.5	6503.94
204.575	6404.6
204.65	6424.92
204.724	6406.22
204.799	6427.76
204.873	6416.76
204.948	6414.07
205.022	6386.67
205.097	6363.37
205.171	6400.86
205.246	6419.69
205.32	6424.77
205.395	6426.93
205.469	6406.4
205.544	6419.23
205.618	6371.26
205.693	6398.97
205.767	6362.35
205.842	6423.76
205.916	6403.55
205.991	6376
206.065	6391.45
206.14	6434.61
206.214	6419.28
206.289	6397.33
206.363	6428.97
206.438	6434.78
206.512	6456.92
206.586	6505.15
206.661	6532.88
206.735	6474.34
206.81	6481.79
206.884	6521.77
206.958	6489.91
207.033	6530.78
207.107	6545.87
207.181	6625.12
207.256	6612.21
207.33	6665.21
207.405	6699.97
207.479	6752.74
207.553	6774.77
207.628	6730.87
207.702	6760.63
207.776	6748.58
207.851	6758.33
207.925	6797.92
207.999	6787.93
208.073	6777.22
208.148	6787.55
208.222	6761.37
208.296	6846.7
208.371	6886.27
208.445	6911.4
208.519	6984.39
208.593	7016.67
208.668	7004.51
208.742	7014.37
208.816	7017.45
208.89	7050.66
208.965	7042.44
209.039	7066.32
209.113	7105.92
209.187	7167.02
209.261	7159.82
209.336	7216.42
209.41	7274.82
209.484	7275.35
209.558	7340.52
209.632	7372.61
209.707	7400.44
209.781	7453.26
209.855	7493.41
209.929	7538.98
210.003	7556.91
210.077	7553.25
210.151	7682.35
210.226	7779.9
210.3	7854.44
210.374	7914.27
210.448	7927.59
210.522	7960.98
210.596	7984.59
210.67	8012.68
210.744	8139.25
210.818	8222.56
210.892	8278.75
210.966	8256.49
211.041	8301.51
211.115	8291.27
211.189	8359.67
211.263	8401.85
211.337	8421.48
211.411	8459.63
211.485	8445.19
211.559	8469.77
211.633	8478.52
211.707	8393.8
211.781	8413.11
211.855	8317.4
211.929	8296.97
212.003	8250.72
212.077	8274.4
212.151	8305.49
212.225	8328.2
212.299	8292.42
212.373	8260.39
212.447	8242.72
212.52	8323.94
212.594	8330.53
212.668	8362.52
212.742	8325.67
212.816	8313.06
212.89	8294.54
212.964	8285.64
213.038	8292.09
213.112	8330.06
213.186	8365.21
213.26	8310.94
213.333	8185.01
213.407	8195.83
213.481	8206.84
213.555	8230.15
213.629	8192.22
213.703	8146.52
213.777	8136.22
213.85	8078.01
213.924	8158.56
213.998	8152.83
214.072	8125.59
214.146	8082.77
214.219	8070.94
214.293	8058.1
214.367	8059.25
214.441	8078.3
214.515	8044.09
214.588	7969.11
214.662	7866.48
214.736	7806.38
214.81	7819.98
214.883	7837.08
214.957	7801.37
215.031	7755.48
215.105	7683.29
215.178	7632.28
215.252	7611.17
215.326	7539.35
215.4	7479.48
215.473	7345.54
215.547	7277.55
215.621	7229.01
215.694	7224.01
215.768	7143.98
215.842	7093.24
215.915	7036.41
215.989	6945.33
216.063	6903.56
216.136	6888.66
216.21	6870.99
216.284	6879.35
216.357	6859.8
216.431	6829.2
216.504	6825.4
216.578	6868.46
216.652	6882.23
216.725	6868.06
216.799	6866.09
216.873	6845.1
216.946	6849.42
217.02	6818.08
217.093	6800.65
217.167	6722.36
217.24	6658.03
217.314	6627.65
217.387	6586.33
217.461	6550.8
217.535	6570.39
217.608	6521.55
217.682	6502.54
217.755	6509.79
217.829	6468.14
217.902	6455.37
217.976	6440.73
218.049	6404.29
218.123	6343.19
218.196	6341.41
218.27	6311.45
218.343	6257.56
218.417	6256.17
218.49	6237.55
218.563	6271.24
218.637	6272.2
218.71	6326.07
218.784	6347.82
218.857	6373.74
218.931	6393.65
219.004	6398.49
219.077	6417.52
219.151	6436.19
219.224	6431
219.298	6432.54
219.371	6465.24
219.444	6429.97
219.518	6434.05
219.591	6445.33
219.665	6530.34
219.738	6538.78
219.811	6522.38
219.885	6556.52
219.958	6582.3
220.031	6581.97
220.105	6596.71
220.178	6603.68
220.251	6579.8
220.325	6600.32
220.398	6614.48
220.471	6626.58
220.544	6658.28
220.618	6636.56
220.691	6652.41
220.764	6668.16
220.838	6689
220.911	6678.29
220.984	6744.93
221.057	6777.44
221.131	6798.66
221.204	6722.44
221.277	6780.43
221.35	6884.53
221.424	6879.48
221.497	6888.81
221.57	6913.57
221.643	6942.55
221.716	6977.39
221.79	6987.81
221.863	6994.06
221.936	6998.43
222.009	7015.09
222.082	7034.85
222.155	7045.22
222.229	7095.01
222.302	7119.13
222.375	7122.16
222.448	7151.18
222.521	7163.44
222.594	7161.76
222.667	7143.08
222.74	7186.55
222.814	7179.63
222.887	7161.6
222.96	7201.63
223.033	7237.92
223.106	7257.76
223.179	7284.21
223.252	7292.63
223.325	7317.23
223.398	7331.5
223.471	7359.04
223.544	7365.67
223.617	7376.48
223.69	7393.49
223.763	7366.04
223.837	7382.39
223.91	7410.46
223.983	7376.15
224.056	7346.22
224.129	7365.34
224.202	7403.91
224.275	7393.33
224.348	7368.78
224.42	7343.4
224.493	7301.88
224.566	7280.67
224.639	7294.85
224.712	7265.66
224.785	7262.77
224.858	7248.4
224.931	7233.93
225.004	7199.68
225.077	7205.97
225.15	7135.11
225.223	7132.8
225.296	7198.21
225.369	7148.39
225.442	7119.69
225.514	7128.96
225.587	7142.51
225.66	7148.52
225.733	7149.24
225.806	7155.63
225.879	7148.71
225.952	7119.32
226.025	7158
226.097	7198.4
226.17	7192.39
226.243	7143.15
226.316	7137.09
226.389	7141.41
226.461	7156.51
226.534	7172.55
226.607	7162.13
226.68	7223.52
226.753	7218.04
226.825	7152.25
226.898	7197.55
226.971	7199.91
227.044	7222.78
227.117	7230.52
227.189	7245.13
227.262	7274.22
227.335	7299.17
227.407	7298.64
227.48	7330.63
227.553	7334.28
227.626	7316.1
227.698	7319.32
227.771	7355.1
227.844	7338.47
227.916	7362.75
227.989	7329.97
228.062	7328.67
228.134	7403.53
228.207	7408.05
228.28	7400.51
228.352	7407.48
228.425	7420.36
228.498	7453.63
228.57	7439.21
228.643	7480.03
228.716	7478.93
228.788	7472.68
228.861	7463.35
228.934	7512.61
229.006	7519.49
229.079	7522.8
229.151	7520.45
229.224	7499.55
229.296	7517.19
229.369	7600.45
229.442	7637.34
229.514	7632.15
229.587	7672.05
229.659	7609.15
229.732	7620.98
229.804	7654.29
229.877	7720.91
229.949	7736.59
230.022	7781.24
230.094	7779.32
230.167	7774.56
230.239	7740.28
230.312	7730.57
230.384	7785.8
230.457	7788.54
230.529	7792
230.602	7790.99
230.674	7792.63
230.747	7817.57
230.819	7838.82
230.892	7735.58
230.964	7731.87
231.037	7749.55
231.109	7739.17
231.181	7773.83
231.254	7744.21
231.326	7734.6
231.399	7717.17
231.471	7702.7
231.544	7636.22
231.616	7671.89
231.688	7669.62
231.761	7662.66
231.833	7654.78
231.905	7582.05
231.978	7575.46
232.05	7563.45
232.122	7567.44
232.195	7547.92
232.267	7581.19
232.339	7561.57
232.412	7618.76
232.484	7596.97
232.556	7571.61
232.629	7626.45
232.701	7635.49
232.773	7642.94
232.846	7637.32
232.918	7639.05
232.99	7656.85
233.062	7687.04
233.135	7694.16
233.207	7671.99
233.279	7709.91
233.351	7734.82
233.424	7741.02
233.496	7720.34
233.568	7791.67
233.64	7763.35
233.713	7778.11
233.785	7776.38
233.857	7790.8
233.929	7748.12
234.001	7803.02
234.074	7863.96
234.146	7805.85
234.218	7803.45
234.29	7804.89
234.362	7792.11
234.434	7755.6
234.507	7718.28
234.579	7682.51
234.651	7667.5
234.723	7692.27
234.795	7703.81
234.867	7703.76
234.939	7750.56
235.012	7764.69
235.084	7760.79
235.156	7791.13
235.228	7775.98
235.3	7757.76
235.372	7763.1
235.444	7814.39
235.516	7755.59
235.588	7757.42
235.66	7768.91
235.732	7750.06
235.804	7909.4
235.876	7940.12
235.948	7987.7
236.02	8001.83
236.092	8015.96
236.164	8023.13
236.236	8027.55
236.308	8021.25
236.38	8038.66
236.452	8021.25
236.524	8042.6
236.596	8093.78
236.668	8118.89
236.74	8140.09
236.812	8164.43
236.884	8189.83
236.956	8198.54
237.028	8187.38
237.1	8172
237.172	8230.46
237.244	8290.06
237.316	8194.17
237.388	8189.17
237.46	8172.66
237.532	8227.27
237.604	8216.12
237.675	8276.79
237.747	8307.59
237.819	8302.44
237.891	8304.46
237.963	8291.91
238.035	8289.12
238.107	8204.56
238.178	8254.18
238.25	8251.44
238.322	8328.37
238.394	8300.75
238.466	8294.26
238.538	8324.46
238.609	8360.2
238.681	8318.57
238.753	8302.93
238.825	8313.66
238.897	8337.81
238.968	8400.53
239.04	8378.49
239.112	8470.67
239.184	8442.13
239.255	8439.44
239.327	8471.04
239.399	8481.43
239.471	8526.07
239.542	8550.71
239.614	8597.81
239.686	8536.64
239.758	8588.75
239.829	8554.99
239.901	8603.83
239.973	8624.14
240.044	8652.53
240.116	8663.17
240.188	8670.04
240.259	8681.74
240.331	8673.84
240.403	8702.96
240.474	8667.42
240.546	8665.02
240.618	8618.66
240.689	8618.86
240.761	8631.37
240.833	8675.94
240.904	8687.4
240.976	8681.33
241.048	8695
241.119	8728.66
241.191	8764.27
241.262	8811.75
241.334	8813.48
241.405	8814.4
241.477	8816.56
241.549	8827.73
241.62	8851.12
241.692	8887.03
241.763	8932.19
241.835	8952.26
241.906	8962.61
241.978	8937.44
242.049	8979.8
242.121	9023.26
242.192	9072.89
242.264	9044.06
242.335	9005.84
242.407	9039.73
242.478	9049.6
242.55	9065.49
242.621	9050.85
242.693	9048.58
242.764	9043.24
242.836	9048.39
242.907	9072.9
242.979	9099.85
243.05	9116.13
243.122	9132.07
243.193	9130.96
243.264	9084.16
243.336	9082.28
243.407	9116.37
243.479	9178.91
243.55	9198.17
243.622	9213.24
243.693	9209.82
243.764	9271.93
243.836	9262.11
243.907	9249.78
243.978	9252.14
244.05	9274.25
244.121	9242.52
244.192	9278.3
244.264	9238.28
244.335	9251.38
244.407	9210.07
244.478	9217.87
244.549	9212.86
244.62	9175.02
244.692	9174.35
244.763	9204.77
244.834	9198.61
244.906	9173.96
244.977	9192.55
245.048	9235.95
245.119	9216.93
245.191	9200.42
245.262	9147.99
245.333	9204.59
245.405	9215.38
245.476	9240.51
245.547	9248.79
245.618	9284.95
245.689	9294.1
245.761	9321.88
245.832	9325.63
245.903	9371.13
245.974	9400.03
246.045	9407.73
246.117	9478.23
246.188	9468.46
246.259	9457.58
246.33	9475.44
246.401	9486.51
246.473	9457.57
246.544	9447.64
246.615	9493.2
246.686	9503.46
246.757	9567.06
246.828	9551.89
246.899	9616.92
246.97	9591.12
247.042	9588.47
247.113	9631.38
247.184	9697.58
247.255	9695.27
247.326	9711.02
247.397	9717.33
247.468	9715.93
247.539	9727.73
247.61	9690.84
247.681	9724.97
247.752	9760.42
247.823	9742.17
247.894	9752.62
247.965	9728.45
248.037	9713.42
248.108	9674.12
248.179	9678.02
248.25	9668.58
248.321	9688.71
248.392	9650.21
248.463	9715.51
248.534	9713.01
248.605	9720.62
248.675	9693.2
248.746	9711.69
248.817	9726.53
248.888	9737.56
248.959	9691.14
249.03	9712
249.101	9715.37
249.172	9705.21
249.243	9649.74
249.314	9697.61
249.385	9711.72
249.456	9736.18
249.527	9730.74
249.598	9753.13
249.669	9744.7
249.739	9754.29
249.81	9768.69
249.881	9730.98
249.952	9723.13
250.023	9723.56
250.094	9684.84
250.165	9661.66
250.235	9655.4
250.306	9660.22
250.377	9637.34
250.448	9667.58
250.519	9615.57
250.59	9660.7
250.66	9654.15
250.731	9717.23
250.802	9720.36
250.873	9732.55
250.944	9748.11
251.014	9745.17
251.085	9816.52
251.156	9842.14
251.227	9883.24
251.297	9923.03
251.368	9969.55
251.439	10007.23
251.51	10039.46
251.58	10030.45
251.651	10039.99
251.722	10082
251.792	10045.92
251.863	10044.76
251.934	10092.12
252.005	10183.97
252.075	10193.8
252.146	10241.48
252.217	10278.68
252.287	10315.1
252.358	10319.1
252.429	10380.39
252.499	10375.71
252.57	10377.5
252.641	10416.37
252.711	10417.63
252.782	10385.49
252.852	10444.37
252.923	10443.65
252.994	10459.89
253.064	10501.21
253.135	10478.04
253.205	10463.49
253.276	10520.53
253.347	10572.84
253.417	10553.57
253.488	10538.92
253.558	10529
253.629	10525.96
253.699	10533.09
253.77	10547.07
253.841	10539.6
253.911	10548.18
253.982	10559.31
254.052	10584.66
254.123	10589.96
254.193	10588.51
254.264	10691.2
254.334	10667.59
254.405	10637.19
254.475	10615.27
254.546	10622.3
254.616	10674.81
254.687	10699.2
254.757	10721.41
254.827	10719.1
254.898	10739.67
254.968	10743
255.039	10736.59
255.109	10769.69
255.18	10747.91
255.25	10698.42
255.321	10730.22
255.391	10696.06
255.461	10770.31
255.532	10702.17
255.602	10704
255.673	10669.12
255.743	10644.15
255.813	10584.84
255.884	10622.62
255.954	10648.93
256.024	10700.01
256.095	10702.71
256.165	10675.29
256.235	10692.16
256.306	10685.56
256.376	10722.23
256.446	10757.17
256.517	10782.32
256.587	10821.84
256.657	10835.52
256.728	10851.32
256.798	10855.95
256.868	10845.78
256.938	10819.08
257.009	10859.8
257.079	10881.2
257.149	10955.65
257.219	10910.2
257.29	10942.62
257.36	10903.01
257.43	10931.11
257.5	10869.24
257.571	10860.95
257.641	10890.82
257.711	10855.11
257.781	10877.23
257.852	10886.24
257.922	10833.09
257.992	10830.29
258.062	10811.45
258.132	10850.63
258.202	10857.47
258.273	10867.69
258.343	10935.2
258.413	10922.38
258.483	10926.34
258.553	10904.99
258.623	10886.77
258.693	10909.42
258.764	10965.8
258.834	11020.44
258.904	11038.27
258.974	11035.09
259.044	11042.27
259.114	11062.47
259.184	11088.92
259.254	11094.9
259.324	11057.36
259.394	11098.41
259.464	11158.75
259.535	11176.97
259.605	11171.57
259.675	11161.79
259.745	11189.36
259.815	11174.51
259.885	11184.1
259.955	11272.65
260.025	11267.2
260.095	11276.41
260.165	11299.93
260.235	11336.22
260.305	11324.42
260.375	11299.31
260.445	11374.91
260.515	11425.18
260.585	11466.63
260.655	11474.34
260.725	11519.89
260.795	11547.21
260.865	11599.46
260.934	11572.57
261.004	11584.9
261.074	11585.15
261.144	11632.56
261.214	11657.05
261.284	11655.17
261.354	11687.55
261.424	11648.94
261.494	11704.51
261.564	11712.8
261.634	11734.82
261.703	11687.69
261.773	11706.38
261.843	11733.95
261.913	11732.89
261.983	11685.42
262.053	11698.1
262.123	11694.53
262.192	11651.01
262.262	11687.35
262.332	11656.41
262.402	11689.71
262.472	11701.62
262.541	11648.32
262.611	11682.3
262.681	11665.19
262.751	11697.58
262.821	11695.99
262.89	11677.19
262.96	11702.06
263.03	11766.85
263.1	11786.52
263.169	11808.64
263.239	11839.44
263.309	11895.06
263.379	11920.32
263.448	11944.37
263.518	11965.68
263.588	11982.35
263.657	12040.04
263.727	12067.71
263.797	12075.57
263.867	12070.94
263.936	12041.01
264.006	12099.32
264.076	12100.09
264.145	12099.9
264.215	12083.03
