Data from 20250626_urea_1M_exp2_MAYP1162681_23-23-58-838.txt Node
Date: Thu Jun 26 23:23:58 BST 2025
User: adleo
Spectrometer: MAYP116268
Trigger mode: 0
Integration Time (sec): 3.000000E0
Scans to average: 1
Electric dark correction enabled: true
Nonlinearity correction enabled: true
Boxcar width: 10
XAxis mode: Wavelengths
Number of Pixels in Spectrum: 2068
>>>>>Begin Spectral Data<<<<<
179.565	2850.6
179.642	2996.26
179.718	3105.44
179.795	3212.23
179.871	3293.4
179.948	3341.26
180.024	3395.24
180.101	3454.94
180.177	3488.48
180.254	3542.68
180.33	3600.52
180.407	3795.11
180.483	4018.19
180.56	4244.74
180.636	4448.2
180.712	4417.47
180.789	4440.82
180.865	4467.84
180.942	4498.5
181.018	4525.1
181.095	4560.58
181.171	4572.3
181.248	4575.6
181.324	4616.25
181.4	4630.76
181.477	4662.16
181.553	4695.16
181.63	4749.45
181.706	4787.85
181.782	4815.6
181.859	4822.06
181.935	4837.38
182.011	4832.98
182.088	4873.63
182.164	4916.04
182.24	4949.92
182.317	4972.22
182.393	4973.52
182.469	5009.81
182.546	5040.08
182.622	5049.08
182.698	5042.38
182.775	5077.39
182.851	5113.5
182.927	5095.11
183.003	5082.86
183.08	5066.77
183.156	5091.62
183.232	5084.15
183.308	5056.08
183.385	5077.15
183.461	5118.88
183.537	5126.73
183.613	5156.39
183.69	5134.93
183.766	5112.25
183.842	5131.03
183.918	5146.46
183.995	5172.18
184.071	5180.33
184.147	5165.33
184.223	5139.34
184.299	5163.06
184.375	5132.45
184.452	5150.58
184.528	5252.08
184.604	5284.84
184.68	5313.96
184.756	5328.82
184.832	5337.83
184.908	5352.96
184.985	5350.47
185.061	5310.42
185.137	5324.75
185.213	5291.69
185.289	5296.72
185.365	5277.28
185.441	5272.44
185.517	5308.16
185.593	5301.11
185.669	5293.83
185.745	5322.58
185.822	5363.42
185.898	5344.59
185.974	5368.01
186.05	5346
186.126	5287.63
186.202	5263.73
186.278	5254.67
186.354	5232.82
186.43	5248.31
186.506	5243.04
186.582	5239.21
186.658	5258.55
186.734	5213.77
186.81	5222.43
186.886	5225.79
186.962	5257.36
187.038	5248.68
187.114	5225.33
187.19	5242.53
187.266	5218.97
187.341	5215.52
187.417	5194.87
187.493	5196.69
187.569	5201.77
187.645	5184.77
187.721	5152.51
187.797	5172.34
187.873	5184.12
187.949	5169.9
188.025	5156.96
188.101	5164.28
188.176	5175.68
188.252	5160.45
188.328	5180.08
188.404	5181.18
188.48	5169.4
188.556	5146.84
188.632	5150
188.707	5152.83
188.783	5145.16
188.859	5132.42
188.935	5102.53
189.011	5126.14
189.086	5109.9
189.162	5092.51
189.238	5090.12
189.314	5083.94
189.39	5075.08
189.465	5056.54
189.541	5098.89
189.617	5060.62
189.693	5044.29
189.768	5054.93
189.844	5117.06
189.92	5095.75
189.996	5119.76
190.071	5150.23
190.147	5154.49
190.223	5175.62
190.298	5155.4
190.374	5125.7
190.45	5159.98
190.526	5186.14
190.601	5173.21
190.677	5178.86
190.753	5250.36
190.828	5258.84
190.904	5293.87
190.98	5330.97
191.055	5355.6
191.131	5330.48
191.207	5382.47
191.282	5413.17
191.358	5388.45
191.433	5350.56
191.509	5381.4
191.585	5365.25
191.66	5367.22
191.736	5387.77
191.811	5362.66
191.887	5407.11
191.963	5464.67
192.038	5478.61
192.114	5476.75
192.189	5484.55
192.265	5474.4
192.34	5419.19
192.416	5416.27
192.491	5405.24
192.567	5408.69
192.642	5417.37
192.718	5421.49
192.793	5387.8
192.869	5375.2
192.944	5383.24
193.02	5406.45
193.095	5412.58
193.171	5434.91
193.246	5435.44
193.322	5427.49
193.397	5434.53
193.473	5396.17
193.548	5354.51
193.624	5367.31
193.699	5363.33
193.775	5407.02
193.85	5410.7
193.925	5428.2
194.001	5425.14
194.076	5407.79
194.152	5376.34
194.227	5357.35
194.302	5332.02
194.378	5345.91
194.453	5339.93
194.529	5372.66
194.604	5332.26
194.679	5323.64
194.755	5269.85
194.83	5301.6
194.905	5299.06
194.981	5316.17
195.056	5299.74
195.131	5316.37
195.207	5308.84
195.282	5285.9
195.357	5234.02
195.433	5277.58
195.508	5249.06
195.583	5267.98
195.659	5304.94
195.734	5324.11
195.809	5328.43
195.884	5352.76
195.96	5349.55
196.035	5387.64
196.11	5378.01
196.185	5407.91
196.261	5410.64
196.336	5493.4
196.411	5451.05
196.486	5460.3
196.561	5442.95
196.637	5468.59
196.712	5506.82
196.787	5513.19
196.862	5553.49
196.937	5579.47
197.013	5590.5
197.088	5615.18
197.163	5669.97
197.238	5709.38
197.313	5711.15
197.388	5739.87
197.464	5817.55
197.539	5850.06
197.614	5830.17
197.689	5857.65
197.764	5903.67
197.839	5958
197.914	5944.86
197.989	6001.84
198.065	6034.6
198.14	6162.65
198.215	6224.84
198.29	6253.41
198.365	6291.32
198.44	6318.19
198.515	6390.63
198.59	6431.24
198.665	6494.6
198.74	6516.55
198.815	6521.79
198.89	6582.7
198.965	6655.51
199.04	6641.97
199.115	6681.91
199.19	6794.78
199.265	6805.92
199.34	6825.22
199.415	6910.96
199.49	6959.64
199.565	6985.48
199.64	7049.23
199.715	7043.5
199.79	7058.11
199.865	7070.21
199.94	7061.33
200.015	7139.03
200.09	7153.21
200.165	7166.13
200.24	7184.59
200.315	7281.26
200.39	7320.77
200.464	7334.56
200.539	7338.84
200.614	7382.42
200.689	7439.43
200.764	7449.43
200.839	7486.32
200.914	7501.17
200.989	7474.47
201.063	7511.34
201.138	7465.77
201.213	7467.02
201.288	7416.75
201.363	7432.52
201.438	7435.3
201.512	7480.79
201.587	7436.71
201.662	7441.71
201.737	7472.81
201.812	7500.17
201.886	7417.38
201.961	7444.89
202.036	7415.25
202.111	7409.44
202.186	7329.38
202.26	7286.74
202.335	7239.82
202.41	7228.34
202.485	7186.21
202.559	7133.12
202.634	7069.31
202.709	7096.86
202.784	7044.79
202.858	7047.52
202.933	6993.77
203.008	6977.44
203.082	6925.13
203.157	6923.64
203.232	6816.92
203.306	6758.44
203.381	6669.61
203.456	6613.52
203.53	6546.02
203.605	6497.27
203.68	6435.73
203.754	6422.16
203.829	6377.93
203.904	6318.94
203.978	6288.3
204.053	6298.39
204.127	6267.58
204.202	6261.91
204.277	6215.46
204.351	6199.19
204.426	6179.74
204.5	6165.35
204.575	6074.45
204.65	6097.69
204.724	6074.87
204.799	6098.22
204.873	6091.02
204.948	6089.15
205.022	6059.7
205.097	6037.71
205.171	6071.05
205.246	6093.95
205.32	6093.09
205.395	6095.49
205.469	6076.26
205.544	6093.74
205.618	6046.81
205.693	6071.23
205.767	6033.34
205.842	6086.33
205.916	6071.17
205.991	6044.2
206.065	6053.27
206.14	6092.09
206.214	6077.2
206.289	6058.15
206.363	6087.03
206.438	6094.81
206.512	6115.07
206.586	6159.63
206.661	6189.02
206.735	6131.53
206.81	6131.72
206.884	6165.25
206.958	6131.82
207.033	6173.87
207.107	6190.06
207.181	6267.78
207.256	6258.66
207.33	6309.43
207.405	6341.96
207.479	6387.6
207.553	6403.48
207.628	6364.4
207.702	6397.55
207.776	6387.28
207.851	6396.93
207.925	6437.56
207.999	6429.55
208.073	6415.96
208.148	6426.19
208.222	6389.65
208.296	6474.18
208.371	6516.95
208.445	6544.84
208.519	6616.36
208.593	6644.44
208.668	6632
208.742	6641.81
208.816	6646.51
208.89	6683.93
208.965	6678.74
209.039	6707.67
209.113	6754.39
209.187	6809.94
209.261	6799.19
209.336	6847.75
209.41	6898.57
209.484	6896.79
209.558	6958.14
209.632	6998.53
209.707	7023.56
209.781	7086.82
209.855	7129.02
209.929	7171.93
210.003	7189.61
210.077	7189.03
210.151	7306.39
210.226	7395.87
210.3	7464.27
210.374	7521.2
210.448	7535.43
210.522	7559.71
210.596	7580.43
210.67	7609.8
210.744	7737.81
210.818	7821.32
210.892	7872.06
210.966	7859.71
211.041	7895.96
211.115	7882.5
211.189	7946.21
211.263	7991.31
211.337	8002.18
211.411	8032.91
211.485	8015.93
211.559	8050.59
211.633	8058.86
211.707	7983.07
211.781	8002.37
211.855	7912.39
211.929	7896.91
212.003	7846.98
212.077	7877.49
212.151	7905.19
212.225	7924.96
212.299	7887.8
212.373	7854.43
212.447	7846.4
212.52	7920.85
212.594	7935.33
212.668	7961.44
212.742	7919.69
212.816	7904.54
212.89	7892.66
212.964	7888.91
213.038	7895.69
213.112	7921.72
213.186	7956.38
213.26	7905.3
213.333	7782.89
213.407	7796.2
213.481	7801.05
213.555	7828.19
213.629	7789.47
213.703	7743.35
213.777	7733.82
213.85	7678.95
213.924	7764.96
213.998	7756.98
214.072	7733.88
214.146	7684.69
214.219	7674.16
214.293	7666.56
214.367	7666.99
214.441	7688.25
214.515	7649.19
214.588	7582.17
214.662	7489.39
214.736	7431.14
214.81	7442.81
214.883	7458.75
214.957	7426.81
215.031	7385.31
215.105	7315.36
215.178	7269.7
215.252	7246.4
215.326	7173.5
215.4	7115.29
215.473	6976.98
215.547	6913.92
215.621	6867.81
215.694	6866.65
215.768	6796.61
215.842	6742.81
215.915	6689.13
215.989	6598.62
216.063	6556.67
216.136	6539.76
216.21	6522.82
216.284	6533.24
216.357	6513.7
216.431	6487.34
216.504	6480.71
216.578	6523.46
216.652	6538.04
216.725	6521.62
216.799	6527.1
216.873	6511.79
216.946	6518.7
217.02	6490.78
217.093	6472.2
217.167	6398.65
217.24	6342.51
217.314	6315.31
217.387	6279.1
217.461	6246.94
217.535	6269.88
217.608	6224.97
217.682	6211.77
217.755	6218.63
217.829	6176.96
217.902	6161.88
217.976	6147.25
218.049	6115.72
218.123	6055.12
218.196	6049.99
218.27	6022.01
218.343	5964.41
218.417	5966.23
218.49	5948.14
218.563	5985.08
218.637	5991.13
218.71	6042.19
218.784	6063.12
218.857	6084.56
218.931	6105.28
219.004	6108.68
219.077	6120.35
219.151	6139.06
219.224	6128.55
219.298	6126.78
219.371	6158.12
219.444	6130.16
219.518	6137.79
219.591	6147.96
219.665	6233.37
219.738	6241.09
219.811	6227.62
219.885	6263.27
219.958	6285.21
220.031	6291.54
220.105	6305.27
220.178	6310.07
220.251	6294.95
220.325	6312.77
220.398	6326.68
220.471	6339.16
220.544	6370.31
220.618	6348.95
220.691	6369.97
220.764	6386.29
220.838	6403.62
220.911	6392.57
220.984	6455.29
221.057	6482.17
221.131	6499.36
221.204	6422.44
221.277	6479.59
221.35	6575.67
221.424	6576.43
221.497	6588.83
221.57	6607.4
221.643	6630.17
221.716	6660.38
221.79	6668.3
221.863	6675.41
221.936	6682.23
222.009	6694.61
222.082	6713.4
222.155	6724.06
222.229	6773.16
222.302	6796.98
222.375	6803.46
222.448	6832.42
222.521	6843.62
222.594	6845.39
222.667	6827.35
222.74	6871.14
222.814	6867.4
222.887	6853.07
222.96	6893.28
223.033	6925.39
223.106	6939.07
223.179	6963.34
223.252	6975.94
223.325	6994.81
223.398	7010.91
223.471	7031.95
223.544	7049.04
223.617	7060.96
223.69	7078.4
223.763	7042.79
223.837	7061.53
223.91	7085.07
223.983	7048.62
224.056	7019.08
224.129	7029.74
224.202	7072.86
224.275	7064.35
224.348	7039.71
224.42	7013.57
224.493	6975.14
224.566	6956.77
224.639	6972.63
224.712	6950.42
224.785	6938.64
224.858	6936.19
224.931	6921.77
225.004	6892.24
225.077	6889.45
225.15	6817.47
225.223	6818.1
225.296	6883.57
225.369	6835.49
225.442	6809.6
225.514	6820.5
225.587	6836.15
225.66	6851.14
225.733	6849.46
225.806	6853.88
225.879	6848.17
225.952	6828.77
226.025	6860.23
226.097	6893.41
226.17	6888.12
226.243	6846.43
226.316	6841.19
226.389	6839.18
226.461	6851.43
226.534	6866.75
226.607	6865.69
226.68	6932.87
226.753	6928.93
226.825	6870.56
226.898	6913.69
226.971	6920.08
227.044	6938.76
227.117	6945.44
227.189	6954.52
227.262	6984.08
227.335	6996.04
227.407	6997.91
227.48	7023.56
227.553	7035.14
227.626	7023.98
227.698	7034.07
227.771	7063.99
227.844	7050.25
227.916	7068.75
227.989	7042.04
228.062	7041.32
228.134	7107.55
228.207	7112.74
228.28	7104.82
228.352	7112.12
228.425	7123.37
228.498	7158.26
228.57	7144.76
228.643	7190.76
228.716	7192.83
228.788	7184.61
228.861	7179.61
228.934	7226.75
229.006	7233.14
229.079	7231.64
229.151	7225.25
229.224	7198.74
229.296	7210.7
229.369	7287.91
229.442	7333.07
229.514	7322.55
229.587	7361.13
229.659	7308.25
229.732	7314.69
229.804	7350.06
229.877	7407.23
229.949	7429.64
230.022	7466.53
230.094	7472.1
230.167	7461.13
230.239	7427.74
230.312	7414.52
230.384	7475.16
230.457	7475.4
230.529	7484.63
230.602	7485.69
230.674	7487.51
230.747	7510.71
230.819	7532.34
230.892	7448.6
230.964	7434.75
231.037	7454.34
231.109	7446.08
231.181	7471.11
231.254	7442.66
231.326	7433.1
231.399	7418.91
231.471	7392.99
231.544	7332.74
231.616	7367.53
231.688	7373.06
231.761	7364.56
231.833	7363.22
231.905	7296.33
231.978	7295.22
232.05	7276.25
232.122	7279.85
232.195	7261.3
232.267	7294.18
232.339	7275.24
232.412	7322.76
232.484	7302.32
232.556	7279.32
232.629	7330.63
232.701	7342.27
232.773	7350.96
232.846	7343.52
232.918	7345.34
232.99	7361.21
233.062	7393.61
233.135	7397.6
233.207	7372.46
233.279	7411.51
233.351	7433.72
233.424	7433.14
233.496	7414.54
233.568	7480.11
233.64	7448.1
233.713	7468.1
233.785	7468.77
233.857	7486.08
233.929	7449.46
234.001	7504.2
234.074	7559.36
234.146	7505.16
234.218	7502.99
234.29	7500.78
234.362	7490.21
234.434	7456.41
234.507	7427.38
234.579	7386.57
234.651	7372.29
234.723	7396.81
234.795	7403.88
234.867	7400.61
234.939	7447.67
235.012	7457.86
235.084	7457.38
235.156	7487.27
235.228	7469.25
235.3	7456.07
235.372	7461.51
235.444	7507.84
235.516	7436.9
235.588	7439.35
235.66	7456.23
235.732	7431.95
235.804	7592.02
235.876	7626.72
235.948	7671.54
236.02	7686.72
236.092	7703.44
236.164	7713.87
236.236	7712.58
236.308	7708.01
236.38	7729.89
236.452	7714.69
236.524	7727.62
236.596	7784.32
236.668	7811.44
236.74	7828.8
236.812	7845.53
236.884	7873.71
236.956	7882.66
237.028	7888.38
237.1	7874.58
237.172	7919.27
237.244	7985.73
237.316	7886.97
237.388	7869.19
237.46	7851.34
237.532	7901.94
237.604	7896.65
237.675	7947.78
237.747	7978.47
237.819	7970.06
237.891	7974.1
237.963	7965.11
238.035	7965.69
238.107	7877.25
238.178	7925.71
238.25	7929.75
238.322	7997.69
238.394	7967.06
238.466	7963.83
238.538	7995.66
238.609	8029.27
238.681	7990.21
238.753	7971.54
238.825	7990.07
238.897	8021.56
238.968	8084.94
239.04	8064.25
239.112	8143.71
239.184	8118.69
239.255	8116.62
239.327	8151.67
239.399	8163.12
239.471	8197.46
239.542	8221.7
239.614	8271.96
239.686	8211.19
239.758	8251.21
239.829	8223.1
239.901	8266.05
239.973	8277.89
240.044	8299.54
240.116	8310.12
240.188	8324.4
240.259	8329.94
240.331	8315.02
240.403	8344.12
240.474	8309.71
240.546	8304.99
240.618	8262.07
240.689	8260.39
240.761	8281.18
240.833	8327.62
240.904	8329.3
240.976	8330.6
241.048	8347.68
241.119	8376.51
241.191	8404.08
241.262	8458.72
241.334	8469.26
241.405	8474.46
241.477	8479.94
241.549	8487.83
241.62	8501.07
241.692	8533.88
241.763	8579.9
241.835	8600.11
241.906	8610.31
241.978	8585.58
242.049	8637.99
242.121	8682.59
242.192	8737.4
242.264	8705.98
242.335	8671.43
242.407	8707.91
242.478	8715.65
242.55	8729.8
242.621	8718.54
242.693	8720.99
242.764	8713.77
242.836	8712.66
242.907	8737.17
242.979	8762.05
243.05	8780.91
243.122	8804.31
243.193	8804.11
243.264	8751.51
243.336	8754.06
243.407	8780.73
243.479	8848.93
243.55	8860.1
243.622	8873.48
243.693	8871.89
243.764	8930.95
243.836	8914.5
243.907	8902.51
243.978	8903.14
244.05	8922.35
244.121	8887.7
244.192	8922.26
244.264	8883.65
244.335	8898.14
244.407	8858.62
244.478	8871.38
244.549	8865.89
244.62	8830.47
244.692	8828.64
244.763	8862.32
244.834	8849.28
244.906	8827.04
244.977	8831.85
245.048	8875.82
245.119	8866.82
245.191	8847.28
245.262	8794.57
245.333	8856.17
245.405	8872.01
245.476	8895.69
245.547	8910.04
245.618	8952.92
245.689	8956.43
245.761	8981.99
245.832	8979.97
245.903	9017.95
245.974	9034.95
246.045	9047.99
246.117	9121.75
246.188	9114.67
246.259	9105.58
246.33	9122.28
246.401	9133.25
246.473	9113.13
246.544	9097.95
246.615	9135.66
246.686	9141.62
246.757	9200.78
246.828	9180.8
246.899	9234.02
246.97	9213.04
247.042	9203.31
247.113	9233.36
247.184	9302.53
247.255	9301.62
247.326	9324.73
247.397	9327.23
247.468	9338.45
247.539	9343.36
247.61	9301.76
247.681	9334.83
247.752	9373.1
247.823	9359.77
247.894	9372.86
247.965	9348.75
248.037	9330.78
248.108	9289.81
248.179	9292.79
248.25	9284.85
248.321	9304.97
248.392	9269.37
248.463	9332.44
248.534	9326.33
248.605	9341.69
248.675	9322.81
248.746	9339.71
248.817	9351.7
248.888	9363.26
248.959	9321.51
249.03	9343.57
249.101	9350.74
249.172	9335
249.243	9287.29
249.314	9339.49
249.385	9347.33
249.456	9370.92
249.527	9372.7
249.598	9393.07
249.669	9394.7
249.739	9405.64
249.81	9417.1
249.881	9388.4
249.952	9382.52
250.023	9379.68
250.094	9338.65
250.165	9316.83
250.235	9315.62
250.306	9322.51
250.377	9307.3
250.448	9325.35
250.519	9276.82
250.59	9318.38
250.66	9321.32
250.731	9369.65
250.802	9357.22
250.873	9374.46
250.944	9388.38
251.014	9378.65
251.085	9446.09
251.156	9469.68
251.227	9511.2
251.297	9551.18
251.368	9595
251.439	9628.34
251.51	9676.64
251.58	9669.66
251.651	9664.12
251.722	9702.66
251.792	9659.65
251.863	9659.8
251.934	9703.14
252.005	9788.77
252.075	9795.08
252.146	9833.21
252.217	9872.9
252.287	9911.05
252.358	9914.14
252.429	9979.51
252.499	9972.28
252.57	9975.51
252.641	10008.22
252.711	10011.49
252.782	9977.2
252.852	10027.2
252.923	10022.77
252.994	10037.47
253.064	10079.07
253.135	10058.65
253.205	10040.4
253.276	10102.72
253.347	10156.42
253.417	10138.12
253.488	10120.24
253.558	10116
253.629	10108.97
253.699	10115.23
253.77	10135.28
253.841	10124.44
253.911	10129.26
253.982	10152.04
254.052	10182.78
254.123	10190.06
254.193	10194.3
254.264	10300.06
254.334	10277.36
254.405	10257.52
254.475	10229.05
254.546	10233.33
254.616	10291.71
254.687	10316.86
254.757	10325.53
254.827	10315.71
254.898	10341.28
254.968	10352.22
255.039	10339.07
255.109	10374.04
255.18	10357.71
255.25	10304.91
255.321	10332.41
255.391	10304.71
255.461	10368.78
255.532	10296.27
255.602	10287.35
255.673	10238.27
255.743	10207.47
255.813	10153.24
255.884	10188.21
255.954	10208.93
256.024	10258.8
256.095	10259.81
256.165	10232.64
256.235	10257.4
256.306	10252.92
256.376	10289.5
256.446	10325.49
256.517	10351.65
256.587	10386.1
256.657	10401.13
256.728	10420.69
256.798	10431.19
256.868	10422.9
256.938	10403.63
257.009	10450.32
257.079	10479.61
257.149	10559.15
257.219	10512.22
257.29	10541.11
257.36	10494.19
257.43	10534.04
257.5	10478.73
257.571	10467.22
257.641	10495.83
257.711	10467.5
257.781	10489.85
257.852	10494.48
257.922	10446.25
257.992	10445.04
258.062	10437.53
258.132	10464.51
258.202	10469.47
258.273	10479.97
258.343	10536.16
258.413	10518.52
258.483	10519.87
258.553	10496.27
258.623	10473.33
258.693	10495.83
258.764	10552.63
258.834	10614.87
258.904	10622.25
258.974	10621.04
259.044	10636.9
259.114	10659.25
259.184	10682.24
259.254	10691.05
259.324	10660.22
259.394	10697.65
259.464	10759.77
259.535	10771.77
259.605	10780.01
259.675	10774.08
259.745	10798.47
259.815	10780.73
259.885	10783.62
259.955	10869.75
260.025	10867.64
260.095	10885.08
260.165	10912.55
260.235	10955.06
260.305	10937.81
260.375	10916.55
260.445	10987.96
260.515	11032.49
260.585	11065.89
260.655	11076.35
260.725	11112.97
260.795	11143.42
260.865	11195.91
260.934	11170.46
261.004	11193.31
261.074	11194.66
261.144	11245.54
261.214	11276.29
261.284	11282.12
261.354	11314.79
261.424	11284.27
261.494	11338.77
261.564	11336.46
261.634	11362.15
261.703	11313.42
261.773	11334.24
261.843	11365.22
261.913	11356.94
261.983	11319.44
262.053	11332.17
262.123	11326.24
262.192	11287.45
262.262	11311.4
262.332	11266.05
262.402	11287.78
262.472	11290.96
262.541	11240.75
262.611	11267.5
262.681	11250.01
262.751	11279.02
262.821	11291.45
262.89	11256.46
262.96	11277.62
263.03	11343.07
263.1	11357.15
263.169	11378.26
263.239	11407.8
263.309	11456.05
263.379	11482.22
263.448	11496.19
263.518	11523.91
263.588	11538.22
263.657	11600.63
263.727	11637.17
263.797	11651
263.867	11657.75
263.936	11636.2
264.006	11688.15
264.076	11686.41
264.145	11687.62
264.215	11677.5
