Data from 20250626_urea_1M_exp2_MAYP1162681_09-03-59-000.txt Node
Date: Fri Jun 27 09:03:59 BST 2025
User: adleo
Spectrometer: MAYP116268
Trigger mode: 0
Integration Time (sec): 3.000000E0
Scans to average: 1
Electric dark correction enabled: true
Nonlinearity correction enabled: true
Boxcar width: 10
XAxis mode: Wavelengths
Number of Pixels in Spectrum: 2068
>>>>>Begin Spectral Data<<<<<
179.565	3009.64
179.642	3171.27
179.718	3291.4
179.795	3407.37
179.871	3495.08
179.948	3550.03
180.024	3608.68
180.101	3673.26
180.177	3709.89
180.254	3772.01
180.33	3833.14
180.407	4041.91
180.483	4276.87
180.56	4513.57
180.636	4730.76
180.712	4695.7
180.789	4721.36
180.865	4751.79
180.942	4779.93
181.018	4808.03
181.095	4851.81
181.171	4864.5
181.248	4863.64
181.324	4905.41
181.4	4921.08
181.477	4954.37
181.553	4984.95
181.63	5036.35
181.706	5077.6
181.782	5107.75
181.859	5107.46
181.935	5124.57
182.011	5119.01
182.088	5162.37
182.164	5214
182.24	5249.63
182.317	5277.84
182.393	5268.88
182.469	5309.7
182.546	5343.15
182.622	5355.46
182.698	5341.94
182.775	5377.17
182.851	5412.34
182.927	5391.3
183.003	5374.97
183.08	5354.8
183.156	5377.22
183.232	5374.77
183.308	5341.57
183.385	5358.19
183.461	5400.17
183.537	5400.13
183.613	5429.32
183.69	5404.58
183.766	5381.32
183.842	5403.13
183.918	5416.03
183.995	5452.54
184.071	5460.79
184.147	5446.7
184.223	5418.44
184.299	5447.26
184.375	5414.52
184.452	5433.28
184.528	5535.55
184.604	5570.38
184.68	5605.75
184.756	5632.37
184.832	5644.17
184.908	5664.33
184.985	5661.94
185.061	5623.45
185.137	5645.7
185.213	5619.24
185.289	5625.23
185.365	5603.57
185.441	5595.61
185.517	5632.69
185.593	5624.2
185.669	5611.3
185.745	5637.1
185.822	5679.35
185.898	5660.17
185.974	5687.91
186.05	5664.8
186.126	5604.09
186.202	5579.27
186.278	5565.51
186.354	5537.93
186.43	5554.53
186.506	5543.13
186.582	5544.04
186.658	5565.46
186.734	5516.38
186.81	5518.01
186.886	5524.1
186.962	5552.19
187.038	5545.33
187.114	5521.34
187.19	5540.71
187.266	5518.86
187.341	5524.67
187.417	5507.27
187.493	5506.65
187.569	5510.53
187.645	5497.73
187.721	5463.83
187.797	5489.57
187.873	5503.09
187.949	5484.93
188.025	5464.16
188.101	5473.55
188.176	5485.86
188.252	5472.45
188.328	5495.15
188.404	5492.66
188.48	5479.63
188.556	5455.85
188.632	5453.93
188.707	5456.24
188.783	5450.05
188.859	5436.69
188.935	5403.56
189.011	5420.28
189.086	5400.49
189.162	5378.92
189.238	5373.08
189.314	5370.06
189.39	5352.51
189.465	5333.24
189.541	5378.69
189.617	5339.2
189.693	5326.84
189.768	5340.37
189.844	5398.2
189.92	5375.6
189.996	5406.75
190.071	5438.34
190.147	5440.79
190.223	5466.68
190.298	5448.7
190.374	5413.52
190.45	5449.3
190.526	5471.4
190.601	5464.07
190.677	5469.48
190.753	5549.47
190.828	5555.98
190.904	5598.95
190.98	5641.58
191.055	5668.86
191.131	5649.2
191.207	5705.28
191.282	5727.85
191.358	5699.57
191.433	5665.41
191.509	5701.72
191.585	5691.75
191.66	5689.06
191.736	5712.94
191.811	5690.02
191.887	5734.63
191.963	5796.68
192.038	5808.34
192.114	5813.32
192.189	5821.33
192.265	5814.91
192.34	5748.44
192.416	5749.59
192.491	5733.85
192.567	5741.82
192.642	5751.32
192.718	5750.74
192.793	5720.24
192.869	5712.77
192.944	5716.98
193.02	5738.19
193.095	5743.7
193.171	5760.77
193.246	5762.88
193.322	5755.88
193.397	5753.49
193.473	5714.29
193.548	5667.14
193.624	5686.61
193.699	5679.76
193.775	5722.36
193.85	5726.34
193.925	5751.8
194.001	5744.62
194.076	5726.4
194.152	5692.86
194.227	5666.87
194.302	5641.42
194.378	5651.39
194.453	5644.49
194.529	5672.54
194.604	5629.82
194.679	5614.33
194.755	5557.4
194.83	5588.92
194.905	5581.64
194.981	5608.97
195.056	5587.98
195.131	5605.71
195.207	5594.82
195.282	5569.23
195.357	5516.8
195.433	5557.16
195.508	5526.52
195.583	5555.57
195.659	5596.05
195.734	5618.31
195.809	5624.11
195.884	5644.19
195.96	5639.68
196.035	5675.4
196.11	5671.47
196.185	5707.86
196.261	5711.21
196.336	5792.62
196.411	5749.2
196.486	5762.1
196.561	5739.51
196.637	5763.29
196.712	5804.51
196.787	5812.24
196.862	5856.11
196.937	5881.04
197.013	5898.22
197.088	5920.66
197.163	5974.33
197.238	6018.13
197.313	6018.52
197.388	6050.66
197.464	6135.53
197.539	6172.52
197.614	6156.64
197.689	6184.52
197.764	6226.1
197.839	6285.88
197.914	6278.35
197.989	6348.95
198.065	6384.03
198.14	6521.32
198.215	6592.94
198.29	6620.57
198.365	6658.98
198.44	6686.34
198.515	6765.39
198.59	6804.49
198.665	6876.48
198.74	6898.05
198.815	6894.79
198.89	6954.77
198.965	7035.99
199.04	7020.27
199.115	7056.49
199.19	7172.73
199.265	7187.9
199.34	7212.46
199.415	7303.09
199.49	7355.69
199.565	7375.35
199.64	7444.21
199.715	7432.43
199.79	7449.83
199.865	7470.59
199.94	7465.5
200.015	7549.92
200.09	7563.82
200.165	7580.55
200.24	7597.95
200.315	7696.35
200.39	7744.19
200.464	7753.85
200.539	7754.33
200.614	7800.82
200.689	7863.19
200.764	7881.32
200.839	7921.5
200.914	7937.89
200.989	7910.56
201.063	7950.05
201.138	7907.72
201.213	7904.35
201.288	7856.42
201.363	7870.7
201.438	7864.83
201.512	7904.34
201.587	7858.93
201.662	7869.85
201.737	7904
201.812	7933.29
201.886	7852.97
201.961	7869.09
202.036	7839.73
202.111	7833.38
202.186	7751.02
202.26	7706.68
202.335	7650.51
202.41	7634.21
202.485	7583.13
202.559	7530.39
202.634	7455.88
202.709	7474.22
202.784	7424.09
202.858	7430.1
202.933	7374.01
203.008	7358.1
203.082	7310.34
203.157	7305.63
203.232	7189.72
203.306	7129.05
203.381	7037.09
203.456	6971.02
203.53	6914.85
203.605	6863.15
203.68	6797.69
203.754	6784.06
203.829	6744.38
203.904	6685.4
203.978	6655.52
204.053	6671.66
204.127	6635.79
204.202	6628.69
204.277	6588.4
204.351	6572.75
204.426	6545.79
204.5	6529.37
204.575	6437.23
204.65	6459.14
204.724	6437.61
204.799	6459.82
204.873	6447.38
204.948	6442.62
205.022	6414.6
205.097	6389.81
205.171	6429.02
205.246	6451.07
205.32	6450.11
205.395	6444.92
205.469	6418.07
205.544	6433.63
205.618	6383.12
205.693	6413.47
205.767	6381.51
205.842	6433.66
205.916	6418.44
205.991	6390.45
206.065	6402.07
206.14	6442.83
206.214	6429.71
206.289	6409.78
206.363	6437.58
206.438	6447.09
206.512	6469.13
206.586	6521.02
206.661	6547.78
206.735	6483.01
206.81	6489.35
206.884	6524.97
206.958	6494.35
207.033	6541.41
207.107	6557.03
207.181	6644.84
207.256	6630.19
207.33	6679.2
207.405	6710.02
207.479	6758.28
207.553	6781.85
207.628	6739.96
207.702	6769.87
207.776	6753.01
207.851	6762.85
207.925	6808.22
207.999	6798.8
208.073	6785.64
208.148	6788.53
208.222	6755.42
208.296	6843.64
208.371	6890.18
208.445	6919.39
208.519	6993.49
208.593	7031.2
208.668	7021.83
208.742	7023.46
208.816	7027.69
208.89	7070.46
208.965	7065.03
209.039	7085.75
209.113	7125.29
209.187	7180.58
209.261	7172.23
209.336	7233.4
209.41	7284.77
209.484	7285.54
209.558	7350.77
209.632	7389.11
209.707	7419.77
209.781	7476.72
209.855	7517.98
209.929	7555.51
210.003	7577.39
210.077	7575.8
210.151	7704.67
210.226	7797.6
210.3	7875.52
210.374	7940.98
210.448	7954.79
210.522	7987.35
210.596	8009.71
210.67	8039.82
210.744	8171
210.818	8261.04
210.892	8306.56
210.966	8289.34
211.041	8322.87
211.115	8309.3
211.189	8379.39
211.263	8423.36
211.337	8440.43
211.411	8478.16
211.485	8462.56
211.559	8488.39
211.633	8494.69
211.707	8408.32
211.781	8429.8
211.855	8337.51
211.929	8308.8
212.003	8254.09
212.077	8274.16
212.151	8308.13
212.225	8331.8
212.299	8301.71
212.373	8262.99
212.447	8251.24
212.52	8332.8
212.594	8347.95
212.668	8376.77
212.742	8327.98
212.816	8317.35
212.89	8303.4
212.964	8298.3
213.038	8305.27
213.112	8339.06
213.186	8376.14
213.26	8313.69
213.333	8182.9
213.407	8191.17
213.481	8201.13
213.555	8230.54
213.629	8203.45
213.703	8156.34
213.777	8148.26
213.85	8090.52
213.924	8184.12
213.998	8182.05
214.072	8155.43
214.146	8111.94
214.219	8098.71
214.293	8091.06
214.367	8088.03
214.441	8104.58
214.515	8064.98
214.588	7995.38
214.662	7893.96
214.736	7836.54
214.81	7851.87
214.883	7871.52
214.957	7834.99
215.031	7793.18
215.105	7719.22
215.178	7666.23
215.252	7637.34
215.326	7563.34
215.4	7495.26
215.473	7348.27
215.547	7278.84
215.621	7227.56
215.694	7224.77
215.768	7143.98
215.842	7086.14
215.915	7029.02
215.989	6937.41
216.063	6893.71
216.136	6878.19
216.21	6862.25
216.284	6862.11
216.357	6840.39
216.431	6808.69
216.504	6802.2
216.578	6847.62
216.652	6856.45
216.725	6838.09
216.799	6846.94
216.873	6825.18
216.946	6834.21
217.02	6808.15
217.093	6791.38
217.167	6717.56
217.24	6656.97
217.314	6632.93
217.387	6599.01
217.461	6564.53
217.535	6589.11
217.608	6542.11
217.682	6520.59
217.755	6529.19
217.829	6491.49
217.902	6479.2
217.976	6467.34
218.049	6431.72
218.123	6367.34
218.196	6369.74
218.27	6338.25
218.343	6280.85
218.417	6280.51
218.49	6263.18
218.563	6297.46
218.637	6302.11
218.71	6357.53
218.784	6372.99
218.857	6397.17
218.931	6415.74
219.004	6420.59
219.077	6431.45
219.151	6445.12
219.224	6441.95
219.298	6437.68
219.371	6473.51
219.444	6440.88
219.518	6446.44
219.591	6458.54
219.665	6546.15
219.738	6549.36
219.811	6541.35
219.885	6572.9
219.958	6599.88
220.031	6603.48
220.105	6616.4
220.178	6618.66
220.251	6595.08
220.325	6617.37
220.398	6627.84
220.471	6643.53
220.544	6676.24
220.618	6655.25
220.691	6677.91
220.764	6686.26
220.838	6706.49
220.911	6695.48
220.984	6763.18
221.057	6793.39
221.131	6815.9
221.204	6733.29
221.277	6795.21
221.35	6893.41
221.424	6887.36
221.497	6894.71
221.57	6913.57
221.643	6937.12
221.716	6968.5
221.79	6982.91
221.863	6987.38
221.936	6997.61
222.009	7009.28
222.082	7031.05
222.155	7045.22
222.229	7094.53
222.302	7123.84
222.375	7129.12
222.448	7158.34
222.521	7166.17
222.594	7163
222.667	7142.16
222.74	7192.75
222.814	7187.94
222.887	7170.2
222.96	7213.93
223.033	7246.62
223.106	7263.57
223.179	7288.48
223.252	7300.45
223.325	7317.51
223.398	7329.15
223.471	7352.59
223.544	7364.99
223.617	7380.13
223.69	7397.82
223.763	7369.89
223.837	7386.52
223.91	7410.6
223.983	7370.05
224.056	7345.21
224.129	7362.79
224.202	7402.95
224.275	7391.55
224.348	7367.24
224.42	7345.75
224.493	7303.03
224.566	7285.57
224.639	7297.83
224.712	7275.75
224.785	7266.24
224.858	7257.01
224.931	7237.73
225.004	7203
225.077	7206.36
225.15	7126.13
225.223	7124.3
225.296	7186.72
225.369	7139.97
225.442	7116.03
225.514	7130.49
225.587	7143.99
225.66	7148.8
225.733	7153.27
225.806	7156.34
225.879	7145.25
225.952	7117.96
226.025	7156.55
226.097	7199.78
226.17	7197.81
226.243	7147.94
226.316	7140.16
226.389	7145.11
226.461	7165.01
226.534	7181.72
226.607	7176.92
226.68	7240.9
226.753	7235.47
226.825	7174.77
226.898	7218.45
226.971	7218.93
227.044	7235.22
227.117	7239.3
227.189	7258.63
227.262	7285.89
227.335	7299.21
227.407	7299.02
227.48	7322.74
227.553	7333.66
227.626	7315.28
227.698	7319.66
227.771	7347.66
227.844	7336.89
227.916	7350.93
227.989	7322.04
228.062	7331.8
228.134	7400.31
228.207	7403.24
228.28	7393.49
228.352	7401.04
228.425	7414.45
228.498	7449.64
228.57	7437.63
228.643	7483.02
228.716	7485.91
228.788	7478.36
228.861	7474.7
228.934	7525.84
229.006	7532.86
229.079	7528.1
229.151	7515.3
229.224	7484.7
229.296	7502.58
229.369	7581.5
229.442	7623.64
229.514	7612.01
229.587	7637.01
229.659	7575.56
229.732	7583.73
229.804	7621.99
229.877	7683.18
229.949	7698.04
230.022	7737.68
230.094	7737.16
230.167	7724.7
230.239	7685.37
230.312	7672.35
230.384	7727.76
230.457	7729.25
230.529	7740.88
230.602	7743.67
230.674	7751.7
230.747	7789.52
230.819	7819.62
230.892	7728.06
230.964	7728.59
231.037	7752.37
231.109	7748.14
231.181	7782.41
231.254	7757.75
231.326	7743.42
231.399	7724.8
231.471	7699.31
231.544	7637.84
231.616	7673.41
231.688	7681.34
231.761	7671.25
231.833	7665.29
231.905	7592.91
231.978	7590.27
232.05	7573.11
232.122	7581.48
232.195	7560.32
232.267	7585.47
232.339	7567.67
232.412	7620.89
232.484	7588.37
232.556	7566.36
232.629	7618.85
232.701	7628.23
232.773	7635.05
232.846	7624.96
232.918	7627.32
232.99	7648.57
233.062	7684.73
233.135	7688.05
233.207	7657.13
233.279	7692.21
233.351	7715.29
233.424	7726.49
233.496	7705.43
233.568	7771.07
233.64	7736.17
233.713	7754.63
233.785	7752.13
233.857	7761.56
233.929	7718.67
234.001	7775.06
234.074	7827.21
234.146	7769.49
234.218	7769.87
234.29	7769.92
234.362	7764.83
234.434	7725.19
234.507	7696.34
234.579	7649.41
234.651	7642.3
234.723	7668.79
234.795	7683.94
234.867	7677.45
234.939	7721.79
235.012	7730.54
235.084	7735.69
235.156	7770.49
235.228	7753.71
235.3	7745.44
235.372	7752.27
235.444	7802.51
235.516	7739.87
235.588	7743.34
235.66	7758.24
235.732	7735.79
235.804	7890.98
235.876	7923.81
235.948	7978.5
236.02	7991
236.092	8009.94
236.164	8020.81
236.236	8018.07
236.308	8018.98
236.38	8042.26
236.452	8028.21
236.524	8047.45
236.596	8099.01
236.668	8124.85
236.74	8146.92
236.812	8167.31
236.884	8195.94
236.956	8202.96
237.028	8198.83
237.1	8181.66
237.172	8245.08
237.244	8308.39
237.316	8215.64
237.388	8203.61
237.46	8182.44
237.532	8227.28
237.604	8213.43
237.675	8266.31
237.747	8308.99
237.819	8296.11
237.891	8299.71
237.963	8286.54
238.035	8279.56
238.107	8191.96
238.178	8239.77
238.25	8242.55
238.322	8315.39
238.394	8283.58
238.466	8284.21
238.538	8315.09
238.609	8356.4
238.681	8311.26
238.753	8287.48
238.825	8303.03
238.897	8328.86
238.968	8393.65
239.04	8380.99
239.112	8473.08
239.184	8449.88
239.255	8438.57
239.327	8466.99
239.399	8486.62
239.471	8526.79
239.542	8560.81
239.614	8618.41
239.686	8548.47
239.758	8591.49
239.829	8565.15
239.901	8615.05
239.973	8627.75
240.044	8660.04
240.116	8664.04
240.188	8668.9
240.259	8691.27
240.331	8680.88
240.403	8716.87
240.474	8684.56
240.546	8676
240.618	8628.11
240.689	8615.02
240.761	8636.97
240.833	8691.94
240.904	8693.53
240.976	8693.91
241.048	8703.88
241.119	8719.04
241.191	8759.41
241.262	8815.71
241.334	8811.47
241.405	8808.82
241.477	8811.71
241.549	8816.48
241.62	8840.4
241.692	8882.08
241.763	8927.68
241.835	8942.94
241.906	8951.32
241.978	8920.95
242.049	8980.54
242.121	9029.2
242.192	9089.37
242.264	9058.95
242.335	9013.79
242.407	9046.39
242.478	9052.26
242.55	9077.39
242.621	9073.58
242.693	9071.71
242.764	9061.25
242.836	9071.6
242.907	9101.22
242.979	9128.27
243.05	9148.15
243.122	9166.74
243.193	9164.09
243.264	9105.06
243.336	9115.56
243.407	9137.81
243.479	9205.25
243.55	9214.01
243.622	9224.37
243.693	9220.08
243.764	9284.74
243.836	9275.26
243.907	9267.75
243.978	9272.75
244.05	9291.34
244.121	9253.12
244.192	9290
244.264	9246.37
244.335	9258.94
244.407	9217.35
244.478	9222.79
244.549	9213.59
244.62	9177.53
244.692	9174.64
244.763	9210.17
244.834	9195.15
244.906	9183.49
244.977	9200.25
245.048	9242.07
245.119	9222.57
245.191	9201.53
245.262	9146.49
245.333	9210.28
245.405	9225.97
245.476	9244.89
245.547	9254.53
245.618	9293.86
245.689	9299.01
245.761	9330.98
245.832	9323.37
245.903	9355.96
245.974	9385.73
246.045	9391.22
246.117	9459.01
246.188	9443.42
246.259	9430.03
246.33	9446.55
246.401	9450.59
246.473	9421.84
246.544	9412.25
246.615	9463.06
246.686	9473.41
246.757	9531.96
246.828	9505.91
246.899	9561.11
246.97	9544.5
247.042	9532.51
247.113	9570.03
247.184	9642.54
247.255	9635.65
247.326	9661.9
247.397	9676.73
247.468	9681.98
247.539	9700.67
247.61	9669.03
247.681	9711.83
247.752	9754.64
247.823	9734.13
247.894	9749.06
247.965	9724.41
248.037	9707.26
248.108	9663.14
248.179	9669.35
248.25	9660.3
248.321	9687.84
248.392	9653.15
248.463	9715.85
248.534	9718.12
248.605	9735.89
248.675	9715.17
248.746	9734.87
248.817	9747.01
248.888	9756.11
248.959	9714.07
249.03	9730.74
249.101	9734.83
249.172	9720.53
249.243	9665.97
249.314	9721.59
249.385	9727.08
249.456	9752.12
249.527	9745.76
249.598	9767.53
249.669	9762.09
249.739	9763.87
249.81	9769.36
249.881	9732.09
249.952	9722.26
250.023	9716.77
250.094	9678.38
250.165	9649.56
250.235	9641.47
250.306	9644.99
250.377	9630.39
250.448	9652.02
250.519	9601.64
250.59	9648.66
250.66	9646.44
250.731	9700.13
250.802	9700.03
250.873	9719.21
250.944	9738.38
251.014	9737.41
251.085	9813.25
251.156	9838.14
251.227	9890.03
251.297	9937.53
251.368	9979.62
251.439	10019.08
251.51	10062.38
251.58	10046.64
251.651	10043.79
251.722	10088.93
251.792	10053
251.863	10046.26
251.934	10089.56
252.005	10181.61
252.075	10188.6
252.146	10226.17
252.217	10266.1
252.287	10296.12
252.358	10297.18
252.429	10358.9
252.499	10347.68
252.57	10345.46
252.641	10385.78
252.711	10385.69
252.782	10349.89
252.852	10406.41
252.923	10392.92
252.994	10404.05
253.064	10442.96
253.135	10429.62
253.205	10413.14
253.276	10467.14
253.347	10519.26
253.417	10501.29
253.488	10482.65
253.558	10480.29
253.629	10485.05
253.699	10496.52
253.77	10518.3
253.841	10508.43
253.911	10514.6
253.982	10529.67
254.052	10557.96
254.123	10562.73
254.193	10567.17
254.264	10675.21
254.334	10647.98
254.405	10630.16
254.475	10601.44
254.546	10610.6
254.616	10652.17
254.687	10676.79
254.757	10693.76
254.827	10696.26
254.898	10724.54
254.968	10729.36
255.039	10708.93
255.109	10736.16
255.18	10709.36
255.25	10655.35
255.321	10688.06
255.391	10656.4
255.461	10726.12
255.532	10664.34
255.602	10659.28
255.673	10617.37
255.743	10587.39
255.813	10534.49
255.884	10573.86
255.954	10610.09
256.024	10656.88
256.095	10663.43
256.165	10632.26
256.235	10653.13
256.306	10640.31
256.376	10673.08
256.446	10700.69
256.517	10727.72
256.587	10761.46
256.657	10778.27
256.728	10792.77
256.798	10795.57
256.868	10792.82
256.938	10769.26
257.009	10805.3
257.079	10830.94
257.149	10912.95
257.219	10869.96
257.29	10902.28
257.36	10855.6
257.43	10885.19
257.5	10838.4
257.571	10829.38
257.641	10861.71
257.711	10834.05
257.781	10855.44
257.852	10862.87
257.922	10822.87
257.992	10819.45
258.062	10803.35
258.132	10834.44
258.202	10840.56
258.273	10856.51
258.343	10912.12
258.413	10904.07
258.483	10904.56
258.553	10877.28
258.623	10855.5
258.693	10870.96
258.764	10927.44
258.834	10984.92
258.904	10991.38
258.974	10977.46
259.044	10995.05
259.114	11014.85
259.184	11035.14
259.254	11046.47
259.324	11009.5
259.394	11047.13
259.464	11108
259.535	11121.59
259.605	11121.88
259.675	11116.01
259.745	11140.92
259.815	11124.2
259.885	11127.28
259.955	11214.29
260.025	11213.61
260.095	11220.21
260.165	11251.35
260.235	11294.39
260.305	11287.45
260.375	11271.26
260.445	11351.92
260.515	11400.55
260.585	11441.09
260.655	11440.66
260.725	11475.69
260.795	11504.56
260.865	11560.04
260.934	11541.72
261.004	11565.29
261.074	11566.74
261.144	11612.42
261.214	11639.55
261.284	11643.27
261.354	11677.92
261.424	11643.4
261.494	11701.76
261.564	11707.93
261.634	11723.84
261.703	11672.45
261.773	11690.09
261.843	11716.89
261.913	11703.06
261.983	11660.89
262.053	11672.12
262.123	11679.44
262.192	11642.28
262.262	11671.59
262.332	11634.96
262.402	11663.97
262.472	11676.65
262.541	11633.57
262.611	11679.02
262.681	11653.67
262.751	11681.43
262.821	11684.71
262.89	11658.39
262.96	11675.26
263.03	11738.16
263.1	11759.18
263.169	11778.02
263.239	11796.68
263.309	11844.69
263.379	11876.89
263.448	11887.44
263.518	11907.35
263.588	11921.23
263.657	11984.71
263.727	12022.11
263.797	12022.79
263.867	12017.44
263.936	11982.49
264.006	12032.75
264.076	12022.15
