Data from 20250626_urea_1M_exp2_MAYP1162681_13-44-00-635.txt Node
Date: Fri Jun 27 13:44:00 BST 2025
User: adleo
Spectrometer: MAYP116268
Trigger mode: 0
Integration Time (sec): 3.000000E0
Scans to average: 1
Electric dark correction enabled: true
Nonlinearity correction enabled: true
Boxcar width: 10
XAxis mode: Wavelengths
Number of Pixels in Spectrum: 2068
>>>>>Begin Spectral Data<<<<<
179.565	3167.63
179.642	3329.58
179.718	3449.6
179.795	3572.09
179.871	3667.58
179.948	3723.87
180.024	3787.08
180.101	3854.93
180.177	3894.8
180.254	3960.19
180.33	4022.86
180.407	4246.39
180.483	4496.29
180.56	4744.87
180.636	4978.48
180.712	4948.63
180.789	4974.54
180.865	5012.02
180.942	5030.69
181.018	5057.42
181.095	5100.7
181.171	5112.29
181.248	5115.69
181.324	5163.14
181.4	5177.13
181.477	5206.46
181.553	5239.55
181.63	5297.2
181.706	5340.05
181.782	5365.72
181.859	5361.07
181.935	5378.18
182.011	5368.88
182.088	5410.11
182.164	5466.37
182.24	5496.94
182.317	5519.36
182.393	5509.44
182.469	5546.83
182.546	5586.43
182.622	5599.18
182.698	5583.64
182.775	5624.73
182.851	5660.87
182.927	5642.36
183.003	5631.49
183.08	5615.67
183.156	5641.51
183.232	5632.44
183.308	5604.44
183.385	5623.32
183.461	5672.66
183.537	5673.86
183.613	5708.96
183.69	5681.87
183.766	5649.34
183.842	5678.07
183.918	5699.65
183.995	5735.22
184.071	5743.95
184.147	5734.31
184.223	5706.51
184.299	5737.02
184.375	5702.69
184.452	5725.39
184.528	5831.46
184.604	5866.26
184.68	5902.27
184.756	5924.2
184.832	5931.64
184.908	5944.58
184.985	5946.11
185.061	5903.91
185.137	5928.28
185.213	5892.36
185.289	5897.64
185.365	5881.43
185.441	5871.5
185.517	5908.12
185.593	5900.88
185.669	5891.48
185.745	5914.22
185.822	5959.32
185.898	5939.22
185.974	5963.38
186.05	5936.9
186.126	5870.98
186.202	5847.96
186.278	5832.9
186.354	5807.85
186.43	5828.3
186.506	5820.77
186.582	5819.86
186.658	5840.66
186.734	5787.73
186.81	5796.55
186.886	5807
186.962	5836.11
187.038	5824.26
187.114	5800.07
187.19	5823.34
187.266	5801.28
187.341	5804.16
187.417	5783.16
187.493	5781.96
187.569	5791.93
187.645	5775.97
187.721	5745.93
187.797	5764.01
187.873	5782.53
187.949	5765.12
188.025	5748.47
188.101	5759.59
188.176	5773.55
188.252	5761.32
188.328	5785.9
188.404	5782.64
188.48	5767.26
188.556	5744.09
188.632	5744.43
188.707	5746.16
188.783	5738.38
188.859	5724.29
188.935	5698.34
189.011	5716.28
189.086	5702.42
189.162	5677.53
189.238	5672.16
189.314	5664.59
189.39	5653.32
189.465	5629.96
189.541	5672.26
189.617	5631.41
189.693	5613.91
189.768	5623.94
189.844	5686.12
189.92	5660.87
189.996	5688.44
190.071	5722.78
190.147	5726.28
190.223	5751.71
190.298	5728.15
190.374	5688.93
190.45	5717.21
190.526	5732.22
190.601	5724.26
190.677	5729.72
190.753	5814.5
190.828	5826.05
190.904	5867.5
190.98	5906.75
191.055	5933.9
191.131	5914.51
191.207	5973.89
191.282	6001.7
191.358	5974.55
191.433	5938.02
191.509	5975.36
191.585	5962.74
191.66	5963.61
191.736	5989.89
191.811	5965.9
191.887	6014.04
191.963	6082.12
192.038	6103.8
192.114	6106.77
192.189	6112.29
192.265	6098.92
192.34	6031.69
192.416	6029.06
192.491	6016.1
192.567	6025.22
192.642	6034.72
192.718	6038.9
192.793	6006.22
192.869	5999.46
192.944	6007.37
193.02	6022.92
193.095	6033.04
193.171	6057.41
193.246	6053.14
193.322	6033.38
193.397	6033.04
193.473	5992.58
193.548	5943.68
193.624	5957.31
193.699	5956.59
193.775	6002.57
193.85	6012.16
193.925	6035.24
194.001	6035.96
194.076	6012.07
194.152	5984.18
194.227	5964.46
194.302	5939.33
194.378	5947.29
194.453	5935.02
194.529	5968.94
194.604	5932.67
194.679	5917.37
194.755	5858.25
194.83	5898.82
194.905	5898
194.981	5923.05
195.056	5901.52
195.131	5918.16
195.207	5906.4
195.282	5877.39
195.357	5824.11
195.433	5860.9
195.508	5830.63
195.583	5849.33
195.659	5895.4
195.734	5912.2
195.809	5912.77
195.884	5932.05
195.96	5932.29
196.035	5976.9
196.11	5969.41
196.185	6007.94
196.261	6014.07
196.336	6101.14
196.411	6053.91
196.486	6068.54
196.561	6048.62
196.637	6078.02
196.712	6119.02
196.787	6131.4
196.862	6178.18
196.937	6199.62
197.013	6219.64
197.088	6249.77
197.163	6308.83
197.238	6353.57
197.313	6351.41
197.388	6381.7
197.464	6464.15
197.539	6500.73
197.614	6478.56
197.689	6504.48
197.764	6543.72
197.839	6603.98
197.914	6587.41
197.989	6655.16
198.065	6694.34
198.14	6836.73
198.215	6904.89
198.29	6940.45
198.365	6982.68
198.44	7007.41
198.515	7089.71
198.59	7128.05
198.665	7192.39
198.74	7216.62
198.815	7218.78
198.89	7280.37
198.965	7372.25
199.04	7358.5
199.115	7393.87
199.19	7514.34
199.265	7529.37
199.34	7564.52
199.415	7649.99
199.49	7708.95
199.565	7731.4
199.64	7801.26
199.715	7788.31
199.79	7810.43
199.865	7824.23
199.94	7814.57
200.015	7906.77
200.09	7923.46
200.165	7942.21
200.24	7967.03
200.315	8067.87
200.39	8112.99
200.464	8128.71
200.539	8127.46
200.614	8171.8
200.689	8240.4
200.764	8260.47
200.839	8302.97
200.914	8311.33
200.989	8290.25
201.063	8333.17
201.138	8286.69
201.213	8280.82
201.288	8229.79
201.363	8235.13
201.438	8237.05
201.512	8283.93
201.587	8231.53
201.662	8238.37
201.737	8270.26
201.812	8294.23
201.886	8209.69
201.961	8236.12
202.036	8202.17
202.111	8191.83
202.186	8112.52
202.26	8064.55
202.335	7999.12
202.41	7984.79
202.485	7938.15
202.559	7877.95
202.634	7802.49
202.709	7828.92
202.784	7780.26
202.858	7782.52
202.933	7738.48
203.008	7722.61
203.082	7666.41
203.157	7666.45
203.232	7552.33
203.306	7494.95
203.381	7400.56
203.456	7338.65
203.53	7270.32
203.605	7219.46
203.68	7153.01
203.754	7137.12
203.829	7091.32
203.904	7032.52
203.978	7000.36
204.053	7009.35
204.127	6978.51
204.202	6967.94
204.277	6916.21
204.351	6896.32
204.426	6875.89
204.5	6850.62
204.575	6746.63
204.65	6768.93
204.724	6741.38
204.799	6764.7
204.873	6752.5
204.948	6749.38
205.022	6709.05
205.097	6687.37
205.171	6724.01
205.246	6745.92
205.32	6743.19
205.395	6741.46
205.469	6721.02
205.544	6734.52
205.618	6691.34
205.693	6722.71
205.767	6690.92
205.842	6751.11
205.916	6734.36
205.991	6699.34
206.065	6712.79
206.14	6762.49
206.214	6752.3
206.289	6734.19
206.363	6759.84
206.438	6767.43
206.512	6786.4
206.586	6844.98
206.661	6864.5
206.735	6801.19
206.81	6807.1
206.884	6853.54
206.958	6817.39
207.033	6860.35
207.107	6880.49
207.181	6967.91
207.256	6948.17
207.33	7001.96
207.405	7033.65
207.479	7087.12
207.553	7117.14
207.628	7075.95
207.702	7104.62
207.776	7085.02
207.851	7098.23
207.925	7141.98
207.999	7131.74
208.073	7127.27
208.148	7133.04
208.222	7100.17
208.296	7190.87
208.371	7233.53
208.445	7255.36
208.519	7335.54
208.593	7374.36
208.668	7359.6
208.742	7359.27
208.816	7364.02
208.89	7407.01
208.965	7399.8
209.039	7423.7
209.113	7463.45
209.187	7525.06
209.261	7517.9
209.336	7576.64
209.41	7629.29
209.484	7626.98
209.558	7692.43
209.632	7725.83
209.707	7758.58
209.781	7818.38
209.855	7869.32
209.929	7912.26
210.003	7932.03
210.077	7927.89
210.151	8053.52
210.226	8151.34
210.3	8225.77
210.374	8291.78
210.448	8294.95
210.522	8327
210.596	8353.27
210.67	8382.52
210.744	8507.44
210.818	8590.88
210.892	8644.87
210.966	8632.56
211.041	8679.86
211.115	8667.93
211.189	8740.73
211.263	8785.53
211.337	8807.09
211.411	8842.04
211.485	8828.12
211.559	8858.72
211.633	8871.37
211.707	8786.91
211.781	8802.95
211.855	8709.48
211.929	8686.01
212.003	8634.55
212.077	8658.43
212.151	8688.66
212.225	8712.15
212.299	8680.31
212.373	8652.6
212.447	8636.23
212.52	8706.16
212.594	8711.89
212.668	8743.41
212.742	8698.41
212.816	8680.69
212.89	8662.26
212.964	8657.11
213.038	8665.92
213.112	8700.29
213.186	8736.19
213.26	8678.14
213.333	8548.18
213.407	8560.98
213.481	8567.38
213.555	8601.85
213.629	8565.89
213.703	8518
213.777	8513.96
213.85	8458.99
213.924	8547.19
213.998	8548.2
214.072	8532.02
214.146	8491.45
214.219	8475.33
214.293	8459.21
214.367	8461.04
214.441	8477.93
214.515	8435.19
214.588	8359.36
214.662	8254.39
214.736	8187.77
214.81	8200.79
214.883	8224.92
214.957	8183.67
215.031	8137.86
215.105	8061.07
215.178	8011.48
215.252	7977.14
215.326	7895.09
215.4	7825.34
215.473	7675.04
215.547	7603.61
215.621	7544.23
215.694	7535.86
215.768	7458.31
215.842	7400.58
215.915	7341.28
215.989	7253.48
216.063	7202.22
216.136	7186.35
216.21	7167.76
216.284	7177.13
216.357	7156.61
216.431	7120.62
216.504	7115.96
216.578	7165.23
216.652	7174.35
216.725	7159.55
216.799	7166.67
216.873	7148.6
216.946	7159.94
217.02	7132.42
217.093	7106.81
217.167	7031.91
217.24	6963.96
217.314	6934.23
217.387	6903.03
217.461	6871.22
217.535	6886.93
217.608	6837.46
217.682	6815.84
217.755	6824.73
217.829	6781.29
217.902	6764.53
217.976	6747.86
218.049	6711.84
218.123	6643.98
218.196	6641.1
218.27	6608.49
218.343	6553.04
218.417	6556.31
218.49	6531.19
218.563	6565.33
218.637	6576.53
218.71	6635.75
218.784	6666.26
218.857	6694.34
218.931	6713.93
219.004	6712.82
219.077	6729.69
219.151	6746.88
219.224	6746.49
219.298	6743.85
219.371	6778.35
219.444	6752.09
219.518	6761.59
219.591	6773.21
219.665	6864.65
219.738	6875.31
219.811	6863.26
219.885	6898.9
219.958	6918.03
220.031	6927.34
220.105	6940.41
220.178	6939.4
220.251	6914.94
220.325	6933.01
220.398	6944.2
220.471	6960.48
220.544	6991.9
220.618	6970.9
220.691	6992.28
220.764	6999.87
220.838	7019.62
220.911	7007.27
220.984	7070.91
221.057	7102.72
221.131	7121.69
221.204	7036.83
221.277	7104.51
221.35	7204.86
221.424	7198.27
221.497	7207.4
221.57	7224.89
221.643	7254.21
221.716	7292.14
221.79	7300.45
221.863	7307.57
221.936	7320.93
222.009	7329.53
222.082	7350.01
222.155	7361.01
222.229	7417.17
222.302	7448.46
222.375	7457.83
222.448	7491.67
222.521	7499.65
222.594	7497.11
222.667	7479.43
222.74	7526.43
222.814	7512.87
222.887	7499.83
222.96	7547.71
223.033	7585.22
223.106	7606.94
223.179	7632.63
223.252	7639.8
223.325	7661.57
223.398	7680.33
223.471	7698.45
223.544	7719.07
223.617	7731.05
223.69	7744.26
223.763	7714.45
223.837	7731.23
223.91	7751.23
223.983	7705.14
224.056	7670.63
224.129	7689.19
224.202	7730.03
224.275	7717.86
224.348	7690.99
224.42	7661.08
224.493	7617.13
224.566	7594.96
224.639	7612.17
224.712	7579.42
224.785	7572.06
224.858	7563.36
224.931	7538.68
225.004	7499.95
225.077	7498.84
225.15	7423.68
225.223	7423.3
225.296	7490.07
225.369	7437.53
225.442	7410.61
225.514	7426.85
225.587	7450.93
225.66	7453.91
225.733	7456.79
225.806	7465.64
225.879	7459.44
225.952	7429.98
226.025	7464.4
226.097	7509.43
226.17	7496.4
226.243	7449.5
226.316	7445.94
226.389	7451.04
226.461	7466.19
226.534	7488.67
226.607	7482.67
226.68	7553.45
226.753	7550.52
226.825	7480.47
226.898	7523.97
226.971	7528.34
227.044	7551.03
227.117	7553.1
227.189	7570.41
227.262	7596.09
227.335	7613.31
227.407	7614.94
227.48	7650.7
227.553	7656.71
227.626	7636.88
227.698	7648.95
227.771	7683.93
227.844	7666.19
227.916	7683.31
227.989	7659.12
228.062	7663.5
228.134	7730.02
228.207	7727.8
228.28	7719.73
228.352	7732.18
228.425	7739.88
228.498	7776.86
228.57	7762
228.643	7813.76
228.716	7810.49
228.788	7799.81
228.861	7793.41
228.934	7844
229.006	7844.86
229.079	7843.95
229.151	7836.4
229.224	7802.66
229.296	7819.63
229.369	7906.18
229.442	7942.7
229.514	7927.22
229.587	7955.54
229.659	7893.88
229.732	7904.27
229.804	7939.61
229.877	7998.41
229.949	8028.14
230.022	8066.35
230.094	8063.13
230.167	8055.34
230.239	8022.74
230.312	8013.41
230.384	8070.77
230.457	8064.95
230.529	8075.04
230.602	8075.48
230.674	8079.37
230.747	8113.16
230.819	8136.3
230.892	8037.88
230.964	8037.88
231.037	8057.68
231.109	8059.27
231.181	8090.62
231.254	8064.12
231.326	8055.7
231.399	8039.72
231.471	8006.58
231.544	7941.91
231.616	7980.38
231.688	7984.66
231.761	7976.39
231.833	7968.12
231.905	7896.48
231.978	7896.39
232.05	7882.92
232.122	7887.78
232.195	7869.26
232.267	7897.74
232.339	7881.96
232.412	7936.82
232.484	7909.21
232.556	7888.83
232.629	7938.73
232.701	7956.73
232.773	7958.79
232.846	7948.26
232.918	7948.84
232.99	7967.55
233.062	8004.83
233.135	8008.78
233.207	7977.84
233.279	8015.68
233.351	8047.52
233.424	8054.3
233.496	8033.66
233.568	8097.12
233.64	8063.36
233.713	8076.01
233.785	8078.41
233.857	8092.6
233.929	8043.07
234.001	8103.72
234.074	8156.99
234.146	8089.91
234.218	8088.04
234.29	8091.64
234.362	8083.71
234.434	8048.15
234.507	8021.65
234.579	7975.67
234.651	7964.85
234.723	7983.9
234.795	8004.15
234.867	7997.41
234.939	8040.76
235.012	8054.8
235.084	8060
235.156	8094.67
235.228	8081.06
235.3	8064.17
235.372	8071.05
235.444	8126.21
235.516	8059.36
235.588	8060.47
235.66	8075.86
235.732	8050.22
235.804	8214.21
235.876	8251.68
235.948	8306.29
236.02	8314.47
236.092	8329.09
236.164	8336.16
236.236	8335.58
236.308	8324.56
236.38	8351.55
236.452	8336.25
236.524	8351.74
236.596	8400.57
236.668	8429.2
236.74	8449.69
236.812	8470.04
236.884	8495.84
236.956	8508.16
237.028	8506.96
237.1	8498.87
237.172	8563.22
237.244	8630.5
237.316	8534.11
237.388	8515.64
237.46	8492.97
237.532	8550.18
237.604	8542.39
237.675	8605.54
237.747	8642.84
237.819	8635
237.891	8630.57
237.963	8620.23
238.035	8621.91
238.107	8538.48
238.178	8591.01
238.25	8592.94
238.322	8669.06
238.394	8637.92
238.466	8632.68
238.538	8661.83
238.609	8694.89
238.681	8650.5
238.753	8627.83
238.825	8643.67
238.897	8672.24
238.968	8738.79
239.04	8721.46
239.112	8818.77
239.184	8785.02
239.255	8782.04
239.327	8810.23
239.399	8833.19
239.471	8871.59
239.542	8899.74
239.614	8950.38
239.686	8885.53
239.758	8931.92
239.829	8906.54
239.901	8953.32
239.973	8963.67
240.044	8991.88
240.116	8996.84
240.188	9006.46
240.259	9019.8
240.331	9011.56
240.403	9033.7
240.474	8994.69
240.546	8986.32
240.618	8939.9
240.689	8940.39
240.761	8960.51
240.833	9016.99
240.904	9009.67
240.976	9009.91
241.048	9018.62
241.119	9046.94
241.191	9074.95
241.262	9130.1
241.334	9129
241.405	9128.08
241.477	9139.01
241.549	9150.9
241.62	9178.2
241.692	9218.74
241.763	9264.05
241.835	9275.75
241.906	9290.05
241.978	9264.11
242.049	9319.52
242.121	9360.78
242.192	9413.7
242.264	9385.29
242.335	9342.77
242.407	9383.75
242.478	9391.98
242.55	9411.72
242.621	9406.43
242.693	9409.55
242.764	9396.31
242.836	9396.55
242.907	9428.19
242.979	9454.48
243.05	9469.74
243.122	9487.95
243.193	9479.95
243.264	9425.83
243.336	9434.11
243.407	9468.69
243.479	9534.75
243.55	9544.97
243.622	9560.47
243.693	9561.15
243.764	9620.91
243.836	9606.04
243.907	9598.71
243.978	9601.84
244.05	9622.22
244.121	9577.73
244.192	9612.93
244.264	9577.14
244.335	9590.05
244.407	9548.83
244.478	9562.94
244.549	9551.77
244.62	9519.6
244.692	9518.73
244.763	9557.06
244.834	9544.15
244.906	9525.76
244.977	9541.89
245.048	9591.76
245.119	9573.46
245.191	9548.13
245.262	9490.92
245.333	9550.19
245.405	9561.51
245.476	9587.7
245.547	9597.38
245.618	9643.46
245.689	9653.43
245.761	9682.24
245.832	9688.69
245.903	9727.02
245.974	9746.48
246.045	9760.11
246.117	9831.98
246.188	9819.65
246.259	9807.03
246.33	9827.98
246.401	9834.19
246.473	9805.39
246.544	9785.58
246.615	9831.44
246.686	9852.2
246.757	9913.45
246.828	9892.12
246.899	9953.02
246.97	9928.94
247.042	9926.19
247.113	9958.56
247.184	10028.82
247.255	10026.46
247.326	10042.36
247.397	10048.09
247.468	10052.52
247.539	10059.6
247.61	10015.52
247.681	10058.77
247.752	10096.67
247.823	10073.65
247.894	10090.8
247.965	10071.73
248.037	10061.61
248.108	10016.86
248.179	10014.36
248.25	10012.72
248.321	10037.04
248.392	9992.91
248.463	10057.35
248.534	10055.57
248.605	10073.78
248.675	10053.49
248.746	10071.99
248.817	10089.58
248.888	10102.01
248.959	10053.74
249.03	10081.35
249.101	10087.61
249.172	10072.63
249.243	10011.95
249.314	10066.38
249.385	10075.77
249.456	10093.5
249.527	10086.22
249.598	10109.24
249.669	10107.12
249.739	10118.59
249.81	10130.44
249.881	10099.76
249.952	10090.22
250.023	10087.81
250.094	10038.09
250.165	10020.17
250.235	10008.65
250.306	10012.17
250.377	9990.3
250.448	10025.41
250.519	9969.29
250.59	10016.85
250.66	10015.02
250.731	10076.51
250.802	10074.97
250.873	10086.44
250.944	10109.37
251.014	10104.31
251.085	10175.05
251.156	10196.48
251.227	10232.81
251.297	10280.37
251.368	10319.14
251.439	10354.32
251.51	10401.54
251.58	10399.66
251.651	10385.97
251.722	10432.57
251.792	10393.83
251.863	10398.02
251.934	10442.93
252.005	10530.27
252.075	10535.57
252.146	10575.12
252.217	10614.15
252.287	10648.02
252.358	10658.96
252.429	10720.25
252.499	10716.35
252.57	10726.04
252.641	10767.96
252.711	10776.97
252.782	10737.75
252.852	10798.9
252.923	10796.35
252.994	10804.44
253.064	10844.91
253.135	10827.13
253.205	10807.52
253.276	10864.71
253.347	10909.37
253.417	10891.01
253.488	10880.17
253.558	10868.99
253.629	10871.73
253.699	10883.2
253.77	10907.3
253.841	10899.64
253.911	10907.5
253.982	10921.61
254.052	10949.47
254.123	10954.05
254.193	10954.97
254.264	11060.8
254.334	11040.99
254.405	11013.24
254.475	10984.28
254.546	10991.17
254.616	11049.9
254.687	11079.64
254.757	11096.5
254.827	11104.12
254.898	11121.37
254.968	11127.97
255.039	11125.32
255.109	11155.58
255.18	11131.15
255.25	11070.04
255.321	11095.44
255.391	11060.79
255.461	11135.29
255.532	11063.81
255.602	11054.76
255.673	11004.4
255.743	10978.9
255.813	10913.95
255.884	10958.38
255.954	10990.04
256.024	11041.13
256.095	11038.48
256.165	11004.89
256.235	11033.62
256.306	11018.97
256.376	11053.28
256.446	11091.94
256.517	11114.83
256.587	11145.33
256.657	11160.08
256.728	11175.88
256.798	11178.15
256.868	11171.98
256.938	11143.21
257.009	11182.72
257.079	11214.97
257.149	11302.96
257.219	11261.13
257.29	11299.19
257.36	11250.33
257.43	11280.3
257.5	11218.33
257.571	11210.18
257.641	11241.55
257.711	11204.83
257.781	11231.19
257.852	11248.68
257.922	11199.43
257.992	11202.37
258.062	11194.32
258.132	11234.42
258.202	11248.1
258.273	11263.38
258.343	11327.96
258.413	11318.04
258.483	11319.77
258.553	11297.22
258.623	11273.65
258.693	11289.98
258.764	11343.96
258.834	11399.81
258.904	11410.7
258.974	11411.62
259.044	11418.8
259.114	11453.84
259.184	11477.84
259.254	11486.95
259.324	11444.15
259.394	11478.42
259.464	11534.42
259.535	11547.44
259.605	11543.58
259.675	11536.74
259.745	11568.36
259.815	11546.71
259.885	11546.09
259.955	11641
260.025	11632.14
260.095	11640.91
260.165	11672.33
260.235	11724.01
260.305	11720.68
260.375	11698.8
260.445	11774.22
260.515	11835.2
260.585	11866
260.655	11872.46
260.725	11904.03
260.795	11932.41
260.865	11987.32
260.934	11967.6
261.004	11990.64
261.074	11988.91
261.144	12029.78
261.214	12048.53
261.284	12055.52
261.354	12088.67
261.424	12047.46
261.494	12100.38
261.564	12101.92
261.634	12123.56
261.703	12069.62
261.773	12083.99
261.843	12112.13
261.913	12099.6
261.983	12046.34
262.053	12059.69
262.123	12058.39
262.192	12026.05
262.262	12062.78
262.332	12022.34
262.402	12043.02
262.472	12058.01
262.541	12009.19
262.611	12047.89
262.681	12034.64
262.751	12058.16
262.821	12060.52
262.89	12037.72
262.96	12066.5
263.03	12133.36
263.1	12147.15
263.169	12161.27
263.239	12194.48
263.309	12253.34
263.379	12278.98
263.448	12297.35
263.518	12316.68
263.588	12329.79
263.657	12396.3
263.727	12424.46
263.797	12434.63
263.867	12437.04
263.936	12398.76
