Data from 20250626_urea_1M_exp2_MAYP1162681_04-04-00-469.txt Node
Date: Fri Jun 27 04:04:00 BST 2025
User: adleo
Spectrometer: MAYP116268
Trigger mode: 0
Integration Time (sec): 3.000000E0
Scans to average: 1
Electric dark correction enabled: true
Nonlinearity correction enabled: true
Boxcar width: 10
XAxis mode: Wavelengths
Number of Pixels in Spectrum: 2068
>>>>>Begin Spectral Data<<<<<
179.565	2738.56
179.642	2882
179.718	2986.22
179.795	3091.77
179.871	3168.51
179.948	3214.76
180.024	3270.28
180.101	3330.51
180.177	3363.84
180.254	3420.9
180.33	3476.93
180.407	3663.95
180.483	3876.32
180.56	4091.53
180.636	4289.3
180.712	4260.26
180.789	4286.38
180.865	4319.17
180.942	4346.9
181.018	4370.67
181.095	4407.05
181.171	4419.25
181.248	4420.35
181.324	4460.79
181.4	4472.47
181.477	4503.71
181.553	4536.42
181.63	4588.02
181.706	4621.38
181.782	4646.29
181.859	4650.65
181.935	4665.63
182.011	4657.83
182.088	4699.95
182.164	4746.6
182.24	4777.41
182.317	4801.53
182.393	4793.15
182.469	4822.83
182.546	4853.42
182.622	4865.87
182.698	4854.38
182.775	4890.72
182.851	4925.62
182.927	4907.47
183.003	4898.24
183.08	4884.16
183.156	4906.76
183.232	4896.84
183.308	4873.62
183.385	4892.43
183.461	4928.97
183.537	4929.02
183.613	4957.13
183.69	4936.11
183.766	4911.33
183.842	4933.32
183.918	4949.55
183.995	4982.88
184.071	4994.9
184.147	4980.72
184.223	4953.83
184.299	4980.94
184.375	4953.74
184.452	4968.22
184.528	5072.81
184.604	5101.59
184.68	5131.37
184.756	5147.9
184.832	5158.01
184.908	5169.11
184.985	5167.34
185.061	5127.98
185.137	5152.6
185.213	5131.1
185.289	5133.54
185.365	5114.34
185.441	5109.31
185.517	5142.15
185.593	5133.67
185.669	5123.22
185.745	5149.09
185.822	5190.93
185.898	5171.91
185.974	5191.59
186.05	5173.57
186.126	5110.07
186.202	5087.71
186.278	5075.36
186.354	5049.97
186.43	5065.93
186.506	5061.95
186.582	5059.42
186.658	5075.74
186.734	5025.94
186.81	5024.79
186.886	5032.45
186.962	5059.55
187.038	5049.11
187.114	5026.24
187.19	5046.7
187.266	5028.56
187.341	5027.07
187.417	5009.06
187.493	5010.98
187.569	5018.31
187.645	5003.8
187.721	4971.26
187.797	4997.22
187.873	5010.01
187.949	4994.45
188.025	4980.41
188.101	4989.36
188.176	5002.24
188.252	4993.82
188.328	5009.51
188.404	5010.56
188.48	5000.56
188.556	4983.89
188.632	4982.5
188.707	4984.8
188.783	4973.01
188.859	4960.81
188.935	4933.03
189.011	4947.35
189.086	4927.38
189.162	4906.6
189.238	4899.37
189.314	4896.4
189.39	4878.39
189.465	4860.96
189.541	4907.46
189.617	4865.43
189.693	4851.64
189.768	4860.46
189.844	4917.86
189.92	4900.4
189.996	4923.67
190.071	4944.27
190.147	4948
190.223	4968.98
190.298	4953.99
190.374	4921.71
190.45	4948.66
190.526	4965.23
190.601	4955.84
190.677	4963.98
190.753	5036.85
190.828	5047.77
190.904	5086.43
190.98	5126.15
191.055	5148.57
191.131	5127.87
191.207	5183.23
191.282	5203.96
191.358	5181.69
191.433	5149.38
191.509	5182.21
191.585	5172.63
191.66	5181.73
191.736	5196.44
191.811	5175.46
191.887	5207.57
191.963	5271.96
192.038	5280.77
192.114	5288.25
192.189	5298.21
192.265	5289.55
192.34	5224.67
192.416	5224.29
192.491	5214.08
192.567	5218.64
192.642	5226.45
192.718	5226.78
192.793	5197.51
192.869	5187.64
192.944	5192.48
193.02	5211.03
193.095	5214.57
193.171	5234.74
193.246	5232.49
193.322	5229.86
193.397	5233.93
193.473	5203.73
193.548	5159.3
193.624	5180.34
193.699	5176.75
193.775	5211.93
193.85	5214.09
193.925	5244.99
194.001	5238
194.076	5215.96
194.152	5190.46
194.227	5172.97
194.302	5150.04
194.378	5160.96
194.453	5155.65
194.529	5186.36
194.604	5152.14
194.679	5145.01
194.755	5094.87
194.83	5125.51
194.905	5115.5
194.981	5136.34
195.056	5118.43
195.131	5127.96
195.207	5120.96
195.282	5093.91
195.357	5049.19
195.433	5085.59
195.508	5050.52
195.583	5075.81
195.659	5110.84
195.734	5124.4
195.809	5126.27
195.884	5146.76
195.96	5140.87
196.035	5178.09
196.11	5170.75
196.185	5194.61
196.261	5196.1
196.336	5272.85
196.411	5230.9
196.486	5245.8
196.561	5227.74
196.637	5252.16
196.712	5291.57
196.787	5298.09
196.862	5338.33
196.937	5360.12
197.013	5378.3
197.088	5406.9
197.163	5459.37
197.238	5500.4
197.313	5503.27
197.388	5535.68
197.464	5606.03
197.539	5641.93
197.614	5623.53
197.689	5647.51
197.764	5687.7
197.839	5737.12
197.914	5719.47
197.989	5777.35
198.065	5810.29
198.14	5939.02
198.215	6005.51
198.29	6037.72
198.365	6071.88
198.44	6097.49
198.515	6165.09
198.59	6199.89
198.665	6262.56
198.74	6278.74
198.815	6283.2
198.89	6337.96
198.965	6412.58
199.04	6407.01
199.115	6446.08
199.19	6556.37
199.265	6569.66
199.34	6595.58
199.415	6682.01
199.49	6733.74
199.565	6761.54
199.64	6823.15
199.715	6813.05
199.79	6822.27
199.865	6837.5
199.94	6834
200.015	6917.44
200.09	6937.81
200.165	6947.95
200.24	6964.86
200.315	7061.36
200.39	7097.69
200.464	7115.41
200.539	7113.88
200.614	7150.96
200.689	7201.89
200.764	7218.1
200.839	7259.06
200.914	7273.13
200.989	7247.31
201.063	7290.57
201.138	7244.96
201.213	7245.39
201.288	7198.98
201.363	7214.31
201.438	7211.47
201.512	7243.45
201.587	7201.54
201.662	7208.75
201.737	7246.66
201.812	7267.33
201.886	7188.26
201.961	7211.53
202.036	7178.97
202.111	7170.13
202.186	7093.04
202.26	7047.72
202.335	6987.46
202.41	6976.36
202.485	6932.81
202.559	6882.52
202.634	6809.89
202.709	6834.84
202.784	6782.35
202.858	6782.01
202.933	6738.26
203.008	6724.05
203.082	6681.17
203.157	6673.63
203.232	6566.85
203.306	6510.64
203.381	6429.52
203.456	6370.56
203.53	6309.81
203.605	6263.48
203.68	6209.4
203.754	6196.85
203.829	6160.56
203.904	6116.27
203.978	6079.64
204.053	6090.59
204.127	6062.38
204.202	6058.3
204.277	6014.74
204.351	6003.99
204.426	5987
204.5	5971.26
204.575	5883.99
204.65	5906.98
204.724	5884.31
204.799	5904.44
204.873	5896.62
204.948	5895.37
205.022	5864.69
205.097	5844.43
205.171	5877.67
205.246	5898.31
205.32	5899.26
205.395	5898.21
205.469	5872.38
205.544	5894.02
205.618	5847.88
205.693	5874.65
205.767	5846.93
205.842	5896.01
205.916	5880.18
205.991	5851.93
206.065	5861.86
206.14	5901.44
206.214	5891.31
206.289	5877.82
206.363	5903.24
206.438	5905.5
206.512	5923.78
206.586	5972.41
206.661	5993.82
206.735	5938.98
206.81	5936.91
206.884	5970.57
206.958	5942.28
207.033	5986.34
207.107	5997.09
207.181	6076.52
207.256	6066.49
207.33	6110.15
207.405	6141.95
207.479	6195.31
207.553	6215.5
207.628	6173.02
207.702	6199.55
207.776	6180.26
207.851	6186.59
207.925	6231.82
207.999	6224.62
208.073	6215.46
208.148	6223.57
208.222	6193.38
208.296	6269.05
208.371	6313.1
208.445	6342.24
208.519	6408.65
208.593	6430.58
208.668	6420.01
208.742	6430.3
208.816	6429.77
208.89	6466.08
208.965	6456.23
209.039	6470.3
209.113	6511.64
209.187	6563.77
209.261	6557.53
209.336	6613.32
209.41	6659.47
209.484	6658.22
209.558	6718.21
209.632	6753.49
209.707	6776.16
209.781	6833.2
209.855	6876.64
209.929	6912.51
210.003	6931
210.077	6935.86
210.151	7058.95
210.226	7149.12
210.3	7210.73
210.374	7268.6
210.448	7275.66
210.522	7306.23
210.596	7330.98
210.67	7351.79
210.744	7470.63
210.818	7547.58
210.892	7591.47
210.966	7579.51
211.041	7619.22
211.115	7610.71
211.189	7672
211.263	7718.53
211.337	7730.16
211.411	7762.33
211.485	7748.81
211.559	7775.35
211.633	7780.29
211.707	7703.71
211.781	7720.69
211.855	7629.29
211.929	7604.89
212.003	7562.66
212.077	7585.61
212.151	7613.55
212.225	7639.99
212.299	7605.78
212.373	7576.26
212.447	7567.75
212.52	7639.1
212.594	7640.5
212.668	7663.71
212.742	7629.38
212.816	7611.16
212.89	7596.88
212.964	7590.97
213.038	7600.83
213.112	7634.64
213.186	7667.95
213.26	7616.98
213.333	7499.54
213.407	7518.38
213.481	7531.15
213.555	7557.71
213.629	7529.24
213.703	7480.97
213.777	7475.2
213.85	7426.45
213.924	7506.86
213.998	7503.92
214.072	7481.51
214.146	7444.54
214.219	7434.25
214.293	7416.28
214.367	7420.12
214.441	7440.98
214.515	7402.81
214.588	7335.04
214.662	7239.01
214.736	7180.54
214.81	7192.68
214.883	7205.6
214.957	7170.83
215.031	7133.04
215.105	7065.51
215.178	7015.88
215.252	6992.44
215.326	6918.55
215.4	6861.27
215.473	6729.53
215.547	6668.8
215.621	6624.14
215.694	6620.01
215.768	6551.86
215.842	6508.12
215.915	6455.07
215.989	6378.66
216.063	6339.94
216.136	6327.65
216.21	6312.15
216.284	6321.13
216.357	6301.11
216.431	6274.43
216.504	6266.89
216.578	6305.45
216.652	6313.79
216.725	6299.78
216.799	6305.2
216.873	6288.6
216.946	6288.94
217.02	6264.34
217.093	6241.11
217.167	6168.93
217.24	6109.84
217.314	6084.13
217.387	6049.7
217.461	6020.29
217.535	6035.07
217.608	5991.41
217.682	5969.82
217.755	5976.15
217.829	5934.88
217.902	5922.79
217.976	5907.78
218.049	5881.73
218.123	5822.64
218.196	5822.74
218.27	5794.19
218.343	5745.39
218.417	5745
218.49	5733.44
218.563	5760.64
218.637	5769.7
218.71	5827.37
218.784	5852.61
218.857	5876.21
218.931	5891.4
219.004	5894.47
219.077	5907.82
219.151	5922.73
219.224	5916.78
219.298	5918.99
219.371	5949.7
219.444	5923.85
219.518	5930.38
219.591	5937.76
219.665	6021.27
219.738	6026.97
219.811	6018.78
219.885	6050.63
219.958	6076.07
220.031	6077.07
220.105	6098.72
220.178	6102.7
220.251	6081.63
220.325	6096.51
220.398	6104.62
220.471	6120.64
220.544	6149.91
220.618	6133.3
220.691	6156.04
220.764	6175.33
220.838	6190.16
220.911	6188.77
220.984	6248.36
221.057	6281.27
221.131	6297.35
221.204	6221.04
221.277	6277.54
221.35	6368.36
221.424	6363.23
221.497	6374.13
221.57	6391.15
221.643	6409.83
221.716	6440.9
221.79	6441.48
221.863	6452
221.936	6459
222.009	6467.21
222.082	6486.66
222.155	6492.42
222.229	6537.13
222.302	6557.78
222.375	6567.09
222.448	6590.67
222.521	6596.29
222.594	6594.85
222.667	6580.55
222.74	6625.48
222.814	6621.11
222.887	6607.27
222.96	6650.69
223.033	6676.63
223.106	6695.06
223.179	6722.16
223.252	6729.51
223.325	6753.85
223.398	6764.8
223.471	6786.46
223.544	6804.03
223.617	6809.31
223.69	6828.66
223.763	6798.49
223.837	6811.56
223.91	6830.92
223.983	6798.51
224.056	6774.17
224.129	6787.37
224.202	6826.92
224.275	6816.06
224.348	6794.84
224.42	6773.51
224.493	6731.29
224.566	6717.07
224.639	6733.21
224.712	6706.73
224.785	6701.39
224.858	6697.07
224.931	6681.65
225.004	6657.21
225.077	6658.27
225.15	6596.54
225.223	6597.5
225.296	6660.84
225.369	6619.36
225.442	6595.77
225.514	6603.31
225.587	6622.42
225.66	6636.01
225.733	6637.55
225.806	6649.22
225.879	6642.69
225.952	6616.14
226.025	6650
226.097	6689.75
226.17	6687.39
226.243	6638.91
226.316	6634.83
226.389	6631.75
226.461	6649.86
226.534	6660.38
226.607	6650.92
226.68	6706.89
226.753	6699.87
226.825	6640.57
226.898	6688.29
226.971	6686.37
227.044	6708.27
227.117	6711.49
227.189	6719.27
227.262	6752.18
227.335	6763.62
227.407	6763.47
227.48	6792.76
227.553	6797.75
227.626	6779.97
227.698	6779.53
227.771	6811.88
227.844	6798.34
227.916	6817.74
227.989	6786.09
228.062	6791.51
228.134	6858.15
228.207	6863.39
228.28	6855.76
228.352	6865.8
228.425	6872.81
228.498	6908.6
228.57	6894.91
228.643	6937.44
228.716	6943.5
228.788	6927.83
228.861	6922.69
228.934	6967.41
229.006	6971.39
229.079	6976.01
229.151	6972.21
229.224	6950.13
229.296	6969.67
229.369	7043.21
229.442	7081.67
229.514	7072.16
229.587	7104.35
229.659	7046.3
229.732	7055.86
229.804	7087.47
229.877	7150.16
229.949	7167.94
230.022	7210.21
230.094	7210.93
230.167	7203.05
230.239	7169.32
230.312	7160.48
230.384	7212.21
230.457	7213.31
230.529	7224.17
230.602	7223.5
230.674	7229.22
230.747	7257.93
230.819	7279.6
230.892	7196.41
230.964	7190.21
231.037	7213.59
231.109	7202.97
231.181	7235.35
231.254	7214.36
231.326	7200.13
231.399	7181.76
231.471	7161.52
231.544	7100.95
231.616	7131.36
231.688	7134.53
231.761	7122.72
231.833	7115.42
231.905	7053.65
231.978	7055.43
232.05	7038.52
232.122	7041.79
232.195	7020.84
232.267	7046.83
232.339	7032.56
232.412	7083.72
232.484	7069.97
232.556	7041.45
232.629	7102.04
232.701	7113.19
232.773	7118.09
232.846	7116.31
232.918	7117.7
232.99	7131.07
233.062	7164.61
233.135	7172.4
233.207	7150.1
233.279	7184.77
233.351	7207.21
233.424	7209.46
233.496	7187.84
233.568	7252.53
233.64	7227.45
233.713	7245.81
233.785	7247.78
233.857	7254.8
233.929	7212.04
234.001	7254.6
234.074	7306.95
234.146	7247.28
234.218	7245.16
234.29	7244.2
234.362	7237.91
234.434	7199.07
234.507	7173.5
234.579	7135.68
234.651	7122.13
234.723	7144.29
234.795	7159.23
234.867	7157.65
234.939	7199.65
235.012	7209.4
235.084	7207.14
235.156	7234
235.228	7211.47
235.3	7197.19
235.372	7203.73
235.444	7251.2
235.516	7195.14
235.588	7202.01
235.66	7211.38
235.732	7188.22
235.804	7332.41
235.876	7365.66
235.948	7414.88
236.02	7425.65
236.092	7437.42
236.164	7442.03
236.236	7437.37
236.308	7435.3
236.38	7456.5
236.452	7446.79
236.524	7470
236.596	7520.48
236.668	7545.24
236.74	7571.19
236.812	7591.95
236.884	7626.62
236.956	7635.57
237.028	7630.28
237.1	7615.29
237.172	7667.61
237.244	7728.9
237.316	7640.72
237.388	7624.28
237.46	7606.73
237.532	7655.77
237.604	7648.71
237.675	7712.52
237.747	7750.46
237.819	7741.38
237.891	7746.05
237.963	7736.86
238.035	7723.45
238.107	7638.69
238.178	7682.57
238.25	7685.5
238.322	7752.67
238.394	7713.62
238.466	7710.88
238.538	7741.16
238.609	7770.62
238.681	7734.55
238.753	7721.03
238.825	7736.96
238.897	7763.92
238.968	7826.9
239.04	7807.76
239.112	7886.33
239.184	7855.54
239.255	7847.65
239.327	7874.04
239.399	7888.09
239.471	7918.33
239.542	7954.87
239.614	8004.88
239.686	7947.45
239.758	7987.41
239.829	7958.63
239.901	8008.65
239.973	8022.16
240.044	8050.58
240.116	8062.65
240.188	8073.47
240.259	8081.6
240.331	8076.36
240.403	8103.53
240.474	8064.84
240.546	8059.74
240.618	8017.65
240.689	8010.53
240.761	8030.21
240.833	8075
240.904	8076.3
240.976	8080.19
241.048	8089.33
241.119	8114.02
241.191	8148.02
241.262	8193.65
241.334	8203.8
241.405	8210.35
241.477	8212.27
241.549	8218.14
241.62	8236.18
241.692	8267.31
241.763	8309.22
241.835	8323.03
241.906	8336.94
241.978	8311.06
242.049	8356.38
242.121	8405.83
242.192	8461.79
242.264	8435.95
242.335	8404.87
242.407	8436.19
242.478	8442.01
242.55	8451.59
242.621	8444.32
242.693	8445.28
242.764	8438.88
242.836	8437.1
242.907	8455.29
242.979	8482.04
243.05	8495.23
243.122	8517.51
243.193	8517.51
243.264	8465.93
243.336	8468.72
243.407	8488.64
243.479	8558.65
243.55	8573.72
243.622	8581.37
243.693	8579.2
243.764	8638.25
243.836	8617.04
243.907	8610.06
243.978	8608.62
244.05	8629.61
244.121	8596.02
244.192	8627.69
244.264	8597.27
244.335	8609.35
244.407	8571.77
244.478	8579.66
244.549	8575.04
244.62	8537.07
244.692	8535.05
244.763	8574.12
244.834	8567.48
244.906	8552.27
244.977	8563.78
245.048	8599.22
245.119	8584.1
245.191	8572.65
245.262	8514.28
245.333	8572.73
245.405	8584.23
245.476	8609.39
245.547	8623.12
245.618	8659.87
245.689	8663.97
245.761	8684.28
245.832	8685.34
245.903	8720.7
245.974	8740.83
246.045	8749.83
246.117	8816.97
246.188	8802.92
246.259	8787.86
246.33	8799.36
246.401	8810.72
246.473	8781.69
246.544	8779.9
246.615	8823.42
246.686	8824.19
246.757	8881.99
246.828	8866.2
246.899	8920.57
246.97	8894.78
247.042	8887.46
247.113	8923.71
247.184	8987.76
247.255	8989.21
247.326	9011.07
247.397	9015.35
247.468	9018.91
247.539	9037.54
247.61	8999.85
247.681	9035.94
247.752	9077.14
247.823	9059.43
247.894	9072.04
247.965	9049.52
248.037	9033.25
248.108	8994.97
248.179	8998.1
248.25	8985.34
248.321	9003.82
248.392	8967.9
248.463	9034.03
248.534	9028.55
248.605	9041.11
248.675	9022.86
248.746	9033.21
248.817	9050.5
248.888	9063.83
248.959	9023.59
249.03	9027.88
249.101	9034.08
249.172	9021.23
249.243	8969.01
249.314	9022.06
249.385	9021.67
249.456	9046.6
249.527	9047.13
249.598	9059.36
249.669	9055.89
249.739	9074.52
249.81	9088.68
249.881	9056.62
249.952	9044.97
250.023	9045.74
250.094	9005.34
250.165	8987.52
250.235	8981.98
250.306	8977.79
250.377	8953.58
250.448	8980.43
250.519	8942.36
250.59	8982.95
250.66	8987.71
250.731	9039.79
250.802	9032.04
250.873	9049.75
250.944	9065.4
251.014	9056.59
251.085	9122.09
251.156	9142.25
251.227	9179.29
251.297	9214.68
251.368	9252.91
251.439	9288.54
251.51	9328.32
251.58	9320.71
251.651	9310.5
251.722	9356.64
251.792	9318.8
251.863	9322.26
251.934	9363.24
252.005	9442.97
252.075	9458.14
252.146	9487.85
252.217	9519.58
252.287	9556.48
252.358	9563.32
252.429	9623.71
252.499	9619.04
252.57	9628.49
252.641	9668.94
252.711	9674
252.782	9648.71
252.852	9709.45
252.923	9709.88
252.994	9720.82
253.064	9751.92
253.135	9741.23
253.205	9720.42
253.276	9779.22
253.347	9830.59
253.417	9813.21
253.488	9797.99
253.558	9791.1
253.629	9792.11
253.699	9800.59
253.77	9819.14
253.841	9809.22
253.911	9817.26
253.982	9830.79
254.052	9856.67
254.123	9858.5
254.193	9857.44
254.264	9957.94
254.334	9931.58
254.405	9905.48
254.475	9879.71
254.546	9893.15
254.616	9933.65
254.687	9962.31
254.757	9979.99
254.827	9981.53
254.898	9998.63
254.968	10016.26
255.039	9996.85
255.109	10026.42
255.18	10007.63
255.25	9958.02
255.321	9984.36
255.391	9948.67
255.461	10013.6
255.532	9950.77
255.602	9949.81
255.673	9910.12
255.743	9880.15
255.813	9824.15
255.884	9864.12
255.954	9896.49
256.024	9941.39
256.095	9948.66
256.165	9918.7
256.235	9930.94
256.306	9916.64
256.376	9955.42
256.446	9979.6
256.517	10000.36
256.587	10038.71
256.657	10052.87
256.728	10069.87
256.798	10076.81
256.868	10080.37
256.938	10061.15
257.009	10098.87
257.079	10115.34
257.149	10186.3
257.219	10144.43
257.29	10175.92
257.36	10129.05
257.43	10156.57
257.5	10111.09
257.571	10105.69
257.641	10138.98
257.711	10114.94
257.781	10138.97
257.852	10147.98
257.922	10107.47
257.992	10113.06
258.062	10100.24
258.132	10140.95
258.202	10140.18
258.273	10155.45
258.343	10205.46
258.413	10193.51
258.483	10194.53
258.553	10184.75
258.623	10170.97
258.693	10191.97
258.764	10245.35
258.834	10301.89
258.904	10312.98
258.974	10297.86
259.044	10306.33
259.114	10325.65
259.184	10344.73
259.254	10355.62
259.324	10317.99
259.394	10350.7
259.464	10413.34
259.535	10423.07
259.605	10411.46
259.675	10410.35
259.745	10437.09
259.815	10419.7
259.885	10419.84
259.955	10500.86
260.025	10492
260.095	10505.2
260.165	10529.53
260.235	10573.63
260.305	10568.86
260.375	10542.31
260.445	10620.44
260.515	10665.16
260.585	10699.52
260.655	10712.67
260.725	10744.62
260.795	10773.96
260.865	10828.61
260.934	10806.78
261.004	10824.08
261.074	10829.62
261.144	10872.2
261.214	10894.52
261.284	10897.21
261.354	10928.87
261.424	10905.44
261.494	10953.62
261.564	10954.1
261.634	10974.05
261.703	10922.59
261.773	10935.4
261.843	10962.82
261.913	10957.33
261.983	10921.09
262.053	10932.22
262.123	10928.42
262.192	10896.13
262.262	10920.47
262.332	10882.59
262.402	10906.88
262.472	10919.94
262.541	10875.47
262.611	10917.59
262.681	10903.08
262.751	10934.94
262.821	10943.37
262.89	10908.14
262.96	10936.23
263.03	11000.58
263.1	11019.61
263.169	11036.77
263.239	11062.16
263.309	11117.11
263.379	11140.48
263.448	11158.84
263.518	11181.64
263.588	11197.49
263.657	11257.92
263.727	11294.26
263.797	11301.15
263.867	11300.76
263.936	11275.75
264.006	11323.45
264.076	11318.05
264.145	11320.03
264.215	11301.14
264.285	11332.17
264.354	11310.97
264.424	11303.26
