Data from 20250702_urea_0.5M_MAYP1162681_21-45-00-316.txt Node
Date: Wed Jul 02 21:45:00 BST 2025
User: adleo
Spectrometer: MAYP116268
Trigger mode: 0
Integration Time (sec): 1.000000E0
Scans to average: 1
Electric dark correction enabled: true
Nonlinearity correction enabled: true
Boxcar width: 10
XAxis mode: Wavelengths
Number of Pixels in Spectrum: 2068
>>>>>Begin Spectral Data<<<<<
179.565	1225.5
179.642	1286.65
179.718	1333.72
179.795	1371.71
179.871	1404.1
179.948	1421.84
180.024	1442.36
180.101	1465.37
180.177	1479.87
180.254	1502.8
180.33	1525.35
180.407	1581.75
180.483	1678.53
180.56	1769.08
180.636	1852.83
180.712	1841.04
180.789	1851.31
180.865	1864.42
180.942	1873.41
181.018	1882.87
181.095	1894.42
181.171	1900.36
181.248	1899.37
181.324	1913.35
181.4	1922.53
181.477	1934.75
181.553	1950.19
181.63	1971.97
181.706	1989.24
181.782	1996.98
181.859	1995.51
181.935	2002.5
182.011	1995.18
182.088	2013.25
182.164	2035.75
182.24	2051.96
182.317	2062.09
182.393	2059.76
182.469	2072.89
182.546	2088.06
182.622	2094.77
182.698	2089.58
182.775	2103.37
182.851	2117.64
182.927	2110.6
183.003	2106.56
183.08	2100.24
183.156	2105.8
183.232	2104.47
183.308	2091.15
183.385	2102.28
183.461	2121.88
183.537	2120.78
183.613	2134.24
183.69	2123.54
183.766	2110.07
183.842	2115.49
183.918	2121.01
183.995	2136.09
184.071	2142.66
184.147	2136.52
184.223	2123.87
184.299	2137.38
184.375	2124.11
184.452	2134.06
184.528	2191.51
184.604	2200.74
184.68	2212.72
184.756	2222.67
184.832	2223.71
184.908	2229.09
184.985	2227.28
185.061	2209.63
185.137	2219.91
185.213	2210.54
185.289	2211.92
185.365	2205.73
185.441	2205.45
185.517	2220.97
185.593	2216.35
185.669	2210.45
185.745	2219.77
185.822	2235.37
185.898	2229.42
185.974	2240.03
186.05	2230.99
186.126	2187.53
186.202	2182.91
186.278	2178.68
186.354	2171.11
186.43	2179.2
186.506	2176.64
186.582	2176.59
186.658	2184.72
186.734	2164.65
186.81	2171.02
186.886	2176.49
186.962	2188.24
187.038	2185.62
187.114	2176.86
187.19	2181.67
187.266	2174.3
187.341	2174.96
187.417	2170.25
187.493	2169.97
187.569	2170.82
187.645	2160.83
187.721	2151.6
187.797	2155.22
187.873	2160.78
187.949	2150.8
188.025	2144.7
188.101	2150.79
188.176	2153.79
188.252	2148.7
188.328	2158.12
188.404	2153.74
188.48	2144.75
188.556	2139.18
188.632	2138.66
188.707	2138.09
188.783	2138.33
188.859	2132.72
188.935	2123.63
189.011	2131.05
189.086	2122.25
189.162	2114.73
189.238	2112.31
189.314	2106.36
189.39	2103.13
189.465	2094.47
189.541	2115.79
189.617	2099.47
189.693	2094.29
189.768	2099.14
189.844	2123.65
189.92	2113.52
189.996	2121.08
190.071	2133.31
190.147	2132.88
190.223	2140.35
190.298	2132.4
190.374	2117.51
190.45	2130.21
190.526	2138.06
190.601	2133.45
190.677	2134.26
190.753	2163.58
190.828	2166.43
190.904	2184.03
190.98	2196.6
191.055	2206.68
191.131	2194.74
191.207	2218.29
191.282	2225.61
191.358	2216.05
191.433	2200.53
191.509	2214.85
191.585	2212.66
191.66	2215.23
191.736	2222.36
191.811	2213.37
191.887	2230.79
191.963	2255.91
192.038	2260.86
192.114	2260.2
192.189	2262.91
192.265	2260.15
192.34	2237.54
192.416	2238.54
192.491	2233.01
192.567	2237.82
192.642	2240.11
192.718	2241.44
192.793	2225.55
192.869	2220.08
192.944	2221.83
193.02	2229.07
193.095	2233.07
193.171	2240.3
193.246	2241.54
193.322	2239.35
193.397	2239.96
193.473	2224.26
193.548	2204.18
193.624	2207.98
193.699	2206.7
193.775	2223.55
193.85	2224.5
193.925	2232.35
194.001	2233.87
194.076	2227.69
194.152	2215.46
194.227	2206.7
194.302	2196.43
194.378	2202.14
194.453	2203.28
194.529	2215.51
194.604	2203.94
194.679	2195.09
194.755	2175.12
194.83	2187.07
194.905	2183.55
194.981	2193.59
195.056	2185.79
195.131	2193.11
195.207	2192.73
195.282	2182.55
195.357	2160.04
195.433	2179.12
195.508	2166.94
195.583	2172.6
195.659	2187.64
195.734	2196.44
195.809	2197.73
195.884	2207.14
195.96	2207.81
196.035	2220.7
196.11	2215.9
196.185	2226.84
196.261	2233.31
196.336	2268.33
196.411	2251.62
196.486	2259.76
196.561	2255
196.637	2266.04
196.712	2284.27
196.787	2288.41
196.862	2305.88
196.937	2319.2
197.013	2322.15
197.088	2333.62
197.163	2358.23
197.238	2372.9
197.313	2372.14
197.388	2388.52
197.464	2417.13
197.539	2429.17
197.614	2424.46
197.689	2437.7
197.764	2453.27
197.839	2469.93
197.914	2460.69
197.989	2484.12
198.065	2498.49
198.14	2545.76
198.215	2572.23
198.29	2580.09
198.365	2591.71
198.44	2599.81
198.515	2624.86
198.59	2641.3
198.665	2667.45
198.74	2671.64
198.815	2676.26
198.89	2701.65
198.965	2731.63
199.04	2729.58
199.115	2746.44
199.19	2790.42
199.265	2791.23
199.34	2800.33
199.415	2836.27
199.49	2862.57
199.565	2873.3
199.64	2895.7
199.715	2894.89
199.79	2902.89
199.865	2912.95
199.94	2910.09
200.015	2944.08
200.09	2950.28
200.165	2957.38
200.24	2966.92
200.315	3010.57
200.39	3025.45
200.464	3028.79
200.539	3030.84
200.614	3044.52
200.689	3067.26
200.764	3077.05
200.839	3099.11
200.914	3103.11
200.989	3093.09
201.063	3103.01
201.138	3085.72
201.213	3084.86
201.288	3066.31
201.363	3072.65
201.438	3070.75
201.512	3090.29
201.587	3075.17
201.662	3080.51
201.737	3092.14
201.812	3099.87
201.886	3065.99
201.961	3074.15
202.036	3060.09
202.111	3053.22
202.186	3023.3
202.26	3004.94
202.335	2977.9
202.41	2970.6
202.485	2954.74
202.559	2934.57
202.634	2907.64
202.709	2914.64
202.784	2894.72
202.858	2893.81
202.933	2873.08
203.008	2863.02
203.082	2839.1
203.157	2838.2
203.232	2795.89
203.306	2776.15
203.381	2743.5
203.456	2716.53
203.53	2693.83
203.605	2677.97
203.68	2657.19
203.754	2654.48
203.829	2639.28
203.904	2616.94
203.978	2605.7
204.053	2610.8
204.127	2598.41
204.202	2597.32
204.277	2583.55
204.351	2577.55
204.426	2572.31
204.5	2563.83
204.575	2532.61
204.65	2547.66
204.724	2538.41
204.799	2546.7
204.873	2541.12
204.948	2537.88
205.022	2528.17
205.097	2521.26
205.171	2533.74
205.246	2543.03
205.32	2540.22
205.395	2540.27
205.469	2535.27
205.544	2541.08
205.618	2523.7
205.693	2539.08
205.767	2526.99
205.842	2547
205.916	2542.66
205.991	2532.04
206.065	2539.9
206.14	2555.99
206.214	2548.69
206.289	2540.41
206.363	2551.22
206.438	2555.31
206.512	2565.46
206.586	2587.17
206.661	2592.37
206.735	2573.66
206.81	2572.56
206.884	2587.75
206.958	2578.23
207.033	2595.36
207.107	2602.32
207.181	2641.78
207.256	2630.87
207.33	2654.25
207.405	2667.41
207.479	2687.56
207.553	2698.37
207.628	2684.94
207.702	2705.43
207.776	2703.09
207.851	2714.34
207.925	2732.73
207.999	2735.59
208.073	2739.31
208.148	2749.08
208.222	2744.84
208.296	2787.18
208.371	2814.8
208.445	2839.68
208.519	2877.75
208.593	2900.68
208.668	2909.02
208.742	2920.8
208.816	2944.54
208.89	2970.91
208.965	2991.05
209.039	3015.85
209.113	3053.38
209.187	3092.45
209.261	3107.28
209.336	3152.97
209.41	3196.2
209.484	3226.64
209.558	3275.98
209.632	3319.25
209.707	3364.5
209.781	3425.73
209.855	3475.24
209.929	3533.83
210.003	3582.49
210.077	3622.65
210.151	3721.65
210.226	3808.15
210.3	3886.62
210.374	3964.06
210.448	4026.86
210.522	4091.65
210.596	4165.95
210.67	4236.71
210.744	4350.21
210.818	4449.9
210.892	4542.01
210.966	4606.06
211.041	4695.44
211.115	4772.83
211.189	4880.45
211.263	4975.73
211.337	5060.91
211.411	5163.43
211.485	5244.96
211.559	5346
211.633	5446.06
211.707	5503.85
211.781	5605.74
211.855	5666.06
211.929	5753.88
212.003	5838.07
212.077	5956.83
212.151	6072.52
212.225	6187.97
212.299	6281.5
212.373	6385.13
212.447	6495.25
212.52	6641.88
212.594	6762
212.668	6881.34
212.742	6981.22
212.816	7089.8
212.89	7213.33
212.964	7330.39
213.038	7449.03
213.112	7584.62
213.186	7723.79
213.26	7831.9
213.333	7911.06
213.407	8041.99
213.481	8174.96
213.555	8313.99
213.629	8426.07
213.703	8541.7
213.777	8669.82
213.85	8783.84
213.924	8950.79
213.998	9074.52
214.072	9192.97
214.146	9310.84
214.219	9445.9
214.293	9572.15
214.367	9710.84
214.441	9844.06
214.515	9961.59
214.588	10068.42
214.662	10160.72
214.736	10268.91
214.81	10394.82
214.883	10536.68
214.957	10648.69
215.031	10760.75
215.105	10860.44
215.178	10967.22
215.252	11081.86
215.326	11182.19
215.4	11279.05
215.473	11343.29
215.547	11435.39
215.621	11538.15
215.694	11663.56
215.768	11750.08
215.842	11849.27
215.915	11940.66
215.989	12024.24
216.063	12132.31
216.136	12243.75
216.21	12357.41
216.284	12474.06
216.357	12585.51
216.431	12680.13
216.504	12800.4
216.578	12926.51
216.652	13040.32
216.725	13145.21
216.799	13262.5
216.873	13368.02
216.946	13487.57
217.02	13586.29
217.093	13687.33
217.167	13763.21
217.24	13839.42
217.314	13938.82
217.387	14025.55
217.461	14110
217.535	14218.47
217.608	14291.06
217.682	14377.69
217.755	14481.47
217.829	14551.23
217.902	14639.87
217.976	14731.75
218.049	14810.61
218.123	14883.11
218.196	14973.35
218.27	15049.51
218.343	15108.65
218.417	15189.34
218.49	15267.29
218.563	15368.32
218.637	15459.42
218.71	15570.62
218.784	15653.28
218.857	15735.51
218.931	15826.99
219.004	15914.86
219.077	15996.22
219.151	16076.91
219.224	16154.08
219.298	16220.2
219.371	16317.75
219.444	16380.27
219.518	16457.29
219.591	16538.26
219.665	16646.45
219.738	16723.13
219.811	16789.31
219.885	16868.78
219.958	16946.81
220.031	17006.91
220.105	17065.56
220.178	17135.73
220.251	17184.75
220.325	17263.93
220.398	17336.17
220.471	17390.77
220.544	17461.04
220.618	17512.07
220.691	17579.01
220.764	17646.77
220.838	17703.69
220.911	17750.72
220.984	17835.4
221.057	17894.53
221.131	17949.95
221.204	17966.72
221.277	18045.27
221.35	18128.06
221.424	18174.18
221.497	18223.48
221.57	18288.25
221.643	18354.41
221.716	18415.33
221.79	18467.32
221.863	18512.57
221.936	18566.55
222.009	18631.99
222.082	18690.59
222.155	18742.49
222.229	18821.33
222.302	18871.69
222.375	18931.1
222.448	18986.76
222.521	19029.27
222.594	19075.82
222.667	19110.23
222.74	19159.28
222.814	19184.87
222.887	19220.77
222.96	19285.97
223.033	19334.6
223.106	19382.69
223.179	19424.57
223.252	19459.6
223.325	19505.72
223.398	19541.53
223.471	19582.54
223.544	19611.02
223.617	19645.81
223.69	19684.22
223.763	19690.96
223.837	19731.68
223.91	19770.82
223.983	19797.46
224.056	19829.61
224.129	19859.73
224.202	19899.72
224.275	19932.25
224.348	19960.73
224.42	19982.18
224.493	19986.81
224.566	20011.86
224.639	20035
224.712	20055
224.785	20077.84
224.858	20096.15
224.931	20120.78
225.004	20129.26
225.077	20150.22
225.15	20150.17
225.223	20171.86
225.296	20215.28
225.369	20212.97
225.442	20224.87
225.514	20237.59
225.587	20253.64
225.66	20275.38
225.733	20289.84
225.806	20315.23
225.879	20327.47
225.952	20337.88
226.025	20363.67
226.097	20393.06
226.17	20406.03
226.243	20398.08
226.316	20419.57
226.389	20435.52
226.461	20453.74
226.534	20478.85
226.607	20498.22
226.68	20535.76
226.753	20553.45
226.825	20552.05
226.898	20588.34
226.971	20597.5
227.044	20625.84
227.117	20640.2
227.189	20656.01
227.262	20674.46
227.335	20684.15
227.407	20687.09
227.48	20700.01
227.553	20723.72
227.626	20726.18
227.698	20740.01
227.771	20766.03
227.844	20764.63
227.916	20786.61
227.989	20784.64
228.062	20789.65
228.134	20823.82
228.207	20828.11
228.28	20827.43
228.352	20831.43
228.425	20835.82
228.498	20852.59
228.57	20844.06
228.643	20865.84
228.716	20876.45
228.788	20882.86
228.861	20881.65
228.934	20912.21
229.006	20923.05
229.079	20918.33
229.151	20923.29
229.224	20906.18
229.296	20913.94
229.369	20942.28
229.442	20953.95
229.514	20949.08
229.587	20977.47
229.659	20965.18
229.732	20975.59
229.804	20995.3
229.877	21021.42
229.949	21035.54
230.022	21056.12
230.094	21066.53
230.167	21066.29
230.239	21053.09
230.312	21058.29
230.384	21084.75
230.457	21082.1
230.529	21083.55
230.602	21088.85
230.674	21094.73
230.747	21125.72
230.819	21134.97
230.892	21104.51
230.964	21109.72
231.037	21114.87
231.109	21099.6
231.181	21100.08
231.254	21086.97
231.326	21082.73
231.399	21071.79
231.471	21069.18
231.544	21038.05
231.616	21045.33
231.688	21039.78
231.761	21037.81
231.833	21029.71
231.905	21015.35
231.978	21014.67
232.05	21012.36
232.122	21004.65
232.195	20999.44
232.267	21003.44
232.339	20988.69
232.412	21000.45
232.484	20978.77
232.556	20968.21
232.629	20983.25
232.701	20993.9
232.773	20998.86
232.846	20982.19
232.918	20977.56
232.99	20958.09
233.062	20959.2
233.135	20945.95
233.207	20927.1
233.279	20932.06
233.351	20927.63
233.424	20897.85
233.496	20875.58
233.568	20891.15
233.64	20869.46
233.713	20848.4
233.785	20836.93
233.857	20823.77
233.929	20792.98
234.001	20798.47
234.074	20810.42
234.146	20770.9
234.218	20740.73
234.29	20717.5
234.362	20702.51
234.434	20672.73
234.507	20657.89
234.579	20636.29
234.651	20614.27
234.723	20614.56
234.795	20595.33
234.867	20575.86
234.939	20580.82
235.012	20561.45
235.084	20535.62
235.156	20531.09
235.228	20506.12
235.3	20479.28
235.372	20471.62
235.444	20468.49
235.516	20429.4
235.588	20399.33
235.66	20379.91
235.732	20356.48
235.804	20397.69
235.876	20376.73
235.948	20378.22
236.02	20351.52
236.092	20323.96
236.164	20314.03
236.236	20278.66
236.308	20250.03
236.38	20231.53
236.452	20201.36
236.524	20187.43
236.596	20181.65
236.668	20164.49
236.74	20150.95
236.812	20132.68
236.884	20112.25
236.956	20087.53
237.028	20055.05
237.1	20034.86
237.172	20031.29
237.244	20027.92
237.316	19957.46
237.388	19931.19
237.46	19889.99
237.532	19880.74
237.604	19848.35
237.675	19827.63
237.747	19808.74
237.819	19782.86
237.891	19760.5
237.963	19726.67
238.035	19699.54
238.107	19630.73
238.178	19614.24
238.25	19575.74
238.322	19566.73
238.394	19516.56
238.466	19487.31
238.538	19464.08
238.609	19436.57
238.681	19387.03
238.753	19342.4
238.825	19318.26
238.897	19291.71
238.968	19279.13
239.04	19235.13
239.112	19241.69
239.184	19205.4
239.255	19173.93
239.327	19149.36
239.399	19122.61
239.471	19097.6
239.542	19069.6
239.614	19063.92
239.686	19003.63
239.758	18989.94
239.829	18941.22
239.901	18932.02
239.973	18899.06
240.044	18875.98
240.116	18838.92
240.188	18805.71
240.259	18777.62
240.331	18730.3
240.403	18704.71
240.474	18661.72
240.546	18625.63
240.618	18566.02
240.689	18531.22
240.761	18498.12
240.833	18478.36
240.904	18433.16
240.976	18413.16
241.048	18383.14
241.119	18353.98
241.191	18334.56
241.262	18317.12
241.334	18276.01
241.405	18235.39
241.477	18201.17
241.549	18173.56
241.62	18156.45
241.692	18136.59
241.763	18107.87
241.835	18082.09
241.906	18054.91
241.978	18005.71
242.049	17992.7
242.121	17970.14
242.192	17945.03
242.264	17900.51
242.335	17845.52
242.407	17832.51
242.478	17784.32
242.55	17756.46
242.621	17711.59
242.693	17676.03
242.764	17639.02
242.836	17605.48
242.907	17574.83
242.979	17547.36
243.05	17510.01
243.122	17475.65
243.193	17437.96
243.264	17385.67
243.336	17350.2
243.407	17321.67
243.479	17305.91
243.55	17273.38
243.622	17252.66
243.693	17221.14
243.764	17209.43
243.836	17169.47
243.907	17119.69
243.978	17087.01
244.05	17052.99
244.121	17009.57
244.192	16987.16
244.264	16936.94
244.335	16907.83
244.407	16864.36
244.478	16837.32
244.549	16806.04
244.62	16753.89
244.692	16713.74
244.763	16700.06
244.834	16660.87
244.906	16618.46
244.977	16589.06
245.048	16565.35
245.119	16513.25
245.191	16473.68
245.262	16416.47
245.333	16408.52
245.405	16389.19
245.476	16352.47
245.547	16332.85
245.618	16309.96
245.689	16278.15
245.761	16249.47
245.832	16218.24
245.903	16194.04
245.974	16158.42
246.045	16120.63
246.117	16115.53
246.188	16072.92
246.259	16023.8
246.33	15989.97
246.401	15957.29
246.473	15910.53
246.544	15877.04
246.615	15860.36
246.686	15829.85
246.757	15820.4
246.828	15775.48
246.899	15761.21
246.97	15727.18
247.042	15678.4
247.113	15653.97
247.184	15646.35
247.255	15609.72
247.326	15579.5
247.397	15546.43
247.468	15524.98
247.539	15502.23
247.61	15445.35
247.681	15427.95
247.752	15414.17
247.823	15383.03
247.894	15360.32
247.965	15322.34
248.037	15289.03
248.108	15246.47
248.179	15207.43
248.25	15170.55
248.321	15147.41
248.392	15096.85
248.463	15089.38
248.534	15057.66
248.605	15037.66
248.675	14998.95
248.746	14975.38
248.817	14957.59
248.888	14935.28
248.959	14883.31
249.03	14859.5
249.101	14836.27
249.172	14805.17
249.243	14754.66
249.314	14741.3
249.385	14713.01
249.456	14695.36
249.527	14653.52
249.598	14635.49
249.669	14604.26
249.739	14576.54
249.81	14553.55
249.881	14512.38
249.952	14482.78
250.023	14449.52
250.094	14406.28
250.165	14367.81
250.235	14333.1
250.306	14300.76
250.377	14265.28
250.448	14245.76
250.519	14198.61
250.59	14185.26
250.66	14156.82
250.731	14151.37
250.802	14120.37
250.873	14100.08
250.944	14077.71
251.014	14050.33
251.085	14043.63
251.156	14025.89
251.227	14009.79
251.297	13996.34
251.368	13983.95
251.439	13962.98
251.51	13956.57
251.58	13921.62
251.651	13889.51
251.722	13885.08
251.792	13843.81
251.863	13812.43
251.934	13802.36
252.005	13805.63
252.075	13785
252.146	13772.66
252.217	13759.5
252.287	13742.15
252.358	13712.26
252.429	13706.28
252.499	13681.89
252.57	13654.8
252.641	13644.72
252.711	13623.41
252.782	13581.91
252.852	13576.03
252.923	13557.85
252.994	13539.53
253.064	13533.17
253.135	13502.32
253.205	13463.13
253.276	13459.27
253.347	13457.44
253.417	13430.73
253.488	13400.84
253.558	13369.89
253.629	13341.55
253.699	13317.3
253.77	13298.02
253.841	13269.19
253.911	13248.37
253.982	13227.83
254.052	13207.92
254.123	13179.09
254.193	13153.59
254.264	13169.55
254.334	13138.46
254.405	13100.81
254.475	13065.42
254.546	13033.66
254.616	13032.35
254.687	13020.4
254.757	12999.91
254.827	12969.4
254.898	12943.99
254.968	12922.64
255.039	12897.47
255.109	12880.51
255.18	12855.15
255.25	12822.03
255.321	12815.23
255.391	12778.21
255.461	12776.38
255.532	12731.79
255.602	12709.04
255.673	12677.13
255.743	12640.59
255.813	12593.25
255.884	12586.36
255.954	12576.76
256.024	12577.87
256.095	12553.58
256.165	12524.65
256.235	12511.35
256.306	12489.95
256.376	12482.67
256.446	12463.68
256.517	12444.97
256.587	12443.38
256.657	12421.5
256.728	12398.65
256.798	12376.43
256.868	12350.4
256.938	12318.63
257.009	12313.23
257.079	12300.6
257.149	12301.23
257.219	12266.33
257.29	12259.29
257.36	12213.84
257.43	12203.04
257.5	12161.1
257.571	12133.63
257.641	12119.99
257.711	12083.21
257.781	12074.92
257.852	12061.52
257.922	12020.69
257.992	11997.6
258.062	11974.95
258.132	11964.83
258.202	11945.11
258.273	11919.9
258.343	11924.48
258.413	11902.98
258.483	11880.14
258.553	11847.17
258.623	11815.93
258.693	11798.39
258.764	11802.25
258.834	11799.11
258.904	11774.29
258.974	11750.14
259.044	11726
259.114	11711.63
259.184	11694.43
259.254	11668.59
259.324	11625.36
259.394	11622.18
259.464	11629.12
259.535	11604.92
259.605	11576.05
259.675	11547.13
259.745	11542.7
259.815	11509.1
259.885	11481.97
259.955	11488.72
260.025	11466.55
260.095	11446.64
260.165	11440.09
260.235	11429.82
260.305	11405.82
260.375	11376.52
260.445	11379.55
260.515	11379.6
260.585	11379.17
260.655	11366.01
260.725	11358.25
260.795	11353.63
260.865	11354.3
260.934	11329.58
261.004	11316.52
261.074	11304.27
261.144	11308.71
261.214	11296.71
261.284	11277.77
261.354	11274.78
261.424	11249.43
261.494	11260.66
261.564	11246.87
261.634	11235.64
261.703	11193.14
261.773	11188.66
261.843	11174.97
261.913	11158.87
261.983	11126.73
262.053	11110.39
262.123	11090.2
