Data from 20250702_urea_0.5M_MAYP1162681_05-05-00-182.txt Node
Date: Thu Jul 03 05:05:00 BST 2025
User: adleo
Spectrometer: MAYP116268
Trigger mode: 0
Integration Time (sec): 1.000000E0
Scans to average: 1
Electric dark correction enabled: true
Nonlinearity correction enabled: true
Boxcar width: 10
XAxis mode: Wavelengths
Number of Pixels in Spectrum: 2068
>>>>>Begin Spectral Data<<<<<
179.565	1172.9
179.642	1227.85
179.718	1271.58
179.795	1309.78
179.871	1338.49
179.948	1354.7
180.024	1372.23
180.101	1393.74
180.177	1408.41
180.254	1431.8
180.33	1454.58
180.407	1506.9
180.483	1598.78
180.56	1686.29
180.636	1765.86
180.712	1753.07
180.789	1764.24
180.865	1773.79
180.942	1781.96
181.018	1792.08
181.095	1804.78
181.171	1810.34
181.248	1809.01
181.324	1821.42
181.4	1827.6
181.477	1838.53
181.553	1854.4
181.63	1876.6
181.706	1892.91
181.782	1900.8
181.859	1899.13
181.935	1901.27
182.011	1895.52
182.088	1913.16
182.164	1932.04
182.24	1948.25
182.317	1956.99
182.393	1952.34
182.469	1968.03
182.546	1981.72
182.622	1984.95
182.698	1980.01
182.775	1990.18
182.851	2005.35
182.927	1999.07
183.003	1993.42
183.08	1990.09
183.156	1997.36
183.232	1994.32
183.308	1983.34
183.385	1991.32
183.461	2006.11
183.537	2009.11
183.613	2021.61
183.69	2013.48
183.766	1999.54
183.842	2006.11
183.918	2010.72
183.995	2025.7
184.071	2028.98
184.147	2024.89
184.223	2015.14
184.299	2027.51
184.375	2020
184.452	2025.28
184.528	2081.42
184.604	2093.92
184.68	2106.77
184.756	2111.14
184.832	2117.8
184.908	2121.65
184.985	2121.32
185.061	2109.43
185.137	2119.99
185.213	2111.15
185.289	2108.29
185.365	2105.3
185.441	2101.73
185.517	2117.48
185.593	2111.96
185.669	2107.73
185.745	2115.67
185.822	2134.07
185.898	2125.98
185.974	2134.83
186.05	2128.55
186.126	2089.34
186.202	2081.78
186.278	2075.17
186.354	2067.7
186.43	2073.84
186.506	2072.08
186.582	2070.99
186.658	2076.74
186.734	2056.91
186.81	2057.86
186.886	2064.85
186.962	2077.74
187.038	2077.36
187.114	2065.75
187.19	2076.07
187.266	2064.61
187.341	2066.66
187.417	2056.91
187.493	2057.48
187.569	2058.57
187.645	2050.53
187.721	2035.74
187.797	2043.87
187.873	2050.2
187.949	2048.58
188.025	2036.26
188.101	2039.16
188.176	2043.72
188.252	2041.35
188.328	2046.15
188.404	2046.15
188.48	2042.15
188.556	2033.64
188.632	2033.16
188.707	2036.87
188.783	2031.45
188.859	2028.98
188.935	2015.28
189.011	2024.13
189.086	2019.28
189.162	2011.71
189.238	2014
189.314	2014.71
189.39	2008.57
189.465	2002.49
189.541	2014.14
189.617	2002.44
189.693	1998.83
189.768	2002.73
189.844	2024.48
189.92	2017.63
189.996	2026.76
190.071	2036.61
190.147	2034.7
190.223	2041.36
190.298	2033.66
190.374	2023.72
190.45	2036.32
190.526	2048.59
190.601	2044.74
190.677	2043.79
190.753	2071.96
190.828	2074.71
190.904	2090.51
190.98	2103.64
191.055	2111.87
191.131	2102.16
191.207	2124.13
191.282	2133.83
191.358	2125.84
191.433	2111.52
191.509	2121.6
191.585	2118.41
191.66	2116.98
191.736	2126.26
191.811	2118.36
191.887	2135.21
191.963	2155.04
192.038	2159.28
192.114	2159.99
192.189	2161.23
192.265	2157.71
192.34	2134.24
192.416	2132.53
192.491	2125.63
192.567	2131.34
192.642	2133.34
192.718	2136.81
192.793	2122.69
192.869	2116.46
192.944	2119.17
193.02	2127.35
193.095	2137.43
193.171	2142.81
193.246	2143.76
193.322	2143.14
193.397	2145.47
193.473	2128.72
193.548	2111.6
193.624	2117.83
193.699	2112.31
193.775	2128.63
193.85	2130.01
193.925	2141.38
194.001	2140.72
194.076	2134.15
194.152	2123.54
194.227	2115.5
194.302	2109.08
194.378	2113.93
194.453	2112.65
194.529	2120.17
194.604	2102.57
194.679	2094.76
194.755	2076.69
194.83	2086.88
194.905	2081.12
194.981	2085.83
195.056	2081.5
195.131	2088.97
195.207	2086.07
195.282	2077.37
195.357	2057.48
195.433	2074.22
195.508	2061.33
195.583	2066.37
195.659	2080.59
195.734	2085.83
195.809	2085.73
195.884	2091.68
195.96	2091.01
196.035	2104.95
196.11	2103.81
196.185	2116.84
196.261	2120.55
196.336	2153.9
196.411	2139.86
196.486	2145.66
196.561	2141.52
196.637	2147.56
196.712	2165.08
196.787	2168.69
196.862	2186.15
196.937	2198.28
197.013	2203.09
197.088	2213.65
197.163	2236.3
197.238	2253.73
197.313	2251.26
197.388	2262.77
197.464	2290.05
197.539	2303.23
197.614	2297.42
197.689	2311.18
197.764	2326.36
197.839	2346.3
197.914	2335.97
197.989	2360.34
198.065	2373.24
198.14	2424.63
198.215	2452.96
198.29	2462.86
198.365	2474.96
198.44	2484.57
198.515	2510
198.59	2526.95
198.665	2553.05
198.74	2560.81
198.815	2563.91
198.89	2588.53
198.965	2620.3
199.04	2617.82
199.115	2632.73
199.19	2674.16
199.265	2676.02
199.34	2687.21
199.415	2718.33
199.49	2741.81
199.565	2749.48
199.64	2772.06
199.715	2767.25
199.79	2773.82
199.865	2780.3
199.94	2779.11
200.015	2811.85
200.09	2816.52
200.165	2819.38
200.24	2824.48
200.315	2864.83
200.39	2874.41
200.464	2883.37
200.539	2884.47
200.614	2901.96
200.689	2924.17
200.764	2932.33
200.839	2949.24
200.914	2955.29
200.989	2947.37
201.063	2961.91
201.138	2944.39
201.213	2947.58
201.288	2928.66
201.363	2934.81
201.438	2937.24
201.512	2951.91
201.587	2933.46
201.662	2940.56
201.737	2951.91
201.812	2958.3
201.886	2922.09
201.961	2933.78
202.036	2920.62
202.111	2915.67
202.186	2885.13
202.26	2868.83
202.335	2844.23
202.41	2836.22
202.485	2818.6
202.559	2799.25
202.634	2770.61
202.709	2783.27
202.784	2766.31
202.858	2768.17
202.933	2748.39
203.008	2738.91
203.082	2724.52
203.157	2723.09
203.232	2678.47
203.306	2661.12
203.381	2631.3
203.456	2611.67
203.53	2587.5
203.605	2565.46
203.68	2544.93
203.754	2538.36
203.829	2522.31
203.904	2504.45
203.978	2495.17
204.053	2498.45
204.127	2483.31
204.202	2483.74
204.277	2466.08
204.351	2455.6
204.426	2445.98
204.5	2436.79
204.575	2402.05
204.65	2408.19
204.724	2399.05
204.799	2405.8
204.873	2401.7
204.948	2399.56
205.022	2386.62
205.097	2378.52
205.171	2392.94
205.246	2401.28
205.32	2400.28
205.395	2400.37
205.469	2391.81
205.544	2396.67
205.618	2382.19
205.693	2393.33
205.767	2381.96
205.842	2401.05
205.916	2397.72
205.991	2389.39
206.065	2395
206.14	2411.46
206.214	2406.94
206.289	2403.7
206.363	2421.03
206.438	2423.13
206.512	2430.79
206.586	2450.45
206.661	2460.4
206.735	2441.61
206.81	2441.37
206.884	2458.08
206.958	2444.84
207.033	2463.88
207.107	2472.74
207.181	2505.42
207.256	2501.85
207.33	2519.99
207.405	2533.57
207.479	2553.19
207.553	2560.57
207.628	2547.29
207.702	2562.95
207.776	2562.33
207.851	2567.62
207.925	2583.3
207.999	2585.01
208.073	2588.3
208.148	2596.4
208.222	2588.87
208.296	2623.86
208.371	2645.55
208.445	2663.75
208.519	2701.28
208.593	2721.14
208.668	2725.58
208.742	2735.11
208.816	2744.73
208.89	2768.38
208.965	2777.2
209.039	2796.89
209.113	2828.29
209.187	2862.1
209.261	2874.87
209.336	2907.62
209.41	2943.33
209.484	2963.41
209.558	3001.99
209.632	3032.68
209.707	3066.35
209.781	3111.32
209.855	3150.15
209.929	3193.74
210.003	3227.47
210.077	3254.76
210.151	3329.17
210.226	3393.38
210.3	3453.05
210.374	3510.34
210.448	3549.49
210.522	3599.4
210.596	3646.91
210.67	3693.19
210.744	3780.51
210.818	3850.66
210.892	3915.45
210.966	3956.39
211.041	4017.85
211.115	4066.31
211.189	4144.94
211.263	4215.41
211.337	4273.97
211.411	4343.08
211.485	4396.1
211.559	4463.15
211.633	4527.65
211.707	4559.25
211.781	4622.55
211.855	4654.38
211.929	4714.66
212.003	4765.71
212.077	4840.95
212.151	4919.48
212.225	4999.93
212.299	5059.31
212.373	5114.62
212.447	5182.57
212.52	5285.01
212.594	5357.28
212.668	5440.33
212.742	5501.54
212.816	5568.23
212.89	5642.92
212.964	5722.79
213.038	5801.46
213.112	5897.36
213.186	5987.48
213.26	6047.14
213.333	6091.13
213.407	6176.09
213.481	6262.6
213.555	6360.23
213.629	6430.52
213.703	6505.19
213.777	6588.79
213.85	6653.43
213.924	6776.15
213.998	6863.49
214.072	6942.44
214.146	7023.01
214.219	7109.5
214.293	7190.7
214.367	7283.55
214.441	7371.4
214.515	7443.89
214.588	7509.46
214.662	7562.93
214.736	7637.88
214.81	7729.24
214.883	7823.27
214.957	7898.23
215.031	7967.8
215.105	8025.74
215.178	8095.25
215.252	8174.82
215.326	8234.13
215.4	8300.36
215.473	8338.57
215.547	8397.81
215.621	8465.19
215.694	8547.16
215.768	8605.68
215.842	8674.21
215.915	8739.15
215.989	8800.95
216.063	8865.31
216.136	8944.6
216.21	9016.51
216.284	9105.11
216.357	9185.75
216.431	9254.74
216.504	9336.94
216.578	9436.76
216.652	9524.15
216.725	9612.81
216.799	9684.91
216.873	9763.46
216.946	9851.83
217.02	9923.98
217.093	9998.25
217.167	10054.47
217.24	10116.85
217.314	10192.19
217.387	10257.85
217.461	10320.43
217.535	10410.67
217.608	10478.11
217.682	10549.71
217.755	10630.13
217.829	10683.08
217.902	10752.18
217.976	10828.36
218.049	10887
218.123	10943.34
218.196	11014.22
218.27	11072.15
218.343	11130.94
218.417	11199.62
218.49	11258.32
218.563	11340.68
218.637	11413.79
218.71	11502.81
218.784	11573.61
218.857	11643.4
218.931	11720.08
219.004	11792.81
219.077	11865.5
219.151	11937.56
219.224	12006.77
219.298	12078.02
219.371	12153.31
219.444	12204.59
219.518	12263.69
219.591	12328.47
219.665	12423.1
219.738	12488.03
219.811	12545.87
219.885	12620.92
219.958	12694.58
220.031	12756.38
220.105	12825.22
220.178	12893.23
220.251	12952.53
220.325	13022.09
220.398	13089.91
220.471	13158.75
220.544	13225.76
220.618	13271.99
220.691	13344.25
220.764	13404.94
220.838	13467.37
220.911	13531.19
220.984	13620.38
221.057	13693.89
221.131	13760.22
221.204	13793.44
221.277	13885.22
221.35	13974.16
221.424	14032.44
221.497	14092.22
221.57	14166.12
221.643	14229.41
221.716	14294.34
221.79	14350.65
221.863	14406.13
221.936	14466.53
222.009	14528.52
222.082	14590.71
222.155	14647.25
222.229	14718.31
222.302	14777.36
222.375	14830.48
222.448	14888.18
222.521	14939.9
222.594	14991.38
222.667	15045.61
222.74	15106.3
222.814	15140.76
222.887	15187.52
222.96	15249.27
223.033	15307.78
223.106	15361.48
223.179	15416.33
223.252	15467.48
223.325	15519.68
223.398	15567.01
223.471	15618.15
223.544	15659.51
223.617	15705.44
223.69	15753.64
223.763	15775.29
223.837	15826.67
223.91	15879.98
223.983	15899.98
224.056	15935.02
224.129	15984.42
224.202	16034.36
224.275	16067.76
224.348	16107.67
224.42	16129.94
224.493	16151.34
224.566	16191.73
224.639	16232.7
224.712	16267.54
224.785	16304.75
224.858	16338.25
224.931	16381.77
225.004	16408.52
225.077	16450.64
225.15	16465.2
225.223	16504.24
225.296	16574.41
225.369	16595.37
225.442	16628.97
225.514	16682.32
225.587	16723.58
225.66	16758.95
225.733	16800.4
225.806	16848.16
225.879	16886.86
225.952	16918.72
226.025	16975.11
226.097	17025.81
226.17	17061.86
226.243	17075.3
226.316	17105.57
226.389	17146.29
226.461	17174.44
226.534	17217.91
226.607	17247.16
226.68	17309.09
226.753	17345.09
226.825	17353.38
226.898	17400.66
226.971	17428.32
227.044	17464.75
227.117	17499.55
227.189	17537.53
227.262	17574.68
227.335	17609.38
227.407	17630.39
227.48	17669.67
227.553	17696.95
227.626	17708.75
227.698	17735.26
227.771	17770.29
227.844	17797.14
227.916	17820.85
227.989	17840.03
228.062	17857.52
228.134	17903.06
228.207	17927.01
228.28	17945.23
228.352	17971.83
228.425	17996.02
228.498	18030.86
228.57	18046.67
228.643	18087.25
228.716	18092.84
228.788	18112.6
228.861	18120.98
228.934	18148.26
229.006	18168.98
229.079	18187.1
229.151	18207.29
229.224	18212.74
229.296	18251.63
229.369	18297.16
229.442	18335.91
229.514	18348.49
229.587	18391.04
229.659	18393.88
229.732	18416.44
229.804	18453.45
229.877	18503.76
229.949	18531.71
230.022	18568.28
230.094	18601.68
230.167	18615.36
230.239	18650.11
230.312	18657.72
230.384	18700.8
230.457	18736.51
230.529	18765.52
230.602	18790.82
230.674	18808.17
230.747	18840.12
230.819	18858.87
230.892	18840.22
230.964	18857.18
231.037	18886.24
231.109	18899.83
231.181	18926.38
231.254	18934.82
231.326	18944.4
231.399	18947.06
231.471	18960.07
231.544	18944.79
231.616	18964.98
231.688	18980.98
231.761	18986.81
231.833	19009.8
231.905	19002.04
231.978	19006.14
232.05	19012.83
232.122	19022.95
232.195	19026.81
232.267	19056.45
232.339	19057.02
232.412	19093.7
232.484	19096.35
232.556	19099.19
232.629	19127.24
232.701	19144.87
232.773	19156.1
232.846	19169.5
232.918	19174.41
232.99	19183.76
233.062	19204.15
233.135	19200
233.207	19184.1
233.279	19192.49
233.351	19203.14
233.424	19210.75
233.496	19204.63
233.568	19231.09
233.64	19221.25
233.713	19230.31
233.785	19226.12
233.857	19242.17
233.929	19220.39
234.001	19234.03
234.074	19239.76
234.146	19214.56
234.218	19210.85
234.29	19208.53
234.362	19185.35
234.434	19164.29
234.507	19142.75
234.579	19115.86
234.651	19107.91
234.723	19128.59
234.795	19138.46
234.867	19134.03
234.939	19134.56
235.012	19137.74
235.084	19126.51
235.156	19127.28
235.228	19119.72
235.3	19105.02
235.372	19095.91
235.444	19115.09
235.516	19086.61
235.588	19092.06
235.66	19089.21
235.732	19071.63
235.804	19119.96
235.876	19137.12
235.948	19148.39
236.02	19140.39
236.092	19142.32
236.164	19143.96
236.236	19120.1
236.308	19099.58
236.38	19082.66
236.452	19064.54
236.524	19046.42
236.596	19050.57
236.668	19050.52
236.74	19031.34
236.812	19030.47
236.884	19019.39
236.956	18991.78
237.028	18970.57
237.1	18951.25
237.172	18944.65
237.244	18946.19
237.316	18883.78
237.388	18857.47
237.46	18830.92
237.532	18828.6
237.604	18808.46
237.675	18796.12
237.747	18783.84
237.819	18759.98
237.891	18746.54
237.963	18720.08
238.035	18706.15
238.107	18646.69
238.178	18641.48
238.25	18630.3
238.322	18625.87
238.394	18586.02
238.466	18570.64
238.538	18556.62
238.609	18537.59
238.681	18500.05
238.753	18463.18
238.825	18439.66
238.897	18416.34
238.968	18414.17
239.04	18385.21
239.112	18384.1
239.184	18359.38
239.255	18335.43
239.327	18312.88
239.399	18286.9
239.471	18273.07
239.542	18256.01
239.614	18253.17
239.686	18195.68
239.758	18178.33
239.829	18135.29
239.901	18125.46
239.973	18096.21
240.044	18082.67
240.116	18057.66
240.188	18030.04
240.259	18010.96
240.331	17990.33
240.403	17970.29
240.474	17927.59
240.546	17908.27
240.618	17863.59
240.689	17826.87
240.761	17804.9
240.833	17794
240.904	17773.62
240.976	17750.15
241.048	17724.61
241.119	17699.93
241.191	17685.91
241.262	17679.16
241.334	17653.62
241.405	17631.55
241.477	17596.8
241.549	17567.26
241.62	17540.51
241.692	17522.92
241.763	17506.59
241.835	17473.82
241.906	17441.43
241.978	17401.86
242.049	17375.41
242.121	17361.24
242.192	17353.81
242.264	17309.86
242.335	17265.62
242.407	17238.1
242.478	17206.15
242.55	17176.7
242.621	17135.64
242.693	17096.03
242.764	17060.41
242.836	17032.27
242.907	17006.1
242.979	16980.89
243.05	16953.08
243.122	16934.53
243.193	16903.49
243.264	16859.73
243.336	16830.43
243.407	16821.66
243.479	16809.7
243.55	16778.04
243.622	16752.59
243.693	16713.7
243.764	16699.92
243.836	16669.94
243.907	16637.02
243.978	16604.63
244.05	16582.94
244.121	16549.2
244.192	16539.13
244.264	16487.37
244.335	16444.33
244.407	16391.99
244.478	16370.06
244.549	16335.6
244.62	16295.01
244.692	16267.16
244.763	16242.48
244.834	16205.17
244.906	16156.35
244.977	16132.78
245.048	16116.34
245.119	16078.41
245.191	16038.22
245.262	15989.25
245.333	15971.12
245.405	15942.97
245.476	15914.92
245.547	15878.53
245.618	15860.31
245.689	15831.49
245.761	15808.98
245.832	15780.73
245.903	15765.55
245.974	15739.14
246.045	15707.9
246.117	15694.36
246.188	15638.11
246.259	15587.5
246.33	15554.19
246.401	15520.98
246.473	15468.59
246.544	15427.33
246.615	15404.29
246.686	15371.27
246.757	15353.14
246.828	15310.24
246.899	15291.59
246.97	15250.33
247.042	15216.63
247.113	15189.74
247.184	15179.81
247.255	15144.28
247.326	15124.76
247.397	15086.83
247.468	15056.84
247.539	15026.19
247.61	14974.03
247.681	14970.17
247.752	14960
247.823	14927.61
247.894	14907.12
247.965	14871.45
248.037	14835.93
248.108	14790.42
248.179	14754.32
248.25	14724.29
248.321	14697.63
248.392	14656.12
248.463	14652.8
248.534	14622.28
248.605	14598.38
248.675	14564.34
248.746	14541.74
248.817	14520.82
248.888	14499.32
248.959	14449.81
249.03	14430.77
249.101	14404.3
249.172	14369.64
249.243	14326.36
249.314	14315.17
249.385	14288.95
249.456	14272.56
249.527	14246.96
249.598	14226.91
249.669	14210.03
249.739	14193.84
249.81	14177.64
249.881	14140.18
249.952	14108.9
250.023	14079.4
250.094	14035.72
250.165	13987.76
250.235	13962.02
250.306	13936.71
250.377	13905.42
250.448	13890.24
250.519	13848.54
250.59	13841.07
250.66	13813.01
250.731	13807.42
250.802	13774.93
250.873	13751.88
250.944	13726.67
251.014	13695.43
251.085	13694.76
251.156	13675.86
251.227	13661.5
251.297	13649.73
251.368	13639.37
251.439	13628.86
251.51	13618.74
251.58	13586.39
251.651	13565.04
251.722	13547.1
251.792	13502.95
251.863	13479.76
251.934	13470.7
252.005	13465.87
252.075	13437.29
252.146	13422.2
252.217	13401.9
252.287	13392.31
252.358	13357.89
252.429	13355.87
252.499	13333.93
252.57	13314.65
252.641	13298.79
252.711	13271.26
252.782	13225.32
252.852	13220.17
252.923	13189.51
252.994	13170.51
253.064	13165.84
253.135	13127.56
253.205	13099.02
253.276	13093.58
253.347	13083.45
253.417	13046.48
253.488	13022.23
253.558	12996.44
253.629	12978.56
253.699	12959.85
253.77	12948.38
253.841	12922.4
253.911	12901.91
253.982	12881.71
254.052	12858.96
254.123	12829.94
254.193	12801.59
254.264	12817.16
254.334	12780.29
254.405	12751.8
254.475	12717.91
254.546	12693.37
254.616	12691.49
254.687	12683.97
254.757	12665.6
254.827	12639.19
254.898	12626.8
254.968	12600
255.039	12569.39
255.109	12554.45
255.18	12516.41
255.25	12470.09
255.321	12459.19
255.391	12428.1
255.461	12426.41
255.532	12385.97
255.602	12365.63
255.673	12328.13
255.743	12299.64
255.813	12259.34
255.884	12244.78
255.954	12226.42
256.024	12223.86
256.095	12207.62
256.165	12166.45
256.235	12151.41
256.306	12122.73
256.376	12114.49
256.446	12101.86
256.517	12091.88
256.587	12081.52
256.657	12072.65
256.728	12053.08
256.798	12038.81
256.868	12014.81
256.938	11988.73
257.009	11976.15
257.079	11970.71
257.149	11983.48
257.219	11942.36
257.29	11932.15
257.36	11897.54
257.43	11890.55
257.5	11844.13
257.571	11814.59
257.641	11803.11
257.711	11776.36
257.781	11767.25
257.852	11749.56
257.922	11717.46
257.992	11691.39
258.062	11664.78
258.132	11651.67
258.202	11634.03
258.273	11615.48
258.343	11605.59
258.413	11574.36
258.483	11550.46
258.553	11509.54
258.623	11472.91
258.693	11459.27
258.764	11455.46
258.834	11448.81
258.904	11429.29
258.974	11409.19
259.044	11386.64
259.114	11378.97
259.184	11359.94
259.254	11339.89
259.324	11298.59
259.394	11289.28
259.464	11288.9
259.535	11264.03
259.605	11238.92
259.675	11214.49
259.745	11200.75
259.815	11168.66
259.885	11144.95
259.955	11157.28
260.025	11141.19
260.095	11122.01
260.165	11107.74
260.235	11098.64
260.305	11074.59
260.375	11049.91
260.445	11052.42
260.515	11053.19
260.585	11047.5
260.655	11028.95
260.725	11023.94
260.795	11022.83
260.865	11022.44
260.934	10997.29
261.004	10989.96
261.074	10973.29
261.144	10970.45
261.214	10957.2
261.284	10945.68
261.354	10944.57
261.424	10914.21
261.494	10913.82
261.564	10909.05
261.634	10901.92
261.703	10865.01
261.773	10855.71
261.843	10846.84
261.913	10826.94
261.983	10794.85
262.053	10777.55
262.123	10762.76
262.192	10733.7
262.262	10720.59
