Data from 20250702_urea_0.5M_MAYP1162681_09-14-59-987.txt Node
Date: Thu Jul 03 09:14:59 BST 2025
User: adleo
Spectrometer: MAYP116268
Trigger mode: 0
Integration Time (sec): 1.000000E0
Scans to average: 1
Electric dark correction enabled: true
Nonlinearity correction enabled: true
Boxcar width: 10
XAxis mode: Wavelengths
Number of Pixels in Spectrum: 2068
>>>>>Begin Spectral Data<<<<<
179.565	1172.98
179.642	1228.68
179.718	1270.44
179.795	1309.73
179.871	1341.58
179.948	1355.43
180.024	1375.8
180.101	1397.73
180.177	1412.36
180.254	1435.36
180.33	1456.93
180.407	1508.87
180.483	1601.56
180.56	1690.64
180.636	1772.49
180.712	1760.7
180.789	1772.15
180.865	1784.03
180.942	1792.73
181.018	1803.66
181.095	1816.06
181.171	1821.05
181.248	1820.44
181.324	1834.89
181.4	1841.35
181.477	1850.24
181.553	1867.49
181.63	1888.55
181.706	1903.91
181.782	1911.42
181.859	1912.46
181.935	1917.79
182.011	1916.6
182.088	1933.1
182.164	1950.94
182.24	1965.53
182.317	1978.22
182.393	1976.32
182.469	1988.82
182.546	2002.19
182.622	2005.51
182.698	2001.8
182.775	2012.55
182.851	2026.91
182.927	2019.49
183.003	2015.45
183.08	2010.89
183.156	2016.5
183.232	2012.55
183.308	2001.61
183.385	2011.27
183.461	2026.34
183.537	2027.72
183.613	2036.47
183.69	2029.43
183.766	2018.06
183.842	2022.68
183.918	2027.53
183.995	2041.37
184.071	2043.98
184.147	2041.03
184.223	2032.38
184.299	2044.7
184.375	2033.15
184.452	2038.62
184.528	2085.18
184.604	2095.3
184.68	2109.14
184.756	2119.89
184.832	2124.75
184.908	2129.74
184.985	2125.22
185.061	2111.52
185.137	2119.85
185.213	2109.34
185.289	2108.43
185.365	2101.35
185.441	2103.06
185.517	2114.44
185.593	2109.06
185.669	2105.97
185.745	2113.87
185.822	2128.79
185.898	2121.23
185.974	2131.07
186.05	2124.65
186.126	2093.12
186.202	2087.08
186.278	2084.18
186.354	2074.19
186.43	2080.71
186.506	2080.04
186.582	2082.52
186.658	2086.84
186.734	2067.3
186.81	2071.53
186.886	2075.33
186.962	2088.17
187.038	2080.66
187.114	2071.76
187.19	2081.89
187.266	2073.48
187.341	2074.71
187.417	2070.29
187.493	2066.39
187.569	2068.1
187.645	2061.68
187.721	2052.03
187.797	2059.26
187.873	2061.68
187.949	2055.64
188.025	2047.55
188.101	2048.46
188.176	2053.69
188.252	2051.03
188.328	2059.96
188.404	2058.96
188.48	2053.92
188.556	2048.31
188.632	2051.45
188.707	2054.69
188.783	2049.5
188.859	2043.65
188.935	2030.71
189.011	2037.14
189.086	2035.28
189.162	2029.15
189.238	2027.86
189.314	2025.15
189.39	2019.68
189.465	2013.02
189.541	2029.77
189.617	2016.88
189.693	2010.03
189.768	2011.08
189.844	2034.73
189.92	2025.74
189.996	2033.21
190.071	2044.77
190.147	2045.34
190.223	2055.76
190.298	2047.38
190.374	2033.83
190.45	2049.19
190.526	2056.46
190.601	2050.33
190.677	2052.56
190.753	2080.4
190.828	2083.54
190.904	2098.43
190.98	2114.7
191.055	2125.55
191.131	2116.37
191.207	2135.39
191.282	2148.85
191.358	2140.14
191.433	2126.25
191.509	2137.7
191.585	2134.66
191.66	2137.32
191.736	2143.36
191.811	2133.85
191.887	2149.31
191.963	2172.67
192.038	2178
192.114	2181.18
192.189	2184.56
192.265	2178.29
192.34	2153.82
192.416	2153.49
192.491	2150.06
192.567	2150.44
192.642	2150.11
192.718	2150.63
192.793	2139.41
192.869	2134.65
192.944	2137.6
193.02	2141.41
193.095	2147.11
193.171	2152.77
193.246	2152.63
193.322	2150.59
193.397	2149.35
193.473	2135.84
193.548	2121.13
193.624	2125.13
193.699	2123.27
193.775	2137.26
193.85	2142.16
193.925	2152.29
194.001	2152.82
194.076	2144.11
194.152	2132.93
194.227	2126.94
194.302	2117.85
194.378	2124.32
194.453	2123.85
194.529	2138.93
194.604	2127.27
194.679	2119.14
194.755	2102.12
194.83	2112.73
194.905	2109.11
194.981	2117.49
195.056	2110.69
195.131	2113.4
195.207	2110.88
195.282	2101.27
195.357	2084.28
195.433	2098.7
195.508	2086.85
195.583	2092.61
195.659	2107.4
195.734	2116.78
195.809	2115.54
195.884	2124.1
195.96	2120.15
196.035	2133.38
196.11	2125.19
196.185	2136.51
196.261	2141.79
196.336	2170.24
196.411	2157.01
196.486	2164.33
196.561	2157.96
196.637	2164.47
196.712	2180.41
196.787	2181.27
196.862	2196.02
196.937	2207.2
197.013	2213
197.088	2224.04
197.163	2244.6
197.238	2261.74
197.313	2260.7
197.388	2274.78
197.464	2304.25
197.539	2317.14
197.614	2310.05
197.689	2324.57
197.764	2339.95
197.839	2362.13
197.914	2356.56
197.989	2376.69
198.065	2390.5
198.14	2439.27
198.215	2467.02
198.29	2478.17
198.365	2494.07
198.44	2505.16
198.515	2530.02
198.59	2541.87
198.665	2567.45
198.74	2576.26
198.815	2577.07
198.89	2597.88
198.965	2624.75
199.04	2620.27
199.115	2636.74
199.19	2678.23
199.265	2679.51
199.34	2688.47
199.415	2719.64
199.49	2740.97
199.565	2752.22
199.64	2774.71
199.715	2773.66
199.79	2782.71
199.865	2788.62
199.94	2786.38
200.015	2819.03
200.09	2824.32
200.165	2833.51
200.24	2839.71
200.315	2877.44
200.39	2892.21
200.464	2899.98
200.539	2900.94
200.614	2917.47
200.689	2941.64
200.764	2949.94
200.839	2967.66
200.914	2971.52
200.989	2963.03
201.063	2979.24
201.138	2959.95
201.213	2960.23
201.288	2939.88
201.363	2941.07
201.438	2943.07
201.512	2962.52
201.587	2941.97
201.662	2945.64
201.737	2956.32
201.812	2964.09
201.886	2935.94
201.961	2946.05
202.036	2932.19
202.111	2932.85
202.186	2903.18
202.26	2882.96
202.335	2859.98
202.41	2853.98
202.485	2840.64
202.559	2822.72
202.634	2798.18
202.709	2809.27
202.784	2789.16
202.858	2790.21
202.933	2774.63
203.008	2767.15
203.082	2745.09
203.157	2746.57
203.232	2705.61
203.306	2686.02
203.381	2655.67
203.456	2629.18
203.53	2605.87
203.605	2590.92
203.68	2569.52
203.754	2564.1
203.829	2553.38
203.904	2534.76
203.978	2525.09
204.053	2531.43
204.127	2518.66
204.202	2515.52
204.277	2498.05
204.351	2492.33
204.426	2483.14
204.5	2474.28
204.575	2443.53
204.65	2450.77
204.724	2444.1
204.799	2454.48
204.873	2451.67
204.948	2450.28
205.022	2439.62
205.097	2433.19
205.171	2443.95
205.246	2450.52
205.32	2449.43
205.395	2446.05
205.469	2438.48
205.544	2443.34
205.618	2422.11
205.693	2432.92
205.767	2417.21
205.842	2437.64
205.916	2431.92
205.991	2422.64
206.065	2428.31
206.14	2441.91
206.214	2434.58
206.289	2426.63
206.363	2438.81
206.438	2440.72
206.512	2448.15
206.586	2472.14
206.661	2477.05
206.735	2455.44
206.81	2455.3
206.884	2470.91
206.958	2459.92
207.033	2477.05
207.107	2489.01
207.181	2522.26
207.256	2516.49
207.33	2538.2
207.405	2552.12
207.479	2572.36
207.553	2582.78
207.628	2566.79
207.702	2580.74
207.776	2581.31
207.851	2584.93
207.925	2603.09
207.999	2604.9
208.073	2608.04
208.148	2612
208.222	2606.99
208.296	2643.8
208.371	2666.39
208.445	2683.92
208.519	2718.17
208.593	2736.85
208.668	2735.8
208.742	2744.24
208.816	2755.43
208.89	2779.65
208.965	2787.37
209.039	2805.63
209.113	2829.65
209.187	2862.74
209.261	2869.84
209.336	2903.54
209.41	2938
209.484	2949.69
209.558	2984.45
209.632	3009.71
209.707	3036.32
209.781	3074.18
209.855	3109.09
209.929	3143.23
210.003	3167.98
210.077	3189.21
210.151	3256.49
210.226	3312.9
210.3	3363.52
210.374	3409.37
210.448	3439.2
210.522	3474.82
210.596	3513.87
210.67	3556.5
210.744	3635.73
210.818	3701.74
210.892	3757.92
210.966	3792.64
211.041	3846.09
211.115	3878.81
211.189	3939.43
211.263	3994.76
211.337	4041.78
211.411	4096.81
211.485	4137.12
211.559	4195.43
211.633	4245.65
211.707	4263.26
211.781	4318.82
211.855	4338.14
211.929	4381.6
212.003	4416.45
212.077	4480.67
212.151	4547.39
212.225	4614.58
212.299	4659.84
212.373	4708.65
212.447	4757.06
212.52	4844.26
212.594	4912.27
212.668	4986.19
212.742	5036.86
212.816	5095.1
212.89	5150.85
212.964	5215.79
213.038	5277.37
213.112	5355.5
213.186	5435.14
213.26	5481.84
213.333	5506.91
213.407	5578.75
213.481	5649.38
213.555	5727.54
213.629	5784.57
213.703	5831.58
213.777	5898.99
213.85	5950.66
213.924	6049.9
213.998	6119.39
214.072	6181.27
214.146	6233.54
214.219	6296.13
214.293	6367.45
214.367	6440.42
214.441	6519.15
214.515	6576.25
214.588	6628.87
214.662	6660.66
214.736	6704.7
214.81	6781.89
214.883	6856.99
214.957	6913.94
215.031	6969.31
215.105	7023.92
215.178	7080.28
215.252	7144.61
215.326	7187.86
215.4	7236.3
215.473	7257.69
215.547	7306.67
215.621	7359.03
215.694	7431.1
215.768	7480.19
215.842	7527.73
215.915	7578.94
215.989	7619.24
216.063	7677.72
216.136	7745.09
216.21	7809.9
216.284	7887.67
216.357	7949.23
216.431	8013.39
216.504	8084.1
216.578	8173.29
216.652	8242.46
216.725	8304.96
216.799	8374.2
216.873	8439.92
216.946	8508.24
217.02	8574.21
217.093	8640.05
217.167	8683.6
217.24	8735.3
217.314	8791.03
217.387	8850.37
217.461	8903.32
217.535	8979.32
217.608	9026.79
217.682	9089.67
217.755	9162.46
217.829	9215.38
217.902	9277.68
217.976	9337.19
218.049	9393.53
218.123	9442.13
218.196	9509.45
218.27	9559.34
218.343	9612.07
218.417	9676.8
218.49	9737.15
218.563	9809.79
218.637	9870.38
218.71	9955.21
218.784	10015.66
218.857	10087.72
218.931	10153.14
219.004	10229.64
219.077	10299.88
219.151	10371.52
219.224	10426.73
219.298	10483.2
219.371	10552.29
219.444	10600.47
219.518	10668.51
219.591	10735.24
219.665	10823.96
219.738	10888.58
219.811	10951.02
219.885	11022.44
219.958	11095.69
220.031	11154.77
220.105	11218.87
220.178	11285.42
220.251	11339.07
220.325	11418.49
220.398	11485.92
220.471	11553.15
220.544	11612.34
220.618	11667.86
220.691	11730.95
220.764	11795.01
220.838	11871.35
220.911	11927.85
220.984	12014.36
221.057	12076.25
221.131	12135.54
221.204	12159.01
221.277	12229.15
221.35	12327.05
221.424	12383.35
221.497	12444.43
221.57	12517.69
221.643	12576.5
221.716	12636.32
221.79	12689.3
221.863	12736.78
221.936	12791.83
222.009	12848.48
222.082	12909.55
222.155	12960.02
222.229	13031.71
222.302	13094.32
222.375	13148.51
222.448	13216
222.521	13269.7
222.594	13325.28
222.667	13367.9
222.74	13445.36
222.814	13501.96
222.887	13545.39
222.96	13613.27
223.033	13670.39
223.106	13716.81
223.179	13774.61
223.252	13837.57
223.325	13890.21
223.398	13942.51
223.471	14004.65
223.544	14059.85
223.617	14109.12
223.69	14165.71
223.763	14204.03
223.837	14257.78
223.91	14308.16
223.983	14343.25
224.056	14375.07
224.129	14419.61
224.202	14480.54
224.275	14520.74
224.348	14551.45
224.42	14581.1
224.493	14604.76
224.566	14639.33
224.639	14687
224.712	14723.78
224.785	14761.33
224.858	14797.63
224.931	14839.71
225.004	14869.07
225.077	14911.15
225.15	14933.76
225.223	14973.81
225.296	15038.36
225.369	15064.58
225.442	15092.63
225.514	15136.59
225.587	15188.32
225.66	15243.7
225.733	15283.61
225.806	15324.29
225.879	15369.84
225.952	15402.43
226.025	15457.86
226.097	15522.74
226.17	15560.58
226.243	15586.65
226.316	15623.43
226.389	15673.99
226.461	15716.55
226.534	15762.92
226.607	15802.35
226.68	15866.55
226.753	15913.4
226.825	15921.16
226.898	15979.87
226.971	16029.42
227.044	16076.65
227.117	16118.44
227.189	16156.71
227.262	16204.86
227.335	16245.97
227.407	16276.67
227.48	16325.74
227.553	16360.88
227.626	16382.51
227.698	16428.25
227.771	16470.38
227.844	16499.39
227.916	16543.25
227.989	16568.31
228.062	16595.11
228.134	16648.22
228.207	16677.67
228.28	16704.08
228.352	16744.91
228.425	16772.14
228.498	16802.98
228.57	16825.1
228.643	16869.97
228.716	16892.53
228.788	16916.77
228.861	16944.67
228.934	16990.27
229.006	17021.45
229.079	17047.91
229.151	17065.88
229.224	17071.28
229.296	17099.76
229.369	17160.25
229.442	17198.13
229.514	17217.26
229.587	17260.92
229.659	17268.49
229.732	17304.54
229.804	17344.68
229.877	17398.8
229.949	17440.97
230.022	17492.2
230.094	17521.88
230.167	17545.26
230.239	17568.2
230.312	17597.31
230.384	17641.93
230.457	17667.81
230.529	17696.73
230.602	17732.44
230.674	17767.95
230.747	17813.59
230.819	17857.01
230.892	17846.17
230.964	17869.64
231.037	17902.17
231.109	17927.81
231.181	17965.4
231.254	17978.22
231.326	18002.31
231.399	18012.91
231.471	18016.72
231.544	18014.65
231.616	18050.02
231.688	18072.28
231.761	18089.15
231.833	18107.03
231.905	18106.36
231.978	18125.39
232.05	18141.73
232.122	18156.47
232.195	18169.68
232.267	18202.54
232.339	18215.12
232.412	18250.93
232.484	18255.5
232.556	18264.66
232.629	18297.77
232.701	18318.25
232.773	18333.04
232.846	18341.24
232.918	18359.4
232.99	18384.27
233.062	18406.77
233.135	18411.26
233.207	18409.86
233.279	18432.8
233.351	18454.82
233.424	18458.15
233.496	18457.13
233.568	18483.93
233.64	18475.69
233.713	18481.81
233.785	18480.36
233.857	18482.58
233.929	18472.65
234.001	18501.66
234.074	18532.36
234.146	18514.86
234.218	18516.41
234.29	18519.73
234.362	18510.33
234.434	18501.18
234.507	18483.97
234.579	18471.54
234.651	18468.46
234.723	18477.04
234.795	18475.83
234.867	18470.29
234.939	18480.79
235.012	18478.91
235.084	18482.14
235.156	18499.11
235.228	18491.25
235.3	18485.85
235.372	18487.93
235.444	18506.67
235.516	18474.29
235.588	18467.78
235.66	18463.64
235.732	18459.88
235.804	18513.32
235.876	18524.74
235.948	18533.51
236.02	18550.33
236.092	18547.97
236.164	18546.72
236.236	18544.12
236.308	18533.85
236.38	18534.82
236.452	18530.72
236.524	18533.08
236.596	18537.42
236.668	18535.49
236.74	18530.96
236.812	18536.36
236.884	18534.43
236.956	18514.09
237.028	18499.83
237.1	18474.77
237.172	18483.35
237.244	18479.16
237.316	18423.16
237.388	18402.87
237.46	18381.57
237.532	18376.08
237.604	18355.02
237.675	18360.51
237.747	18353.04
237.819	18338.3
237.891	18315.36
237.963	18293.19
238.035	18276.61
238.107	18225
238.178	18226.4
238.25	18207.7
238.322	18208.86
238.394	18180.91
238.466	18164.91
238.538	18156.86
238.609	18152.95
238.681	18119.94
238.753	18099.8
238.825	18089.29
238.897	18079.7
238.968	18077.78
239.04	18041.44
239.112	18048.57
239.184	18014.74
239.255	17992.96
239.327	17981.83
239.399	17971.81
239.471	17957.73
239.542	17939.76
239.614	17934.51
239.686	17886.03
239.758	17889.64
239.829	17856.39
239.901	17854.6
239.973	17839.62
240.044	17828.39
240.116	17805.5
240.188	17779.04
240.259	17751.91
240.331	17718.08
240.403	17698.85
240.474	17663.43
240.546	17635.77
240.618	17592.78
240.689	17566.95
240.761	17543.14
240.833	17529.36
240.904	17500.06
240.976	17473.12
241.048	17453.16
241.119	17439.53
241.191	17423.43
241.262	17401.31
241.334	17370.27
241.405	17338.95
241.477	17312.39
241.549	17282.03
241.62	17257.5
241.692	17240.01
241.763	17227.57
241.835	17203.48
241.906	17173.5
241.978	17133.4
242.049	17126.56
242.121	17113.5
242.192	17102.46
242.264	17061.01
242.335	17029.98
242.407	17015.28
242.478	16986.6
242.55	16964.1
242.621	16925.97
242.693	16890.26
242.764	16864.91
242.836	16831.08
242.907	16810.64
242.979	16781.53
243.05	16757.05
243.122	16729.24
243.193	16708.28
243.264	16661.24
243.336	16626.25
243.407	16616.08
243.479	16605.43
243.55	16575.01
243.622	16551.5
243.693	16513.42
243.764	16507.35
243.836	16461.75
243.907	16430.28
243.978	16402.37
244.05	16376.06
244.121	16329.5
244.192	16313.26
244.264	16261.83
244.335	16234.55
244.407	16190.5
244.478	16165.34
244.549	16143.31
244.62	16106.97
244.692	16071.11
244.763	16046.43
244.834	16010.57
244.906	15962.66
244.977	15942.47
245.048	15925.94
245.119	15885.21
245.191	15847.27
245.262	15788.95
245.333	15771.21
245.405	15734.2
245.476	15712.22
245.547	15687.06
245.618	15675.15
245.689	15645.85
245.761	15629.07
245.832	15592.39
245.903	15566.51
245.974	15533.54
246.045	15494.78
246.117	15487.8
246.188	15447.26
246.259	15404.98
246.33	15384.31
246.401	15359
246.473	15306.27
246.544	15273.88
246.615	15257.78
246.686	15232.57
246.757	15223.7
246.828	15180.89
246.899	15163.59
246.97	15115.72
247.042	15083.23
247.113	15065.93
247.184	15056.34
247.255	15019.32
247.326	15002.93
247.397	14969.43
247.468	14950
247.539	14929.95
247.61	14882.52
247.681	14863.72
247.752	14860.05
247.823	14814.84
247.894	14793.48
247.965	14766.34
248.037	14732.17
248.108	14685.02
248.179	14650.8
248.25	14617.01
248.321	14604.86
248.392	14571.69
248.463	14571.26
248.534	14536.36
248.605	14506.33
248.675	14466.03
248.746	14437.69
248.817	14419.71
248.888	14412.52
248.959	14368.46
249.03	14344.51
249.101	14321.75
249.172	14285.6
249.243	14233.1
249.314	14237.73
249.385	14201.19
249.456	14176.75
249.527	14135.87
249.598	14124.35
249.669	14098.85
249.739	14077.59
249.81	14050.02
249.881	14010.15
249.952	13985.8
250.023	13961.32
250.094	13921.35
250.165	13890.4
250.235	13862.83
250.306	13827.01
250.377	13779.96
250.448	13759.57
250.519	13713.15
250.59	13700.57
250.66	13679.16
250.731	13668.32
250.802	13632.55
250.873	13616.88
250.944	13592.2
251.014	13569.11
251.085	13564.72
251.156	13550.5
251.227	13546.45
251.297	13538.79
251.368	13530.83
251.439	13521.34
251.51	13513.43
251.58	13478.19
251.651	13446.95
251.722	13440.49
251.792	13401.98
251.863	13373.25
251.934	13369.34
252.005	13368.81
252.075	13344.51
252.146	13335.6
252.217	13327.35
252.287	13316.22
252.358	13289.94
252.429	13289.66
252.499	13261.02
252.57	13231.9
252.641	13215.47
252.711	13179.21
252.782	13140.89
252.852	13131.01
252.923	13101.51
252.994	13069.59
253.064	13058.89
253.135	13026.88
253.205	12999.65
253.276	13001.53
253.347	12999.55
253.417	12959.68
253.488	12929.7
253.558	12900.73
253.629	12870.41
253.699	12845.19
253.77	12833.96
253.841	12810.44
253.911	12790.29
253.982	12775.06
254.052	12763.87
254.123	12739.53
254.193	12724.1
254.264	12738.03
254.334	12707.13
254.405	12670.83
254.475	12651.89
254.546	12635.79
254.616	12629.72
254.687	12603.49
254.757	12582.23
254.827	12552.83
254.898	12535.14
254.968	12517.74
255.039	12482.07
255.109	12464.86
255.18	12441
255.25	12393.66
255.321	12374.81
255.391	12332.73
255.461	12334.08
255.532	12287.13
255.602	12266.88
255.673	12222.01
255.743	12192.89
255.813	12147.15
255.884	12138.91
255.954	12120.3
256.024	12115.96
256.095	12098.46
256.165	12060.68
256.235	12046.79
256.306	12027.03
256.376	12015.61
256.446	12008.42
256.517	12000.42
256.587	11995.22
256.657	11975.12
256.728	11956.75
256.798	11943.69
256.868	11921.52
256.938	11889.85
257.009	11881.42
257.079	11871.58
257.149	11880.11
257.219	11842.76
257.29	11828.2
257.36	11785.88
257.43	11769.35
257.5	11720.86
257.571	11697.87
257.641	11700.81
257.711	11664.04
257.781	11651.36
257.852	11640.27
257.922	11594.29
257.992	11573.47
258.062	11550.19
258.132	11540.17
258.202	11521.23
258.273	11498.91
258.343	11500.79
258.413	11476.98
258.483	11459.34
258.553	11422.9
258.623	11397.6
258.693	11382.32
258.764	11387.91
258.834	11387.33
258.904	11369.69
258.974	11350.27
259.044	11340.54
259.114	11323.77
259.184	11311.24
259.254	11289.07
259.324	11248.87
259.394	11239.19
259.464	11243.48
259.535	11222.42
259.605	11198.8
259.675	11178.03
259.745	11160.44
259.815	11130.85
259.885	11105.94
259.955	11112.63
260.025	11090.81
260.095	11076.01
260.165	11060.11
260.235	11055.19
260.305	11028.74
260.375	10999.48
260.445	11008.11
260.515	10998.04
260.585	10987
260.655	10971.24
260.725	10961.56
260.795	10955.58
260.865	10959.24
260.934	10928.93
261.004	10926.57
261.074	10906.38
261.144	10903.73
261.214	10901.27
261.284	10887.92
261.354	10881.61
261.424	10850
261.494	10855.68
261.564	10838.05
261.634	10827.54
261.703	10791.21
261.773	10779.74
261.843	10773.24
261.913	10751.6
261.983	10714.74
262.053	10705.63
262.123	10689.06
262.192	10666.46
262.262	10659.47
262.332	10629.69
