Data from 20250702_urea_0.5M_MAYP1162681_00-14-59-559.txt Node
Date: Thu Jul 03 00:14:59 BST 2025
User: adleo
Spectrometer: MAYP116268
Trigger mode: 0
Integration Time (sec): 1.000000E0
Scans to average: 1
Electric dark correction enabled: true
Nonlinearity correction enabled: true
Boxcar width: 10
XAxis mode: Wavelengths
Number of Pixels in Spectrum: 2068
>>>>>Begin Spectral Data<<<<<
179.565	1212.45
179.642	1267.77
179.718	1308.6
179.795	1347.3
179.871	1380.44
179.948	1398.59
180.024	1419.47
180.101	1443.41
180.177	1460.63
180.254	1484.91
180.33	1507.88
180.407	1563.1
180.483	1659.54
180.56	1749.43
180.636	1834.51
180.712	1822.76
180.789	1836.31
180.865	1846.95
180.942	1855.22
181.018	1866.3
181.095	1881.56
181.171	1886.17
181.248	1885.6
181.324	1903.2
181.4	1914.37
181.477	1927.16
181.553	1942.23
181.63	1962.48
181.706	1976.7
181.782	1980.41
181.859	1981.27
181.935	1986.73
182.011	1983.03
182.088	2000.34
182.164	2022.08
182.24	2036.24
182.317	2046.66
182.393	2043.33
182.469	2060.16
182.546	2074
182.622	2078.62
182.698	2074.33
182.775	2086.6
182.851	2105.77
182.927	2100.02
183.003	2092.65
183.08	2084.94
183.156	2092.41
183.232	2092.5
183.308	2080.8
183.385	2091.65
183.461	2106.34
183.537	2104.92
183.613	2116.71
183.69	2106.49
183.766	2095.64
183.842	2104.96
183.918	2110.15
183.995	2123.18
184.071	2125.8
184.147	2118.33
184.223	2107.06
184.299	2116.57
184.375	2106.54
184.452	2109.92
184.528	2164.79
184.604	2174.54
184.68	2186.33
184.756	2195.14
184.832	2198.51
184.908	2205.5
184.985	2207.36
185.061	2191.09
185.137	2205.41
185.213	2195.28
185.289	2197.66
185.365	2188.62
185.441	2183.87
185.517	2197.24
185.593	2193
185.669	2190.15
185.745	2202.42
185.822	2217.69
185.898	2211.84
185.974	2222.4
186.05	2213.4
186.126	2172.18
186.202	2166.86
186.278	2165.95
186.354	2155.87
186.43	2163.01
186.506	2163.34
186.582	2161.01
186.658	2167.57
186.734	2143.64
186.81	2144.07
186.886	2145.64
186.962	2160.77
187.038	2157.63
187.114	2150.39
187.19	2158.24
187.266	2150.06
187.341	2150.4
187.417	2145.02
187.493	2145.54
187.569	2147.11
187.645	2141.45
187.721	2131.56
187.797	2137.6
187.873	2140.45
187.949	2136.22
188.025	2127.41
188.101	2127.41
188.176	2136.17
188.252	2135.69
188.328	2144.06
188.404	2145.63
188.48	2143.39
188.556	2137.21
188.632	2139.11
188.707	2138.87
188.783	2135.26
188.859	2126.41
188.935	2116.8
189.011	2125.22
189.086	2116.71
189.162	2109.34
189.238	2106.96
189.314	2101.82
189.39	2097.68
189.465	2088.07
189.541	2102.35
189.617	2085.08
189.693	2082.94
189.768	2082.18
189.844	2103.88
189.92	2096.51
189.996	2103.93
190.071	2112.4
190.147	2108.41
190.223	2117.11
190.298	2108.88
190.374	2098.13
190.45	2115.78
190.526	2124.05
190.601	2118.15
190.677	2121.34
190.753	2147.9
190.828	2153.61
190.904	2170.88
190.98	2186.34
191.055	2198.52
191.131	2191.1
191.207	2215.26
191.282	2222.35
191.358	2212.79
191.433	2198.08
191.509	2212.73
191.585	2208.35
191.66	2209.4
191.736	2218.48
191.811	2207.59
191.887	2225.34
191.963	2247.04
192.038	2250.41
192.114	2243.66
192.189	2246.51
192.265	2243.66
192.34	2221.76
192.416	2220.67
192.491	2216.91
192.567	2218.34
192.642	2220.24
192.718	2218.57
192.793	2204.3
192.869	2202.68
192.944	2205.96
193.02	2213.77
193.095	2217.77
193.171	2226.76
193.246	2226.23
193.322	2222.19
193.397	2224.19
193.473	2206.63
193.548	2190.26
193.624	2196.16
193.699	2200.96
193.775	2216.86
193.85	2218.19
193.925	2225.23
194.001	2224.19
194.076	2216.57
194.152	2206.01
194.227	2200.96
194.302	2191.03
194.378	2196.97
194.453	2195.12
194.529	2208.96
194.604	2191.74
194.679	2182.42
194.755	2160.78
194.83	2173.77
194.905	2173.77
194.981	2181.15
195.056	2175.96
195.131	2182.72
195.207	2180.43
195.282	2171.01
195.357	2151.12
195.433	2165.92
195.508	2155.78
195.583	2163.96
195.659	2176.62
195.734	2183.05
195.809	2181
195.884	2190.51
195.96	2188.75
196.035	2201.5
196.11	2194.51
196.185	2207.92
196.261	2213.73
196.336	2246.41
196.411	2231.27
196.486	2234.84
196.561	2230.85
196.637	2238.74
196.712	2255.83
196.787	2256.64
196.862	2272.49
196.937	2284.76
197.013	2288.14
197.088	2298.37
197.163	2318.94
197.238	2337.04
197.313	2339.47
197.388	2352.74
197.464	2382.93
197.539	2393.78
197.614	2387.07
197.689	2401.3
197.764	2422.59
197.839	2443.53
197.914	2437.11
197.989	2463.58
198.065	2479.38
198.14	2527.03
198.215	2554.45
198.29	2562.41
198.365	2576.55
198.44	2585.93
198.515	2612.32
198.59	2629.66
198.665	2657.47
198.74	2662.24
198.815	2664.29
198.89	2686.01
198.965	2715.31
199.04	2712.6
199.115	2729.26
199.19	2772.85
199.265	2776.23
199.34	2782.1
199.415	2813.47
199.49	2837.57
199.565	2843.76
199.64	2868.74
199.715	2868.45
199.79	2877.13
199.865	2885.47
199.94	2883.99
200.015	2919.08
200.09	2921.84
200.165	2927.27
200.24	2938
200.315	2984.52
200.39	2998.11
200.464	3003.49
200.539	3006.12
200.614	3023.75
200.689	3053.22
200.764	3059.9
200.839	3080.68
200.914	3086.73
200.989	3076.52
201.063	3087.68
201.138	3072.72
201.213	3071.53
201.288	3049.07
201.363	3054.75
201.438	3055.8
201.512	3073.1
201.587	3055.16
201.662	3061.6
201.737	3077.38
201.812	3079.29
201.886	3045.84
201.961	3060.29
202.036	3047.95
202.111	3043.47
202.186	3012.02
202.26	2992.42
202.335	2969.19
202.41	2958.99
202.485	2942.27
202.559	2923.53
202.634	2898.32
202.709	2904.7
202.784	2886.4
202.858	2886.97
202.933	2868.05
203.008	2863.23
203.082	2844.65
203.157	2842.93
203.232	2800.4
203.306	2775.7
203.381	2743.58
203.456	2719.13
203.53	2692.42
203.605	2674.43
203.68	2653.07
203.754	2649.7
203.829	2631.11
203.904	2611.54
203.978	2598.67
204.053	2604.49
204.127	2592.2
204.202	2592.87
204.277	2574.68
204.351	2565.25
204.426	2560.63
204.5	2550.58
204.575	2513.29
204.65	2522.11
204.724	2510.67
204.799	2519.62
204.873	2517.57
204.948	2516
205.022	2505.38
205.097	2495.9
205.171	2508.14
205.246	2513.09
205.32	2511
205.395	2511.14
205.469	2504.33
205.544	2512.53
205.618	2493.67
205.693	2507.24
205.767	2492.2
205.842	2515.34
205.916	2510.06
205.991	2502.15
206.065	2506.01
206.14	2521.23
206.214	2517.42
206.289	2514.28
206.363	2529.42
206.438	2532.14
206.512	2539.9
206.586	2559.52
206.661	2565.28
206.735	2546.15
206.81	2551.96
206.884	2565.24
206.958	2555.58
207.033	2572.43
207.107	2579.34
207.181	2610.98
207.256	2603.02
207.33	2629.12
207.405	2646.95
207.479	2670.15
207.553	2676.1
207.628	2666.15
207.702	2680.87
207.776	2675.96
207.851	2681.11
207.925	2698.98
207.999	2703.46
208.073	2708.7
208.148	2716.18
208.222	2713.04
208.296	2749.37
208.371	2770.31
208.445	2797.14
208.519	2834.97
208.593	2860.09
208.668	2869.82
208.742	2883.89
208.816	2900.56
208.89	2925.03
208.965	2936.38
209.039	2960.95
209.113	2997.23
209.187	3038.06
209.261	3053.94
209.336	3099.67
209.41	3142.31
209.484	3165.74
209.558	3208.49
209.632	3249.75
209.707	3291.26
209.781	3341.49
209.855	3394.15
209.929	3447.12
210.003	3481.69
210.077	3520.6
210.151	3606.67
210.226	3678.48
210.3	3749.55
210.374	3818.84
210.448	3868.1
210.522	3927.89
210.596	3989.93
210.67	4056.52
210.744	4157.07
210.818	4248.88
210.892	4329.24
210.966	4386.62
211.041	4468.13
211.115	4532.55
211.189	4625.33
211.263	4707.45
211.337	4790.72
211.411	4869.19
211.485	4939.65
211.559	5030.18
211.633	5104.52
211.707	5148.99
211.781	5239.74
211.855	5287.13
211.929	5366.51
212.003	5433.53
212.077	5531.1
212.151	5632.19
212.225	5728.58
212.299	5809.68
212.373	5898.46
212.447	5988.35
212.52	6112.18
212.594	6212.69
212.668	6325.8
212.742	6410.68
212.816	6507.65
212.89	6600.75
212.964	6713.43
213.038	6818.16
213.112	6934.32
213.186	7062.09
213.26	7158.54
213.333	7222.07
213.407	7337.71
213.481	7448.85
213.555	7573.83
213.629	7669.61
213.703	7762.18
213.777	7879
213.85	7977.08
213.924	8112.84
213.998	8223.4
214.072	8329.02
214.146	8425.25
214.219	8534.58
214.293	8650.79
214.367	8770.73
214.441	8896.06
214.515	8994.37
214.588	9082.85
214.662	9163.05
214.736	9253.47
214.81	9363.56
214.883	9483.29
214.957	9581.56
215.031	9677.72
215.105	9760.63
215.178	9855.75
215.252	9960.46
215.326	10042.21
215.4	10120.33
215.473	10173.81
215.547	10253.64
215.621	10344.89
215.694	10454.99
215.768	10532.99
215.842	10616.83
215.915	10707.96
215.989	10779.42
216.063	10862.11
216.136	10965.23
216.21	11062.86
216.284	11165.99
216.357	11259.87
216.431	11348.45
216.504	11447.97
216.578	11570.24
216.652	11674.91
216.725	11764.13
216.799	11861.83
216.873	11956.83
216.946	12066.68
217.02	12161.34
217.093	12249.06
217.167	12312.84
217.24	12388.66
217.314	12472.05
217.387	12551.63
217.461	12617.87
217.535	12713.12
217.608	12790.63
217.682	12870.6
217.755	12965.57
217.829	13044.05
217.902	13130.1
217.976	13213.35
218.049	13282.18
218.123	13339.74
218.196	13422.8
218.27	13498
218.343	13565.73
218.417	13639.44
218.49	13702.35
218.563	13794.28
218.637	13883.03
218.71	13985.75
218.784	14063.27
218.857	14148.54
218.931	14230.06
219.004	14314.95
219.077	14399.02
219.151	14479.67
219.224	14552.6
219.298	14625.05
219.371	14711.29
219.444	14776.03
219.518	14855.8
219.591	14933.94
219.665	15029.38
219.738	15103.86
219.811	15165.75
219.885	15241.86
219.958	15314.02
220.031	15379.34
220.105	15453.86
220.178	15520.28
220.251	15578.99
220.325	15648.54
220.398	15718.14
220.471	15785.14
220.544	15861.63
220.618	15920.14
220.691	15992.97
220.764	16065.18
220.838	16133.23
220.911	16183.93
220.984	16266.31
221.057	16331.47
221.131	16405.07
221.204	16440.35
221.277	16519.87
221.35	16616.79
221.424	16666.34
221.497	16721.81
221.57	16798.21
221.643	16851.8
221.716	16918.5
221.79	16970.84
221.863	17025.3
221.936	17081.3
222.009	17135.86
222.082	17189.79
222.155	17244.49
222.229	17302.37
222.302	17341.6
222.375	17386.46
222.448	17444.49
222.521	17488.39
222.594	17532.01
222.667	17567.48
222.74	17624.54
222.814	17663.14
222.887	17699.76
222.96	17761.88
223.033	17824.34
223.106	17867.57
223.179	17916.43
223.252	17962.31
223.325	18000.48
223.398	18049.15
223.471	18096.52
223.544	18138.06
223.617	18168.09
223.69	18200.71
223.763	18222.45
223.837	18280.51
223.91	18322.87
223.983	18343.84
224.056	18378.15
224.129	18416.22
224.202	18454.29
224.275	18480.02
224.348	18511.68
224.42	18531.06
224.493	18547.59
224.566	18567.63
224.639	18602.71
224.712	18636.11
224.785	18652.21
224.858	18686.47
224.931	18703.72
225.004	18723.14
225.077	18753.84
225.15	18765.36
225.223	18800.73
225.296	18861.64
225.369	18864
225.442	18878.94
225.514	18914.65
225.587	18936.14
225.66	18964.23
225.733	19003.85
225.806	19036.47
225.879	19055.41
225.952	19077.38
226.025	19112.8
226.097	19151.93
226.17	19162.82
226.243	19159.4
226.316	19189.81
226.389	19222.24
226.461	19242.92
226.534	19265.76
226.607	19288.7
226.68	19330.09
226.753	19353.22
226.825	19351.54
226.898	19396.4
226.971	19423.44
227.044	19445.36
227.117	19470.61
227.189	19501.74
227.262	19525.84
227.335	19551.24
227.407	19571.52
227.48	19599.04
227.553	19622.56
227.626	19636.53
227.698	19674.41
227.771	19706.26
227.844	19712.91
227.916	19727.52
227.989	19740.43
228.062	19758.26
228.134	19800.81
228.207	19810.16
228.28	19816.52
228.352	19827.22
228.425	19836.52
228.498	19859.03
228.57	19858.64
228.643	19888.91
228.716	19898.54
228.788	19908.28
228.861	19914.4
228.934	19931.12
229.006	19937.1
229.079	19951.8
229.151	19964.76
229.224	19954.21
229.296	19969.39
229.369	20016.42
229.442	20040.85
229.514	20055.74
229.587	20089.77
229.659	20073.24
229.732	20098.01
229.804	20123.12
229.877	20164.8
229.949	20189.04
230.022	20220.85
230.094	20240.95
230.167	20244.03
230.239	20242.78
230.312	20243.07
230.384	20275.16
230.457	20294.87
230.529	20306.78
230.602	20315.69
230.674	20312.75
230.747	20340.61
230.819	20359.59
230.892	20331.45
230.964	20346.15
231.037	20360.75
231.109	20352.94
231.181	20370.58
231.254	20378
231.326	20371.5
231.399	20370.49
231.471	20364.51
231.544	20344.56
231.616	20362.53
231.688	20371.01
231.761	20368.36
231.833	20370
231.905	20354.24
231.978	20356.22
232.05	20361.81
232.122	20359.59
232.195	20361.33
232.267	20376.08
232.339	20372.12
232.412	20390.97
232.484	20377.18
232.556	20369.23
232.629	20386.39
232.701	20393.14
232.773	20384.89
232.846	20382.77
232.918	20372.36
232.99	20370.53
233.062	20378.29
233.135	20375.5
233.207	20366.24
233.279	20369.67
233.351	20372.99
233.424	20364.17
233.496	20348.12
233.568	20362.97
233.64	20344.08
233.713	20340.08
233.785	20319.93
233.857	20318.34
233.929	20300.94
234.001	20314.87
234.074	20317.38
234.146	20282.15
234.218	20276.41
234.29	20266.68
234.362	20259.55
234.434	20244.94
234.507	20224.94
234.579	20195.4
234.651	20179.4
234.723	20164.99
234.795	20156.51
234.867	20146.44
234.939	20150.58
235.012	20146.2
235.084	20130.25
235.156	20132.32
235.228	20114.15
235.3	20098.01
235.372	20078.15
235.444	20069.57
235.516	20021.58
235.588	20015.55
235.66	20007.02
235.732	19969.29
235.804	20005.72
235.876	19994.98
235.948	19994.2
236.02	19977.34
236.092	19962.16
236.164	19940.57
236.236	19918.16
236.308	19889.25
236.38	19871.13
236.452	19833.63
236.524	19817.54
236.596	19825.25
236.668	19802.55
236.74	19784.38
236.812	19765.97
236.884	19752.24
236.956	19732.24
237.028	19709.93
237.1	19672.87
237.172	19673.06
237.244	19678.65
237.316	19619.76
237.388	19595.72
237.46	19554.22
237.532	19545.84
237.604	19518.13
237.675	19506.95
237.747	19500.3
237.819	19476.69
237.891	19456.35
237.963	19430.18
238.035	19391.53
238.107	19318.86
238.178	19313.9
238.25	19286.91
238.322	19287.88
238.394	19254.82
238.466	19227.74
238.538	19213.47
238.609	19195.98
238.681	19146.25
238.753	19104.76
238.825	19074.59
238.897	19044.13
238.968	19039.46
239.04	19001.1
239.112	19001.92
239.184	18967.95
239.255	18925.97
239.327	18910.94
239.399	18888.14
239.471	18871.13
239.542	18856.82
239.614	18842.51
239.686	18782.27
239.758	18767.86
239.829	18728.06
239.901	18708.06
239.973	18671.92
240.044	18652.16
240.116	18631.1
240.188	18595.92
240.259	18571.58
240.331	18536.5
240.403	18517.85
240.474	18472.55
240.546	18430.48
240.618	18380.99
240.689	18352.22
240.761	18332.42
240.833	18324.46
240.904	18290.78
240.976	18261.05
241.048	18231.84
241.119	18203.02
241.191	18181.15
241.262	18166.54
241.334	18133.44
241.405	18097.15
241.477	18068.91
241.549	18030.65
241.62	17995.95
241.692	17975.47
241.763	17955.32
241.835	17924.63
241.906	17892.48
241.978	17838.46
242.049	17826.7
242.121	17813.11
242.192	17787.57
242.264	17733.83
242.335	17671.81
242.407	17639.91
242.478	17604.01
242.55	17573.36
242.621	17539.86
242.693	17506.95
242.764	17471.91
242.836	17430.03
242.907	17409.6
242.979	17388.2
243.05	17360.54
243.122	17328.73
243.193	17289.84
243.264	17235.67
243.336	17207.62
243.407	17178.37
243.479	17172.63
243.55	17152.15
243.622	17115.52
243.693	17091.67
243.764	17081.11
243.836	17046.99
243.907	17014.75
243.978	16979.23
244.05	16952.53
244.121	16909.01
244.192	16888.04
244.264	16837.54
244.335	16807.7
244.407	16755.02
244.478	16720.57
244.549	16683.94
244.62	16638.01
244.692	16609.91
244.763	16590.68
244.834	16556.02
244.906	16521.42
244.977	16492.5
245.048	16472.98
245.119	16431.05
245.191	16387.92
245.262	16337.89
245.333	16318.75
245.405	16282.46
245.476	16261.01
245.547	16223.56
245.618	16204.57
245.689	16174.93
245.761	16148.42
245.832	16122.49
245.903	16099.21
245.974	16076.32
246.045	16045.42
246.117	16035.97
246.188	15999.2
246.259	15945.12
246.33	15906.8
246.401	15874.79
246.473	15827.94
246.544	15781.1
246.615	15764.52
246.686	15721.52
246.757	15704.31
246.828	15663.63
246.899	15648.4
246.97	15602.56
247.042	15569.54
247.113	15541.54
247.184	15530.74
247.255	15491.65
247.326	15457.57
247.397	15422.53
247.468	15385.32
247.539	15356.3
247.61	15307.14
247.681	15287.95
247.752	15277.3
247.823	15239.65
247.894	15208.42
247.965	15168.02
248.037	15134.76
248.108	15085.74
248.179	15062.02
248.25	15036.33
248.321	15012.62
248.392	14977.81
248.463	14970.87
248.534	14937.56
248.605	14920.6
248.675	14885.94
248.746	14859.09
248.817	14834.84
248.888	14813.63
248.959	14774.93
249.03	14751.4
249.101	14724.99
249.172	14694.38
249.243	14642.22
249.314	14637.98
249.385	14611.99
249.456	14602.21
249.527	14575.02
249.598	14557.14
249.669	14522.24
249.739	14493.7
249.81	14475.28
249.881	14427.9
249.952	14398.4
250.023	14370.29
250.094	14323.92
250.165	14281.21
250.235	14252.29
250.306	14227.61
250.377	14193.28
250.448	14168.22
250.519	14117.17
250.59	14111.86
250.66	14077.4
250.731	14080.43
250.802	14044.71
250.873	14026.35
250.944	13997.71
251.014	13958.47
251.085	13955.48
251.156	13948.3
251.227	13931.48
251.297	13914.12
251.368	13911.23
251.439	13896.62
251.51	13879.94
251.58	13845.38
251.651	13820.7
251.722	13815.3
251.792	13771.87
251.863	13743.95
251.934	13732
252.005	13743.13
252.075	13718.12
252.146	13703.65
252.217	13689.53
252.287	13674.2
252.358	13644.84
252.429	13640.12
252.499	13616.11
252.57	13595.67
252.641	13573.64
252.711	13552.48
252.782	13518.93
252.852	13511.65
252.923	13487.11
252.994	13475.73
253.064	13466.24
253.135	13433.7
253.205	13395.85
253.276	13397.16
253.347	13392.87
253.417	13363.75
253.488	13333.23
253.558	13305.8
253.629	13284.35
253.699	13257.36
253.77	13239.38
253.841	13221.64
253.911	13199.56
253.982	13182.11
254.052	13160.85
254.123	13138.29
254.193	13114.91
254.264	13125.99
254.334	13089.36
254.405	13052.58
254.475	13013.58
254.546	12985.47
254.616	12979.06
254.687	12964.99
254.757	12942.23
254.827	12919.82
254.898	12901.84
254.968	12877.69
255.039	12846.5
255.109	12832.85
255.18	12803.5
255.25	12763.1
255.321	12743.1
255.391	12708.87
255.461	12708.29
255.532	12668.38
255.602	12644.32
255.673	12605.86
255.743	12572.3
255.813	12521.45
255.884	12510.7
255.954	12500.82
256.024	12502.79
256.095	12485.05
256.165	12455.89
256.235	12438.06
256.306	12407.16
256.376	12398.34
256.446	12383.34
256.517	12370.96
256.587	12358.18
256.657	12338.95
256.728	12317.79
256.798	12290.6
256.868	12267.32
256.938	12237.87
257.009	12218.39
257.079	12207.06
257.149	12213.14
257.219	12172.31
257.29	12166.14
257.36	12131.77
257.43	12117.02
257.5	12079.57
257.571	12052.96
257.641	12038.12
257.711	12006.45
257.781	11992.66
257.852	11977.81
257.922	11944.85
257.992	11927.2
258.062	11905.95
258.132	11895.68
258.202	11872.3
258.273	11856.16
258.343	11857.07
258.413	11832.83
258.483	11811.76
258.553	11778.46
258.623	11746.55
258.693	11735.99
258.764	11733.54
258.834	11735.99
258.904	11718.16
258.974	11685.97
259.044	11664.23
259.114	11650.73
259.184	11636.23
259.254	11617.19
259.324	11572.56
259.394	11561.86
259.464	11558.68
259.535	11535.35
259.605	11503.06
259.675	11482.53
259.745	11474.81
259.815	11438.81
259.885	11416.64
259.955	11427
260.025	11398.67
260.095	11384.69
260.165	11375.05
260.235	11370.71
260.305	11335.63
260.375	11308.83
260.445	11321.75
260.515	11319.24
260.585	11313.21
260.655	11293.36
260.725	11284.2
260.795	11278.76
260.865	11273.65
260.934	11244.49
261.004	11242.22
261.074	11234.22
261.144	11236.68
261.214	11225.26
261.284	11210.8
261.354	11205.12
261.424	11173.5
261.494	11177.31
261.564	11157.98
261.634	11146.94
261.703	11113.11
261.773	11100.54
261.843	11092.78
261.913	11070.8
261.983	11030.85
262.053	11025.21
262.123	11006.18
262.192	10979.53
262.262	10976.69
