Data from 20250702_urea_0.5M_MAYP1162681_23-14-59-881.txt Node
Date: Wed Jul 02 23:14:59 BST 2025
User: adleo
Spectrometer: MAYP116268
Trigger mode: 0
Integration Time (sec): 1.000000E0
Scans to average: 1
Electric dark correction enabled: true
Nonlinearity correction enabled: true
Boxcar width: 10
XAxis mode: Wavelengths
Number of Pixels in Spectrum: 2068
>>>>>Begin Spectral Data<<<<<
179.565	1222.01
179.642	1283.58
179.718	1326.55
179.795	1363.94
179.871	1398.41
179.948	1417.47
180.024	1439.05
180.101	1461.49
180.177	1477.48
180.254	1500.25
180.33	1522.24
180.407	1579.88
180.483	1677.18
180.56	1770.49
180.636	1855.52
180.712	1843.06
180.789	1851.47
180.865	1866.02
180.942	1873
181.018	1882.7
181.095	1898.77
181.171	1906.19
181.248	1902.72
181.324	1918.27
181.4	1928.35
181.477	1940.33
181.553	1951.02
181.63	1971.66
181.706	1987.55
181.782	1995.91
181.859	1994.39
181.935	1998.95
182.011	1995.44
182.088	2012.98
182.164	2030.87
182.24	2044.9
182.317	2053.55
182.393	2052.41
182.469	2064.97
182.546	2078.9
182.622	2085.61
182.698	2082.47
182.775	2095.59
182.851	2111.53
182.927	2103.92
183.003	2097.4
183.08	2090.55
183.156	2101.68
183.232	2099.02
183.308	2089.17
183.385	2095.69
183.461	2114.81
183.537	2118.38
183.613	2127.84
183.69	2117.14
183.766	2108.24
183.842	2117.52
183.918	2124.99
183.995	2138.59
184.071	2143.35
184.147	2137.07
184.223	2125.37
184.299	2135.55
184.375	2122.9
184.452	2129.18
184.528	2188.15
184.604	2199.99
184.68	2211.46
184.756	2220.31
184.832	2224.54
184.908	2227.92
184.985	2230.35
185.061	2212.89
185.137	2222.74
185.213	2210.18
185.289	2211.75
185.365	2204.09
185.441	2200.62
185.517	2211.33
185.593	2206.62
185.669	2200.24
185.745	2211.9
185.822	2228.5
185.898	2220.79
185.974	2232.53
186.05	2226.87
186.126	2184.84
186.202	2176.8
186.278	2173.42
186.354	2162.38
186.43	2169.9
186.506	2169.48
186.582	2166.57
186.658	2175.75
186.734	2154.25
186.81	2159.2
186.886	2161.81
186.962	2173.61
187.038	2170.23
187.114	2163.43
187.19	2175.09
187.266	2165.53
187.341	2163.67
187.417	2153.92
187.493	2152.3
187.569	2151.78
187.645	2143.5
187.721	2129.99
187.797	2137.6
187.873	2140.6
187.949	2135.41
188.025	2127.42
188.101	2130.6
188.176	2136.36
188.252	2129.89
188.328	2137.12
188.404	2136.97
188.48	2132.31
188.556	2124.89
188.632	2127.17
188.707	2127.51
188.783	2121.56
188.859	2119.99
188.935	2111.62
189.011	2121.42
189.086	2117.56
189.162	2109.52
189.238	2108.91
189.314	2109.62
189.39	2103.67
189.465	2095.92
189.541	2112.05
189.617	2095.97
189.693	2089.5
189.768	2095.31
189.844	2120.34
189.92	2114.78
189.996	2124.86
190.071	2135.56
190.147	2131.85
190.223	2138.66
190.298	2129.95
190.374	2117.96
190.45	2129.66
190.526	2138.18
190.601	2133.37
190.677	2134.61
190.753	2164.03
190.828	2168.02
190.904	2185.01
190.98	2203.85
191.055	2215.32
191.131	2205.14
191.207	2230.06
191.282	2241.38
191.358	2229.02
191.433	2213.88
191.509	2224.48
191.585	2219.92
191.66	2223.01
191.736	2233.86
191.811	2225.77
191.887	2247.76
191.963	2270.36
192.038	2276.16
192.114	2275.83
192.189	2278.07
192.265	2274.45
192.34	2253.65
192.416	2252.03
192.491	2243.7
192.567	2242.94
192.642	2246.75
192.718	2247.41
192.793	2233.42
192.869	2229.33
192.944	2233.09
193.02	2240.32
193.095	2246.84
193.171	2252.07
193.246	2251.79
193.322	2246.36
193.397	2246.74
193.473	2227.56
193.548	2208.29
193.624	2214.33
193.699	2213.24
193.775	2231.04
193.85	2231.51
193.925	2241.75
194.001	2242.65
194.076	2234.71
194.152	2225.62
194.227	2217.86
194.302	2209.77
194.378	2210.68
194.453	2206.68
194.529	2216.72
194.604	2203.87
194.679	2195.22
194.755	2178.81
194.83	2190.37
194.905	2192.32
194.981	2200.46
195.056	2195.89
195.131	2201.08
195.207	2197.98
195.282	2189.09
195.357	2168.77
195.433	2187.42
195.508	2173.05
195.583	2177.8
195.659	2194.84
195.734	2204.5
195.809	2202.12
195.884	2212.16
195.96	2213.92
196.035	2229.19
196.11	2227.43
196.185	2238.71
196.261	2241.09
196.336	2272.44
196.411	2259.92
196.486	2262.68
196.561	2255.98
196.637	2261.83
196.712	2280.06
196.787	2284.15
196.862	2300.57
196.937	2312.8
197.013	2316.61
197.088	2325.93
197.163	2349.31
197.238	2363.55
197.313	2359.03
197.388	2375.07
197.464	2404.78
197.539	2415.25
197.614	2407.11
197.689	2419.73
197.764	2433.49
197.839	2456.25
197.914	2448.91
197.989	2468.62
198.065	2486.14
198.14	2538.93
198.215	2565.46
198.29	2577.99
198.365	2589.03
198.44	2597.13
198.515	2623.47
198.59	2636.81
198.665	2664.96
198.74	2672.44
198.815	2675.87
198.89	2700.07
198.965	2731.24
199.04	2725.9
199.115	2743.62
199.19	2791.3
199.265	2794.69
199.34	2806.17
199.415	2838.64
199.49	2861.03
199.565	2869.98
199.64	2890.29
199.715	2887.28
199.79	2896.38
199.865	2906.82
199.94	2908.11
200.015	2941.62
200.09	2947.15
200.165	2954.92
200.24	2962.31
200.315	3005.26
200.39	3019.7
200.464	3023.52
200.539	3022.37
200.614	3040.06
200.689	3064.95
200.764	3068.57
200.839	3082.68
200.914	3088.78
200.989	3080.14
201.063	3097.65
201.138	3082.35
201.213	3084.74
201.288	3062.42
201.363	3066.33
201.438	3062.28
201.512	3080.68
201.587	3060.65
201.662	3064.08
201.737	3076.01
201.812	3085.69
201.886	3047.7
201.961	3057.91
202.036	3050.24
202.111	3046.28
202.186	3015.93
202.26	2998
202.335	2976.59
202.41	2971.68
202.485	2957
202.559	2935.07
202.634	2903.61
202.709	2910.75
202.784	2892.78
202.858	2893.54
202.933	2877.91
203.008	2871.29
203.082	2849.41
203.157	2850.08
203.232	2806.25
203.306	2786.13
203.381	2749.14
203.456	2730.94
203.53	2705.95
203.605	2685.9
203.68	2664.41
203.754	2658.03
203.829	2641.69
203.904	2625.63
203.978	2614.87
204.053	2616.82
204.127	2606.91
204.202	2606.06
204.277	2591.77
204.351	2583.48
204.426	2575.67
204.5	2563.09
204.575	2528.38
204.65	2537.96
204.724	2528.24
204.799	2539.14
204.873	2535.8
204.948	2535.28
205.022	2522.71
205.097	2516.18
205.171	2528.42
205.246	2535.9
205.32	2536.76
205.395	2532.85
205.469	2520.76
205.544	2523.57
205.618	2505.33
205.693	2515.38
205.767	2503.95
205.842	2525.91
205.916	2518.72
205.991	2509.11
206.065	2517.44
206.14	2533.57
206.214	2529.95
206.289	2526
206.363	2536.28
206.438	2538.14
206.512	2547.76
206.586	2566.43
206.661	2573.67
206.735	2550.35
206.81	2552.16
206.884	2567.16
206.958	2558.25
207.033	2576.44
207.107	2588.69
207.181	2626.18
207.256	2623.75
207.33	2642.47
207.405	2654.63
207.479	2678.21
207.553	2689.78
207.628	2677.78
207.702	2692.16
207.776	2689.07
207.851	2696.69
207.925	2719.14
207.999	2721.66
208.073	2723.04
208.148	2732.15
208.222	2730.53
208.296	2772.29
208.371	2796.47
208.445	2817.44
208.519	2858.42
208.593	2882.53
208.668	2891.45
208.742	2904.23
208.816	2922.39
208.89	2948.38
208.965	2962.31
209.039	2984.34
209.113	3024.69
209.187	3065.76
209.261	3082.88
209.336	3126.47
209.41	3168.64
209.484	3192.26
209.558	3241.83
209.632	3287.01
209.707	3328
209.781	3383.02
209.855	3433.92
209.929	3484.08
210.003	3527.38
210.077	3568.83
210.151	3658.87
210.226	3736.09
210.3	3807.9
210.374	3875.95
210.448	3935.35
210.522	4000.65
210.596	4071.39
210.67	4134.74
210.744	4239.28
210.818	4336.9
210.892	4414.58
210.966	4477.37
211.041	4563.44
211.115	4630.32
211.189	4722.88
211.263	4816.79
211.337	4897.17
211.411	4989.12
211.485	5063.9
211.559	5161.02
211.633	5243.91
211.707	5298.03
211.781	5392.45
211.855	5447.95
211.929	5529.56
212.003	5604.84
212.077	5708.63
212.151	5813.25
212.225	5922
212.299	6009.88
212.373	6099.56
212.447	6201.26
212.52	6335.99
212.594	6444.11
212.668	6564.66
212.742	6664.64
212.816	6761.7
212.89	6865.3
212.964	6979.71
213.038	7100.47
213.112	7221.29
213.186	7355.21
213.26	7446.84
213.333	7518.56
213.407	7641.5
213.481	7765.37
213.555	7896.27
213.629	8000.93
213.703	8103.92
213.777	8218.95
213.85	8322.59
213.924	8477.01
213.998	8602.57
214.072	8712.85
214.146	8819.13
214.219	8933.21
214.293	9050.66
214.367	9176.16
214.441	9301.05
214.515	9404.96
214.588	9497.71
214.662	9584.15
214.736	9679.16
214.81	9809.99
214.883	9934.13
214.957	10037.25
215.031	10140.7
215.105	10234.92
215.178	10338.3
215.252	10443.13
215.326	10533.13
215.4	10621.44
215.473	10680.47
215.547	10772.41
215.621	10869.9
215.694	10981.17
215.768	11063.96
215.842	11153.88
215.915	11245.4
215.989	11332.25
216.063	11424.74
216.136	11530.77
216.21	11638.82
216.284	11756.18
216.357	11856.15
216.431	11959.1
216.504	12069
216.578	12190.03
216.652	12298.43
216.725	12397.54
216.799	12508.79
216.873	12605.82
216.946	12713.17
217.02	12812.91
217.093	12903.15
217.167	12974.1
217.24	13053.89
217.314	13145.76
217.387	13229.21
217.461	13314.77
217.535	13415.43
217.608	13493.86
217.682	13584.34
217.755	13673.04
217.829	13745.88
217.902	13837.04
217.976	13918.51
218.049	13995.54
218.123	14064.28
218.196	14159.53
218.27	14238.59
218.343	14305.36
218.417	14396.42
218.49	14471.81
218.563	14559.2
218.637	14647.46
218.71	14755.78
218.784	14837.63
218.857	14923.96
218.931	15010.92
219.004	15088.34
219.077	15169.89
219.151	15252.56
219.224	15322.17
219.298	15402.52
219.371	15488.27
219.444	15541.58
219.518	15607.38
219.591	15683.92
219.665	15781.62
219.738	15841.77
219.811	15903.52
219.885	15986.71
219.958	16064.16
220.031	16142.49
220.105	16210.2
220.178	16269.73
220.251	16324.19
220.325	16401.69
220.398	16481.65
220.471	16556.26
220.544	16631.11
220.618	16691.16
220.691	16765.77
220.764	16833.24
220.838	16891.94
220.911	16946.74
220.984	17033.83
221.057	17103.52
221.131	17170.31
221.204	17198.7
221.277	17281.64
221.35	17370.27
221.424	17415.09
221.497	17467.76
221.57	17515.72
221.643	17582.66
221.716	17653.69
221.79	17701.74
221.863	17754.31
221.936	17797.35
222.009	17853.4
222.082	17906.65
222.155	17957.25
222.229	18017.73
222.302	18071.51
222.375	18129.29
222.448	18188.81
222.521	18237.91
222.594	18290.2
222.667	18326.58
222.74	18386.1
222.814	18426.43
222.887	18459.69
222.96	18514.77
223.033	18563.1
223.106	18612.5
223.179	18657.99
223.252	18687.38
223.325	18736.25
223.398	18774.37
223.471	18826.32
223.544	18864.67
223.617	18912.29
223.69	18948.77
223.763	18975.51
223.837	19026.98
223.91	19064.18
223.983	19078.83
224.056	19097.67
224.129	19131.65
224.202	19177.96
224.275	19215.35
224.348	19231.16
224.42	19259.3
224.493	19278.38
224.566	19308.31
224.639	19348.74
224.712	19372.88
224.785	19407.24
224.858	19434.52
224.931	19458.57
225.004	19471.58
225.077	19491.77
225.15	19484.25
225.223	19508.68
225.296	19559.19
225.369	19554.32
225.442	19568.25
225.514	19608.29
225.587	19648.24
225.66	19684.39
225.733	19711.42
225.806	19730.94
225.879	19755.95
225.952	19764.19
226.025	19797.25
226.097	19839.51
226.17	19856.96
226.243	19852.52
226.316	19870.11
226.389	19894.88
226.461	19926.21
226.534	19958.35
226.607	19980.61
226.68	20028.95
226.753	20056.13
226.825	20050.88
226.898	20091.98
226.971	20115.55
227.044	20127.89
227.117	20138.05
227.189	20150.01
227.262	20174.1
227.335	20197.04
227.407	20223.31
227.48	20259.98
227.553	20283.98
227.626	20281.81
227.698	20303.79
227.771	20338.97
227.844	20348.07
227.916	20364.65
227.989	20366.19
228.062	20372.7
228.134	20415.35
228.207	20427.83
228.28	20436.7
228.352	20453.23
228.425	20462.58
228.498	20490.29
228.57	20503.06
228.643	20531.64
228.716	20550.24
228.788	20560.9
228.861	20563.4
228.934	20579.79
229.006	20586.05
229.079	20602.82
229.151	20607.84
229.224	20595.59
229.296	20612.9
229.369	20650.92
229.442	20673.91
229.514	20669.43
229.587	20686.68
229.659	20667.65
229.732	20678.78
229.804	20698.01
229.877	20730.39
229.949	20757.29
230.022	20782.78
230.094	20793.68
230.167	20795.12
230.239	20791.8
230.312	20796.95
230.384	20831.75
230.457	20834.26
230.529	20846.88
230.602	20848.81
230.674	20870.64
230.747	20899.32
230.819	20914.74
230.892	20890.31
230.964	20905.1
231.037	20923.95
231.109	20933.3
231.181	20943.27
231.254	20939.46
231.326	20941.54
231.399	20933.54
231.471	20916.14
231.544	20892.38
231.616	20911.51
231.688	20917.97
231.761	20909.77
231.833	20901.29
231.905	20872.91
231.978	20879.94
232.05	20872.86
232.122	20868.42
232.195	20855.07
232.267	20870.25
232.339	20862.25
232.412	20883.65
232.484	20860.81
232.556	20848.66
232.629	20864.23
232.701	20869.63
232.773	20877.58
232.846	20864.76
232.918	20865.19
232.99	20867.51
233.062	20882.74
233.135	20872.86
233.207	20857.48
233.279	20862.74
233.351	20867.65
233.424	20859.51
233.496	20843.7
233.568	20856.95
233.64	20835.84
233.713	20824.37
233.785	20800.61
233.857	20794.16
233.929	20770.59
234.001	20789.1
234.074	20802.93
234.146	20766.06
234.218	20747.84
234.29	20721.72
234.362	20702.15
234.434	20667.98
234.507	20646.68
234.579	20604.03
234.651	20577.62
234.723	20573.81
234.795	20572.8
234.867	20558.34
234.939	20560.66
235.012	20555.5
235.084	20545.81
235.156	20546.44
235.228	20530.97
235.3	20517.91
235.372	20507.26
235.444	20495.88
235.516	20453.76
235.588	20437.66
235.66	20427.45
235.732	20412.8
235.804	20460.99
235.876	20459.79
235.948	20463.5
236.02	20438.92
236.092	20418.63
236.164	20404.66
236.236	20373.19
236.308	20345.19
236.38	20327.36
236.452	20294.83
236.524	20270.01
236.596	20256.32
236.668	20239.79
236.74	20223.21
236.812	20199.89
236.884	20177
236.956	20160.66
237.028	20120.32
237.1	20093.29
237.172	20084.61
237.244	20076.23
237.316	20015.07
237.388	19983.99
237.46	19941.39
237.532	19942.93
237.604	19918.88
237.675	19908.52
237.747	19900.23
237.819	19872.96
237.891	19841.2
237.963	19815.42
238.035	19796.43
238.107	19734.26
238.178	19716.87
238.25	19689.93
238.322	19692.19
238.394	19644.73
238.466	19606.94
238.538	19596.58
238.609	19574.56
238.681	19523.38
238.753	19487.34
238.825	19466.13
238.897	19444.11
238.968	19441.56
239.04	19400.11
239.112	19404.64
239.184	19363.54
239.255	19328.02
239.327	19301.95
239.399	19278.58
239.471	19268.36
239.542	19244.27
239.614	19239.88
239.686	19182.44
239.758	19165.28
239.829	19118.63
239.901	19106.2
239.973	19082.83
240.044	19054.78
240.116	19018.26
240.188	18990.06
240.259	18957.63
240.331	18904.48
240.403	18877.45
240.474	18827.95
240.546	18794.37
240.618	18744.3
240.689	18714.66
240.761	18686.66
240.833	18673.31
240.904	18642.23
240.976	18600.55
241.048	18560.31
241.119	18528.26
241.191	18513.9
241.262	18498.29
241.334	18460.84
241.405	18422.1
241.477	18388.61
241.549	18350.97
241.62	18325.33
241.692	18308.9
241.763	18295.79
241.835	18264.9
241.906	18230.25
241.978	18189.43
242.049	18164.28
242.121	18142.45
242.192	18117.29
242.264	18075.85
242.335	18021.34
242.407	17998.07
242.478	17954.5
242.55	17927.85
242.621	17889.16
242.693	17847.52
242.764	17807.42
242.836	17776.53
242.907	17757.84
242.979	17732.1
243.05	17709.93
243.122	17689.6
243.193	17650.8
243.264	17586.46
243.336	17559.57
243.407	17540.73
243.479	17533.12
243.55	17513.02
243.622	17481.5
243.693	17449.16
243.764	17437.89
243.836	17403.57
243.907	17363.86
243.978	17346.51
244.05	17323.96
244.121	17275.62
244.192	17261.6
244.264	17213.02
244.335	17180.63
244.407	17130.36
244.478	17099.81
244.549	17064.82
244.62	17008.58
244.692	16976
244.763	16962.94
244.834	16924.77
244.906	16882.84
244.977	16851.32
245.048	16832.86
245.119	16782.88
245.191	16743.36
245.262	16682.97
245.333	16666.78
245.405	16636.51
245.476	16607.59
245.547	16572.31
245.618	16553.42
245.689	16517.03
245.761	16487.2
245.832	16447.78
245.903	16425.17
245.974	16406.37
246.045	16373.31
246.117	16366.08
246.188	16323.43
246.259	16270.75
246.33	16237.83
246.401	16209
246.473	16164.57
246.544	16117.86
246.615	16105.48
246.686	16066.92
246.757	16050.43
246.828	15998.71
246.899	15983.1
246.97	15931.91
247.042	15889.21
247.113	15866.31
247.184	15851.18
247.255	15805.72
247.326	15780.32
247.397	15751.5
247.468	15709.76
247.539	15676.65
247.61	15621.89
247.681	15602.08
247.752	15593.5
247.823	15554.94
247.894	15518.5
247.965	15471.4
248.037	15437.23
248.108	15389.75
248.179	15362.81
248.25	15336.1
248.321	15313.54
248.392	15269.54
248.463	15259.13
248.534	15236.23
248.605	15209.33
248.675	15177.71
248.746	15158.87
248.817	15136.93
248.888	15103.87
248.959	15053.59
249.03	15032.43
249.101	15010.98
249.172	14971.74
249.243	14916.89
249.314	14902.33
249.385	14880.97
249.456	14858.37
249.527	14829.88
249.598	14806.11
249.669	14777.19
249.739	14749.95
249.81	14726.24
249.881	14677.21
249.952	14650.36
250.023	14610.98
250.094	14565.09
250.165	14527.15
250.235	14500.93
250.306	14472.01
250.377	14443.57
250.448	14424.09
250.519	14377.28
250.59	14366.78
250.66	14343.83
250.731	14336.55
250.802	14309.89
250.873	14282.51
250.944	14264.92
251.014	14224.14
251.085	14226.16
251.156	14207.84
251.227	14189.28
251.297	14187.55
251.368	14177.76
251.439	14164.02
251.51	14160.5
251.58	14131.77
251.651	14107.24
251.722	14097.5
251.792	14058.31
251.863	14025.09
251.934	14022.1
252.005	14023.89
252.075	14000.85
252.146	13982.86
252.217	13965.12
252.287	13954.42
252.358	13930.75
252.429	13928.78
252.499	13897.06
252.57	13866.45
252.641	13850.68
252.711	13829.95
252.782	13784.4
252.852	13782.18
252.923	13752.2
252.994	13727.66
253.064	13716.33
253.135	13671.84
253.205	13635.78
253.276	13624.11
253.347	13618.42
253.417	13578.51
253.488	13550.31
253.558	13514.2
253.629	13495.3
253.699	13481.66
253.77	13460.5
253.841	13435.53
253.911	13408.68
253.982	13397.16
254.052	13390.26
254.123	13362.06
254.193	13337.23
254.264	13357.67
254.334	13322.34
254.405	13294.67
254.475	13258.95
254.546	13236.34
254.616	13233.35
254.687	13209.78
254.757	13197.05
254.827	13172.75
254.898	13157.76
254.968	13134.72
255.039	13110.91
255.109	13089.26
255.18	13053.73
255.25	13009
255.321	12991.02
255.391	12957.8
255.461	12961.95
255.532	12914.18
255.602	12895.42
255.673	12852.43
255.743	12811.59
255.813	12766.67
255.884	12752.59
255.954	12737.07
256.024	12726.32
256.095	12700.19
256.165	12672.62
256.235	12653.29
256.306	12623.74
256.376	12613.95
256.446	12606.1
256.517	12594.53
256.587	12592.84
256.657	12574.47
256.728	12556.54
256.798	12532.39
256.868	12504.67
256.938	12465.92
257.009	12453.72
257.079	12443.12
257.149	12451.89
257.219	12407.78
257.29	12393.42
257.36	12354.28
257.43	12348.06
257.5	12318.51
257.571	12298.89
257.641	12292
257.711	12267.66
257.781	12256.67
257.852	12238.49
257.922	12196.7
257.992	12170.67
258.062	12142.28
258.132	12140.45
258.202	12118.85
258.273	12102.08
258.343	12101.45
258.413	12078.32
258.483	12052.91
258.553	12021.68
258.623	11985.67
258.693	11979.45
258.764	11980.71
258.834	11976.13
258.904	11954.1
258.974	11925.28
259.044	11904.74
259.114	11889.99
259.184	11864.5
259.254	11841.75
259.324	11798.9
259.394	11788
259.464	11788.73
259.535	11775.37
259.605	11740.86
259.675	11722.16
259.745	11706.69
259.815	11675.12
259.885	11650.64
259.955	11661.67
260.025	11630.88
260.095	11614.39
260.165	11602.2
260.235	11596.27
260.305	11570.49
260.375	11533.47
260.445	11533.18
260.515	11532.6
260.585	11524.36
260.655	11515.78
260.725	11507.92
260.795	11506.29
260.865	11507.01
260.934	11475.44
261.004	11459.25
261.074	11448.16
261.144	11445.46
261.214	11436.98
261.284	11419.15
261.354	11419.15
261.424	11388.59
261.494	11393.26
261.564	11375.33
261.634	11360.06
261.703	11325.31
261.773	11310.18
261.843	11305.55
261.913	11287.09
261.983	11248.54
262.053	11230.08
262.123	11208.78
262.192	11178.13
