Data from 20250702_urea_0.5M_MAYP1162681_02-05-00-042.txt Node
Date: Thu Jul 03 02:05:00 BST 2025
User: adleo
Spectrometer: MAYP116268
Trigger mode: 0
Integration Time (sec): 1.000000E0
Scans to average: 1
Electric dark correction enabled: true
Nonlinearity correction enabled: true
Boxcar width: 10
XAxis mode: Wavelengths
Number of Pixels in Spectrum: 2068
>>>>>Begin Spectral Data<<<<<
179.565	1191.07
179.642	1249.23
179.718	1290.54
179.795	1328.23
179.871	1362.42
179.948	1379.3
180.024	1397.07
180.101	1418.58
180.177	1431.52
180.254	1453.95
180.33	1475.33
180.407	1528.98
180.483	1624.8
180.56	1717.07
180.636	1799.63
180.712	1785.93
180.789	1796.2
180.865	1809.41
180.942	1817.63
181.018	1830.32
181.095	1844.44
181.171	1847.01
181.248	1845.39
181.324	1859.47
181.4	1869.92
181.477	1879.96
181.553	1893.79
181.63	1916.94
181.706	1932.44
181.782	1940.66
181.859	1940.61
181.935	1947.7
182.011	1943.7
182.088	1959.25
182.164	1978.28
182.24	1993.64
182.317	2003.05
182.393	1999.44
182.469	2013.13
182.546	2028.4
182.622	2032.63
182.698	2028.58
182.775	2040.19
182.851	2057.07
182.927	2049.41
183.003	2042.85
183.08	2036.72
183.156	2046.66
183.232	2042.19
183.308	2031.34
183.385	2040.9
183.461	2057.64
183.537	2056.26
183.613	2069.15
183.69	2061.02
183.766	2046.55
183.842	2051.31
183.918	2054.26
183.995	2069.86
184.071	2073.66
184.147	2067.38
184.223	2056.88
184.299	2065.44
184.375	2056.59
184.452	2062.21
184.528	2118.02
184.604	2128.38
184.68	2139.08
184.756	2144.41
184.832	2149.26
184.908	2155.78
184.985	2156.16
185.061	2140.7
185.137	2150.79
185.213	2141.04
185.289	2141.84
185.365	2137.37
185.441	2139.32
185.517	2153.88
185.593	2149.27
185.669	2144.56
185.745	2156.03
185.822	2172.52
185.898	2167.43
185.974	2176.18
186.05	2169
186.126	2131.41
186.202	2124.94
186.278	2124.47
186.354	2117.85
186.43	2124.23
186.506	2122.28
186.582	2122.04
186.658	2128.84
186.734	2110.39
186.81	2112.62
186.886	2114.1
186.962	2126.04
187.038	2119.04
187.114	2112.24
187.19	2121.04
187.266	2113.38
187.341	2116.19
187.417	2108.68
187.493	2109.82
187.569	2113.53
187.645	2105.06
187.721	2092.22
187.797	2097.35
187.873	2099.54
187.949	2091.65
188.025	2086.75
188.101	2088.32
188.176	2091.31
188.252	2085.61
188.328	2092.64
188.404	2089.88
188.48	2086.65
188.556	2081.75
188.632	2083.03
188.707	2083.46
188.783	2080.56
188.859	2074.48
188.935	2062.53
189.011	2069.33
189.086	2060.68
189.162	2053.35
189.238	2053.54
189.314	2051.78
189.39	2049.64
189.465	2043.94
189.541	2060.54
189.617	2041.8
189.693	2036.14
189.768	2041.57
189.844	2065.54
189.92	2059.27
189.996	2067.88
190.071	2077.87
190.147	2076.34
190.223	2083.86
190.298	2076.25
190.374	2061.79
190.45	2074.2
190.526	2081.24
190.601	2078.62
190.677	2081.19
190.753	2110.32
190.828	2112.65
190.904	2128.97
190.98	2141
191.055	2149.76
191.131	2142.19
191.207	2166.54
191.282	2176.86
191.358	2165.11
191.433	2152.12
191.509	2160.4
191.585	2160.73
191.66	2160.44
191.736	2166.67
191.811	2160.06
191.887	2177
191.963	2200.84
192.038	2206.93
192.114	2207.45
192.189	2209.92
192.265	2206.4
192.34	2180.41
192.416	2182.17
192.491	2175.99
192.567	2179.22
192.642	2180.27
192.718	2178.8
192.793	2165.71
192.869	2163.1
192.944	2166.52
193.02	2176.42
193.095	2182.17
193.171	2186.08
193.246	2187.31
193.322	2183.74
193.397	2184.32
193.473	2166.85
193.548	2147.53
193.624	2151.53
193.699	2150.63
193.775	2165.76
193.85	2167.66
193.925	2178.13
194.001	2173.28
194.076	2166.86
194.152	2156.72
194.227	2149.82
194.302	2139.36
194.378	2143.79
194.453	2142.69
194.529	2155.58
194.604	2137.41
194.679	2133.08
194.755	2111.44
194.83	2124.11
194.905	2120.73
194.981	2129.24
195.056	2124.3
195.131	2132.53
195.207	2132.15
195.282	2120.78
195.357	2103.31
195.433	2117.2
195.508	2107.02
195.583	2114.77
195.659	2130.33
195.734	2139.85
195.809	2139.66
195.884	2151.31
195.96	2151.03
196.035	2163.4
196.11	2158.64
196.185	2171.72
196.261	2176.05
196.336	2212.58
196.411	2199.73
196.486	2208.72
196.561	2201.4
196.637	2210.67
196.712	2227.95
196.787	2231.04
196.862	2245.6
196.937	2254.07
197.013	2260.78
197.088	2269.77
197.163	2292.29
197.238	2311.34
197.313	2306.49
197.388	2321.43
197.464	2350.95
197.539	2363.7
197.614	2357.8
197.689	2372.6
197.764	2391.31
197.839	2410.64
197.914	2400.45
197.989	2419.64
198.065	2431.44
198.14	2481.46
198.215	2508.02
198.29	2515.46
198.365	2527.98
198.44	2538.17
198.515	2566.6
198.59	2581.98
198.665	2608.22
198.74	2618.32
198.815	2616.56
198.89	2642.47
198.965	2673.06
199.04	2669.96
199.115	2685.68
199.19	2728.02
199.265	2727.64
199.34	2735.02
199.415	2770.16
199.49	2795.55
199.565	2808.46
199.64	2831.61
199.715	2829.47
199.79	2835
199.865	2845.48
199.94	2843.43
200.015	2878.75
200.09	2883.8
200.165	2891.24
200.24	2896.38
200.315	2936.03
200.39	2947.52
200.464	2956.96
200.539	2957.43
200.614	2974.35
200.689	2998.86
200.764	3005.78
200.839	3025.69
200.914	3032.27
200.989	3020.01
201.063	3035.79
201.138	3017.21
201.213	3019.79
201.288	2997.05
201.363	3006.16
201.438	3007.4
201.512	3024.22
201.587	3005.86
201.662	3007.96
201.737	3017.73
201.812	3027.08
201.886	2989.1
201.961	3004.12
202.036	2989.11
202.111	2986.16
202.186	2956.62
202.26	2936.11
202.335	2914.56
202.41	2907.65
202.485	2890.26
202.559	2871.29
202.634	2838.88
202.709	2850.02
202.784	2829.2
202.858	2832.1
202.933	2808.23
203.008	2798.79
203.082	2778.78
203.157	2776.4
203.232	2734.87
203.306	2715.85
203.381	2683.16
203.456	2664.91
203.53	2638.5
203.605	2619.74
203.68	2596.48
203.754	2585.96
203.829	2571.86
203.904	2552.91
203.978	2543.95
204.053	2545.43
204.127	2531.95
204.202	2533.52
204.277	2513.81
204.351	2507.48
204.426	2499.19
204.5	2493.62
204.575	2463.29
204.65	2473.39
204.724	2466.72
204.799	2477.85
204.873	2474.28
204.948	2476.23
205.022	2463.48
205.097	2457.28
205.171	2467.52
205.246	2475.09
205.32	2476.9
205.395	2479.28
205.469	2469.1
205.544	2473.86
205.618	2458.05
205.693	2468.29
205.767	2455.29
205.842	2476.01
205.916	2469.15
205.991	2461.54
206.065	2466.54
206.14	2478.67
206.214	2475.43
206.289	2470.14
206.363	2483.24
206.438	2485.76
206.512	2490
206.586	2508.81
206.661	2516.76
206.735	2496.35
206.81	2501.78
206.884	2519.63
206.958	2504.97
207.033	2524.72
207.107	2528.87
207.181	2559.54
207.256	2557.87
207.33	2578.01
207.405	2591.12
207.479	2612.98
207.553	2621.51
207.628	2610.41
207.702	2625.37
207.776	2623.56
207.851	2630.84
207.925	2646
207.999	2648.48
208.073	2652.95
208.148	2660.1
208.222	2654.52
208.296	2696.86
208.371	2713.78
208.445	2732.08
208.519	2772.91
208.593	2791.64
208.668	2800.17
208.742	2816.14
208.816	2827.1
208.89	2854.9
208.965	2870.35
209.039	2892.95
209.113	2924.41
209.187	2961.81
209.261	2973.92
209.336	3012.01
209.41	3049.83
209.484	3073.11
209.558	3116.66
209.632	3155.34
209.707	3193.88
209.781	3242.39
209.855	3286.92
209.929	3334.34
210.003	3370.47
210.077	3399.73
210.151	3485.39
210.226	3554.88
210.3	3622.74
210.374	3688.89
210.448	3737.53
210.522	3790.42
210.596	3844.31
210.67	3899.34
210.744	3994.56
210.818	4078.63
210.892	4154.7
210.966	4203.5
211.041	4277.04
211.115	4330.59
211.189	4414.34
211.263	4488.72
211.337	4561.14
211.411	4636.72
211.485	4698.62
211.559	4780.45
211.633	4853.07
211.707	4887.37
211.781	4970.55
211.855	5007.2
211.929	5075.86
212.003	5133.6
212.077	5221.74
212.151	5317.35
212.225	5410.6
212.299	5482.35
212.373	5557.7
212.447	5632.57
212.52	5746.45
212.594	5832.98
212.668	5935.33
212.742	6009.55
212.816	6101.2
212.89	6180.84
212.964	6273.59
213.038	6369.8
213.112	6482.02
213.186	6598.25
213.26	6677.97
213.333	6727.39
213.407	6830.18
213.481	6930.16
213.555	7036.67
213.629	7124.13
213.703	7203.23
213.777	7302.97
213.85	7382.13
213.924	7515.07
213.998	7618.25
214.072	7716.75
214.146	7813.7
214.219	7914.41
214.293	8010.2
214.367	8112.86
214.441	8230.85
214.515	8326.41
214.588	8407.68
214.662	8468.02
214.736	8548.53
214.81	8657.83
214.883	8768.4
214.957	8861.33
215.031	8948.82
215.105	9024.95
215.178	9109.63
215.252	9201.29
215.326	9283.38
215.4	9356.12
215.473	9401.58
215.547	9477.48
215.621	9559.7
215.694	9656.65
215.768	9726.06
215.842	9811.98
215.915	9884.43
215.989	9948.64
216.063	10021.43
216.136	10109.54
216.21	10197.88
216.284	10291.58
216.357	10381.77
216.431	10463.77
216.504	10560.18
216.578	10670.33
216.652	10769.05
216.725	10859.25
216.799	10954.38
216.873	11033.99
216.946	11133.92
217.02	11213.19
217.093	11297.05
217.167	11359.17
217.24	11423.22
217.314	11505.59
217.387	11572.72
217.461	11649.79
217.535	11746.71
217.608	11822.43
217.682	11899.79
217.755	11990.46
217.829	12061.75
217.902	12138.39
217.976	12215.37
218.049	12275.71
218.123	12334.43
218.196	12416.28
218.27	12478.7
218.343	12542.04
218.417	12625.39
218.49	12699.53
218.563	12799.41
218.637	12868.72
218.71	12961.33
218.784	13044.58
218.857	13126.38
218.931	13219.66
219.004	13295.49
219.077	13377.2
219.151	13444.54
219.224	13512.18
219.298	13583.18
219.371	13667.35
219.444	13722.45
219.518	13795.05
219.591	13867.84
219.665	13962.52
219.738	14039.12
219.811	14105.5
219.885	14186.1
219.958	14249.92
220.031	14310.76
220.105	14373.95
220.178	14447.27
220.251	14505.27
220.325	14567.93
220.398	14632.77
220.471	14686.18
220.544	14756.99
220.618	14801.58
220.691	14874.85
220.764	14943.3
220.838	15008.85
220.911	15058.12
220.984	15147.63
221.057	15215.16
221.131	15283.9
221.204	15313.64
221.277	15388.59
221.35	15479.64
221.424	15530.35
221.497	15596.1
221.57	15659.14
221.643	15722.19
221.716	15792.8
221.79	15841.68
221.863	15902.55
221.936	15953.36
222.009	16015.58
222.082	16081.42
222.155	16130
222.229	16201.58
222.302	16265.49
222.375	16316.87
222.448	16381.93
222.521	16431.29
222.594	16481.41
222.667	16521.18
222.74	16584.27
222.814	16622.92
222.887	16664.66
222.96	16721.72
223.033	16773.14
223.106	16821.29
223.179	16871.7
223.252	16909.01
223.325	16963.13
223.398	17000.05
223.471	17042.36
223.544	17093.21
223.617	17128.44
223.69	17177.21
223.763	17210.13
223.837	17250.95
223.91	17295.81
223.983	17317.02
224.056	17351.14
224.129	17399.28
224.202	17446.47
224.275	17485.07
224.348	17516.1
224.42	17539.96
224.493	17563.14
224.566	17592.68
224.639	17630.27
224.712	17659.09
224.785	17699.23
224.858	17725.11
224.931	17767.09
225.004	17796.63
225.077	17827.14
225.15	17835.57
225.223	17868.92
225.296	17918.02
225.369	17932.48
225.442	17960.96
225.514	17993.73
225.587	18025.15
225.66	18057.54
225.733	18095.56
225.806	18128.04
225.879	18159.41
225.952	18184.86
226.025	18230.16
226.097	18283.6
226.17	18308.22
226.243	18314.44
226.316	18332.13
226.389	18371.79
226.461	18402.34
226.534	18433.9
226.607	18452.02
226.68	18507.97
226.753	18540.69
226.825	18543.39
226.898	18587.97
226.971	18615.15
227.044	18645.17
227.117	18665.02
227.189	18696.15
227.262	18727.57
227.335	18750.08
227.407	18764.97
227.48	18787.19
227.553	18810.94
227.626	18824.68
227.698	18856.87
227.771	18893.69
227.844	18912.96
227.916	18934.21
227.989	18934.89
228.062	18955.51
228.134	18998.64
228.207	19017.39
228.28	19028.42
228.352	19051.65
228.425	19071.89
228.498	19105.72
228.57	19122.78
228.643	19157.23
228.716	19164.13
228.788	19179.16
228.861	19193.38
228.934	19230.68
229.006	19255.54
229.079	19269.47
229.151	19272.22
229.224	19270.96
229.296	19287.44
229.369	19337.46
229.442	19370.09
229.514	19386.71
229.587	19422.81
229.659	19417.7
229.732	19436.25
229.804	19467.58
229.877	19512.25
229.949	19537.89
230.022	19561.89
230.094	19572.87
230.167	19581.69
230.239	19588.63
230.312	19599.57
230.384	19632.82
230.457	19649.06
230.529	19657.45
230.602	19672
230.674	19686.99
230.747	19721.01
230.819	19745.39
230.892	19710.12
230.964	19725.44
231.037	19741.78
231.109	19740.62
231.181	19769.83
231.254	19766.74
231.326	19764.04
231.399	19754.41
231.471	19754.65
231.544	19736.43
231.616	19761.3
231.688	19779.32
231.761	19782.45
231.833	19787.66
231.905	19777.39
231.978	19779.61
232.05	19783.99
232.122	19789.97
232.195	19796.04
232.267	19804.38
232.339	19812.28
232.412	19840.43
232.484	19836.81
232.556	19849.82
232.629	19878.88
232.701	19878.11
232.773	19882.79
232.846	19875.94
232.918	19869.58
232.99	19869.15
233.062	19879.27
233.135	19878.5
233.207	19859.27
233.279	19874.01
233.351	19875.65
233.424	19872.38
233.496	19859.32
233.568	19875.7
233.64	19863.32
233.713	19848.91
233.785	19846.93
233.857	19834.26
233.929	19821.63
234.001	19829.44
234.074	19822.69
234.146	19789.73
234.218	19783.32
234.29	19776.09
234.362	19772.53
234.434	19755.37
234.507	19744
234.579	19723.56
234.651	19712.62
234.723	19713.4
234.795	19703.66
234.867	19689.49
234.939	19696.63
235.012	19695.95
235.084	19697.16
235.156	19695.85
235.228	19691.13
235.3	19682.51
235.372	19675.95
235.444	19669.88
235.516	19634.8
235.588	19630.46
235.66	19621.45
235.732	19597.93
235.804	19639.38
235.876	19639.13
235.948	19647.57
236.02	19639.66
236.092	19628.29
236.164	19610.32
236.236	19597.74
236.308	19571.48
236.38	19568.05
236.452	19539.86
236.524	19522.56
236.596	19517.89
236.668	19504.2
236.74	19483.53
236.812	19468.64
236.884	19460.3
236.956	19444.06
237.028	19415.87
237.1	19388.26
237.172	19386.33
237.244	19391.49
237.316	19337.56
237.388	19308.65
237.46	19282.62
237.532	19266.91
237.604	19233.71
237.675	19229.9
237.747	19213.38
237.819	19187.69
237.891	19162.25
237.963	19137.24
238.035	19108.71
238.107	19041
238.178	19041.19
238.25	19021.1
238.322	19012.14
238.394	18966.79
238.466	18945.44
238.538	18933.44
238.609	18923.95
238.681	18876.77
238.753	18838.65
238.825	18814.89
238.897	18789.64
238.968	18783.14
239.04	18743.43
239.112	18756.25
239.184	18716.15
239.255	18688.78
239.327	18678.42
239.399	18656.45
239.471	18632.45
239.542	18619.24
239.614	18627.34
239.686	18561.32
239.758	18549.95
239.829	18515.39
239.901	18508.21
239.973	18488.75
240.044	18464.02
240.116	18431.3
240.188	18406.39
240.259	18383.4
240.331	18350.58
240.403	18333.81
240.474	18283.79
240.546	18256.37
240.618	18196.37
240.689	18166.88
240.761	18143.12
240.833	18128.62
240.904	18097.29
240.976	18070.89
241.048	18037.63
241.119	17995.42
241.191	17973.83
241.262	17957.4
241.334	17921.01
241.405	17884.87
241.477	17848.87
241.549	17813.26
241.62	17782.17
241.692	17762.08
241.763	17746.99
241.835	17719.67
241.906	17695.81
241.978	17663.77
242.049	17652.44
242.121	17639.81
242.192	17623.77
242.264	17571.43
242.335	17525.94
242.407	17504.06
242.478	17475
242.55	17445.65
242.621	17417.79
242.693	17386.75
242.764	17341.12
242.836	17307.24
242.907	17281.12
242.979	17238.8
243.05	17218.51
243.122	17188
243.193	17153.4
243.264	17094.89
243.336	17054.36
243.407	17024.96
243.479	17008.77
243.55	16974.36
243.622	16947.08
243.693	16915.52
243.764	16912.82
243.836	16874.84
243.907	16833.2
243.978	16799.32
244.05	16772.33
244.121	16722.49
244.192	16708.52
244.264	16664.71
244.335	16635.21
244.407	16588.17
244.478	16570.96
244.549	16534.43
244.62	16486.14
244.692	16458.52
244.763	16440.88
244.834	16415.82
244.906	16383.91
244.977	16353.4
245.048	16334.61
245.119	16295.76
245.191	16246.99
245.262	16186.5
245.333	16164.61
245.405	16135.65
245.476	16118.25
245.547	16091.16
245.618	16068.84
245.689	16031.39
245.761	16013.9
245.832	15981.17
245.903	15968.93
245.974	15937.65
246.045	15905.21
246.117	15898.08
246.188	15860.19
246.259	15813
246.33	15774.49
246.401	15735.69
246.473	15685.75
246.544	15647.92
246.615	15623.43
246.686	15594.13
246.757	15572.63
246.828	15526.31
246.899	15507.46
246.97	15451.5
247.042	15416.6
247.113	15398.48
247.184	15388.55
247.255	15352.78
247.326	15326.99
247.397	15284.48
247.468	15255.46
247.539	15230.3
247.61	15188.27
247.681	15163.11
247.752	15147.49
247.823	15118.09
247.894	15096.54
247.965	15064.34
248.037	15025.25
248.108	14984.85
248.179	14955.01
248.25	14934.43
248.321	14921.46
248.392	14885.6
248.463	14878.95
248.534	14847.71
248.605	14821.83
248.675	14790.16
248.746	14766.68
248.817	14740.75
248.888	14726.39
248.959	14686.57
249.03	14666.23
249.101	14640.97
249.172	14608.62
249.243	14557.72
249.314	14543.59
249.385	14507.05
249.456	14487.05
249.527	14466.61
249.598	14449.4
249.669	14426.21
249.739	14404.13
249.81	14378.39
249.881	14338.53
249.952	14312.4
250.023	14275.76
250.094	14235.75
250.165	14197.86
250.235	14160.89
250.306	14137.41
250.377	14095.81
250.448	14079.04
250.519	14023.7
250.59	14014.2
250.66	13982.72
250.731	13978.09
250.802	13943.62
250.873	13926.08
250.944	13896.77
251.014	13850.73
251.085	13840.08
251.156	13823.49
251.227	13808.94
251.297	13794.23
251.368	13782.81
251.439	13764.88
251.51	13752.53
251.58	13723.9
251.651	13689.38
251.722	13685.53
251.792	13641.47
251.863	13612.88
251.934	13599.05
252.005	13608.93
252.075	13578.56
252.146	13563.81
252.217	13555.37
252.287	13543.03
252.358	13515.21
252.429	13517.91
252.499	13501.67
252.57	13476.5
252.641	13460.55
252.711	13437.55
252.782	13405.88
252.852	13397.69
252.923	13368.52
252.994	13356.71
253.064	13341.67
253.135	13307.93
253.205	13273.12
253.276	13271.63
253.347	13263.72
253.417	13234.31
253.488	13203.7
253.558	13172.18
253.629	13151.25
253.699	13124.98
253.77	13106.76
253.841	13090.08
253.911	13064.24
253.982	13040.62
254.052	13031.17
254.123	13002.83
254.193	12974.72
254.264	12988.9
254.334	12952.6
254.405	12921.41
254.475	12878.02
254.546	12858.31
254.616	12858.35
254.687	12839.65
254.757	12823.36
254.827	12794.63
254.898	12776.55
254.968	12753.36
255.039	12727.81
255.109	12719.04
255.18	12693.16
255.25	12642.88
255.321	12627.45
255.391	12596.84
255.461	12594.14
255.532	12541.07
255.602	12521.88
255.673	12480.43
255.743	12444.9
255.813	12395.49
255.884	12395.35
255.954	12389.66
256.024	12384.65
256.095	12362.47
256.165	12323.52
256.235	12301.4
256.306	12277.01
256.376	12269.01
256.446	12265.3
256.517	12255.08
256.587	12241.34
256.657	12224.47
256.728	12217.86
256.798	12190.53
256.868	12162.62
256.938	12132.83
257.009	12123.48
257.079	12107.67
257.149	12116.01
257.219	12073.45
257.29	12066.99
257.36	12019.99
257.43	12007.94
257.5	11965.04
257.571	11942.82
257.641	11941.62
257.711	11909.18
257.781	11903.11
257.852	11882.52
257.922	11835.24
257.992	11815.19
258.062	11789.21
258.132	11774.89
258.202	11755.56
258.273	11739.8
258.343	11741.15
258.413	11723.03
258.483	11704.33
258.553	11672.37
258.623	11640.99
258.693	11630.25
258.764	11634.39
258.834	11633.43
258.904	11618.58
258.974	11594.24
259.044	11570.53
259.114	11554.48
259.184	11540.36
259.254	11518.38
259.324	11474.19
259.394	11460.02
259.464	11456.98
259.535	11439.39
259.605	11412.78
259.675	11384.3
259.745	11368.83
259.815	11333.94
259.885	11304.78
259.955	11320.16
260.025	11298.76
260.095	11280.35
260.165	11269.99
260.235	11264.3
260.305	11237.89
260.375	11205.07
260.445	11216.06
260.515	11219.04
260.585	11215.86
260.655	11204.15
260.725	11193.69
260.795	11188.39
260.865	11199.72
260.934	11176.01
261.004	11168.44
261.074	11152.83
261.144	11151.43
261.214	11148.01
261.284	11132.78
261.354	11130.85
261.424	11096.58
261.494	11094.75
261.564	11076.39
261.634	11060.35
261.703	11021.07
261.773	11013.46
261.843	11004.25
261.913	10981.89
261.983	10938.62
262.053	10923.05
262.123	10904.65
262.192	10875.01
262.262	10869.13
