Data from 20250702_urea_0.5M_MAYP1162681_00-04-59-611.txt Node
Date: Thu Jul 03 00:04:59 BST 2025
User: adleo
Spectrometer: MAYP116268
Trigger mode: 0
Integration Time (sec): 1.000000E0
Scans to average: 1
Electric dark correction enabled: true
Nonlinearity correction enabled: true
Boxcar width: 10
XAxis mode: Wavelengths
Number of Pixels in Spectrum: 2068
>>>>>Begin Spectral Data<<<<<
179.565	1228.74
179.642	1286.48
179.718	1326.2
179.795	1363.31
179.871	1395.87
179.948	1413.64
180.024	1432.95
180.101	1454.44
180.177	1469.58
180.254	1493.33
180.33	1518.1
180.407	1574.03
180.483	1668.33
180.56	1761.5
180.636	1844.35
180.712	1835.03
180.789	1842.83
180.865	1854.94
180.942	1865.07
181.018	1875.86
181.095	1886.13
181.171	1887.79
181.248	1887.27
181.324	1904.05
181.4	1915.47
181.477	1927.35
181.553	1940.66
181.63	1964.77
181.706	1980.94
181.782	1989.68
181.859	1987.64
181.935	1992.49
182.011	1986.35
182.088	2004.57
182.164	2019.89
182.24	2037.24
182.317	2045.32
182.393	2041.04
182.469	2056.26
182.546	2070.96
182.622	2074
182.698	2071.96
182.775	2087.41
182.851	2105.16
182.927	2099.45
183.003	2091.17
183.08	2086.75
183.156	2094.41
183.232	2086.84
183.308	2077.33
183.385	2083.61
183.461	2102.63
183.537	2101.02
183.613	2117.24
183.69	2109.72
183.766	2101.49
183.842	2105.87
183.918	2112.1
183.995	2129.41
184.071	2132.5
184.147	2127.17
184.223	2118.24
184.299	2129.94
184.375	2116.86
184.452	2120.57
184.528	2178.11
184.604	2188.91
184.68	2201.52
184.756	2211.08
184.832	2218.93
184.908	2222.35
184.985	2222.26
185.061	2207.13
185.137	2217.93
185.213	2205.61
185.289	2206.75
185.365	2199.47
185.441	2199.28
185.517	2210.99
185.593	2204.38
185.669	2200
185.745	2207.8
185.822	2225.97
185.898	2219.12
185.974	2229.3
186.05	2221.97
186.126	2181.65
186.202	2178.89
186.278	2170.9
186.354	2162.71
186.43	2167.19
186.506	2165.43
186.582	2164.19
186.658	2168.04
186.734	2144.45
186.81	2145.6
186.886	2147.17
186.962	2161.91
187.038	2158.72
187.114	2151.78
187.19	2162.77
187.266	2153.44
187.341	2153.63
187.417	2143.55
187.493	2142.74
187.569	2147.5
187.645	2140.36
187.721	2125.42
187.797	2130.42
187.873	2135.94
187.949	2129.99
188.025	2122.19
188.101	2127.08
188.176	2134.03
188.252	2132.08
188.328	2143.11
188.404	2142.92
188.48	2137.74
188.556	2129.22
188.632	2130.88
188.707	2129.41
188.783	2124.46
188.859	2119.42
188.935	2109.95
189.011	2119.8
189.086	2113.19
189.162	2103.91
189.238	2102.53
189.314	2100.11
189.39	2093.83
189.465	2086.64
189.541	2103.11
189.617	2091.69
189.693	2085.6
189.768	2088.7
189.844	2114.06
189.92	2104.79
189.996	2116.35
190.071	2130.38
190.147	2128.86
190.223	2135.52
190.298	2129.86
190.374	2115.83
190.45	2127.91
190.526	2135.04
190.601	2127.43
190.677	2131
190.753	2157.23
190.828	2158.08
190.904	2173.83
190.98	2188.48
191.055	2197.62
191.131	2187.05
191.207	2206.46
191.282	2218.78
191.358	2209.03
191.433	2193.66
191.509	2207.49
191.585	2201.74
191.66	2202.97
191.736	2209.49
191.811	2202.92
191.887	2220.2
191.963	2245.28
192.038	2251.08
192.114	2252.79
192.189	2256.98
192.265	2251.37
192.34	2231.09
192.416	2230.14
192.491	2225.47
192.567	2228.66
192.642	2235.61
192.718	2236.09
192.793	2225.43
192.869	2220
192.944	2221.95
193.02	2228.52
193.095	2233.37
193.171	2239.75
193.246	2238.51
193.322	2236.47
193.397	2238.04
193.473	2221.47
193.548	2203.49
193.624	2207.24
193.699	2204.44
193.775	2222.24
193.85	2222.71
193.925	2228.85
194.001	2229.9
194.076	2224.95
194.152	2215.19
194.227	2205.39
194.302	2195.26
194.378	2197.64
194.453	2195.83
194.529	2207.96
194.604	2193.69
194.679	2185.7
194.755	2168.15
194.83	2176.81
194.905	2177.33
194.981	2182.38
195.056	2175.72
195.131	2181.14
195.207	2184.33
195.282	2174.05
195.357	2153.59
195.433	2170.29
195.508	2159.58
195.583	2169.14
195.659	2181.85
195.734	2187.75
195.809	2186.18
195.884	2196.93
195.96	2197.83
196.035	2209.06
196.11	2205.92
196.185	2216.39
196.261	2222.1
196.336	2251.74
196.411	2239.51
196.486	2243.46
196.561	2237.7
196.637	2246.4
196.712	2264.83
196.787	2266.73
196.862	2287.1
196.937	2297.37
197.013	2302.23
197.088	2310.41
197.163	2332.03
197.238	2349.99
197.313	2353.18
197.388	2370.36
197.464	2399.21
197.539	2414.4
197.614	2411.54
197.689	2424.68
197.764	2440.92
197.839	2458.34
197.914	2454
197.989	2475.33
198.065	2490.62
198.14	2542.5
198.215	2570.12
198.29	2579.31
198.365	2590.84
198.44	2597.36
198.515	2628.47
198.59	2644.47
198.665	2671.38
198.74	2679.24
198.815	2678.05
198.89	2697.58
198.965	2724.17
199.04	2721.22
199.115	2731.7
199.19	2773.14
199.265	2777.95
199.34	2784.2
199.415	2818.09
199.49	2840.96
199.565	2852.87
199.64	2876.17
199.715	2875.17
199.79	2881.94
199.865	2889.85
199.94	2888.8
200.015	2917.35
200.09	2917.16
200.165	2924.12
200.24	2931.8
200.315	2968.72
200.39	2984.55
200.464	2992.32
200.539	2995.09
200.614	3012.87
200.689	3033.37
200.764	3039.9
200.839	3055.49
200.914	3067.83
200.989	3060.25
201.063	3072.74
201.138	3055.97
201.213	3052.54
201.288	3032.22
201.363	3039.33
201.438	3038.13
201.512	3053.29
201.587	3040.46
201.662	3049.28
201.737	3062.11
201.812	3071.65
201.886	3039.78
201.961	3049.08
202.036	3035.92
202.111	3030.25
202.186	2996.66
202.26	2984.4
202.335	2963.47
202.41	2957.32
202.485	2938.02
202.559	2917.09
202.634	2891.59
202.709	2901.98
202.784	2884.82
202.858	2882.44
202.933	2858.75
203.008	2853.94
203.082	2835.54
203.157	2835.69
203.232	2790.09
203.306	2768.16
203.381	2737.09
203.456	2716.69
203.53	2696.33
203.605	2676.95
203.68	2657.51
203.754	2652.75
203.829	2639.5
203.904	2618.68
203.978	2606.82
204.053	2609.16
204.127	2597.3
204.202	2594.68
204.277	2575.77
204.351	2570.01
204.426	2563
204.5	2557.38
204.575	2521.3
204.65	2530.3
204.724	2522.44
204.799	2531.29
204.873	2528.52
204.948	2525.95
205.022	2511.62
205.097	2501.9
205.171	2515.09
205.246	2522.43
205.32	2523.05
205.395	2520.9
205.469	2511.96
205.544	2517.96
205.618	2504.67
205.693	2518.25
205.767	2504.72
205.842	2527.68
205.916	2522.87
205.991	2510.73
206.065	2516.35
206.14	2535.15
206.214	2531.96
206.289	2528.33
206.363	2543
206.438	2547.05
206.512	2553.86
206.586	2575.57
206.661	2584.96
206.735	2563.73
206.81	2565.73
206.884	2580.97
206.958	2569.11
207.033	2589.01
207.107	2598.07
207.181	2633.42
207.256	2626.75
207.33	2650.23
207.405	2663.63
207.479	2685.69
207.553	2699.21
207.628	2685.98
207.702	2699.22
207.776	2696.79
207.851	2700.5
207.925	2719.57
207.999	2719.67
208.073	2722.62
208.148	2731.72
208.222	2725.91
208.296	2766.24
208.371	2787.94
208.445	2806.34
208.519	2840.59
208.593	2862.09
208.668	2869.81
208.742	2879.16
208.816	2893.88
208.89	2921.64
208.965	2935.48
209.039	2955.89
209.113	2988.5
209.187	3028.62
209.261	3042.82
209.336	3083.88
209.41	3127.29
209.484	3148.62
209.558	3197.76
209.632	3241.64
209.707	3283.87
209.781	3335.4
209.855	3381.8
209.929	3434.35
210.003	3477.93
210.077	3521.33
210.151	3605.33
210.226	3677.18
210.3	3751.99
210.374	3821.8
210.448	3872.84
210.522	3930.29
210.596	3989.59
210.67	4053.39
210.744	4160.07
210.818	4253.22
210.892	4334.44
210.966	4390.48
211.041	4471.94
211.115	4529.24
211.189	4619.77
211.263	4702.52
211.337	4783.54
211.411	4872.27
211.485	4945.61
211.559	5038.69
211.633	5117.87
211.707	5170.68
211.781	5265.17
211.855	5310.5
211.929	5393.68
212.003	5458.3
212.077	5556.74
212.151	5665.2
212.225	5768.15
212.299	5847.2
212.373	5927.53
212.447	6013.85
212.52	6143.7
212.594	6247.09
212.668	6364.67
212.742	6451.89
212.816	6551.09
212.89	6647.45
212.964	6751.55
213.038	6857.29
213.112	6978.67
213.186	7098.99
213.26	7190.02
213.333	7260.96
213.407	7381.76
213.481	7493.49
213.555	7621.98
213.629	7720.41
213.703	7819.43
213.777	7930.58
213.85	8025.58
213.924	8174.51
213.998	8290.84
214.072	8390.31
214.146	8490.4
214.219	8601.9
214.293	8710.55
214.367	8826.98
214.441	8949.67
214.515	9053.56
214.588	9142.92
214.662	9215.09
214.736	9309.84
214.81	9423.2
214.883	9529.07
214.957	9628.46
215.031	9717.35
215.105	9796.8
215.178	9890.09
215.252	10000.55
215.326	10083.83
215.4	10172.46
215.473	10231.82
215.547	10320.08
215.621	10408.4
215.694	10519.08
215.768	10591.59
215.842	10681.21
215.915	10763.85
215.989	10837.53
216.063	10921.43
216.136	11021.52
216.21	11118.23
216.284	11230.67
216.357	11329.89
216.431	11424.98
216.504	11521.37
216.578	11645.04
216.652	11754.97
216.725	11854.64
216.799	11945.74
216.873	12037.23
216.946	12133.43
217.02	12219.23
217.093	12303.92
217.167	12376.85
217.24	12451.62
217.314	12541.51
217.387	12624.76
217.461	12707.24
217.535	12806.68
217.608	12881.5
217.682	12959.21
217.755	13048.29
217.829	13117.47
217.902	13195.32
217.976	13284.16
218.049	13363.56
218.123	13428.2
218.196	13519.17
218.27	13591.91
218.343	13658.24
218.417	13745.59
218.49	13824.94
218.563	13911.85
218.637	13998.62
218.71	14102.65
218.784	14182.09
218.857	14270.31
218.931	14353.85
219.004	14434.16
219.077	14514.18
219.151	14595.36
219.224	14670.7
219.298	14745.42
219.371	14829.24
219.444	14896.88
219.518	14962.77
219.591	15032.13
219.665	15125.74
219.738	15193.23
219.811	15252.18
219.885	15328.48
219.958	15393.31
220.031	15456.36
220.105	15536.62
220.178	15600.05
220.251	15652.15
220.325	15728.21
220.398	15791.89
220.471	15862.02
220.544	15937.83
220.618	15998.51
220.691	16063.34
220.764	16132.46
220.838	16204.47
220.911	16262.26
220.984	16344.19
221.057	16410.85
221.131	16479.34
221.204	16514.47
221.277	16600.45
221.35	16702.1
221.424	16753.72
221.497	16826.97
221.57	16893.2
221.643	16955.42
221.716	17026.31
221.79	17083.61
221.863	17131.61
221.936	17188.15
222.009	17231.76
222.082	17284.58
222.155	17332.92
222.229	17410.17
222.302	17469.69
222.375	17518.8
222.448	17570.41
222.521	17613.31
222.594	17662.94
222.667	17702.27
222.74	17764.49
222.814	17793.74
222.887	17832.34
222.96	17891.04
223.033	17936.62
223.106	17987.71
223.179	18031.56
223.252	18069.34
223.325	18117.15
223.398	18158.35
223.471	18207.84
223.544	18251.7
223.617	18288.18
223.69	18333.19
223.763	18357.62
223.837	18395.93
223.91	18441.47
223.983	18465.71
224.056	18488.26
224.129	18527.97
224.202	18566.72
224.275	18589.51
224.348	18612.45
224.42	18624.35
224.493	18642.09
224.566	18664.21
224.639	18694.61
224.712	18717.31
224.785	18752.78
224.858	18770.66
224.931	18794.17
225.004	18808.29
225.077	18842.51
225.15	18853.06
225.223	18879.47
225.296	18932.53
225.369	18945.3
225.442	18961.49
225.514	18993.68
225.587	19033.29
225.66	19068.71
225.733	19110.68
225.806	19140.99
225.879	19170.58
225.952	19190.24
226.025	19226
226.097	19264.79
226.17	19295.68
226.243	19307.3
226.316	19323.3
226.389	19351.1
226.461	19386.38
226.534	19415.87
226.607	19441.8
226.68	19490.18
226.753	19513.94
226.825	19505.41
226.898	19536.1
226.971	19556.2
227.044	19590.56
227.117	19616.92
227.189	19638.32
227.262	19658.8
227.335	19685.4
227.407	19704.19
227.48	19740.29
227.553	19766.65
227.626	19773.97
227.698	19787.22
227.771	19808.52
227.844	19819.85
227.916	19847.9
227.989	19842.64
228.062	19857.87
228.134	19893.34
228.207	19895.99
228.28	19898.78
228.352	19915.89
228.425	19928.18
228.498	19957.96
228.57	19949.77
228.643	19972.04
228.716	19982.78
228.788	19988.18
228.861	19996.03
228.934	20024.23
229.006	20026.49
229.079	20023.41
229.151	20032.85
229.224	20020.23
229.296	20041.29
229.369	20073.91
229.442	20094.15
229.514	20108.66
229.587	20134.73
229.659	20126.83
229.732	20143.12
229.804	20170.1
229.877	20204.46
229.949	20231.31
230.022	20253.14
230.094	20270.58
230.167	20279.35
230.239	20273.52
230.312	20278.05
230.384	20304.75
230.457	20310.15
230.529	20322
230.602	20341.62
230.674	20356.51
230.747	20392.51
230.819	20404.7
230.892	20380.12
230.964	20385.81
231.037	20402.24
231.109	20402.1
231.181	20417.47
231.254	20414.24
231.326	20414.53
231.399	20407.45
231.471	20405.86
231.544	20389.86
231.616	20412.03
231.688	20422.63
231.761	20426.53
231.833	20432.94
231.905	20420.6
231.978	20421.86
232.05	20426.63
232.122	20434.82
232.195	20435.54
232.267	20447.79
232.339	20450.29
232.412	20470.34
232.484	20470.15
232.556	20472.8
232.629	20497.67
232.701	20506.58
232.773	20513.09
232.846	20507.11
232.918	20509.18
232.99	20506.1
233.062	20511.93
233.135	20507.06
233.207	20489.18
233.279	20496.89
233.351	20500.32
233.424	20485.04
233.496	20465.38
233.568	20474.87
233.64	20444.85
233.713	20428.41
233.785	20409.33
233.857	20395.45
233.929	20370.24
234.001	20370.49
234.074	20370.29
234.146	20333.71
234.218	20314.44
234.29	20297.52
234.362	20283.02
234.434	20260.12
234.507	20242.68
234.579	20214.82
234.651	20198.05
234.723	20192.8
234.795	20188.32
234.867	20160.85
234.939	20166.44
235.012	20163.02
235.084	20157.43
235.156	20154.78
235.228	20142.2
235.3	20123.5
235.372	20113.09
235.444	20116.46
235.516	20082.78
235.588	20067.02
235.66	20054.35
235.732	20030.44
235.804	20075.5
235.876	20074.3
235.948	20073.72
236.02	20060.08
236.092	20051.02
236.164	20033.19
236.236	20003.51
236.308	19976.57
236.38	19961.63
236.452	19934.16
236.524	19919.03
236.596	19902.45
236.668	19894.98
236.74	19865.92
236.812	19858.6
236.884	19840.24
236.956	19820.28
237.028	19798.21
237.1	19764.77
237.172	19764.38
237.244	19761.73
237.316	19701.88
237.388	19662.07
237.46	19626.51
237.532	19614.41
237.604	19571.62
237.675	19555.72
237.747	19540.63
237.819	19507.62
237.891	19489.22
237.963	19452.83
238.035	19416.5
238.107	19358.62
238.178	19346.19
238.25	19329.47
238.322	19315.3
238.394	19280.22
238.466	19252.12
238.538	19229.18
238.609	19205.86
238.681	19155.26
238.753	19119.41
238.825	19095.17
238.897	19072.28
238.968	19064.23
239.04	19026.54
239.112	19030.59
239.184	18995.7
239.255	18970.02
239.327	18945.73
239.399	18923.03
239.471	18912.24
239.542	18894.55
239.614	18886.65
239.686	18832.34
239.758	18819.71
239.829	18769.69
239.901	18752.39
239.973	18723.62
240.044	18700.01
240.116	18674.37
240.188	18641.94
240.259	18608.64
240.331	18563.87
240.403	18546.81
240.474	18496.46
240.546	18455.54
240.618	18408.94
240.689	18376.51
240.761	18349.09
240.833	18337.19
240.904	18296.95
240.976	18265.53
241.048	18236.47
241.119	18217.92
241.191	18190.88
241.262	18171.17
241.334	18152.81
241.405	18124.43
241.477	18090.93
241.549	18053.34
241.62	18019.71
241.692	18000.14
241.763	17982.94
241.835	17953.25
241.906	17920.53
241.978	17880.19
242.049	17872.05
242.121	17857.93
242.192	17842.99
242.264	17794.85
242.335	17742.08
242.407	17724.77
242.478	17684.97
242.55	17660.97
242.621	17619.67
242.693	17589.64
242.764	17554.08
242.836	17516.92
242.907	17486.51
242.979	17460.78
243.05	17436.15
243.122	17421.98
243.193	17382.95
243.264	17328.25
243.336	17298.46
243.407	17266.08
243.479	17256.92
243.55	17224.01
243.622	17189.11
243.693	17154.22
243.764	17142.41
243.836	17103.62
243.907	17062.8
243.978	17028.39
244.05	17000.14
244.121	16942.16
244.192	16912.14
244.264	16863.51
244.335	16832.09
244.407	16791.46
244.478	16764.66
244.549	16730.16
244.62	16677.91
244.692	16646.2
244.763	16626.92
244.834	16585.37
244.906	16553.57
244.977	16516.07
245.048	16495.54
245.119	16457.08
245.191	16407
245.262	16346.32
245.333	16341.69
245.405	16320.44
245.476	16290.65
245.547	16259.32
245.618	16247.61
245.689	16216.04
245.761	16196.96
245.832	16158.11
245.903	16128.27
245.974	16099.02
246.045	16063.35
246.117	16047.3
246.188	16001.27
246.259	15956.15
246.33	15924.54
246.401	15894.03
246.473	15849.63
246.544	15807.07
246.615	15779.46
246.686	15747.93
246.757	15739.88
246.828	15691.01
246.899	15673.42
246.97	15637.02
247.042	15599.38
247.113	15577.26
247.184	15565.78
247.255	15517.34
247.326	15492.76
247.397	15460.13
247.468	15428.85
247.539	15406.05
247.61	15354.04
247.681	15341.17
247.752	15326.8
247.823	15290.84
247.894	15267.32
247.965	15231.22
248.037	15191.69
248.108	15145.9
248.179	15119.72
248.25	15091.38
248.321	15072
248.392	15026.98
248.463	15018.98
248.534	14986.83
248.605	14962.97
248.675	14932.22
248.746	14910.48
248.817	14888.06
248.888	14863.62
248.959	14814.5
249.03	14787.56
249.101	14766.73
249.172	14729.66
249.243	14669.55
249.314	14663.19
249.385	14628.62
249.456	14608.14
249.527	14588.52
249.598	14576.18
249.669	14547.3
249.739	14516.98
249.81	14493.27
249.881	14447.18
249.952	14416.62
250.023	14383.74
250.094	14338.62
250.165	14302.04
250.235	14280.2
250.306	14255.66
250.377	14217.92
250.448	14201.86
250.519	14153.08
250.59	14146.14
250.66	14121.79
250.731	14126.62
250.802	14099.57
250.873	14069.73
250.944	14051.56
251.014	14013.28
251.085	14005.38
251.156	13989.13
251.227	13981.9
251.297	13973.51
251.368	13971.34
251.439	13950.37
251.51	13942.18
251.58	13907.18
251.651	13876.33
251.722	13862.01
251.792	13821.42
251.863	13795.97
251.934	13783.58
252.005	13792.06
252.075	13762.8
252.146	13743.38
252.217	13724.24
252.287	13706.55
252.358	13684.61
252.429	13678.44
252.499	13653.76
252.57	13625.66
252.641	13611.77
252.711	13582.03
252.782	13538.84
252.852	13527.65
252.923	13501.81
252.994	13480.89
253.064	13467.87
253.135	13431.29
253.205	13395.9
253.276	13389.73
253.347	13380.14
253.417	13347.5
253.488	13314.63
253.558	13285.12
253.629	13261.12
253.699	13245.88
253.77	13226.6
253.841	13209.78
253.911	13186.11
253.982	13162.82
254.052	13150.24
254.123	13127.34
254.193	13107.97
254.264	13113.22
254.334	13077.31
254.405	13048.19
254.475	13009.05
254.546	12988.94
254.616	12987.64
254.687	12971.49
254.757	12944.31
254.827	12921.07
254.898	12907.43
254.968	12883.86
255.039	12853.49
255.109	12849.39
255.18	12815.98
255.25	12771.68
255.321	12757.27
255.391	12721.4
255.461	12723.76
255.532	12679.66
255.602	12648.52
255.673	12605.85
255.743	12576.02
255.813	12529.74
255.884	12523.47
255.954	12513.35
256.024	12511.86
256.095	12494.94
256.165	12466.25
256.235	12461.92
256.306	12430.97
256.376	12415.79
256.446	12399.49
256.517	12389.37
256.587	12373.56
256.657	12353.89
256.728	12337.94
256.798	12312.48
256.868	12285.73
256.938	12255.6
257.009	12246.3
257.079	12235.89
257.149	12241.1
257.219	12207.21
257.29	12193.47
257.36	12156.84
257.43	12147.05
257.5	12101.02
257.571	12072.63
257.641	12059.08
257.711	12020.62
257.781	12018.93
257.852	11999.51
257.922	11961.04
257.992	11946.15
258.062	11929.08
258.132	11919.59
258.202	11896.98
258.273	11874.38
258.343	11874.23
258.413	11849.89
258.483	11827.29
258.553	11796.34
258.623	11769.2
258.693	11755.03
258.764	11757.44
258.834	11753.49
258.904	11731.99
258.974	11707.32
259.044	11683.22
259.114	11660.81
259.184	11648.95
259.254	11623.12
259.324	11585.33
259.394	11577.95
259.464	11571.83
259.535	11545.52
259.605	11524.02
259.675	11500.45
259.745	11495.05
259.815	11465.22
259.885	11440.06
259.955	11452.02
260.025	11424.55
260.095	11403.53
260.165	11386.62
260.235	11383.72
260.305	11354.76
260.375	11323.87
260.445	11336.83
260.515	11340.64
260.585	11339.43
260.655	11319.05
260.725	11313.75
260.795	11309.5
260.865	11314.13
260.934	11285.84
261.004	11274.23
261.074	11255.24
261.144	11257.69
261.214	11253.16
261.284	11241.07
261.354	11235.82
261.424	11198.22
261.494	11205.98
261.564	11182.85
261.634	11171.43
261.703	11133.79
261.773	11126.75
261.843	11120.05
261.913	11098.66
261.983	11059.67
262.053	11052.73
262.123	11038.71
262.192	11006.76
