Data from 20250702_urea_0.5M_MAYP1162681_14-25-00-414.txt Node
Date: Wed Jul 02 14:25:00 BST 2025
User: adleo
Spectrometer: MAYP116268
Trigger mode: 0
Integration Time (sec): 1.000000E0
Scans to average: 1
Electric dark correction enabled: true
Nonlinearity correction enabled: true
Boxcar width: 10
XAxis mode: Wavelengths
Number of Pixels in Spectrum: 2068
>>>>>Begin Spectral Data<<<<<
179.565	1104.66
179.642	1156.77
179.718	1194.57
179.795	1228.82
179.871	1259.57
179.948	1274.82
180.024	1289.92
180.101	1312.2
180.177	1326.37
180.254	1348.94
180.33	1369.18
180.407	1414.08
180.483	1502.97
180.56	1587.01
180.636	1664.15
180.712	1652.94
180.789	1663.77
180.865	1675.64
180.942	1683.34
181.018	1691.94
181.095	1703.73
181.171	1710.9
181.248	1710.04
181.324	1724.97
181.4	1731.72
181.477	1740.98
181.553	1753.76
181.63	1774.53
181.706	1788.88
181.782	1797
181.859	1794.68
181.935	1799.67
182.011	1798.67
182.088	1815.69
182.164	1830.09
182.24	1842.4
182.317	1847.77
182.393	1843.21
182.469	1859.37
182.546	1873.3
182.622	1879.52
182.698	1874.72
182.775	1884.18
182.851	1898.87
182.927	1892.26
183.003	1889.6
183.08	1886.6
183.156	1896.06
183.232	1896.35
183.308	1885.84
183.385	1891.5
183.461	1909.28
183.537	1911.99
183.613	1925.02
183.69	1914.41
183.766	1907.47
183.842	1915.6
183.918	1923.21
183.995	1936.9
184.071	1939.18
184.147	1935.8
184.223	1925.87
184.299	1938.9
184.375	1928.35
184.452	1933.82
184.528	1987.42
184.604	1996.45
184.68	2004.67
184.756	2010.81
184.832	2013.33
184.908	2016.94
184.985	2016.94
185.061	2001.2
185.137	2007.86
185.213	1994.83
185.289	1995.97
185.365	1988.22
185.441	1985.7
185.517	1996.64
185.593	1993.27
185.669	1990.6
185.745	1999.64
185.822	2013.38
185.898	2004.34
185.974	2011.33
186.05	2006.14
186.126	1966.57
186.202	1958.2
186.278	1956.68
186.354	1949.31
186.43	1954.83
186.506	1954.16
186.582	1952.45
186.658	1962.15
186.734	1944.13
186.81	1945.51
186.886	1949.22
186.962	1960.77
187.038	1958.2
187.114	1952.26
187.19	1963.53
187.266	1954.55
187.341	1952.93
187.417	1948.36
187.493	1951.69
187.569	1957.4
187.645	1948.51
187.721	1938.38
187.797	1948.46
187.873	1951.45
187.949	1945.46
188.025	1939.33
188.101	1941.51
188.176	1948.07
188.252	1940.09
188.328	1946.65
188.404	1948.12
188.48	1945.41
188.556	1941.22
188.632	1940.32
188.707	1939.89
188.783	1934.33
188.859	1929.24
188.935	1919.69
189.011	1928.48
189.086	1920.4
189.162	1910.04
189.238	1908.32
189.314	1906.99
189.39	1901.72
189.465	1894.63
189.541	1911.56
189.617	1894.83
189.693	1889.93
189.768	1892.22
189.844	1916.95
189.92	1912.29
189.996	1920.37
190.071	1927.79
190.147	1924.8
190.223	1933.55
190.298	1927.79
190.374	1916.43
190.45	1929.17
190.526	1936.68
190.601	1928.83
190.677	1929.4
190.753	1955.23
190.828	1960.27
190.904	1972.02
190.98	1987.09
191.055	1996.17
191.131	1983.29
191.207	2007.39
191.282	2018.23
191.358	2011.9
191.433	1995.73
191.509	2004.95
191.585	2001.34
191.66	2000.91
191.736	2007.85
191.811	2001.24
191.887	2018.74
191.963	2038.72
192.038	2042.57
192.114	2041.57
192.189	2046.71
192.265	2043.9
192.34	2024.44
192.416	2022.35
192.491	2021.02
192.567	2022.88
192.642	2025.44
192.718	2029.49
192.793	2017.6
192.869	2011.51
192.944	2012.37
193.02	2019.31
193.095	2023.68
193.171	2029.25
193.246	2030.77
193.322	2027.92
193.397	2025.11
193.473	2009.7
193.548	1993.34
193.624	1998.9
193.699	1997.81
193.775	2013.03
193.85	2014.7
193.925	2023.02
194.001	2023.73
194.076	2015.55
194.152	2004.57
194.227	2000.33
194.302	1988.78
194.378	1990.73
194.453	1989.88
194.529	2000.91
194.604	1988.16
194.679	1986.02
194.755	1968.34
194.83	1980.14
194.905	1979.71
194.981	1989.65
195.056	1983.52
195.131	1989.7
195.207	1989.89
195.282	1981.81
195.357	1961.64
195.433	1977.38
195.508	1966.34
195.583	1972.43
195.659	1983.8
195.734	1991.83
195.809	1990.69
195.884	2003.05
195.96	2004.43
196.035	2017.6
196.11	2014.51
196.185	2028.97
196.261	2029.3
196.336	2059.4
196.411	2046.37
196.486	2050.12
196.561	2046.18
196.637	2051.41
196.712	2065.54
196.787	2065.77
196.862	2080.94
196.937	2091.07
197.013	2095.78
197.088	2106.24
197.163	2128.32
197.238	2148.46
197.313	2147.55
197.388	2159.02
197.464	2185.62
197.539	2197.46
197.614	2190.57
197.689	2201.08
197.764	2212.08
197.839	2231.87
197.914	2223.92
197.989	2244.72
198.065	2256.7
198.14	2301.51
198.215	2329.68
198.29	2340.73
198.365	2354.91
198.44	2365.43
198.515	2392.51
198.59	2406.89
198.665	2429.93
198.74	2434.69
198.815	2433.98
198.89	2455.3
198.965	2486.4
199.04	2484.5
199.115	2498.16
199.19	2539.82
199.265	2542.96
199.34	2551.29
199.415	2583.16
199.49	2603.97
199.565	2614.92
199.64	2639.83
199.715	2637.45
199.79	2643.02
199.865	2650.02
199.94	2648.35
200.015	2675.41
200.09	2678.08
200.165	2687.65
200.24	2694.52
200.315	2735.19
200.39	2749.29
200.464	2754.72
200.539	2752
200.614	2767.06
200.689	2789.64
200.764	2796.41
200.839	2814.22
200.914	2821.22
200.989	2810.55
201.063	2826.56
201.138	2809.6
201.213	2807.56
201.288	2790.12
201.363	2796.69
201.438	2797.03
201.512	2810.79
201.587	2798.4
201.662	2802.64
201.737	2811.36
201.812	2818.03
201.886	2787.13
201.961	2796.62
202.036	2785.14
202.111	2785.23
202.186	2756.57
202.26	2735.98
202.335	2714.96
202.41	2710.77
202.485	2694.29
202.559	2677
202.634	2651.61
202.709	2657.23
202.784	2641.65
202.858	2642.41
202.933	2623.93
203.008	2620.41
203.082	2601.22
203.157	2597.98
203.232	2558.7
203.306	2537.55
203.381	2508.64
203.456	2486.68
203.53	2462.57
203.605	2445.53
203.68	2421.05
203.754	2413.54
203.829	2403.16
203.904	2385.5
203.978	2373.31
204.053	2378.45
204.127	2365.98
204.202	2364.88
204.277	2350.89
204.351	2344.13
204.426	2338.08
204.5	2331.89
204.575	2295.3
204.65	2306.87
204.724	2301.54
204.799	2307.91
204.873	2305.48
204.948	2307.43
205.022	2294.97
205.097	2290.59
205.171	2303.15
205.246	2310.81
205.32	2310.96
205.395	2310.86
205.469	2304.63
205.544	2307.34
205.618	2291.3
205.693	2303.39
205.767	2292.73
205.842	2311.54
205.916	2304.92
205.991	2295.45
206.065	2298.64
206.14	2313.38
206.214	2311.38
206.289	2304.67
206.363	2317.23
206.438	2315.99
206.512	2323.61
206.586	2346.22
206.661	2352.74
206.735	2333.57
206.81	2336.38
206.884	2351.13
206.958	2341.18
207.033	2354.41
207.107	2368.03
207.181	2401.03
207.256	2396.27
207.33	2416.5
207.405	2434.13
207.479	2456.6
207.553	2463.31
207.628	2453.41
207.702	2472.59
207.776	2469.5
207.851	2480.31
207.925	2505.27
207.999	2517.51
208.073	2522.18
208.148	2533.94
208.222	2537.32
208.296	2582.41
208.371	2615.44
208.445	2640.88
208.519	2688.9
208.593	2720.53
208.668	2735.74
208.742	2761.11
208.816	2787.59
208.89	2829.22
208.965	2858.27
209.039	2898.81
209.113	2957.69
209.187	3016.39
209.261	3051.24
209.336	3115.29
209.41	3177.65
209.484	3225.85
209.558	3293.96
209.632	3363.81
209.707	3429.87
209.781	3509.74
209.855	3589.32
209.929	3668.76
210.003	3746.85
210.077	3820.63
210.151	3939.79
210.226	4049.56
210.3	4163.68
210.374	4279.37
210.448	4375.09
210.522	4476.68
210.596	4584.69
210.67	4693.68
210.744	4848.25
210.818	4992.01
210.892	5121.44
210.966	5235
211.041	5372.58
211.115	5495.98
211.189	5644.84
211.263	5795.21
211.337	5934.66
211.411	6082.68
211.485	6221.02
211.559	6379.47
211.633	6530.16
211.707	6658.31
211.781	6828.15
211.855	6949.22
211.929	7098.37
212.003	7246.43
212.077	7422.69
212.151	7600.08
212.225	7778.6
212.299	7930.81
212.373	8095.73
212.447	8270.12
212.52	8481.43
212.594	8665.27
212.668	8858.14
212.742	9019.14
212.816	9196.97
212.89	9378.99
212.964	9565.49
213.038	9763.14
213.112	9968.56
213.186	10169.74
213.26	10339.13
213.333	10487.42
213.407	10687.63
213.481	10884.58
213.555	11085.96
213.629	11269.08
213.703	11451.24
213.777	11643.97
213.85	11823.74
213.924	12048.87
213.998	12245.52
214.072	12430.85
214.146	12609.05
214.219	12799.26
214.293	12995.49
214.367	13175.48
214.441	13380.97
214.515	13561.16
214.588	13721.58
214.662	13870.01
214.736	14034.43
214.81	14227.92
214.883	14417.66
214.957	14589.6
215.031	14752.39
215.105	14910.5
215.178	15068.31
215.252	15236.3
215.326	15385.68
215.4	15538.86
215.473	15658.73
215.547	15799.09
215.621	15943.64
215.694	16111.17
215.768	16248.39
215.842	16392.56
215.915	16549.77
215.989	16670.17
216.063	16809.21
216.136	16956.69
216.21	17107.59
216.284	17276.02
216.357	17419.06
216.431	17557.09
216.504	17703.59
216.578	17870.73
216.652	18015.79
216.725	18160.55
216.799	18300.89
216.873	18426.28
216.946	18569.17
217.02	18693.4
217.093	18824.48
217.167	18928.77
217.24	19029.39
217.314	19152.9
217.387	19269.57
217.461	19366.91
217.535	19504.83
217.608	19611.96
217.682	19720.29
217.755	19842.12
217.829	19929.3
217.902	20033.78
217.976	20132.14
218.049	20221.82
218.123	20307.27
218.196	20412.81
218.27	20501.44
218.343	20581.06
218.417	20679.04
218.49	20769.84
218.563	20879.62
218.637	20975.1
218.71	21090.87
218.784	21189.68
218.857	21280.48
218.931	21369.02
219.004	21465.56
219.077	21544.8
219.151	21627.56
219.224	21703.23
219.298	21773.27
219.371	21860.23
219.444	21928.82
219.518	22004.07
219.591	22078.64
219.665	22168.06
219.738	22230.39
219.811	22290.02
219.885	22370.72
219.958	22448.19
220.031	22497.32
220.105	22563.9
220.178	22622.52
220.251	22662.35
220.325	22733.61
220.398	22796.19
220.471	22850.52
220.544	22906.6
220.618	22956.07
220.691	23005
220.764	23059.82
220.838	23116.87
220.911	23159.98
220.984	23221.79
221.057	23271.99
221.131	23323.39
221.204	23340.94
221.277	23401.36
221.35	23469.31
221.424	23502.87
221.497	23538.12
221.57	23585.62
221.643	23612.68
221.716	23649.57
221.79	23683.57
221.863	23706.62
221.936	23727.41
222.009	23755.57
222.082	23792.61
222.155	23809.73
222.229	23846.09
222.302	23873.63
222.375	23893.98
222.448	23920.03
222.521	23941.15
222.594	23960.98
222.667	23968.21
222.74	24002.84
222.814	24009.59
222.887	24020.16
222.96	24034.24
223.033	24057.73
223.106	24072.87
223.179	24091.49
223.252	24101.43
223.325	24113.49
223.398	24121.06
223.471	24142.72
223.544	24157.91
223.617	24166.25
223.69	24173.15
223.763	24172.86
223.837	24188.92
223.91	24205.71
223.983	24197.56
224.056	24187.33
224.129	24190.13
224.202	24200.84
224.275	24195.87
224.348	24189.55
224.42	24174.07
224.493	24162.4
224.566	24153.62
224.639	24164.42
224.712	24162.06
224.785	24163.17
224.858	24163.6
224.931	24163.7
225.004	24141.95
225.077	24136.25
225.15	24107.99
225.223	24111.75
225.296	24134.71
225.369	24106.01
225.442	24078.95
225.514	24080.35
225.587	24080.11
225.66	24080.16
225.733	24080.55
225.806	24067.86
225.879	24068
225.952	24058.12
226.025	24071.91
226.097	24082.28
226.17	24063.23
226.243	24029.37
226.316	24015.39
226.389	24007.96
226.461	23988.86
226.534	23994.4
226.607	23992.23
226.68	24012.2
226.753	23996.67
226.825	23960.01
226.898	23971.92
226.971	23957.07
227.044	23944.77
227.117	23933.73
227.189	23920.99
227.262	23905.75
227.335	23902.95
227.407	23881.98
227.48	23864.18
227.553	23842.38
227.626	23809.97
227.698	23795.02
227.771	23799.26
227.844	23783.97
227.916	23776.11
227.989	23753.54
228.062	23721.18
228.134	23719.35
228.207	23690.94
228.28	23667.36
228.352	23648.36
228.425	23624.92
228.498	23617.93
228.57	23591.5
228.643	23583.93
228.716	23564.97
228.788	23538.64
228.861	23513.86
228.934	23510.09
229.006	23487.58
229.079	23460.19
229.151	23436.17
229.224	23406.03
229.296	23380.04
229.369	23374.74
229.442	23356.46
229.514	23328.59
229.587	23317.06
229.659	23274.48
229.732	23259.53
229.804	23240.15
229.877	23240.73
229.949	23231.18
230.022	23236.25
230.094	23211.9
230.167	23192.32
230.239	23164.06
230.312	23145.16
230.384	23140.44
230.457	23114.93
230.529	23101.91
230.602	23093.33
230.674	23074.18
230.747	23061.99
230.819	23051.76
230.892	23004.17
230.964	22982.57
231.037	22964.11
231.109	22945.93
231.181	22930.07
231.254	22891.16
231.326	22878.91
231.399	22838.27
231.471	22801.82
231.544	22751.67
231.616	22746.94
231.688	22719.8
231.761	22690.63
231.833	22665.42
231.905	22624.44
231.978	22600.86
232.05	22578.49
232.122	22553.95
232.195	22530.52
232.267	22517.89
232.339	22486.26
232.412	22477.06
232.484	22450.54
232.556	22431.79
232.629	22422.29
232.701	22405.46
232.773	22383.24
232.846	22349.4
232.918	22339.95
232.99	22319.12
233.062	22296.08
233.135	22263.64
233.207	22225.55
233.279	22205.65
233.351	22180.1
233.424	22149.73
233.496	22116.32
233.568	22108.51
233.64	22060.6
233.713	22026.47
233.785	21993.64
233.857	21971.71
233.929	21930.54
234.001	21912.99
234.074	21902.63
234.146	21852.98
234.218	21814.56
234.29	21781.21
234.362	21738.26
234.434	21689.96
234.507	21648.99
234.579	21606.57
234.651	21581.37
234.723	21559.1
234.795	21535.19
234.867	21501.06
234.939	21479.37
235.012	21448.96
235.084	21420.04
235.156	21403.27
235.228	21371.02
235.3	21336.22
235.372	21303.93
235.444	21283.3
235.516	21233.66
235.588	21192.54
235.66	21158.23
235.732	21119.48
235.804	21141.74
235.876	21127.58
235.948	21109.69
236.02	21077.16
236.092	21047.47
236.164	21001.06
236.236	20956.19
236.308	20905.73
236.38	20876
236.452	20831.42
236.524	20797.82
236.596	20769.1
236.668	20735.94
236.74	20695.31
236.812	20660.37
236.884	20633.38
236.956	20596.03
237.028	20540.85
237.1	20496.18
237.172	20477.09
237.244	20460.76
237.316	20390.97
237.388	20343.93
237.46	20305.43
237.532	20278.39
237.604	20239.74
237.675	20223.6
237.747	20197.52
237.819	20165.19
237.891	20136.13
237.963	20094.25
238.035	20051.36
238.107	19977.58
238.178	19951.65
238.25	19919.17
238.322	19907.32
238.394	19840.67
238.466	19795.66
238.538	19780.86
238.609	19746.41
238.681	19693.59
238.753	19642.61
238.825	19606.03
238.897	19571.33
238.968	19541.21
239.04	19499.82
239.112	19481.89
239.184	19425.6
239.255	19387.87
239.327	19354.24
239.399	19311.73
239.471	19284.99
239.542	19256.8
239.614	19238.24
239.686	19184.85
239.758	19161.62
239.829	19108.85
239.901	19089.87
239.973	19053.96
240.044	19013.39
240.116	18985.73
240.188	18949.3
240.259	18910.84
240.331	18868.29
240.403	18828
240.474	18774.42
240.546	18724.2
240.618	18668.16
240.689	18631.77
240.761	18598.62
240.833	18584.74
240.904	18544.65
240.976	18509.71
241.048	18472.12
241.119	18441.66
241.191	18409.28
241.262	18374.97
241.334	18336.32
241.405	18296.32
241.477	18256.71
241.549	18215.31
241.62	18173.63
241.692	18149.29
241.763	18126.31
241.835	18085.54
241.906	18066.98
241.978	18020.77
242.049	18003.08
242.121	17979.52
242.192	17954.75
242.264	17903.9
242.335	17841.78
242.407	17817.45
242.478	17769.21
242.55	17738.32
242.621	17699.09
242.693	17661.07
242.764	17627.96
242.836	17580.63
242.907	17555.67
242.979	17522.03
243.05	17489.31
243.122	17455.67
243.193	17407.86
243.264	17352.68
243.336	17316.01
243.407	17280.83
243.479	17259.09
243.55	17223.77
243.622	17188.87
243.693	17162.17
243.764	17143.76
243.836	17098.7
243.907	17056.72
243.978	17026.99
244.05	16989.4
244.121	16929.1
244.192	16901.87
244.264	16855.17
244.335	16827.99
244.407	16774.5
244.478	16736.57
244.549	16704.08
244.62	16660.42
244.692	16632.17
244.763	16605.09
244.834	16569.86
244.906	16530.09
244.977	16507.88
245.048	16485.61
245.119	16444.88
245.191	16395.58
245.262	16333.16
245.333	16315.52
245.405	16288.19
245.476	16248.19
245.547	16214.98
245.618	16194.83
245.689	16155.12
245.761	16121.48
245.832	16084.7
245.903	16057.37
245.974	16043.01
246.045	16006.28
246.117	15983.63
246.188	15939.53
246.259	15899.81
246.33	15859.37
246.401	15825.49
246.473	15769
246.544	15727.79
246.615	15696.79
246.686	15654.76
246.757	15638.33
246.828	15596.39
246.899	15565.35
246.97	15526.21
247.042	15487.22
247.113	15463.31
247.184	15453.43
247.255	15413.13
247.326	15377.94
247.397	15345.41
247.468	15309.93
247.539	15278.7
247.61	15232.9
247.681	15203.79
247.752	15181.13
247.823	15147.01
247.894	15115.24
247.965	15073.79
248.037	15037.39
248.108	14999.26
248.179	14971.79
248.25	14947.25
248.321	14925.08
248.392	14886.08
248.463	14877.84
248.534	14851.38
248.605	14831.13
248.675	14790.88
248.746	14767.55
248.817	14743.4
248.888	14721.85
248.959	14669.65
249.03	14648.73
249.101	14620.43
249.172	14590.93
249.243	14543.88
249.314	14529.42
249.385	14503
249.456	14488.35
249.527	14460.97
249.598	14439.37
249.669	14411.7
249.739	14380.85
249.81	14355.78
249.881	14316.74
249.952	14287.86
250.023	14256
250.094	14211.12
250.165	14177.91
250.235	14147.15
250.306	14127.44
250.377	14094.7
250.448	14083.52
250.519	14037.58
250.59	14030.4
250.66	13998.15
250.731	13988.46
250.802	13965.46
250.873	13943.87
250.944	13922.08
251.014	13886.89
251.085	13882.21
251.156	13864.23
251.227	13856.66
251.297	13854.01
251.368	13842.34
251.439	13820.36
251.51	13808.74
251.58	13780.16
251.651	13749.02
251.722	13735.61
251.792	13691.26
251.863	13658.39
251.934	13646.38
252.005	13653.18
252.075	13623.29
252.146	13618.76
252.217	13609.94
252.287	13582.61
252.358	13556.38
252.429	13552.86
252.499	13526.16
252.57	13506.87
252.641	13492.51
252.711	13468.89
252.782	13420.05
252.852	13411.42
252.923	13386.41
252.994	13361.39
253.064	13353.34
253.135	13321.95
253.205	13295.34
253.276	13288.21
253.347	13283
253.417	13252.83
253.488	13217.73
253.558	13191.12
253.629	13162.63
253.699	13141.76
253.77	13134.14
253.841	13107.82
253.911	13081.26
253.982	13064.53
254.052	13039.85
254.123	13011.99
254.193	12986.34
254.264	12998.44
254.334	12961.51
254.405	12929.8
254.475	12899.62
254.546	12869.73
254.616	12858.6
254.687	12845.87
254.757	12833.34
254.827	12808.41
254.898	12789.85
254.968	12767.49
255.039	12737.21
255.109	12727.09
255.18	12689.88
255.25	12645.72
255.321	12629.33
255.391	12595.59
255.461	12594.72
255.532	12549.12
255.602	12520.68
255.673	12470.55
255.743	12433.76
255.813	12391.11
255.884	12383.39
255.954	12365.17
256.024	12356.74
256.095	12343.48
256.165	12299.52
256.235	12275.61
256.306	12246.25
256.376	12232.47
256.446	12217.96
256.517	12205.91
256.587	12195.45
256.657	12180.17
256.728	12168.12
256.798	12146.52
256.868	12118.32
256.938	12086.7
257.009	12082.94
257.079	12076.19
257.149	12093.16
257.219	12053.44
257.29	12046.41
257.36	12009.77
257.43	12003.12
257.5	11967.69
257.571	11941.76
257.641	11934.29
257.711	11902.82
257.781	11888.16
257.852	11870.14
257.922	11834.66
257.992	11814.08
258.062	11786.36
258.132	11768.19
258.202	11741.25
258.273	11731.32
258.343	11731.46
258.413	11706.64
258.483	11681.43
258.553	11653.09
258.623	11623.21
258.693	11615.55
258.764	11613.42
258.834	11611.06
258.904	11591.45
258.974	11569.08
259.044	11547.54
259.114	11536.84
259.184	11522.09
259.254	11506.67
259.324	11469.03
259.394	11456.64
259.464	11459
259.535	11434.42
259.605	11418.61
259.675	11388.25
259.745	11372.69
259.815	11344.2
259.885	11321.41
259.955	11325.99
260.025	11297.02
260.095	11278.08
260.165	11258.76
260.235	11257.02
260.305	11226.47
260.375	11192.01
260.445	11198.8
260.515	11193.79
260.585	11188.78
260.655	11175.38
260.725	11163.33
260.795	11156.59
260.865	11162.47
260.934	11134.18
261.004	11125.26
261.074	11102.95
261.144	11106.61
261.214	11098.03
261.284	11081.02
261.354	11074.8
261.424	11055.48
261.494	11054.08
261.564	11043.14
261.634	11040.15
261.703	10996.25
261.773	10985.07
261.843	10978.71
261.913	10951.44
261.983	10913.51
262.053	10895.92
