Data from 20250702_urea_0.5M_MAYP1162681_00-55-00-400.txt Node
Date: Thu Jul 03 00:55:00 BST 2025
User: adleo
Spectrometer: MAYP116268
Trigger mode: 0
Integration Time (sec): 1.000000E0
Scans to average: 1
Electric dark correction enabled: true
Nonlinearity correction enabled: true
Boxcar width: 10
XAxis mode: Wavelengths
Number of Pixels in Spectrum: 2068
>>>>>Begin Spectral Data<<<<<
179.565	1215.65
179.642	1272.1
179.718	1315.64
179.795	1355.52
179.871	1385.83
179.948	1403.56
180.024	1422.84
180.101	1447.52
180.177	1463.35
180.254	1484.58
180.33	1508.07
180.407	1563.81
180.483	1658.97
180.56	1750.62
180.636	1836.51
180.712	1822.05
180.789	1831.08
180.865	1843.44
180.942	1848.66
181.018	1859.98
181.095	1872.77
181.171	1880.14
181.248	1879.04
181.324	1894.88
181.4	1900.3
181.477	1914.18
181.553	1927.59
181.63	1948.51
181.706	1963.2
181.782	1971.33
181.859	1973.23
181.935	1979.27
182.011	1975.65
182.088	1990.92
182.164	2010.09
182.24	2024.88
182.317	2037.1
182.393	2035.43
182.469	2050.36
182.546	2067.77
182.622	2072.95
182.698	2069.81
182.775	2082.56
182.851	2098.49
182.927	2092.31
183.003	2089.74
183.08	2084.46
183.156	2094.93
183.232	2089.93
183.308	2077.8
183.385	2086.89
183.461	2103.49
183.537	2103.77
183.613	2115.71
183.69	2108.15
183.766	2098.35
183.842	2103.82
183.918	2107.29
183.995	2121.84
184.071	2124.03
184.147	2115.9
184.223	2103.73
184.299	2116.67
184.375	2101.07
184.452	2108.4
184.528	2165.13
184.604	2173.69
184.68	2184.44
184.756	2190.62
184.832	2197.09
184.908	2203.94
184.985	2202.66
185.061	2186.67
185.137	2191.76
185.213	2178.59
185.289	2180.73
185.365	2171.6
185.441	2169.17
185.517	2181.69
185.593	2177.6
185.669	2175.03
185.745	2187.16
185.822	2203.47
185.898	2192.71
185.974	2205.84
186.05	2198.13
186.126	2154.53
186.202	2149.06
186.278	2144.68
186.354	2135.79
186.43	2143.69
186.506	2140.12
186.582	2138.27
186.658	2145.11
186.734	2126.8
186.81	2130.09
186.886	2132.8
186.962	2146.21
187.038	2144.07
187.114	2134.22
187.19	2143.97
187.266	2134.89
187.341	2135.46
187.417	2129.8
187.493	2127.75
187.569	2128.61
187.645	2121.66
187.721	2109.87
187.797	2118.33
187.873	2120.81
187.949	2114.77
188.025	2109.44
188.101	2112.95
188.176	2117.62
188.252	2112.53
188.328	2122.32
188.404	2122.75
188.48	2118.56
188.556	2110.14
188.632	2110.14
188.707	2113.47
188.783	2108.95
188.859	2107.29
188.935	2095.87
189.011	2100.68
189.086	2098.06
189.162	2089.4
189.238	2088.55
189.314	2087.07
189.39	2079.41
189.465	2071.95
189.541	2086.36
189.617	2069.24
189.693	2064.77
189.768	2067.1
189.844	2092.89
189.92	2084
189.996	2090.56
190.071	2100.27
190.147	2099.89
190.223	2108.93
190.298	2102.36
190.374	2088.76
190.45	2098.03
190.526	2105.07
190.601	2100.5
190.677	2099.79
190.753	2124.97
190.828	2128.63
190.904	2144.52
190.98	2161.84
191.055	2173.11
191.131	2164.31
191.207	2184.19
191.282	2191.85
191.358	2185.43
191.433	2170.39
191.509	2184.03
191.585	2181.99
191.66	2182.56
191.736	2191.93
191.811	2180.75
191.887	2196.69
191.963	2221.25
192.038	2225.38
192.114	2228.1
192.189	2233.61
192.265	2231.09
192.34	2209.68
192.416	2208.49
192.491	2203.06
192.567	2203.06
192.642	2207.06
192.718	2211.72
192.793	2198.97
192.869	2198.26
192.944	2200.92
193.02	2207.68
193.095	2212.25
193.171	2220.72
193.246	2220.43
193.322	2216.62
193.397	2219.67
193.473	2204.72
193.548	2185.35
193.624	2194.54
193.699	2193.45
193.775	2210.96
193.85	2211.44
193.925	2222.33
194.001	2218.67
194.076	2211.34
194.152	2201.92
194.227	2194.07
194.302	2181.66
194.378	2189.51
194.453	2183.61
194.529	2195.93
194.604	2181.23
194.679	2171.96
194.755	2151.84
194.83	2166.5
194.905	2164.78
194.981	2173.49
195.056	2165.12
195.131	2173.73
195.207	2169.92
195.282	2159.08
195.357	2139.37
195.433	2156.02
195.508	2144.84
195.583	2155.83
195.659	2169.96
195.734	2179.38
195.809	2177.43
195.884	2186.8
195.96	2185.38
196.035	2199.89
196.11	2195.51
196.185	2208.73
196.261	2215.87
196.336	2246.37
196.411	2231.37
196.486	2236.22
196.561	2229.09
196.637	2238.69
196.712	2253.12
196.787	2255.83
196.862	2272.82
196.937	2282.24
197.013	2289.33
197.088	2301.27
197.163	2324.84
197.238	2342.7
197.313	2342.18
197.388	2356.98
197.464	2384.02
197.539	2397.49
197.614	2390.4
197.689	2401.92
197.764	2418.78
197.839	2435.96
197.914	2430.91
197.989	2452.05
198.065	2465.43
198.14	2517.17
198.215	2544.55
198.29	2555.79
198.365	2569.51
198.44	2577.65
198.515	2605.27
198.59	2619.37
198.665	2643.57
198.74	2647.81
198.815	2647.91
198.89	2670.43
198.965	2702.55
199.04	2701.27
199.115	2715.56
199.19	2762.57
199.265	2765.14
199.34	2772.72
199.415	2809.66
199.49	2829.43
199.565	2838.63
199.64	2863.74
199.715	2856.78
199.79	2864.88
199.865	2871.07
199.94	2868.26
200.015	2899.63
200.09	2905.59
200.165	2911.54
200.24	2917.31
200.315	2956.53
200.39	2971.11
200.464	2976.26
200.539	2978.41
200.614	2996.14
200.689	3019.5
200.764	3021.46
200.839	3040.37
200.914	3045.52
200.989	3032.45
201.063	3047.61
201.138	3029.46
201.213	3027.79
201.288	3008.87
201.363	3012.83
201.438	3013.68
201.512	3033.51
201.587	3019.01
201.662	3024.4
201.737	3039.47
201.812	3050.25
201.886	3018.47
201.961	3031.92
202.036	3018.63
202.111	3011.9
202.186	2985.08
202.26	2969.77
202.335	2955.51
202.41	2949.6
202.485	2933.11
202.559	2914.48
202.634	2888.83
202.709	2903.88
202.784	2886.2
202.858	2892.73
202.933	2873.76
203.008	2868.57
203.082	2845.65
203.157	2844.08
203.232	2800.06
203.306	2778.55
203.381	2741.81
203.456	2716.61
203.53	2689
203.605	2673.04
203.68	2649.31
203.754	2641.74
203.829	2625.26
203.904	2601.06
203.978	2588.67
204.053	2593.91
204.127	2581.53
204.202	2580.01
204.277	2560.05
204.351	2554
204.426	2542.66
204.5	2534.66
204.575	2499.24
204.65	2509.81
204.724	2501.71
204.799	2505.04
204.873	2500.66
204.948	2500.9
205.022	2492.43
205.097	2487.14
205.171	2498.9
205.246	2508.71
205.32	2506.33
205.395	2504.19
205.469	2495.96
205.544	2505.05
205.618	2485.58
205.693	2496.91
205.767	2486.01
205.842	2508.3
205.916	2501.92
205.991	2492.68
206.065	2502.06
206.14	2516.96
206.214	2513.38
206.289	2506.29
206.363	2522.9
206.438	2524.38
206.512	2533.71
206.586	2551.66
206.661	2555.76
206.735	2536.39
206.81	2538.2
206.884	2557.1
206.958	2544.72
207.033	2561.81
207.107	2568.25
207.181	2602.97
207.256	2598.07
207.33	2619.26
207.405	2632.56
207.479	2657.14
207.553	2664.29
207.628	2648.48
207.702	2664.62
207.776	2662.96
207.851	2668.91
207.925	2686.26
207.999	2689.73
208.073	2692.12
208.148	2702.36
208.222	2700.88
208.296	2740.13
208.371	2763.83
208.445	2778.51
208.519	2817.14
208.593	2836.44
208.668	2841.21
208.742	2855.28
208.816	2870.81
208.89	2898.61
208.965	2909.35
209.039	2929.76
209.113	2968.52
209.187	3005.82
209.261	3019.79
209.336	3057.75
209.41	3098.05
209.484	3126.15
209.558	3172.14
209.632	3214.49
209.707	3254
209.781	3303.47
209.855	3350.44
209.929	3400.7
210.003	3440.22
210.077	3477.74
210.151	3567.28
210.226	3643.47
210.3	3713.16
210.374	3778.66
210.448	3828.02
210.522	3882.06
210.596	3941.27
210.67	3992.3
210.744	4092.46
210.818	4176.31
210.892	4257.51
210.966	4309.66
211.041	4383.99
211.115	4439.71
211.189	4523.81
211.263	4602.8
211.337	4680.65
211.411	4762.62
211.485	4829.43
211.559	4917.5
211.633	4992.02
211.707	5035
211.781	5117.97
211.855	5163.83
211.929	5241.51
212.003	5303.16
212.077	5405.74
212.151	5505.9
212.225	5612.32
212.299	5693.31
212.373	5773.95
212.447	5861.71
212.52	5989.11
212.594	6084.27
212.668	6192.98
212.742	6281.48
212.816	6378.1
212.89	6467.72
212.964	6566.65
213.038	6675.35
213.112	6790.25
213.186	6910.45
213.26	6997.51
213.333	7059.88
213.407	7166.17
213.481	7269.6
213.555	7386
213.629	7482.68
213.703	7571.82
213.777	7684.64
213.85	7774.91
213.924	7923.14
213.998	8030.12
214.072	8130.2
214.146	8229.1
214.219	8335.18
214.293	8431.88
214.367	8544
214.441	8663.63
214.515	8765.34
214.588	8849.24
214.662	8921.25
214.736	9010.83
214.81	9122.34
214.883	9234.25
214.957	9330.53
215.031	9431.77
215.105	9516.6
215.178	9602.65
215.252	9695.55
215.326	9762.88
215.4	9837.33
215.473	9884.97
215.547	9970.14
215.621	10055.99
215.694	10156.15
215.768	10223.59
215.842	10316.37
215.915	10394.33
215.989	10462.46
216.063	10543.94
216.136	10631.4
216.21	10724.19
216.284	10832.71
216.357	10924.22
216.431	11011.15
216.504	11111.48
216.578	11220.49
216.652	11324.63
216.725	11416.25
216.799	11516.79
216.873	11614.62
216.946	11715.25
217.02	11794.92
217.093	11875.94
217.167	11949.93
217.24	12023.29
217.314	12117.71
217.387	12195.08
217.461	12272.01
217.535	12371.69
217.608	12443.27
217.682	12529.85
217.755	12622.49
217.829	12690.17
217.902	12779.35
217.976	12856.05
218.049	12926.76
218.123	12982.49
218.196	13061.79
218.27	13136.75
218.343	13203.08
218.417	13276.3
218.49	13355.17
218.563	13455.44
218.637	13536.62
218.71	13624.02
218.784	13707.12
218.857	13788.59
218.931	13862.88
219.004	13952.88
219.077	14032.56
219.151	14111.09
219.224	14174.24
219.298	14248.86
219.371	14331.48
219.444	14383.35
219.518	14458.36
219.591	14535.83
219.665	14646.31
219.738	14720.35
219.811	14777.09
219.885	14856.48
219.958	14930.23
220.031	14986.44
220.105	15057.97
220.178	15122.47
220.251	15186.14
220.325	15265.48
220.398	15342.56
220.471	15421.13
220.544	15483.26
220.618	15531.26
220.691	15601.11
220.764	15668.3
220.838	15733.23
220.911	15778.49
220.984	15864.23
221.057	15933.11
221.131	15992.93
221.204	16019.29
221.277	16102.05
221.35	16197.19
221.424	16250.16
221.497	16316.38
221.57	16381.98
221.643	16435.29
221.716	16499.44
221.79	16551.73
221.863	16593.04
221.936	16632.65
222.009	16686.87
222.082	16742.39
222.155	16803.02
222.229	16867.46
222.302	16924.09
222.375	16971.66
222.448	17038.79
222.521	17092.68
222.594	17133.79
222.667	17170.08
222.74	17228.01
222.814	17267.43
222.887	17302.51
222.96	17364.58
223.033	17415.38
223.106	17466.61
223.179	17519.62
223.252	17565.55
223.325	17617.4
223.398	17664.15
223.471	17715.81
223.544	17756.1
223.617	17797.64
223.69	17841.88
223.763	17871.9
223.837	17918.41
223.91	17962.5
223.983	17986.26
224.056	18004.19
224.129	18060.04
224.202	18112.04
224.275	18137.87
224.348	18149.97
224.42	18174.64
224.493	18190.59
224.566	18214.35
224.639	18258.69
224.712	18285.05
224.785	18313.04
224.858	18338.63
224.931	18360.99
225.004	18385.28
225.077	18418.68
225.15	18428.07
225.223	18450.19
225.296	18502.62
225.369	18519.64
225.442	18547.73
225.514	18585.37
225.587	18621.27
225.66	18655.72
225.733	18692.54
225.806	18724.25
225.879	18765.93
225.952	18791.14
226.025	18830.94
226.097	18871.37
226.17	18890.36
226.243	18898.12
226.316	18928.91
226.389	18951.56
226.461	18986.02
226.534	19017.2
226.607	19043.36
226.68	19096.71
226.753	19119.6
226.825	19117.48
226.898	19156.61
226.971	19184.17
227.044	19195.06
227.117	19223.35
227.189	19237.33
227.262	19269.95
227.335	19305.56
227.407	19315.15
227.48	19338.77
227.553	19360.31
227.626	19378.38
227.698	19402.04
227.771	19433.03
227.844	19443.96
227.916	19475.58
227.989	19484.3
228.062	19499.67
228.134	19535.96
228.207	19543.09
228.28	19567.04
228.352	19591.57
228.425	19601.35
228.498	19612.2
228.57	19641.78
228.643	19670.51
228.716	19687.37
228.788	19690.51
228.861	19694.26
228.934	19734.74
229.006	19747.37
229.079	19755.13
229.151	19756.72
229.224	19751.18
229.296	19760
229.369	19798.98
229.442	19821.92
229.514	19828.86
229.587	19860.47
229.659	19851.7
229.732	19864.14
229.804	19887.89
229.877	19918.98
229.949	19937.48
230.022	19968.37
230.094	19970.3
230.167	19977.67
230.239	19977.1
230.312	19993.43
230.384	20030.83
230.457	20036.18
230.529	20054.35
230.602	20069
230.674	20090.39
230.747	20121.81
230.819	20156.37
230.892	20130.34
230.964	20141.53
231.037	20162.97
231.109	20165.62
231.181	20187.74
231.254	20195.26
231.326	20200.7
231.399	20198.15
231.471	20199.26
231.544	20190.87
231.616	20208.9
231.688	20218.49
231.761	20216.9
231.833	20210.29
231.905	20188.99
231.978	20190.2
232.05	20188.37
232.122	20189.72
232.195	20184.56
232.267	20192.9
232.339	20184.94
232.412	20203.88
232.484	20186.63
232.556	20175.64
232.629	20186.34
232.701	20188.56
232.773	20189.33
232.846	20176.66
232.918	20173.09
232.99	20176.9
233.062	20182.29
233.135	20184.56
233.207	20171.21
233.279	20181.57
233.351	20188.13
233.424	20184.13
233.496	20175.6
233.568	20192.61
233.64	20175.98
233.713	20166.63
233.785	20163.88
233.857	20154.58
233.929	20132.66
234.001	20145.48
234.074	20159.6
234.146	20134.54
234.218	20119.65
234.29	20118.44
234.362	20103.02
234.434	20083.55
234.507	20063.16
234.579	20036.32
234.651	20016.85
234.723	20012.03
234.795	20001.58
234.867	19991.55
234.939	19989.05
235.012	19972.81
235.084	19954.25
235.156	19945.72
235.228	19925.43
235.3	19899.36
235.372	19891.32
235.444	19891.22
235.516	19851.56
235.588	19830.02
235.66	19810.84
235.732	19792.43
235.804	19825.49
235.876	19827.75
235.948	19830.21
236.02	19817.25
236.092	19796.09
236.164	19777.15
236.236	19748.09
236.308	19732.48
236.38	19717.49
236.452	19695.04
236.524	19680.24
236.596	19676.05
236.668	19672.34
236.74	19665.93
236.812	19652.87
236.884	19641.02
236.956	19623.43
237.028	19604.39
237.1	19575
237.172	19577.79
237.244	19570.08
237.316	19501.74
237.388	19467.05
237.46	19429.03
237.532	19413.65
237.604	19398.38
237.675	19400.11
237.747	19402.38
237.819	19374.43
237.891	19348.98
237.963	19324.21
238.035	19301.42
238.107	19248.07
238.178	19240.8
238.25	19211.21
238.322	19201.18
238.394	19159.31
238.466	19137.38
238.538	19121.04
238.609	19109.14
238.681	19068.61
238.753	19033.77
238.825	19021.48
238.897	19005.87
238.968	18995.17
239.04	18971.08
239.112	18968.62
239.184	18931.85
239.255	18896.58
239.327	18871.52
239.399	18845.35
239.471	18830.17
239.542	18804.15
239.614	18804.24
239.686	18749.12
239.758	18734.71
239.829	18704.11
239.901	18700.73
239.973	18668.4
240.044	18641.07
240.116	18611.63
240.188	18581.94
240.259	18550.28
240.331	18510.38
240.403	18483.4
240.474	18444.7
240.546	18407.3
240.618	18358.49
240.689	18316.56
240.761	18280.9
240.833	18269.05
240.904	18228.71
240.976	18189.72
241.048	18168.57
241.119	18131.27
241.191	18103.51
241.262	18085.54
241.334	18057.15
241.405	18008.29
241.477	17970.7
241.549	17936.24
241.62	17908.82
241.692	17881.93
241.763	17870.31
241.835	17838.46
241.906	17808.44
241.978	17763.04
242.049	17742.61
242.121	17715.91
242.192	17701.84
242.264	17656.34
242.335	17606.95
242.407	17592.63
242.478	17562.9
242.55	17533.89
242.621	17500.73
242.693	17470.37
242.764	17429.79
242.836	17395.14
242.907	17371.48
242.979	17343.62
243.05	17321.4
243.122	17299.09
243.193	17271.09
243.264	17210.46
243.336	17177.21
243.407	17144.58
243.479	17136.87
243.55	17108
243.622	17080.63
243.693	17046.7
243.764	17037.11
243.836	16991.61
243.907	16952.19
243.978	16924.62
244.05	16894.07
244.121	16836.62
244.192	16808.67
244.264	16764.9
244.335	16726.78
244.407	16682.78
244.478	16668.75
244.549	16636.51
244.62	16585.71
244.692	16548.89
244.763	16538.05
244.834	16502.43
244.906	16475.25
244.977	16448.02
245.048	16436.5
245.119	16397.65
245.191	16353.98
245.262	16301.64
245.333	16294.8
245.405	16265.06
245.476	16228.24
245.547	16199.12
245.618	16184.23
245.689	16155.79
245.761	16134.92
245.832	16107.07
245.903	16080.94
245.974	16039.25
246.045	15998.47
246.117	15979.68
246.188	15935.86
246.259	15887.04
246.33	15853.59
246.401	15816.47
246.473	15764.32
246.544	15721.28
246.615	15698.14
246.686	15665.13
246.757	15652.11
246.828	15608.35
246.899	15590.75
246.97	15547.27
247.042	15508.52
247.113	15486.78
247.184	15480.71
247.255	15437.71
247.326	15401.27
247.397	15371.68
247.468	15346.37
247.539	15320.49
247.61	15280.53
247.681	15257.15
247.752	15250.93
247.823	15220.08
247.894	15198
247.965	15166.72
248.037	15132.4
248.108	15092.63
248.179	15067.62
248.25	15033.2
248.321	15008.9
248.392	14963.64
248.463	14955.79
248.534	14928.07
248.605	14902.04
248.675	14868.2
248.746	14849.5
248.817	14831.28
248.888	14807.99
248.959	14762.34
249.03	14740.94
249.101	14715.06
249.172	14686.66
249.243	14629.54
249.314	14615.85
249.385	14582.11
249.456	14563.74
249.527	14535.01
249.598	14515.05
249.669	14485.75
249.739	14462.7
249.81	14451.95
249.881	14414.11
249.952	14378.1
250.023	14344.7
250.094	14306.08
250.165	14268.68
250.235	14240.67
250.306	14212.86
250.377	14178.92
250.448	14154
250.519	14098.9
250.59	14084.15
250.66	14052.38
250.731	14046.54
250.802	14009.43
250.873	13988.79
250.944	13963.82
251.014	13929.55
251.085	13920.68
251.156	13892.33
251.227	13876.52
251.297	13849.86
251.368	13841.09
251.439	13834.87
251.51	13816.22
251.58	13780.35
251.651	13746.17
251.722	13725.3
251.792	13678.49
251.863	13650.05
251.934	13647.01
252.005	13662.53
252.075	13640.98
252.146	13629.46
252.217	13616.93
252.287	13609.94
252.358	13585.02
252.429	13576.1
252.499	13549.05
252.57	13531.6
252.641	13527.84
252.711	13500.75
252.782	13461.66
252.852	13451.92
252.923	13424.01
252.994	13410.65
253.064	13400.82
253.135	13366.93
253.205	13344.76
253.276	13345.04
253.347	13336.03
253.417	13304.94
253.488	13278.13
253.558	13244.1
253.629	13219.8
253.699	13195.7
253.77	13178.68
253.841	13152.7
253.911	13129.32
253.982	13106.52
254.052	13089.02
254.123	13064.43
254.193	13042.21
254.264	13058.26
254.334	13028.96
254.405	12997.33
254.475	12960.94
254.546	12942.43
254.616	12936.16
254.687	12916.83
254.757	12893.26
254.827	12872.14
254.898	12852.28
254.968	12826.88
255.039	12798.39
255.109	12782.62
255.18	12750.23
255.25	12703.09
255.321	12690.36
255.391	12650.93
255.461	12651.36
255.532	12597.42
255.602	12576.55
255.673	12539.57
255.743	12509.4
255.813	12455.55
255.884	12445.96
255.954	12440.03
256.024	12428.17
256.095	12410.24
256.165	12376.93
256.235	12361.41
256.306	12335.19
256.376	12324.68
256.446	12308.58
256.517	12296.05
256.587	12295.52
256.657	12276.52
256.728	12262.84
256.798	12238.59
256.868	12219.89
256.938	12188.65
257.009	12179.06
257.079	12160.55
257.149	12167.78
257.219	12129.94
257.29	12121.41
257.36	12078.56
257.43	12065.78
257.5	12029.92
257.571	12002.35
257.641	11991.46
257.711	11962.05
257.781	11947.79
257.852	11933.62
257.922	11901.03
257.992	11889.03
258.062	11861.31
258.132	11854.42
258.202	11826.18
258.273	11811.72
258.343	11812.15
258.413	11788.24
258.483	11768.96
258.553	11739.71
258.623	11706.98
258.693	11691.41
258.764	11694.06
258.834	11700.09
258.904	11682.2
258.974	11664.95
259.044	11653.43
259.114	11637.67
259.184	11626.92
259.254	11604.85
259.324	11556.75
259.394	11546.63
259.464	11542.38
259.535	11520.16
259.605	11499.1
259.675	11479.92
259.745	11462.81
259.815	11431.92
259.885	11404.5
259.955	11420.93
260.025	11399.92
260.095	11382.86
260.165	11375.58
260.235	11370.76
260.305	11334.86
260.375	11304.2
260.445	11299.38
260.515	11291.34
260.585	11284.25
260.655	11265.6
260.725	11263.67
260.795	11263.33
260.865	11263.72
260.934	11235.91
261.004	11224.73
261.074	11201.21
261.144	11198.71
261.214	11190.56
261.284	11171
261.354	11170.47
261.424	11139.28
261.494	11143.47
261.564	11124.58
261.634	11108.25
261.703	11067.86
261.773	11065.02
261.843	11048.39
261.913	11030.56
261.983	10995.58
262.053	10980.93
262.123	10963.92
262.192	10927.39
