Data from 20250702_urea_0.5M_MAYP1162681_09-54-59-780.txt Node
Date: Thu Jul 03 09:54:59 BST 2025
User: adleo
Spectrometer: MAYP116268
Trigger mode: 0
Integration Time (sec): 1.000000E0
Scans to average: 1
Electric dark correction enabled: true
Nonlinearity correction enabled: true
Boxcar width: 10
XAxis mode: Wavelengths
Number of Pixels in Spectrum: 2068
>>>>>Begin Spectral Data<<<<<
179.565	1164.36
179.642	1222.95
179.718	1266.38
179.795	1305.53
179.871	1335.73
179.948	1351.81
180.024	1370.98
180.101	1392.91
180.177	1409.53
180.254	1431.47
180.33	1456.22
180.407	1505.78
180.483	1598.8
180.56	1687.12
180.636	1768.92
180.712	1757.94
180.789	1771.63
180.865	1783.98
180.942	1793.01
181.018	1806.46
181.095	1820.01
181.171	1825.29
181.248	1823.57
181.324	1838.6
181.4	1843.11
181.477	1854.43
181.553	1866.54
181.63	1887.56
181.706	1901.63
181.782	1907.14
181.859	1905.86
181.935	1911.28
182.011	1911.28
182.088	1929.3
182.164	1947.18
182.24	1957.92
182.317	1965.81
182.393	1961.06
182.469	1974.18
182.546	1986.93
182.622	1990.11
182.698	1986.78
182.775	1997.77
182.851	2012.84
182.927	2006.7
183.003	2002.76
183.08	1996.25
183.156	2005.37
183.232	2002.52
183.308	1992.39
183.385	2001.57
183.461	2020.59
183.537	2018.4
183.613	2028.15
183.69	2018.07
183.766	2006.79
183.842	2017.59
183.918	2021.25
183.995	2035.33
184.071	2041.13
184.147	2037.95
184.223	2027.2
184.299	2038.71
184.375	2029.82
184.452	2035.53
184.528	2085.48
184.604	2094.66
184.68	2106.59
184.756	2116.91
184.832	2121.1
184.908	2126.47
184.985	2124.95
185.061	2108.26
185.137	2118.48
185.213	2108.4
185.289	2108.36
185.365	2100.65
185.441	2097.47
185.517	2112.55
185.593	2108.08
185.669	2103.18
185.745	2114.83
185.822	2129.95
185.898	2121.1
185.974	2128.61
186.05	2121.29
186.126	2083.75
186.202	2080.28
186.278	2076.14
186.354	2064.58
186.43	2075.43
186.506	2075.24
186.582	2072.15
186.658	2078.62
186.734	2056.51
186.81	2058.46
186.886	2061.74
186.962	2075.81
187.038	2072.87
187.114	2067.68
187.19	2075.15
187.266	2063.21
187.341	2061.07
187.417	2053.56
187.493	2051.46
187.569	2056.08
187.645	2050.37
187.721	2041.52
187.797	2047.47
187.873	2052.89
187.949	2047.71
188.025	2036.43
188.101	2038.05
188.176	2045.99
188.252	2043.47
188.328	2051.31
188.404	2051.98
188.48	2046.36
188.556	2038.33
188.632	2037.8
188.707	2035.33
188.783	2030.81
188.859	2028.39
188.935	2017.49
189.011	2029.76
189.086	2024.49
189.162	2014.69
189.238	2010.17
189.314	2005.18
189.39	2000.38
189.465	1993.72
189.541	2007.37
189.617	1994.48
189.693	1990.11
189.768	1991.82
189.844	2013.32
189.92	2007.09
189.996	2014.18
190.071	2023.88
190.147	2025.26
190.223	2037.06
190.298	2029.73
190.374	2019.65
190.45	2030.73
190.526	2039.24
190.601	2031.11
190.677	2033.49
190.753	2060.8
190.828	2065.79
190.904	2080.92
190.98	2097.43
191.055	2106.08
191.131	2099.14
191.207	2118.26
191.282	2126.96
191.358	2119.63
191.433	2106.6
191.509	2120.24
191.585	2118.01
191.66	2120.29
191.736	2127.38
191.811	2119.72
191.887	2137.27
191.963	2158.25
192.038	2164.96
192.114	2164.15
192.189	2168.15
192.265	2167.76
192.34	2144.45
192.416	2143.73
192.491	2139.69
192.567	2138.31
192.642	2139.88
192.718	2143.25
192.793	2129.22
192.869	2126.18
192.944	2128.98
193.02	2134.69
193.095	2138.07
193.171	2143.16
193.246	2146.16
193.322	2144.73
193.397	2141.64
193.473	2127.41
193.548	2111.09
193.624	2117.99
193.699	2120.28
193.775	2135.46
193.85	2132.7
193.925	2143.88
194.001	2143.31
194.076	2137.5
194.152	2129.61
194.227	2124.8
194.302	2113.34
194.378	2118.48
194.453	2117.1
194.529	2129.18
194.604	2114.01
194.679	2106.64
194.755	2090.52
194.83	2099.03
194.905	2095.52
194.981	2101.98
195.056	2095.8
195.131	2100.46
195.207	2097.99
195.282	2088.57
195.357	2066.78
195.433	2084.71
195.508	2070.53
195.583	2075.48
195.659	2090.33
195.734	2098.03
195.809	2097.42
195.884	2104.36
195.96	2105.36
196.035	2118.48
196.11	2112.92
196.185	2125.09
196.261	2130.51
196.336	2160.96
196.411	2146.73
196.486	2153.63
196.561	2151.44
196.637	2157.39
196.712	2173.81
196.787	2174.38
196.862	2189.22
196.937	2201.78
197.013	2204.3
197.088	2216.62
197.163	2239.89
197.238	2255.18
197.313	2256.23
197.388	2273.17
197.464	2302.58
197.539	2313.95
197.614	2307.15
197.689	2319.76
197.764	2337.95
197.839	2356.7
197.914	2349.56
197.989	2375.26
198.065	2388.73
198.14	2438.37
198.215	2466.45
198.29	2477.6
198.365	2493.88
198.44	2504.64
198.515	2532.21
198.59	2549.54
198.665	2575.78
198.74	2581.26
198.815	2581.31
198.89	2602.07
198.965	2627.56
199.04	2625.27
199.115	2639.56
199.19	2681.99
199.265	2684.14
199.34	2693.71
199.415	2729.13
199.49	2750.56
199.565	2759.61
199.64	2781.96
199.715	2779.24
199.79	2785.91
199.865	2793.87
199.94	2788.72
200.015	2818.65
200.09	2823.42
200.165	2831.85
200.24	2838.91
200.315	2883.08
200.39	2898.8
200.464	2902.76
200.539	2904.95
200.614	2921.49
200.689	2945.13
200.764	2950.61
200.839	2972.39
200.914	2976.44
200.989	2963.99
201.063	2976.67
201.138	2959.99
201.213	2955.9
201.288	2933.87
201.363	2939.59
201.438	2938.02
201.512	2954.7
201.587	2938.2
201.662	2942.68
201.737	2951.93
201.812	2956.65
201.886	2923.3
201.961	2934.41
202.036	2925.07
202.111	2923.17
202.186	2896.11
202.26	2880.61
202.335	2860.5
202.41	2851.49
202.485	2834.53
202.559	2814.99
202.634	2791.12
202.709	2799.02
202.784	2783.68
202.858	2788.4
202.933	2767.15
203.008	2763.05
203.082	2745
203.157	2745.14
203.232	2701.95
203.306	2682.12
203.381	2651.15
203.456	2628.19
203.53	2603.59
203.605	2583.64
203.68	2560.53
203.754	2553.58
203.829	2538.29
203.904	2517.62
203.978	2505.76
204.053	2511.96
204.127	2498.96
204.202	2498.24
204.277	2481.25
204.351	2474.25
204.426	2464.24
204.5	2457.29
204.575	2421.02
204.65	2429.64
204.724	2418.4
204.799	2427.06
204.873	2420.68
204.948	2422.82
205.022	2410.63
205.097	2403.87
205.171	2418.91
205.246	2423.01
205.32	2421.39
205.395	2421.91
205.469	2414.59
205.544	2418.3
205.618	2398.26
205.693	2411.83
205.767	2401.16
205.842	2423.02
205.916	2416.98
205.991	2406.74
206.065	2413.88
206.14	2428.34
206.214	2425.29
206.289	2420.77
206.363	2433.15
206.438	2436.62
206.512	2441.96
206.586	2461.52
206.661	2467.28
206.735	2446.25
206.81	2450.39
206.884	2465.91
206.958	2453.82
207.033	2470.14
207.107	2479.34
207.181	2514.68
207.256	2508.91
207.33	2526.58
207.405	2536.78
207.479	2556.87
207.553	2563.59
207.628	2550.02
207.702	2567.54
207.776	2564.11
207.851	2571.45
207.925	2588.12
207.999	2590.12
208.073	2590.22
208.148	2597.41
208.222	2589.17
208.296	2623.31
208.371	2643.23
208.445	2660.48
208.519	2690.72
208.593	2708.3
208.668	2713.35
208.742	2720.79
208.816	2731.07
208.89	2750.81
208.965	2759.49
209.039	2778.17
209.113	2806.62
209.187	2838.48
209.261	2845.39
209.336	2874.56
209.41	2903.83
209.484	2914.84
209.558	2949.5
209.632	2978.43
209.707	3000.12
209.781	3039.22
209.855	3070.79
209.929	3105.16
210.003	3129.39
210.077	3152.33
210.151	3223.56
210.226	3277.21
210.3	3327.93
210.374	3373.38
210.448	3407.7
210.522	3443.08
210.596	3478.73
210.67	3517.73
210.744	3590.32
210.818	3649.5
210.892	3704.67
210.966	3733.12
211.041	3790.82
211.115	3822.43
211.189	3884.78
211.263	3943.53
211.337	3989.73
211.411	4048.72
211.485	4088.55
211.559	4141.02
211.633	4186.31
211.707	4199.09
211.781	4254.21
211.855	4265.59
211.929	4304.21
212.003	4331.89
212.077	4396.11
212.151	4464.1
212.225	4529.46
212.299	4570.73
212.373	4614.89
212.447	4665.74
212.52	4752.81
212.594	4811.95
212.668	4884.66
212.742	4932.99
212.816	4987.25
212.89	5046.91
212.964	5104.13
213.038	5166.18
213.112	5242.27
213.186	5321.17
213.26	5365
213.333	5387
213.407	5463.03
213.481	5531.58
213.555	5610.68
213.629	5662.81
213.703	5709.48
213.777	5771.55
213.85	5827.47
213.924	5927.31
213.998	5995.44
214.072	6057.51
214.146	6114.52
214.219	6175.8
214.293	6236.64
214.367	6310.37
214.441	6383.86
214.515	6442.05
214.588	6490.11
214.662	6524.15
214.736	6573.84
214.81	6649.53
214.883	6726.44
214.957	6775.6
215.031	6829.95
215.105	6877.58
215.178	6928.69
215.252	6986.81
215.326	7032.03
215.4	7074.92
215.473	7098.76
215.547	7145.72
215.621	7196.63
215.694	7264.32
215.768	7307.09
215.842	7359.77
215.915	7405.25
215.989	7446.74
216.063	7498.48
216.136	7560.55
216.21	7623.09
216.284	7693.39
216.357	7759.37
216.431	7814.77
216.504	7889.93
216.578	7981.46
216.652	8048.69
216.725	8115.36
216.799	8191.09
216.873	8257.28
216.946	8329.73
217.02	8387.02
217.093	8440.48
217.167	8479.55
217.24	8521.28
217.314	8584.07
217.387	8639.65
217.461	8692.73
217.535	8765.7
217.608	8823.6
217.682	8881.32
217.755	8953.42
217.829	9002.53
217.902	9060.4
217.976	9124.04
218.049	9179.65
218.123	9228.82
218.196	9297.38
218.27	9345.43
218.343	9391.23
218.417	9447.53
218.49	9506.23
218.563	9583.23
218.637	9655.86
218.71	9738.94
218.784	9805.17
218.857	9878.62
218.931	9948.26
219.004	10016.61
219.077	10080.01
219.151	10139.98
219.224	10203.19
219.298	10263.46
219.371	10341.02
219.444	10392.28
219.518	10455.44
219.591	10520.1
219.665	10601.01
219.738	10664.85
219.811	10727.48
219.885	10798.36
219.958	10868.14
220.031	10931.65
220.105	10995.74
220.178	11057.81
220.251	11118.24
220.325	11188.65
220.398	11249.76
220.471	11309.52
220.544	11378.58
220.618	11431.26
220.691	11497.24
220.764	11559.17
220.838	11618.69
220.911	11673.25
220.984	11760.78
221.057	11820.84
221.131	11881.71
221.204	11910.25
221.277	11989.25
221.35	12075.62
221.424	12128.16
221.497	12189.77
221.57	12247.61
221.643	12313.89
221.716	12382.1
221.79	12430.4
221.863	12485.4
221.936	12540.01
222.009	12604.94
222.082	12670.07
222.155	12725.89
222.229	12794.1
222.302	12856.53
222.375	12919.19
222.448	12983.69
222.521	13035.47
222.594	13096.74
222.667	13139.45
222.74	13210.79
222.814	13262.18
222.887	13317.47
222.96	13380.81
223.033	13443.87
223.106	13500.56
223.179	13553.97
223.252	13603.67
223.325	13664.12
223.398	13721.06
223.471	13778.57
223.544	13825.86
223.617	13874.35
223.69	13930.9
223.763	13973.51
223.837	14029.82
223.91	14085.54
223.983	14114.95
224.056	14146.67
224.129	14196.22
224.202	14265.78
224.275	14309.89
224.348	14343.78
224.42	14372.95
224.493	14407.89
224.566	14446.89
224.639	14492.59
224.712	14533.42
224.785	14577.33
224.858	14621.06
224.931	14665.45
225.004	14698.86
225.077	14750.87
225.15	14763.31
225.223	14802.26
225.296	14866.08
225.369	14890.52
225.442	14919.73
225.514	14970.49
225.587	15023.46
225.66	15065.54
225.733	15105.55
225.806	15150.38
225.879	15187.3
225.952	15224.56
226.025	15283.03
226.097	15346.32
226.17	15398.04
226.243	15417.18
226.316	15457.95
226.389	15490.39
226.461	15534.31
226.534	15583.37
226.607	15616.49
226.68	15694.86
226.753	15736.03
226.825	15756.94
226.898	15812.13
226.971	15858.65
227.044	15906.36
227.117	15946.71
227.189	15988.5
227.262	16032.84
227.335	16068.75
227.407	16113.62
227.48	16160.95
227.553	16194.98
227.626	16219.51
227.698	16252.77
227.771	16294.94
227.844	16319.38
227.916	16361.89
227.989	16374.71
228.062	16404.3
228.134	16456.35
228.207	16478.28
228.28	16510.53
228.352	16538.19
228.425	16573.42
228.498	16617.04
228.57	16636.75
228.643	16678.49
228.716	16711.7
228.788	16734.78
228.861	16766.06
228.934	16802.79
229.006	16827.22
229.079	16852.38
229.151	16871.56
229.224	16880.81
229.296	16923.61
229.369	16981.69
229.442	17031.86
229.514	17062.36
229.587	17106.22
229.659	17113.88
229.732	17151.38
229.804	17195.38
229.877	17251.76
229.949	17283.52
230.022	17324.34
230.094	17354.08
230.167	17385.16
230.239	17397.16
230.312	17424.87
230.384	17475.09
230.457	17513.11
230.529	17550.94
230.602	17587.52
230.674	17614.75
230.747	17657.69
230.819	17692.92
230.892	17691.14
230.964	17708.34
231.037	17742.65
231.109	17760.82
231.181	17799.62
231.254	17805.93
231.326	17821.5
231.399	17838.65
231.471	17861.25
231.544	17862.56
231.616	17899.95
231.688	17914.8
231.761	17939.23
231.833	17953.35
231.905	17951.76
231.978	17965.4
232.05	17979.23
232.122	17998.65
232.195	18009.97
232.267	18046.6
232.339	18061.87
232.412	18096.48
232.484	18110.74
232.556	18117.78
232.629	18155.61
232.701	18169.97
232.773	18191.6
232.846	18208.76
232.918	18224.9
232.99	18237.19
233.062	18249
233.135	18257.38
233.207	18258.4
233.279	18283.21
233.351	18304.56
233.424	18313.14
233.496	18310.97
233.568	18338.68
233.64	18330.44
233.713	18349.57
233.785	18349.09
233.857	18354.78
233.929	18339.45
234.001	18361.23
234.074	18392.08
234.146	18374.73
234.218	18390.29
234.29	18399.4
234.362	18394.63
234.434	18384.94
234.507	18375.16
234.579	18368.46
234.651	18367.16
234.723	18378.25
234.795	18384.8
234.867	18378.87
234.939	18394.44
235.012	18402.63
235.084	18407.59
235.156	18420.75
235.228	18411.35
235.3	18406.24
235.372	18400.08
235.444	18418.73
235.516	18389.76
235.588	18389.81
235.66	18388.22
235.732	18367.98
235.804	18423.88
235.876	18442.1
235.948	18448.89
236.02	18458.48
236.092	18462.24
236.164	18461.66
236.236	18456.94
236.308	18441.81
236.38	18440.17
236.452	18424.8
236.524	18414.29
236.596	18419.3
236.668	18419.88
236.74	18417.23
236.812	18411.93
236.884	18420.65
236.956	18412.51
237.028	18400.12
237.1	18378.44
237.172	18386.73
237.244	18392.85
237.316	18340.8
237.388	18307.84
237.46	18291.65
237.532	18290.3
237.604	18272.52
237.675	18271.84
237.747	18264.37
237.819	18244.85
237.891	18234.54
237.963	18213.39
238.035	18202.98
238.107	18147.99
238.178	18146.93
238.25	18133.77
238.322	18144.76
238.394	18114.84
238.466	18093.01
238.538	18094.02
238.609	18083.66
238.681	18054.31
238.753	18027.47
238.825	17999.66
238.897	17991.42
238.968	17990.21
239.04	17961.2
239.112	17971.23
239.184	17942.79
239.255	17925.69
239.327	17919.37
239.399	17908.05
239.471	17909.54
239.542	17901.54
239.614	17905.25
239.686	17854.22
239.758	17844.39
239.829	17808.92
239.901	17795.23
239.973	17774.56
240.044	17746.03
240.116	17725.45
240.188	17700.39
240.259	17689.74
240.331	17669.4
240.403	17650.22
240.474	17610.9
240.546	17589.65
240.618	17552.3
240.689	17526.71
240.761	17506.08
240.833	17499.67
240.904	17477.07
240.976	17445.17
241.048	17413.98
241.119	17394.51
241.191	17378.61
241.262	17366.9
241.334	17337.84
241.405	17310.47
241.477	17287.04
241.549	17269.94
241.62	17250.47
241.692	17233.93
241.763	17215.67
241.835	17189.55
241.906	17171.81
241.978	17141.45
242.049	17116.39
242.121	17092.77
242.192	17082.41
242.264	17033.54
242.335	16984.1
242.407	16957.49
242.478	16924.14
242.55	16902.55
242.621	16865.25
242.693	16838.35
242.764	16807.56
242.836	16784.96
242.907	16763.56
242.979	16740.47
243.05	16715.8
243.122	16687.79
243.193	16656.42
243.264	16603.69
243.336	16579.64
243.407	16556.22
243.479	16544.8
243.55	16526.05
243.622	16506.24
243.693	16475.06
243.764	16476.21
243.836	16448.35
243.907	16423.48
243.978	16388.78
244.05	16361.5
244.121	16322.8
244.192	16303.62
244.264	16253.78
244.335	16223.66
244.407	16184.23
244.478	16162.88
244.549	16132.23
244.62	16092.46
244.692	16069.13
244.763	16055.01
244.834	16021.71
244.906	15987.44
244.977	15952.78
245.048	15937.65
245.119	15897.11
245.191	15858.12
245.262	15802.64
245.333	15779.99
245.405	15747.6
245.476	15729.23
245.547	15710.63
245.618	15685.95
245.689	15655.29
245.761	15637.46
245.832	15600.59
245.903	15580.24
245.974	15554.6
246.045	15520.48
246.117	15503.08
246.188	15455.4
246.259	15425.71
246.33	15396.79
246.401	15363.96
246.473	15318.12
246.544	15274.41
246.615	15260.28
246.686	15230.21
246.757	15217.29
246.828	15177.71
246.899	15162.67
246.97	15123.39
247.042	15083.96
247.113	15075.52
247.184	15067.09
247.255	15030.07
247.326	15005.19
247.397	14972.61
247.468	14940.75
247.539	14914.19
247.61	14870.66
247.681	14858.32
247.752	14836.29
247.823	14792.66
247.894	14768.42
247.965	14739.49
248.037	14712.93
248.108	14660.05
248.179	14634.31
248.25	14606.64
248.321	14587.79
248.392	14543.54
248.463	14538.87
248.534	14504.06
248.605	14475.09
248.675	14441.93
248.746	14419.22
248.817	14412.23
248.888	14390.4
248.959	14351.64
249.03	14332.89
249.101	14316.21
249.172	14279.77
249.243	14227.65
249.314	14219.12
249.385	14191.74
249.456	14174.34
249.527	14142.86
249.598	14133.17
249.669	14100.68
249.739	14074.84
249.81	14058.16
249.881	14023.07
249.952	13994.63
250.023	13968.84
250.094	13928.97
250.165	13893.63
250.235	13866.45
250.306	13821.08
250.377	13776.2
250.448	13749.26
250.519	13702.21
250.59	13683.31
250.66	13660.36
250.731	13653.71
250.802	13623.78
250.873	13599.29
250.944	13572.15
251.014	13538.3
251.085	13537.29
251.156	13524.04
251.227	13517.82
251.297	13504.85
251.368	13494.48
251.439	13477.95
251.51	13470.29
251.58	13432.83
251.651	13405.54
251.722	13394.84
251.792	13360.18
251.863	13339.69
251.934	13325.95
252.005	13330.29
252.075	13305.85
252.146	13288.74
252.217	13278.95
252.287	13274.28
252.358	13248.78
252.429	13247.96
252.499	13225.3
252.57	13193.19
252.641	13178.54
252.711	13141.32
252.782	13095.96
252.852	13084.2
252.923	13059.66
252.994	13033.82
253.064	13024.42
253.135	12995.64
253.205	12965.37
253.276	12964.46
253.347	12964.79
253.417	12934.95
253.488	12902.03
253.558	12878.55
253.629	12856.04
253.699	12837.58
253.77	12816.32
253.841	12797.37
253.911	12772.4
253.982	12747.82
254.052	12729.69
254.123	12707.86
254.193	12689.39
254.264	12716.49
254.334	12687.03
254.405	12652.04
254.475	12615.93
254.546	12595.25
254.616	12584.69
254.687	12568.98
254.757	12550.95
254.827	12524.92
254.898	12509.3
254.968	12497.54
255.039	12471.56
255.109	12459.22
255.18	12431.69
255.25	12385.08
255.321	12372.45
255.391	12337.26
255.461	12337.55
255.532	12294.79
255.602	12266.69
255.673	12231.55
255.743	12191.54
255.813	12148.45
255.884	12141.41
255.954	12137.75
256.024	12132.59
256.095	12109.6
256.165	12076.29
256.235	12053.15
256.306	12025.63
256.376	12023.66
256.446	12007.51
256.517	11990.78
256.587	11977.09
256.657	11956.17
256.728	11937.76
256.798	11913.23
256.868	11900.79
256.938	11873.51
257.009	11865.94
257.079	11855.63
257.149	11860.25
257.219	11816.3
257.29	11808.78
257.36	11768
257.43	11759.13
257.5	11718.79
257.571	11704.33
257.641	11696.47
257.711	11668.04
257.781	11652.85
257.852	11636.47
257.922	11600.65
257.992	11580.75
258.062	11562.53
258.132	11551.25
258.202	11533.32
258.273	11513.71
258.343	11504.02
258.413	11477.27
258.483	11461.61
258.553	11427.77
258.623	11397.22
258.693	11384.11
258.764	11383.72
258.834	11384.69
258.904	11360.39
258.974	11336.3
259.044	11309.79
259.114	11290.03
259.184	11280.83
259.254	11264.2
259.324	11222.32
259.394	11206.42
259.464	11211.77
259.535	11189.02
259.605	11166.13
259.675	11143.96
259.745	11134.66
259.815	11103.09
259.885	11078.66
259.955	11087.09
260.025	11065.36
260.095	11050.37
260.165	11043.34
260.235	11033.17
260.305	11007.73
260.375	10982.28
260.445	10992.69
260.515	10994.38
260.585	10993.6
260.655	10970.28
260.725	10962.86
260.795	10952.79
260.865	10961.99
260.934	10928.55
261.004	10920.69
261.074	10903.44
261.144	10902.29
261.214	10894.14
261.284	10878.96
261.354	10876.89
261.424	10845.9
261.494	10850.82
261.564	10836.99
261.634	10824.94
261.703	10784.32
261.773	10766.49
261.843	10757.1
261.913	10731.12
261.983	10694.7
262.053	10685.49
262.123	10672.96
262.192	10644.92
262.262	10641.26
