Data from 20250702_urea_0.5M_MAYP1162681_05-44-59-968.txt Node
Date: Thu Jul 03 05:44:59 BST 2025
User: adleo
Spectrometer: MAYP116268
Trigger mode: 0
Integration Time (sec): 1.000000E0
Scans to average: 1
Electric dark correction enabled: true
Nonlinearity correction enabled: true
Boxcar width: 10
XAxis mode: Wavelengths
Number of Pixels in Spectrum: 2068
>>>>>Begin Spectral Data<<<<<
179.565	1159.08
179.642	1215.47
179.718	1257.04
179.795	1295.32
179.871	1325.29
179.948	1341.29
180.024	1360.87
180.101	1385.92
180.177	1399.31
180.254	1420.58
180.33	1443.35
180.407	1493.38
180.483	1587.54
180.56	1676.81
180.636	1758.71
180.712	1744.49
180.789	1753.29
180.865	1767.92
180.942	1775.24
181.018	1787.64
181.095	1801.62
181.171	1806.89
181.248	1806.7
181.324	1821.58
181.4	1829.33
181.477	1841.17
181.553	1854.9
181.63	1877
181.706	1891.79
181.782	1900.73
181.859	1900.39
181.935	1902.15
182.011	1899.49
182.088	1915.28
182.164	1930.21
182.24	1943.14
182.317	1955.4
182.393	1957.11
182.469	1971.99
182.546	1987.16
182.622	1992.44
182.698	1987.07
182.775	1996.58
182.851	2010.03
182.927	2003.38
183.003	1997.72
183.08	1993.82
183.156	2003.28
183.232	1995.15
183.308	1982.02
183.385	1988.39
183.461	2007.37
183.537	2010.7
183.613	2022.63
183.69	2011.27
183.766	2000.23
183.842	2006.18
183.918	2009.7
183.995	2020.01
184.071	2019.06
184.147	2011.22
184.223	1998.33
184.299	2009.23
184.375	1999.81
184.452	2006.42
184.528	2060.04
184.604	2070.88
184.68	2080.06
184.756	2089.1
184.832	2094.33
184.908	2099.27
184.985	2099.65
185.061	2082.1
185.137	2089.9
185.213	2080.35
185.289	2083.82
185.365	2081.2
185.441	2079.16
185.517	2090.95
185.593	2090.05
185.669	2090.72
185.745	2101.56
185.822	2117.3
185.898	2109.54
185.974	2118.62
186.05	2111.63
186.126	2072.71
186.202	2065.34
186.278	2060.97
186.354	2048.17
186.43	2058.21
186.506	2055.55
186.582	2055.12
186.658	2061.58
186.734	2041.42
186.81	2043.04
186.886	2046.32
186.962	2057.31
187.038	2056.12
187.114	2052.84
187.19	2058.02
187.266	2047.04
187.341	2048.18
187.417	2042.47
187.493	2044.28
187.569	2046.28
187.645	2042
187.721	2032.96
187.797	2041.8
187.873	2048.32
187.949	2042.61
188.025	2035.86
188.101	2039
188.176	2046.22
188.252	2043.56
188.328	2053.26
188.404	2051.26
188.48	2044.13
188.556	2035.19
188.632	2030.86
188.707	2032.05
188.783	2029.05
188.859	2021.83
188.935	2008.65
189.011	2017.74
189.086	2010.75
189.162	2004.85
189.238	2001.05
189.314	1996.29
189.39	1992.01
189.465	1986.26
189.541	2005.28
189.617	1991.82
189.693	1985.17
189.768	1985.88
189.844	2007.91
189.92	1997.97
189.996	2006.91
190.071	2018.47
190.147	2019.99
190.223	2031.74
190.298	2021.99
190.374	2009.1
190.45	2023.36
190.526	2031.73
190.601	2022.22
190.677	2022.08
190.753	2045.77
190.828	2048.63
190.904	2061.94
190.98	2074.07
191.055	2082.64
191.131	2073.22
191.207	2089.81
191.282	2101.51
191.358	2092.28
191.433	2078.1
191.509	2093.51
191.585	2091.32
191.66	2092.41
191.736	2098.45
191.811	2087.42
191.887	2102.12
191.963	2123.57
192.038	2127.85
192.114	2128.52
192.189	2134.27
192.265	2133.37
192.34	2112.29
192.416	2110.2
192.491	2105.63
192.567	2106.58
192.642	2108.2
192.718	2107.91
192.793	2099.35
192.869	2095.88
192.944	2100.11
193.02	2107.67
193.095	2109.53
193.171	2115.09
193.246	2115
193.322	2112.38
193.397	2114.86
193.473	2101.72
193.548	2085.6
193.624	2092.31
193.699	2093.07
193.775	2110.63
193.85	2112.96
193.925	2119.14
194.001	2119.24
194.076	2114.67
194.152	2105.53
194.227	2097.97
194.302	2088.65
194.378	2092.74
194.453	2090.46
194.529	2101.69
194.604	2086.56
194.679	2082.28
194.755	2063.36
194.83	2074.4
194.905	2072.3
194.981	2081.05
195.056	2073.97
195.131	2078.63
195.207	2076.35
195.282	2065.12
195.357	2043.85
195.433	2059.12
195.508	2052.56
195.583	2056.89
195.659	2068.49
195.734	2076.06
195.809	2076.25
195.884	2084.95
195.96	2083.67
196.035	2098.93
196.11	2093.84
196.185	2103.45
196.261	2105.78
196.336	2139.89
196.411	2127.18
196.486	2133.75
196.561	2127.9
196.637	2136.6
196.712	2153.68
196.787	2156.3
196.862	2172.66
196.937	2182.6
197.013	2186.07
197.088	2197.02
197.163	2221.15
197.238	2238.43
197.313	2238.24
197.388	2252.23
197.464	2282.5
197.539	2291.73
197.614	2286.16
197.689	2300.11
197.764	2321.77
197.839	2341.52
197.914	2332.61
197.989	2355.84
198.065	2368.31
198.14	2417.8
198.215	2443.64
198.29	2454.36
198.365	2466.31
198.44	2479.4
198.515	2506.97
198.59	2519.4
198.665	2543.35
198.74	2551.64
198.815	2553.68
198.89	2575.87
198.965	2605.93
199.04	2601.36
199.115	2620.17
199.19	2660.13
199.265	2662.65
199.34	2672.37
199.415	2706.26
199.49	2728.83
199.565	2736.69
199.64	2761.42
199.715	2757.5
199.79	2766.6
199.865	2775.61
199.94	2774.09
200.015	2802.63
200.09	2805.35
200.165	2812.4
200.24	2819.03
200.315	2858.52
200.39	2872.2
200.464	2878.58
200.539	2877.82
200.614	2893.54
200.689	2914.42
200.764	2920.52
200.839	2936.67
200.914	2940.01
200.989	2931.14
201.063	2942.87
201.138	2926.1
201.213	2923.43
201.288	2905.18
201.363	2908.42
201.438	2906.08
201.512	2925.14
201.587	2909.03
201.662	2914.27
201.737	2930.57
201.812	2934.19
201.886	2899.71
201.961	2911.44
202.036	2900.34
202.111	2895.81
202.186	2865.8
202.26	2849.35
202.335	2827.24
202.41	2821.95
202.485	2804.8
202.559	2786.59
202.634	2760.58
202.709	2772.29
202.784	2755.62
202.858	2755.19
202.933	2736.8
203.008	2730.36
203.082	2707.74
203.157	2705.69
203.232	2665.16
203.306	2643.38
203.381	2615.13
203.456	2594.98
203.53	2570.67
203.605	2552.15
203.68	2530.52
203.754	2526.48
203.829	2510.71
203.904	2491.14
203.978	2479.28
204.053	2481.52
204.127	2466.95
204.202	2466.19
204.277	2442.96
204.351	2434.67
204.426	2427.72
204.5	2422.15
204.575	2386.88
204.65	2398.03
204.724	2389.98
204.799	2395.54
204.873	2389.54
204.948	2390.4
205.022	2376.27
205.097	2370.17
205.171	2381.45
205.246	2389.07
205.32	2389.16
205.395	2387.78
205.469	2381.6
205.544	2384.74
205.618	2368.37
205.693	2379.89
205.767	2367.61
205.842	2392.17
205.916	2387.99
205.991	2381.94
206.065	2384.65
206.14	2402.63
206.214	2401.78
206.289	2394.73
206.363	2408.48
206.438	2411.06
206.512	2416.06
206.586	2436.9
206.661	2442.9
206.735	2422.68
206.81	2425.35
206.884	2439.01
206.958	2428.21
207.033	2447.2
207.107	2457.25
207.181	2489.49
207.256	2484.25
207.33	2506.05
207.405	2518.64
207.479	2539.49
207.553	2546.16
207.628	2532.5
207.702	2545.92
207.776	2538.88
207.851	2545.21
207.925	2566.22
207.999	2568.55
208.073	2569.84
208.148	2574.94
208.222	2568.98
208.296	2608.69
208.371	2630.52
208.445	2646.62
208.519	2681.82
208.593	2700.64
208.668	2706.02
208.742	2719.18
208.816	2731.99
208.89	2752.92
208.965	2762.98
209.039	2783.1
209.113	2811.17
209.187	2848.65
209.261	2859.41
209.336	2891.34
209.41	2929.29
209.484	2946.13
209.558	2985.66
209.632	3018.59
209.707	3053.26
209.781	3097.46
209.855	3130.66
209.929	3169.57
210.003	3201.39
210.077	3227.1
210.151	3294.95
210.226	3360.02
210.3	3418.63
210.374	3470.4
210.448	3510.21
210.522	3556.44
210.596	3600.66
210.67	3647.88
210.744	3731.38
210.818	3803.34
210.892	3870.41
210.966	3904.85
211.041	3966.64
211.115	4007.92
211.189	4083.34
211.263	4148.01
211.337	4202.31
211.411	4269.83
211.485	4316.76
211.559	4384.32
211.633	4440.44
211.707	4467.48
211.781	4529.29
211.855	4556.28
211.929	4611.72
212.003	4656.97
212.077	4726.73
212.151	4801.09
212.225	4878.75
212.299	4935.2
212.373	4990.07
212.447	5054.99
212.52	5156.93
212.594	5230.73
212.668	5318.79
212.742	5378.18
212.816	5450.13
212.89	5521.11
212.964	5595.92
213.038	5677.59
213.112	5765.22
213.186	5861.49
213.26	5926.64
213.333	5966.27
213.407	6049.39
213.481	6132.12
213.555	6226.37
213.629	6296.83
213.703	6368.07
213.777	6450.03
213.85	6511.11
213.924	6633.48
213.998	6713.3
214.072	6793.06
214.146	6866.27
214.219	6945.64
214.293	7026.15
214.367	7108.55
214.441	7200.52
214.515	7276.37
214.588	7339.81
214.662	7393.54
214.736	7465.55
214.81	7555.99
214.883	7645.87
214.957	7722.16
215.031	7791.28
215.105	7847.91
215.178	7916.77
215.252	7990.69
215.326	8042.93
215.4	8110.02
215.473	8141.15
215.547	8201
215.621	8262.4
215.694	8342.96
215.768	8405.71
215.842	8469.27
215.915	8532.46
215.989	8587.52
216.063	8649.95
216.136	8721.18
216.21	8789.18
216.284	8867.36
216.357	8938.79
216.431	9009.32
216.504	9094.49
216.578	9195.69
216.652	9281.86
216.725	9356.01
216.799	9433.25
216.873	9515.79
216.946	9595.29
217.02	9661.4
217.093	9731.62
217.167	9782.43
217.24	9837.39
217.314	9894.27
217.387	9958.43
217.461	10027.26
217.535	10107.47
217.608	10172.21
217.682	10246.5
217.755	10335.19
217.829	10393.78
217.902	10471.25
217.976	10544.39
218.049	10599.8
218.123	10650.44
218.196	10729.51
218.27	10798.37
218.343	10852.44
218.417	10922.03
218.49	10992.19
218.563	11081.58
218.637	11159.94
218.71	11252.66
218.784	11329.77
218.857	11411.65
218.931	11485.48
219.004	11552.33
219.077	11631.86
219.151	11703.43
219.224	11766.33
219.298	11825.08
219.371	11909.19
219.444	11955.61
219.518	12015.23
219.591	12077.41
219.665	12167.74
219.738	12227.32
219.811	12282.89
219.885	12359.05
219.958	12421.86
220.031	12480.05
220.105	12540.78
220.178	12607.31
220.251	12659.56
220.325	12726.32
220.398	12794.29
220.471	12867.76
220.544	12938.67
220.618	12981.28
220.691	13037.54
220.764	13103.24
220.838	13170.68
220.911	13219.23
220.984	13308.89
221.057	13378.02
221.131	13444.35
221.204	13479.11
221.277	13553.3
221.35	13643.83
221.424	13702.4
221.497	13768.01
221.57	13835.79
221.643	13900.57
221.716	13970.33
221.79	14029.14
221.863	14085.88
221.936	14142.81
222.009	14192.8
222.082	14253.78
222.155	14313.6
222.229	14397.53
222.302	14454.89
222.375	14513.03
222.448	14576.37
222.521	14629.1
222.594	14685.46
222.667	14730.09
222.74	14796.76
222.814	14846.41
222.887	14890.71
222.96	14955.2
223.033	15026.01
223.106	15074.84
223.179	15134.18
223.252	15184.41
223.325	15236.66
223.398	15283.8
223.471	15337.16
223.544	15393.65
223.617	15444.94
223.69	15498.88
223.763	15531.61
223.837	15580.05
223.91	15633.75
223.983	15665.56
224.056	15694.62
224.129	15741.18
224.202	15801.34
224.275	15839.51
224.348	15875.66
224.42	15909.31
224.493	15931.29
224.566	15959.67
224.639	16004.26
224.712	16035.4
224.785	16073.18
224.858	16105.91
224.931	16139.99
225.004	16161.05
225.077	16199.56
225.15	16207.46
225.223	16249.93
225.296	16309.01
225.369	16336.25
225.442	16356.1
225.514	16389.99
225.587	16432.06
225.66	16472.26
225.733	16515.63
225.806	16553.03
225.879	16590
225.952	16616.37
226.025	16669.77
226.097	16726.06
226.17	16770.64
226.243	16789.87
226.316	16820.09
226.389	16868.38
226.461	16911.17
226.534	16957.35
226.607	16984.19
226.68	17051.37
226.753	17080.68
226.825	17091.23
226.898	17146.36
226.971	17192.25
227.044	17241.16
227.117	17278.51
227.189	17315.67
227.262	17347.28
227.335	17389.16
227.407	17420.68
227.48	17456.54
227.553	17487.96
227.626	17497.55
227.698	17522.37
227.771	17559.28
227.844	17574.18
227.916	17603.19
227.989	17622.32
228.062	17653.69
228.134	17705.16
228.207	17725.69
228.28	17759.28
228.352	17786.12
228.425	17807.47
228.498	17845.59
228.57	17861.69
228.643	17902.89
228.716	17926.51
228.788	17948.38
228.861	17963.08
228.934	17996.86
229.006	18031.18
229.079	18043.37
229.151	18064.91
229.224	18071.13
229.296	18098.36
229.369	18158.45
229.442	18194.06
229.514	18210.98
229.587	18237.82
229.659	18245.38
229.732	18277.53
229.804	18301.38
229.877	18345.67
229.949	18380.17
230.022	18412.22
230.094	18436.51
230.167	18453.86
230.239	18458.58
230.312	18479.83
230.384	18531.2
230.457	18555.78
230.529	18566.81
230.602	18599.97
230.674	18626.09
230.747	18662.81
230.819	18695.53
230.892	18673.94
230.964	18689.26
231.037	18711.33
231.109	18732.15
231.181	18753.93
231.254	18755.81
231.326	18770.22
231.399	18786.17
231.471	18787.96
231.544	18775.28
231.616	18799.09
231.688	18814.56
231.761	18829.59
231.833	18832.58
231.905	18814.56
231.978	18827.62
232.05	18841.98
232.122	18857.35
232.195	18865.2
232.267	18891.03
232.339	18893.73
232.412	18925.73
232.484	18927.42
232.556	18931.51
232.629	18954.84
232.701	18977.1
232.773	18992.52
232.846	18995.27
232.918	18998.21
232.99	19011.99
233.062	19028.52
233.135	19038.45
233.207	19031.31
233.279	19045.19
233.351	19070.06
233.424	19072.47
233.496	19065.34
233.568	19082.73
233.64	19071.31
233.713	19068.47
233.785	19062.01
233.857	19071.12
233.929	19059.12
234.001	19080.56
234.074	19098.49
234.146	19085.05
234.218	19079.6
234.29	19070.54
234.362	19062.49
234.434	19044.18
234.507	19029.48
234.579	19014.64
234.651	19007.41
234.723	19015.99
234.795	19022.35
234.867	19002.26
234.939	19013.15
235.012	19011.17
235.084	19011.08
235.156	19015.7
235.228	19002.64
235.3	19001.87
235.372	18990.35
235.444	18995.94
235.516	18958.31
235.588	18959.85
235.66	18946.74
235.732	18929.39
235.804	18983.22
235.876	18989.2
235.948	18995.8
236.02	18989.1
236.092	18982.55
236.164	18971.85
236.236	18960.62
236.308	18945.1
236.38	18944
236.452	18911.76
236.524	18902.65
236.596	18913.64
236.668	18907.85
236.74	18896
236.812	18880.87
236.884	18869.4
236.956	18858.46
237.028	18845.4
237.1	18827.76
237.172	18840
237.244	18841.3
237.316	18783.86
237.388	18762.71
237.46	18741.12
237.532	18736.97
237.604	18712.59
237.675	18707
237.747	18698.76
237.819	18670.42
237.891	18651.48
237.963	18643.53
238.035	18628.16
238.107	18568.26
238.178	18562.77
238.25	18551.01
238.322	18556.69
238.394	18526.38
238.466	18499.83
238.538	18485.76
238.609	18465.95
238.681	18420.94
238.753	18398.05
238.825	18379.21
238.897	18355.55
238.968	18344.7
239.04	18322.1
239.112	18332.56
239.184	18307.79
239.255	18274.4
239.327	18264.56
239.399	18246.59
239.471	18238.88
239.542	18216.86
239.614	18217.48
239.686	18171.94
239.758	18165.68
239.829	18122.55
239.901	18127.46
239.973	18114.69
240.044	18100.38
240.116	18077.54
240.188	18051.18
240.259	18023.66
240.331	17997.49
240.403	17988.43
240.474	17952.34
240.546	17912.43
240.618	17875.76
240.689	17838.46
240.761	17813.06
240.833	17801.59
240.904	17773.74
240.976	17730.65
241.048	17710.13
241.119	17686.75
241.191	17659.52
241.262	17633.5
241.334	17607.72
241.405	17565.45
241.477	17527.14
241.549	17496.39
241.62	17467
241.692	17450.85
241.763	17428.35
241.835	17393.6
241.906	17356.01
241.978	17314.47
242.049	17306.95
242.121	17278.42
242.192	17268.1
242.264	17230.8
242.335	17180.73
242.407	17158.7
242.478	17139.52
242.55	17114.85
242.621	17069.79
242.693	17048.58
242.764	17024.24
242.836	16988.82
242.907	16966.7
242.979	16943.47
243.05	16922.5
243.122	16903.8
243.193	16867.51
243.264	16820.86
243.336	16788.38
243.407	16770.21
243.479	16769.63
243.55	16737.92
243.622	16716.08
243.693	16686.35
243.764	16677
243.836	16644.71
243.907	16611.45
243.978	16575.59
244.05	16546.87
244.121	16510.53
244.192	16480.69
244.264	16432.4
244.335	16407.34
244.407	16360.78
244.478	16327.81
244.549	16286.46
244.62	16237.63
244.692	16202.35
244.763	16182.69
244.834	16150.01
244.906	16109.43
244.977	16081.52
245.048	16066.19
245.119	16024.26
245.191	15987.49
245.262	15930.47
245.333	15912.49
245.405	15876.72
245.476	15855.37
245.547	15824.96
245.618	15804.71
245.689	15771.89
245.761	15740.27
245.832	15702.14
245.903	15685.9
245.974	15669.13
246.045	15633.89
246.117	15623.87
246.188	15588.2
246.259	15551.76
246.33	15527.9
246.401	15498.25
246.473	15445.43
246.544	15407.83
246.615	15389.95
246.686	15351.53
246.757	15339.38
246.828	15298.7
246.899	15291.18
246.97	15248.14
247.042	15211.98
247.113	15186.1
247.184	15178.39
247.255	15145.42
247.326	15126.47
247.397	15086.51
247.468	15051.47
247.539	15032.67
247.61	14988.76
247.681	14971.36
247.752	14946.82
247.823	14910.67
247.894	14885.07
247.965	14848.39
248.037	14812.91
248.108	14764.95
248.179	14739.11
248.25	14708.11
248.321	14685.65
248.392	14643.04
248.463	14632.38
248.534	14600.18
248.605	14582.73
248.675	14554.1
248.746	14538.97
248.817	14512.5
248.888	14498.33
248.959	14452.1
249.03	14430.55
249.101	14406.93
249.172	14376.18
249.243	14329.75
249.314	14311.53
249.385	14288.3
249.456	14271.62
249.527	14240.62
249.598	14220.91
249.669	14188.41
249.739	14169.33
249.81	14151.92
249.881	14112.73
249.952	14082.02
250.023	14058.98
250.094	14013.33
250.165	13976.65
250.235	13948.73
250.306	13924.01
250.377	13884.38
250.448	13871.03
250.519	13819.49
250.59	13804.36
250.66	13772.4
250.731	13772.69
250.802	13746.99
250.873	13720.91
250.944	13700.47
251.014	13670.54
251.085	13667.11
251.156	13646.72
251.227	13629.85
251.297	13612.69
251.368	13599.05
251.439	13584.39
251.51	13566.84
251.58	13536.91
251.651	13507.07
251.722	13489.76
251.792	13444.06
251.863	13419.28
251.934	13403.71
252.005	13415.72
252.075	13389.2
252.146	13382.65
252.217	13357.39
252.287	13342.3
252.358	13316.17
252.429	13307.49
252.499	13276.06
252.57	13259.86
252.641	13254.18
252.711	13228.05
252.782	13193.97
252.852	13183.89
252.923	13153.91
252.994	13127.39
253.064	13117.17
253.135	13082.13
253.205	13050.02
253.276	13049.59
253.347	13051.13
253.417	13021.53
253.488	12992.22
253.558	12971.59
253.629	12941.7
253.699	12925.31
253.77	12914.32
253.841	12889.64
253.911	12870.94
253.982	12861.39
254.052	12842.93
254.123	12818.87
254.193	12800.17
254.264	12808.65
254.334	12781.8
254.405	12754.9
254.475	12726.37
254.546	12698.89
254.616	12688.91
254.687	12678.02
254.757	12658.88
254.827	12627.31
254.898	12613.66
254.968	12590.48
255.039	12557.22
255.109	12551.72
255.18	12522.9
255.25	12472.86
255.321	12459.89
255.391	12424.66
255.461	12418.2
255.532	12374.47
255.602	12347.29
255.673	12302.56
255.743	12268.72
255.813	12223.36
255.884	12214.1
255.954	12207.21
256.024	12211.69
256.095	12201.42
256.165	12167.73
256.235	12149.32
256.306	12123
256.376	12109.45
256.446	12096.87
256.517	12083.18
256.587	12068.72
256.657	12053.78
256.728	12039.42
256.798	12024.76
256.868	11995.75
256.938	11963.6
257.009	11946.05
257.079	11938.1
257.149	11949.52
257.219	11910.77
257.29	11899.59
257.36	11860.59
257.43	11852.45
257.5	11806.71
257.571	11778.03
257.641	11762.56
257.711	11720.96
257.781	11696.67
257.852	11684.38
257.922	11643.36
257.992	11624.76
258.062	11599.26
258.132	11585.52
258.202	11564.75
258.273	11543.2
258.343	11545.47
258.413	11521.95
258.483	11506.29
258.553	11470.86
258.623	11438.62
258.693	11430.04
258.764	11430.42
258.834	11431.96
258.904	11405.5
258.974	11380.83
259.044	11362.08
259.114	11354.08
259.184	11352.49
259.254	11336.39
259.324	11297.93
259.394	11294.9
259.464	11296.2
259.535	11277.84
259.605	11255.19
259.675	11229.74
259.745	11210.99
259.815	11183.57
259.885	11162.9
259.955	11172.54
260.025	11148.2
260.095	11134.56
260.165	11119.72
260.235	11112.97
260.305	11077.6
260.375	11048.54
260.445	11051.48
260.515	11053.84
260.585	11046.04
260.655	11025.51
260.725	11028.98
260.795	11016.54
260.865	11015.44
260.934	10990.42
261.004	10975
261.074	10956.26
261.144	10956.45
261.214	10954.18
261.284	10937.32
261.354	10936.89
261.424	10904.64
261.494	10910.09
261.564	10892.89
261.634	10881.32
261.703	10842.67
261.773	10843.64
261.843	10837.23
261.913	10818.68
261.983	10779.98
262.053	10770.54
262.123	10756.81
262.192	10721.39
262.262	10715.9
262.332	10675.18
