Data from 20250702_urea_0.5M_MAYP1162681_16-24-59-853.txt Node
Date: Wed Jul 02 16:24:59 BST 2025
User: adleo
Spectrometer: MAYP116268
Trigger mode: 0
Integration Time (sec): 1.000000E0
Scans to average: 1
Electric dark correction enabled: true
Nonlinearity correction enabled: true
Boxcar width: 10
XAxis mode: Wavelengths
Number of Pixels in Spectrum: 2068
>>>>>Begin Spectral Data<<<<<
179.565	1126.49
179.642	1180.79
179.718	1219.44
179.795	1253.85
179.871	1283.94
179.948	1301.98
180.024	1319.42
180.101	1341.63
180.177	1355.46
180.254	1375.69
180.33	1397.04
180.407	1446.36
180.483	1533.73
180.56	1619.39
180.636	1697.72
180.712	1686.69
180.789	1698.9
180.865	1711.49
180.942	1722.32
181.018	1732.4
181.095	1740.15
181.171	1746.42
181.248	1746.42
181.324	1764.01
181.4	1772.8
181.477	1783.92
181.553	1798.22
181.63	1819.42
181.706	1832.97
181.782	1839.95
181.859	1840.8
181.935	1845.99
182.011	1841.38
182.088	1858.06
182.164	1874.7
182.24	1887.82
182.317	1895.33
182.393	1891.95
182.469	1904.98
182.546	1914.39
182.622	1917.86
182.698	1918.05
182.775	1926.89
182.851	1940.54
182.927	1930.17
183.003	1926.7
183.08	1920.81
183.156	1927.65
183.232	1922.57
183.308	1912.82
183.385	1923.14
183.461	1937.97
183.537	1938.49
183.613	1951.42
183.69	1943.15
183.766	1933.73
183.842	1942.1
183.918	1948.14
183.995	1962.74
184.071	1965.02
184.147	1961.03
184.223	1951.47
184.299	1958.61
184.375	1949.05
184.452	1952.81
184.528	2007.32
184.604	2016.21
184.68	2026.52
184.756	2031.76
184.832	2037.56
184.908	2042.03
184.985	2039.08
185.061	2026.05
185.137	2034.71
185.213	2022.15
185.289	2023.48
185.365	2013.41
185.441	2011.22
185.517	2022.3
185.593	2016.83
185.669	2015.69
185.745	2025.68
185.822	2040.56
185.898	2032.38
185.974	2043.6
186.05	2039.98
186.126	2002.12
186.202	1995.46
186.278	1993.32
186.354	1983.33
186.43	1989.95
186.506	1989.09
186.582	1989.57
186.658	1997.08
186.734	1978.16
186.81	1980.72
186.886	1983.48
186.962	1998.17
187.038	1994.13
187.114	1986.66
187.19	1993.79
187.266	1983.81
187.341	1985.66
187.417	1979.96
187.493	1979.53
187.569	1980.72
187.645	1975.2
187.721	1961.98
187.797	1971.02
187.873	1976.06
187.949	1970.64
188.025	1963.22
188.101	1966.26
188.176	1968.87
188.252	1962.22
188.328	1969.25
188.404	1968.45
188.48	1965.88
188.556	1959.55
188.632	1959.93
188.707	1960.98
188.783	1957.13
188.859	1953.56
188.935	1943.43
189.011	1950.04
189.086	1947.52
189.162	1939.01
189.238	1934.73
189.314	1933.12
189.39	1924.94
189.465	1916.95
189.541	1934.26
189.617	1919.95
189.693	1913.91
189.768	1918.05
189.844	1943.16
189.92	1934.42
189.996	1944.17
190.071	1954.49
190.147	1952.49
190.223	1962.19
190.298	1954.63
190.374	1945.07
190.45	1958.38
190.526	1965.99
190.601	1962.28
190.677	1961.9
190.753	1989.21
190.828	1992.2
190.904	2008.66
190.98	2021.97
191.055	2029.2
191.131	2021.31
191.207	2041.7
191.282	2052.45
191.358	2043.8
191.433	2027.57
191.509	2039.45
191.585	2036.22
191.66	2036.41
191.736	2044.92
191.811	2033.7
191.887	2049.06
191.963	2071.27
192.038	2073.46
192.114	2074.6
192.189	2076.31
192.265	2074.18
192.34	2052.72
192.416	2054.33
192.491	2050.72
192.567	2054.95
192.642	2058.9
192.718	2058.85
192.793	2047.72
192.869	2041.78
192.944	2044.01
193.02	2052.2
193.095	2059.47
193.171	2064.13
193.246	2063.37
193.322	2061.71
193.397	2062.71
193.473	2048.39
193.548	2030.88
193.624	2036.73
193.699	2033.5
193.775	2048.91
193.85	2050.77
193.925	2059.38
194.001	2057.57
194.076	2049.15
194.152	2038.26
194.227	2031.31
194.302	2021
194.378	2024.33
194.453	2024.42
194.529	2037.07
194.604	2023.71
194.679	2016.95
194.755	2000.55
194.83	2010.78
194.905	2006.98
194.981	2016.73
195.056	2012.59
195.131	2015.54
195.207	2012.07
195.282	2004.55
195.357	1985.19
195.433	1999.65
195.508	1990.19
195.583	1996.51
195.659	2009.49
195.734	2017.11
195.809	2013.87
195.884	2024.9
195.96	2026.99
196.035	2038.6
196.11	2034.08
196.185	2043.07
196.261	2044.3
196.336	2072.69
196.411	2061.56
196.486	2065.75
196.561	2059.04
196.637	2066.31
196.712	2083.3
196.787	2089.48
196.862	2102.61
196.937	2115.74
197.013	2120.49
197.088	2128.1
197.163	2149.04
197.238	2164.85
197.313	2165.7
197.388	2181.64
197.464	2209.91
197.539	2218.76
197.614	2213.19
197.689	2229.09
197.764	2244.22
197.839	2264.72
197.914	2260.06
197.989	2281.33
198.065	2296.13
198.14	2344.08
198.215	2369.69
198.29	2381.64
198.365	2390.73
198.44	2399.44
198.515	2423.72
198.59	2438.48
198.665	2464.66
198.74	2471.23
198.815	2472.42
198.89	2495.42
198.965	2522.61
199.04	2518.37
199.115	2532.89
199.19	2570.84
199.265	2569.41
199.34	2583.55
199.415	2615.67
199.49	2635.9
199.565	2645
199.64	2667.86
199.715	2664.72
199.79	2668.43
199.865	2673.81
199.94	2673.58
200.015	2708.12
200.09	2714.08
200.165	2720.46
200.24	2727.61
200.315	2766.32
200.39	2782.95
200.464	2785.81
200.539	2791.44
200.614	2807.06
200.689	2830.41
200.764	2837.9
200.839	2854.85
200.914	2855.66
200.989	2845.41
201.063	2859.14
201.138	2841.85
201.213	2843.33
201.288	2826.51
201.363	2835.23
201.438	2836.42
201.512	2850.37
201.587	2833.21
201.662	2834.07
201.737	2844.22
201.812	2852.09
201.886	2821.99
201.961	2829.19
202.036	2820.52
202.111	2814.71
202.186	2789.99
202.26	2772.54
202.335	2751.58
202.41	2745.67
202.485	2731.76
202.559	2712.52
202.634	2687.55
202.709	2698.41
202.784	2679.3
202.858	2676.4
202.933	2658.92
203.008	2651.82
203.082	2635.05
203.157	2633.2
203.232	2593.25
203.306	2574.01
203.381	2544.99
203.456	2523.42
203.53	2500.35
203.605	2479.36
203.68	2458.31
203.754	2446.93
203.829	2435.5
203.904	2416.94
203.978	2406.7
204.053	2410.89
204.127	2400.28
204.202	2397.9
204.277	2379.86
204.351	2370.34
204.426	2363.38
204.5	2356.05
204.575	2323.08
204.65	2331.93
204.724	2325.6
204.799	2333.26
204.873	2326.59
204.948	2321.97
205.022	2307.03
205.097	2300.37
205.171	2314.31
205.246	2321.17
205.32	2322.31
205.395	2320.45
205.469	2315.36
205.544	2318.88
205.618	2302.65
205.693	2314.22
205.767	2302.04
205.842	2322.94
205.916	2317.85
205.991	2309.47
206.065	2312.94
206.14	2327.69
206.214	2324.07
206.289	2316.88
206.363	2333.97
206.438	2341.3
206.512	2350.77
206.586	2369.71
206.661	2377.81
206.735	2356.44
206.81	2360.35
206.884	2377.2
206.958	2369.3
207.033	2385.43
207.107	2393.76
207.181	2425.19
207.256	2420
207.33	2444.14
207.405	2459.72
207.479	2485.95
207.553	2499.99
207.628	2492.86
207.702	2510.66
207.776	2509.71
207.851	2518.47
207.925	2538.58
207.999	2544.34
208.073	2554.01
208.148	2571.54
208.222	2572.25
208.296	2616.76
208.371	2643.84
208.445	2670.62
208.519	2710.92
208.593	2741.6
208.668	2760.43
208.742	2784.37
208.816	2813.48
208.89	2852.15
208.965	2876.05
209.039	2910.81
209.113	2954.67
209.187	3007.66
209.261	3038.84
209.336	3099.22
209.41	3158.99
209.484	3201.75
209.558	3265.12
209.632	3321.8
209.707	3379.69
209.781	3451.14
209.855	3522.24
209.929	3596.7
210.003	3660.26
210.077	3727.04
210.151	3838.63
210.226	3941.85
210.3	4041.1
210.374	4136.05
210.448	4217.45
210.522	4311.78
210.596	4408.08
210.67	4503.08
210.744	4642.95
210.818	4770.37
210.892	4890.33
210.966	4988.38
211.041	5108.32
211.115	5217.29
211.189	5352.84
211.263	5484.2
211.337	5613.04
211.411	5746.5
211.485	5865.91
211.559	6007.24
211.633	6141.97
211.707	6253.26
211.781	6393.62
211.855	6501.85
211.929	6641.68
212.003	6764.91
212.077	6920.57
212.151	7083.7
212.225	7256.06
212.299	7399.98
212.373	7543.69
212.447	7691.02
212.52	7879.66
212.594	8044.88
212.668	8220.24
212.742	8375.54
212.816	8538.08
212.89	8696.77
212.964	8862.01
213.038	9042.1
213.112	9226.87
213.186	9411.64
213.26	9561.71
213.333	9697.51
213.407	9878.91
213.481	10057.87
213.555	10249.73
213.629	10413.52
213.703	10569.19
213.777	10741.35
213.85	10897.13
213.924	11111.9
213.998	11285.52
214.072	11454.34
214.146	11612.51
214.219	11782.02
214.293	11950.41
214.367	12128.27
214.441	12316.72
214.515	12487.31
214.588	12630.03
214.662	12763.8
214.736	12909.85
214.81	13086.71
214.883	13268.05
214.957	13412.81
215.031	13558.97
215.105	13701.84
215.178	13850.99
215.252	14013.44
215.326	14146.54
215.4	14282.86
215.473	14384.38
215.547	14524.85
215.621	14667.53
215.694	14825.63
215.768	14950.72
215.842	15080.97
215.915	15210.92
215.989	15326.12
216.063	15452.84
216.136	15595.18
216.21	15733.9
216.284	15885.1
216.357	16012.97
216.431	16127.54
216.504	16270.45
216.578	16421.7
216.652	16556.02
216.725	16685.57
216.799	16817.58
216.873	16946.17
216.946	17076.68
217.02	17196.44
217.093	17317.8
217.167	17411.48
217.24	17508.88
217.314	17620.64
217.387	17733.17
217.461	17833.65
217.535	17955.29
217.608	18050.9
217.682	18152.78
217.755	18265.98
217.829	18363.13
217.902	18465.06
217.976	18572.81
218.049	18669.09
218.123	18746.25
218.196	18846.19
218.27	18925.71
218.343	18993.99
218.417	19084.16
218.49	19168.05
218.563	19269.54
218.637	19362.31
218.71	19468.23
218.784	19570.25
218.857	19669.04
218.931	19755.4
219.004	19851.4
219.077	19941.03
219.151	20028.74
219.224	20099.78
219.298	20182.71
219.371	20259.68
219.444	20322.9
219.518	20393.02
219.591	20470.42
219.665	20579.82
219.738	20652.07
219.811	20723.78
219.885	20808.7
219.958	20873.47
220.031	20940.56
220.105	21017.43
220.178	21076.81
220.251	21134.07
220.325	21196.63
220.398	21245.4
220.471	21301.41
220.544	21361.03
220.618	21414.39
220.691	21470.59
220.764	21528.62
220.838	21580.05
220.911	21631.43
220.984	21705.13
221.057	21766.1
221.131	21820.47
221.204	21838.84
221.277	21912.93
221.35	21988.08
221.424	22018.83
221.497	22063.47
221.57	22106.23
221.643	22135.44
221.716	22178.15
221.79	22204.32
221.863	22242.07
221.936	22278.22
222.009	22324.5
222.082	22362.97
222.155	22390.6
222.229	22441.89
222.302	22476.55
222.375	22499.36
222.448	22531.95
222.521	22551.76
222.594	22575.96
222.667	22582.71
222.74	22617.18
222.814	22628.42
222.887	22643.8
222.96	22685.55
223.033	22715.87
223.106	22745.33
223.179	22774.88
223.252	22804.44
223.325	22837.08
223.398	22854.1
223.471	22886.5
223.544	22895.66
223.617	22908.34
223.69	22921.7
223.763	22913.26
223.837	22940.5
223.91	22960.17
223.983	22967.69
224.056	22969.52
224.129	22985.72
224.202	23007.61
224.275	23012.58
224.348	23011.95
224.42	23004.62
224.493	22998.45
224.566	23014.89
224.639	23031.82
224.712	23031.1
224.785	23027.48
224.858	23025.89
224.931	23027.38
225.004	23024.83
225.077	23039.44
225.15	23009.64
225.223	23007.76
225.296	23043.59
225.369	23025.26
225.442	23027.43
225.514	23022.03
225.587	23033.7
225.66	23036.55
225.733	23039.15
225.806	23042.86
225.879	23050.87
225.952	23039.54
226.025	23060.61
226.097	23064.85
226.17	23050.97
226.243	23035.3
226.316	23028.98
226.389	23027.58
226.461	23029.61
226.534	23033.46
226.607	23024.98
226.68	23065.86
226.753	23059.5
226.825	23030.47
226.898	23047.4
226.971	23037.13
227.044	23040.84
227.117	23037.22
227.189	23033.03
227.262	23034.96
227.335	23027
227.407	23006.89
227.48	23012.82
227.553	22993.68
227.626	22972.22
227.698	22961.76
227.771	22959.64
227.844	22944.74
227.916	22941.61
227.989	22916.63
228.062	22900.48
228.134	22908.29
228.207	22876.52
228.28	22866.25
228.352	22859.69
228.425	22842.19
228.498	22848.17
228.57	22834.47
228.643	22822.27
228.716	22805.3
228.788	22784.72
228.861	22771.65
228.934	22766.59
229.006	22748.27
229.079	22734.77
229.151	22722.38
229.224	22696.25
229.296	22688.34
229.369	22700.44
229.442	22701.79
229.514	22684.29
229.587	22679.23
229.659	22646.4
229.732	22631.6
229.804	22629.52
229.877	22633.24
229.949	22636.18
230.022	22626.87
230.094	22610.87
230.167	22605.08
230.239	22581.75
230.312	22569.74
230.384	22573.02
230.457	22563.48
230.529	22551.66
230.602	22540.62
230.674	22528.91
230.747	22536.19
230.819	22535.61
230.892	22494.44
230.964	22475.2
231.037	22469.13
231.109	22449.55
231.181	22438.8
231.254	22425.07
231.326	22405.49
231.399	22380.52
231.471	22348.7
231.544	22313.22
231.616	22301.46
231.688	22287.38
231.761	22272.48
231.833	22241.49
231.905	22197.52
231.978	22183.78
232.05	22162
232.122	22144.3
232.195	22116.63
232.267	22105.69
232.339	22069.44
232.412	22061.63
232.484	22030.73
232.556	22004.41
232.629	22005.04
232.701	22001.37
232.773	21983.73
232.846	21957.17
232.918	21936.78
232.99	21919.04
233.062	21899.95
233.135	21879.42
233.207	21840.76
233.279	21824.27
233.351	21810.15
233.424	21786.82
233.496	21747.88
233.568	21744.26
233.64	21706.76
233.713	21683.91
233.785	21658.7
233.857	21639.9
233.929	21605.54
234.001	21601.68
234.074	21587.9
234.146	21535.07
234.218	21510.92
234.29	21479.06
234.362	21451.63
234.434	21409.36
234.507	21368.3
234.579	21332.25
234.651	21295.33
234.723	21275.57
234.795	21254.26
234.867	21222.21
234.939	21205.92
235.012	21173.24
235.084	21148.61
235.156	21121
235.228	21088.9
235.3	21050.92
235.372	21025.38
235.444	20995.16
235.516	20933.99
235.588	20912.64
235.66	20896.31
235.732	20849.55
235.804	20876.79
235.876	20849.85
235.948	20829.03
236.02	20793.7
236.092	20763.82
236.164	20729.84
236.236	20696.98
236.308	20653.65
236.38	20631.53
236.452	20594.56
236.524	20568.54
236.596	20548.73
236.668	20522.08
236.74	20492.83
236.812	20458.85
236.884	20430.9
236.956	20414.27
237.028	20374.85
237.1	20328.92
237.172	20310.27
237.244	20288.59
237.316	20210.22
237.388	20177.02
237.46	20135.91
237.532	20119.86
237.604	20074.27
237.675	20062.52
237.747	20032.93
237.819	19990.76
237.891	19962.71
237.963	19924.06
238.035	19891.87
238.107	19825.13
238.178	19813.18
238.25	19771.2
238.322	19761.85
238.394	19709.95
238.466	19657.04
238.538	19639.69
238.609	19603.93
238.681	19534.39
238.753	19485.87
238.825	19455.99
238.897	19417.77
238.968	19406.21
239.04	19363.46
239.112	19359.7
239.184	19310.21
239.255	19279.71
239.327	19249.06
239.399	19210.08
239.471	19185.64
239.542	19152.97
239.614	19132.49
239.686	19069.94
239.758	19047.43
239.829	19000.69
239.901	18976.21
239.973	18949.18
240.044	18911.25
240.116	18879.16
240.188	18844.94
240.259	18816.12
240.331	18776.42
240.403	18750.25
240.474	18696.66
240.546	18650.06
240.618	18592.04
240.689	18555.9
240.761	18523.32
240.833	18505.49
240.904	18469.16
240.976	18421.64
241.048	18389.06
241.119	18353.02
241.191	18324.01
241.262	18302.03
241.334	18260.3
241.405	18219.82
241.477	18178.13
241.549	18140.93
241.62	18100.16
241.692	18079.68
241.763	18056.79
241.835	18027.35
241.906	17989.42
241.978	17934.58
242.049	17908.36
242.121	17880.6
242.192	17856.84
242.264	17801.95
242.335	17753.42
242.407	17717.18
242.478	17681.23
242.55	17651.02
242.621	17611.31
242.693	17558.2
242.764	17513.38
242.836	17476.03
242.907	17457
242.979	17431.98
243.05	17401.14
243.122	17379.84
243.193	17340.56
243.264	17275.89
243.336	17236.03
243.407	17214.15
243.479	17203.84
243.55	17183.84
243.622	17159.16
243.693	17121.33
243.764	17100.27
243.836	17051.83
243.907	17016.6
243.978	16985.37
244.05	16950.58
244.121	16901.71
244.192	16886.52
244.264	16838.23
244.335	16802.33
244.407	16745.55
244.478	16703.09
244.549	16662.32
244.62	16608.58
244.692	16576.05
244.763	16563.08
244.834	16521.44
244.906	16473
244.977	16442.21
245.048	16420.28
245.119	16375.55
245.191	16338.59
245.262	16285.42
245.333	16271.35
245.405	16235.54
245.476	16203.25
245.547	16165.12
245.618	16140.78
245.689	16103.14
245.761	16074.75
245.832	16035.03
245.903	16009.73
245.974	15987.41
246.045	15955.89
246.117	15944.32
246.188	15897.71
246.259	15849.9
246.33	15812.16
246.401	15774.18
246.473	15719.95
246.544	15674.89
246.615	15652.23
246.686	15613.82
246.757	15598.97
246.828	15551.4
246.899	15536.21
246.97	15483.96
247.042	15448.25
247.113	15424.92
247.184	15420.05
247.255	15378.02
247.326	15352.9
247.397	15315.93
247.468	15291.06
247.539	15257.17
247.61	15210.51
247.681	15193.16
247.752	15170.36
247.823	15132.81
247.894	15101.19
247.965	15073.47
248.037	15031.34
248.108	14987.19
248.179	14949.16
248.25	14911.17
248.321	14892.23
248.392	14847.25
248.463	14843.21
248.534	14814.38
248.605	14794.33
248.675	14752.44
248.746	14734.7
248.817	14708.14
248.888	14689.77
248.959	14642.05
249.03	14616.74
249.101	14584.59
249.172	14544.39
249.243	14503.65
249.314	14489.53
249.385	14472.13
249.456	14443.54
249.527	14412.06
249.598	14393.55
249.669	14370.17
249.739	14353.4
249.81	14339.08
249.881	14309.39
249.952	14293.24
250.023	14263.11
250.094	14215.43
250.165	14179.14
250.235	14153.2
250.306	14136.67
250.377	14096.46
250.448	14074.38
250.519	14031.24
250.59	14027
250.66	14006.08
250.731	13993.98
250.802	13974.02
250.873	13952.33
250.944	13928.75
251.014	13905.86
251.085	13897.18
251.156	13879.92
251.227	13860.83
251.297	13845.6
251.368	13822.89
251.439	13798.6
251.51	13782.74
251.58	13751.64
251.651	13723.63
251.722	13715.2
251.792	13664.1
251.863	13635.95
251.934	13617
252.005	13620.81
252.075	13590.44
252.146	13572.46
252.217	13557.32
252.287	13533.51
252.358	13503.23
252.429	13497.93
252.499	13466.31
252.57	13441.1
252.641	13435.5
252.711	13417.62
252.782	13376.07
252.852	13373.94
252.923	13339.28
252.994	13326.51
253.064	13314.55
253.135	13283.8
253.205	13240.94
253.276	13238.19
253.347	13227.2
253.417	13198.09
253.488	13171.86
253.558	13139.85
253.629	13113.77
253.699	13087.79
253.77	13068.22
253.841	13039.78
253.911	13022.18
253.982	13003.38
254.052	12988.1
254.123	12956
254.193	12921.05
254.264	12927.26
254.334	12888.27
254.405	12858.43
254.475	12821.89
254.546	12798.84
254.616	12785.4
254.687	12775.66
254.757	12759.85
254.827	12736.76
254.898	12719.69
254.968	12700.79
255.039	12677.32
255.109	12660.74
255.18	12624.87
255.25	12577.97
255.321	12564.28
255.391	12526.44
255.461	12531.89
255.532	12486.72
255.602	12459.43
255.673	12422.12
255.743	12387.27
255.813	12347.7
255.884	12339.74
255.954	12323.55
256.024	12320.46
256.095	12304.07
256.165	12264.93
256.235	12240.11
256.306	12216.78
256.376	12209.93
256.446	12195.42
256.517	12177.2
256.587	12168.14
256.657	12158.36
256.728	12147.22
256.798	12129.34
256.868	12108.13
256.938	12074.15
257.009	12067.4
257.079	12046.86
257.149	12059.97
257.219	12023.68
257.29	12019.2
257.36	11978.66
257.43	11967.91
257.5	11927.57
257.571	11905.01
257.641	11896.81
257.711	11865.53
257.781	11851.31
257.852	11831.12
257.922	11791.02
257.992	11779.54
258.062	11757.76
258.132	11744.84
258.202	11725.46
258.273	11707.1
258.343	11703.34
258.413	11677.55
258.483	11652.06
258.553	11631.43
258.623	11594.56
258.693	11574.94
258.764	11565.11
258.834	11568
258.904	11553.88
258.974	11528.96
259.044	11507.75
259.114	11490.64
259.184	11484.86
259.254	11468.09
259.324	11427.03
259.394	11419.41
259.464	11414.69
259.535	11397.96
259.605	11375.6
259.675	11348.81
259.745	11331.84
259.815	11304.03
259.885	11276.9
259.955	11285
260.025	11254.3
260.095	11242.25
260.165	11238.01
260.235	11233.43
260.305	11206.78
260.375	11165.29
260.445	11173.48
260.515	11166.35
260.585	11163.89
260.655	11143.26
260.725	11138.73
260.795	11132.47
260.865	11132.47
260.934	11102.35
261.004	11085.91
261.074	11068.9
261.144	11071.65
261.214	11068.23
261.284	11053.58
261.354	11052.61
261.424	11019.07
261.494	11027.94
261.564	11009.67
261.634	10998.88
261.703	10958.64
261.773	10950.11
261.843	10947.17
261.913	10923.85
261.983	10896.14
262.053	10877.97
262.123	10858.36
262.192	10826.99
