Data from 20250702_urea_0.5M_MAYP1162681_06-14-59-849.txt Node
Date: Thu Jul 03 06:14:59 BST 2025
User: adleo
Spectrometer: MAYP116268
Trigger mode: 0
Integration Time (sec): 1.000000E0
Scans to average: 1
Electric dark correction enabled: true
Nonlinearity correction enabled: true
Boxcar width: 10
XAxis mode: Wavelengths
Number of Pixels in Spectrum: 2068
>>>>>Begin Spectral Data<<<<<
179.565	1178.98
179.642	1235.42
179.718	1274.5
179.795	1311.56
179.871	1342.55
179.948	1357.69
180.024	1378.39
180.101	1399.17
180.177	1413.46
180.254	1436.44
180.33	1457.76
180.407	1508.99
180.483	1601.63
180.56	1690.76
180.636	1771.94
180.712	1759.1
180.789	1769.61
180.865	1783.29
180.942	1791.04
181.018	1800.4
181.095	1814.14
181.171	1818.42
181.248	1817.7
181.324	1835.29
181.4	1845.33
181.477	1856.12
181.553	1870.94
181.63	1893.34
181.706	1909.12
181.782	1917.39
181.859	1917.2
181.935	1920.76
182.011	1918.72
182.088	1935.74
182.164	1953.24
182.24	1967.6
182.317	1975.87
182.393	1973.92
182.469	1985.76
182.546	1999.41
182.622	2004.78
182.698	2000.26
182.775	2012.72
182.851	2030.51
182.927	2022.66
183.003	2014.48
183.08	2008.97
183.156	2016.91
183.232	2010.53
183.308	1999.26
183.385	2006.87
183.461	2022.18
183.537	2024.51
183.613	2035.21
183.69	2025.8
183.766	2015.28
183.842	2022.99
183.918	2029.79
183.995	2041.35
184.071	2043.96
184.147	2038.68
184.223	2028.13
184.299	2040.02
184.375	2027.42
184.452	2032.46
184.528	2088.08
184.604	2098.02
184.68	2108.86
184.756	2115.66
184.832	2121.23
184.908	2126.13
184.985	2124.51
185.061	2109.29
185.137	2119.28
185.213	2107.11
185.289	2108.91
185.365	2102.59
185.441	2101.64
185.517	2114.29
185.593	2113.63
185.669	2113.01
185.745	2124.14
185.822	2138.4
185.898	2129.51
185.974	2139.21
186.05	2127.55
186.126	2087.39
186.202	2082.16
186.278	2078.59
186.354	2070.41
186.43	2078.26
186.506	2077.83
186.582	2079.45
186.658	2085.54
186.734	2066.18
186.81	2073.36
186.886	2076.17
186.962	2090.2
187.038	2086.96
187.114	2078.97
187.19	2084.39
187.266	2072.5
187.341	2072.79
187.417	2066.85
187.493	2070.08
187.569	2074.03
187.645	2067.18
187.721	2056
187.797	2063.04
187.873	2066.18
187.949	2062.09
188.025	2053.95
188.101	2055.09
188.176	2057.71
188.252	2054.09
188.328	2063.32
188.404	2059.28
188.48	2054.04
188.556	2046.91
188.632	2045.86
188.707	2044.39
188.783	2042.58
188.859	2039.3
188.935	2029.45
189.011	2036.54
189.086	2028.84
189.162	2017.66
189.238	2016.71
189.314	2011.95
189.39	2004.25
189.465	1996.78
189.541	2011.81
189.617	1998.31
189.693	1995.5
189.768	1998.69
189.844	2023.95
189.92	2012.59
189.996	2023.15
190.071	2034.14
190.147	2031.28
190.223	2038.04
190.298	2033.33
190.374	2018.92
190.45	2029.9
190.526	2035.89
190.601	2031.95
190.677	2032.37
190.753	2062.78
190.828	2067.2
190.904	2081.66
190.98	2098.26
191.055	2112.29
191.131	2103.4
191.207	2121.71
191.282	2130.41
191.358	2123.66
191.433	2105.86
191.509	2121.6
191.585	2116.41
191.66	2116.74
191.736	2124.74
191.811	2117.12
191.887	2134.64
191.963	2156.8
192.038	2165.08
192.114	2164.98
192.189	2167.65
192.265	2166.55
192.34	2143.9
192.416	2143.23
192.491	2141.43
192.567	2142.66
192.642	2142.28
192.718	2143.28
192.793	2131.48
192.869	2131.1
192.944	2133.48
193.02	2142.76
193.095	2145.47
193.171	2150.32
193.246	2152.37
193.322	2149.51
193.397	2151.23
193.473	2135.71
193.548	2120.15
193.624	2126.67
193.699	2126.1
193.775	2141.04
193.85	2140.76
193.925	2148.23
194.001	2150.46
194.076	2144.28
194.152	2138.47
194.227	2128.48
194.302	2116.93
194.378	2120.64
194.453	2112.46
194.529	2124.5
194.604	2111.27
194.679	2104.14
194.755	2086.5
194.83	2096.25
194.905	2095.44
194.981	2103.82
195.056	2095.26
195.131	2099.82
195.207	2096.25
195.282	2086.08
195.357	2068.09
195.433	2084.55
195.508	2075.08
195.583	2077.7
195.659	2088.26
195.734	2093.26
195.809	2096.4
195.884	2104.62
195.96	2107.19
196.035	2121.89
196.11	2115.84
196.185	2125.31
196.261	2130.4
196.336	2163.89
196.411	2153.23
196.486	2156.6
196.561	2150.32
196.637	2157.84
196.712	2175.11
196.787	2176.16
196.862	2192.43
196.937	2203.13
197.013	2205.7
197.088	2215.74
197.163	2239.54
197.238	2258.11
197.313	2258.68
197.388	2274.29
197.464	2306.46
197.539	2317.5
197.614	2311.6
197.689	2324.74
197.764	2343.45
197.839	2361.29
197.914	2352.96
197.989	2373.43
198.065	2387.24
198.14	2436.92
198.215	2467
198.29	2479.05
198.365	2493.77
198.44	2503.48
198.515	2531.72
198.59	2549.24
198.665	2574.57
198.74	2581.58
198.815	2584.43
198.89	2604.81
198.965	2635.21
199.04	2630.88
199.115	2645.12
199.19	2688.26
199.265	2691.07
199.34	2700.03
199.415	2736.16
199.49	2757.49
199.565	2766.35
199.64	2788.32
199.715	2782.88
199.79	2789.12
199.865	2793.84
199.94	2793.27
200.015	2825.2
200.09	2828.15
200.165	2836.83
200.24	2844.4
200.315	2886.95
200.39	2899.92
200.464	2908.73
200.539	2907.4
200.614	2921.55
200.689	2945.91
200.764	2954.78
200.839	2969.21
200.914	2974.22
200.989	2960.58
201.063	2973.78
201.138	2956.11
201.213	2958.3
201.288	2942.38
201.363	2947.68
201.438	2948.3
201.512	2963.26
201.587	2945.76
201.662	2951.39
201.737	2959.59
201.812	2967.07
201.886	2930.29
201.961	2938.97
202.036	2925.1
202.111	2922.43
202.186	2895.43
202.26	2879.31
202.335	2859.43
202.41	2855.62
202.485	2840.66
202.559	2823.26
202.634	2796.63
202.709	2808.53
202.784	2793.19
202.858	2791.14
202.933	2770.89
203.008	2763.36
203.082	2744.73
203.157	2742.73
203.232	2698.3
203.306	2680.19
203.381	2646.12
203.456	2624.25
203.53	2602.23
203.605	2583.99
203.68	2559.7
203.754	2553.08
203.829	2534.45
203.904	2512.31
203.978	2501.88
204.053	2504.88
204.127	2489.07
204.202	2490.84
204.277	2471.69
204.351	2460.31
204.426	2451.93
204.5	2444.84
204.575	2410.76
204.65	2419.95
204.724	2414.28
204.799	2421.42
204.873	2414.37
204.948	2414.65
205.022	2403.52
205.097	2396.42
205.171	2407.8
205.246	2418.27
205.32	2421.56
205.395	2422.89
205.469	2412.99
205.544	2416.9
205.618	2397.95
205.693	2415.52
205.767	2400.53
205.842	2422.33
205.916	2414.29
205.991	2405.91
206.065	2411.29
206.14	2428.61
206.214	2423.66
206.289	2417.56
206.363	2433.98
206.438	2440.13
206.512	2448.03
206.586	2470.07
206.661	2476.46
206.735	2457.04
206.81	2455.85
206.884	2468.89
206.958	2458.61
207.033	2478.79
207.107	2487.89
207.181	2523.37
207.256	2513.9
207.33	2534.75
207.405	2546.86
207.479	2571
207.553	2580.66
207.628	2566.95
207.702	2574.71
207.776	2570.43
207.851	2573.14
207.925	2590.3
207.999	2590.25
208.073	2592.39
208.148	2597.06
208.222	2591.53
208.296	2628.24
208.371	2652.6
208.445	2667.42
208.519	2701.76
208.593	2719.01
208.668	2724.63
208.742	2733.6
208.816	2745.84
208.89	2768.14
208.965	2777.54
209.039	2797.8
209.113	2824.96
209.187	2859.92
209.261	2872.88
209.336	2905.48
209.41	2941.61
209.484	2957.49
209.558	2997.07
209.632	3026.15
209.707	3053.9
209.781	3097.34
209.855	3135.84
209.929	3177.33
210.003	3205.52
210.077	3232.43
210.151	3305.59
210.226	3366.41
210.3	3427.56
210.374	3484
210.448	3520
210.522	3564.69
210.596	3607.72
210.67	3656.42
210.744	3737.53
210.818	3812.68
210.892	3875.08
210.966	3912.28
211.041	3971
211.115	4011.33
211.189	4083.83
211.263	4154.04
211.337	4209.64
211.411	4271.85
211.485	4317.69
211.559	4384.24
211.633	4439.36
211.707	4468.65
211.781	4534.87
211.855	4554.68
211.929	4601.89
212.003	4645.22
212.077	4713.4
212.151	4789.91
212.225	4863.93
212.299	4919.27
212.373	4970.89
212.447	5033.79
212.52	5132.32
212.594	5205.77
212.668	5291.24
212.742	5347.45
212.816	5414.56
212.89	5476.24
212.964	5548.31
213.038	5617.26
213.112	5705.89
213.186	5796.7
213.26	5847.95
213.333	5877.74
213.407	5962.04
213.481	6044.52
213.555	6137.79
213.629	6208.78
213.703	6271.81
213.777	6350.35
213.85	6415.84
213.924	6529.98
213.998	6614.79
214.072	6688.58
214.146	6755.05
214.219	6829.99
214.293	6904.47
214.367	6983.22
214.441	7083.68
214.515	7156.83
214.588	7221.21
214.662	7271.15
214.736	7331.85
214.81	7418.66
214.883	7508.9
214.957	7576.14
215.031	7646.17
215.105	7703.61
215.178	7765.4
215.252	7838.11
215.326	7892.69
215.4	7948.04
215.473	7980.08
215.547	8031.89
215.621	8096.32
215.694	8181.29
215.768	8239.45
215.842	8311.43
215.915	8373.74
215.989	8416.67
216.063	8477.69
216.136	8551.08
216.21	8623.89
216.284	8708.41
216.357	8791.44
216.431	8860.75
216.504	8938.92
216.578	9038.72
216.652	9122.33
216.725	9198.54
216.799	9282.47
216.873	9351.85
216.946	9431.48
217.02	9499.13
217.093	9572.42
217.167	9620.29
217.24	9676.41
217.314	9737.08
217.387	9800.18
217.461	9863.08
217.535	9950.98
217.608	10014.57
217.682	10085.24
217.755	10162.07
217.829	10211.74
217.902	10279.67
217.976	10351.07
218.049	10411.53
218.123	10464.24
218.196	10541.04
218.27	10607.87
218.343	10653.89
218.417	10724.63
218.49	10786.98
218.563	10870.19
218.637	10935.54
218.71	11024.83
218.784	11093.6
218.857	11169.5
218.931	11239.66
219.004	11307.52
219.077	11374.85
219.151	11440.63
219.224	11507.29
219.298	11572.74
219.371	11658.58
219.444	11706.58
219.518	11775.65
219.591	11845.11
219.665	11932.5
219.738	11992.51
219.811	12041.43
219.885	12120.87
219.958	12200.88
220.031	12264.89
220.105	12332.52
220.178	12405.69
220.251	12463.54
220.325	12532.33
220.398	12599.04
220.471	12666.33
220.544	12731.89
220.618	12788.39
220.691	12855.1
220.764	12918.93
220.838	12992.92
220.911	13045.61
220.984	13132.77
221.057	13198.28
221.131	13266.01
221.204	13290.31
221.277	13369.99
221.35	13458.98
221.424	13512.78
221.497	13564.94
221.57	13637.15
221.643	13701.65
221.716	13760.7
221.79	13812.04
221.863	13870.28
221.936	13929.33
222.009	13986.6
222.082	14054.71
222.155	14108.56
222.229	14181.06
222.302	14235.63
222.375	14284.56
222.448	14348.96
222.521	14400.49
222.594	14455.74
222.667	14497.14
222.74	14571.33
222.814	14626.04
222.887	14677.14
222.96	14740.67
223.033	14800.01
223.106	14851.74
223.179	14895.46
223.252	14951.71
223.325	15007.77
223.398	15059.73
223.471	15111.12
223.544	15161.15
223.617	15214.32
223.69	15265.56
223.763	15301.52
223.837	15359.84
223.91	15406.84
223.983	15437.11
224.056	15472.54
224.129	15512.64
224.202	15571.21
224.275	15611.21
224.348	15631.12
224.42	15663.37
224.493	15687.08
224.566	15729.59
224.639	15774.23
224.712	15821.99
224.785	15853.61
224.858	15891.64
224.931	15925.77
225.004	15952.95
225.077	15997.49
225.15	16013.97
225.223	16050.02
225.296	16114.75
225.369	16131.91
225.442	16163.53
225.514	16212.74
225.587	16250.14
225.66	16295.78
225.733	16332.46
225.806	16376.47
225.879	16423.17
225.952	16451.65
226.025	16505.2
226.097	16548.29
226.17	16584.29
226.243	16598.65
226.316	16640.49
226.389	16676.78
226.461	16718.9
226.534	16766.28
226.607	16794.18
226.68	16849.66
226.753	16894.86
226.825	16908.21
226.898	16959.78
226.971	17007.54
227.044	17037.95
227.117	17081.71
227.189	17120.32
227.262	17166.49
227.335	17210.73
227.407	17244.03
227.48	17288.37
227.553	17321.81
227.626	17350.68
227.698	17385.14
227.771	17418.3
227.844	17437.09
227.916	17472.66
227.989	17491.31
228.062	17516.56
228.134	17573.24
228.207	17595.12
228.28	17603.93
228.352	17627.55
228.425	17658.2
228.498	17678.97
228.57	17701.76
228.643	17742.63
228.716	17767.64
228.788	17780.7
228.861	17786.58
228.934	17821.95
229.006	17845.62
229.079	17868.31
229.151	17883.64
229.224	17894.1
229.296	17930.82
229.369	17985.61
229.442	18022.77
229.514	18040.84
229.587	18081.95
229.659	18082.14
229.732	18111.73
229.804	18158.18
229.877	18205.27
229.949	18232.44
230.022	18274.71
230.094	18299.67
230.167	18311.38
230.239	18315.96
230.312	18336.92
230.384	18385.06
230.457	18407.95
230.529	18434.51
230.602	18459.95
230.674	18491.52
230.747	18527.66
230.819	18560.77
230.892	18554.6
230.964	18578.5
231.037	18603.46
231.109	18614.16
231.181	18634.74
231.254	18637
231.326	18651.65
231.399	18669.43
231.471	18679.02
231.544	18675.51
231.616	18698.4
231.688	18713.24
231.761	18731.21
231.833	18749.04
231.905	18743.16
231.978	18745.86
232.05	18751.65
232.122	18768.51
232.195	18777.52
232.267	18800.22
232.339	18805.09
232.412	18833.28
232.484	18831.59
232.556	18841.81
232.629	18874.14
232.701	18890.82
232.773	18911.25
232.846	18909.08
232.918	18910.38
232.99	18928.79
233.062	18950.14
233.135	18963.63
233.207	18969.17
233.279	18980.6
233.351	18994.14
233.424	18989.7
233.496	18988.02
233.568	19013.32
233.64	19004.26
233.713	19003
233.785	19004.98
233.857	19005.46
233.929	18987
234.001	19007.68
234.074	19027.87
234.146	19016.83
234.218	19019.39
234.29	19022.86
234.362	19019.48
234.434	18996.55
234.507	18976.5
234.579	18955.58
234.651	18944.26
234.723	18946.38
234.795	18959.1
234.867	18955.54
234.939	18967.97
235.012	18973.7
235.084	18972.02
235.156	18970.86
235.228	18955.97
235.3	18944.93
235.372	18947.3
235.444	18958.24
235.516	18936.07
235.588	18923.83
235.66	18917.08
235.732	18901.47
235.804	18945.03
235.876	18945.27
235.948	18959.58
236.02	18950.19
236.092	18939.39
236.164	18940.31
236.236	18931.06
236.308	18913.23
236.38	18901.32
236.452	18884.41
236.524	18873.42
236.596	18877.08
236.668	18874
236.74	18873.71
236.812	18862
236.884	18859.11
236.956	18843.5
237.028	18818.73
237.1	18799.02
237.172	18797.43
237.244	18806.34
237.316	18755.84
237.388	18743.74
237.46	18723.55
237.532	18727.41
237.604	18716.27
237.675	18710.4
237.747	18701.58
237.819	18676.9
237.891	18651.51
237.963	18620.67
238.035	18597.73
238.107	18543.95
238.178	18546.55
238.25	18519.23
238.322	18516.53
238.394	18469.11
238.466	18447.28
238.538	18430.6
238.609	18424.92
238.681	18383.43
238.753	18352.34
238.825	18333.93
238.897	18314.37
238.968	18313.79
239.04	18286.61
239.112	18284.92
239.184	18249.94
239.255	18220.25
239.327	18204.3
239.399	18193.41
239.471	18186.28
239.542	18168.74
239.614	18163.15
239.686	18107.05
239.758	18103.58
239.829	18071.73
239.901	18070.09
239.973	18046.28
240.044	18030.24
240.116	18001.23
240.188	17973.56
240.259	17947.78
240.331	17909.81
240.403	17893.71
240.474	17840.41
240.546	17801.86
240.618	17761.28
240.689	17731.93
240.761	17709.04
240.833	17695.55
240.904	17667.93
240.976	17642.54
241.048	17622.83
241.119	17603.74
241.191	17586.59
241.262	17571.36
241.334	17548.56
241.405	17513.14
241.477	17484.32
241.549	17448.9
241.62	17422.25
241.692	17409.48
241.763	17390.92
241.835	17371.94
241.906	17347.17
241.978	17314.73
242.049	17311.98
242.121	17298.92
242.192	17282.34
242.264	17237.76
242.335	17195.11
242.407	17175.74
242.478	17144.99
242.55	17118.53
242.621	17083.83
242.693	17052.65
242.764	17013.71
242.836	16976.51
242.907	16959.35
242.979	16935.49
243.05	16921.47
243.122	16897.03
243.193	16858.96
243.264	16805.56
243.336	16776.01
243.407	16752.21
243.479	16749.7
243.55	16713.17
243.622	16682.66
243.693	16654.13
243.764	16647.33
243.836	16608.68
243.907	16572
243.978	16543.32
244.05	16522.89
244.121	16468.72
244.192	16449.1
244.264	16410.69
244.335	16382.54
244.407	16338.63
244.478	16317.28
244.549	16290.34
244.62	16250.58
244.692	16226.14
244.763	16213.13
244.834	16174.57
244.906	16137.17
244.977	16098.66
245.048	16082.65
245.119	16047.08
245.191	16010.07
245.262	15955.75
245.333	15949.1
245.405	15921.62
245.476	15899.4
245.547	15868.17
245.618	15855.88
245.689	15824.21
245.761	15801.17
245.832	15763.77
245.903	15739.91
245.974	15708.39
246.045	15669.44
246.117	15652.81
246.188	15604.13
246.259	15569.76
246.33	15544.31
246.401	15510.28
246.473	15470.51
246.544	15432.53
246.615	15411.18
246.686	15366.83
246.757	15347.99
246.828	15303.06
246.899	15283.78
246.97	15229.26
247.042	15191.23
247.113	15167.23
247.184	15158.07
247.255	15118.74
247.326	15096.56
247.397	15062.68
247.468	15029.37
247.539	15005.99
247.61	14963.47
247.681	14948.58
247.752	14924.48
247.823	14880.8
247.894	14854.87
247.965	14817.56
248.037	14782.9
248.108	14737.59
248.179	14723.47
248.25	14697.29
248.321	14678.73
248.392	14645.86
248.463	14650.15
248.534	14618
248.605	14601.32
248.675	14571.14
248.746	14546.7
248.817	14523.76
248.888	14505.82
248.959	14466.54
249.03	14443.74
249.101	14416.36
249.172	14383.62
249.243	14337.49
249.314	14323.46
249.385	14295.31
249.456	14282.05
249.527	14251.49
249.598	14230.67
249.669	14199.91
249.739	14182.32
249.81	14162.36
249.881	14115.36
249.952	14079.88
250.023	14057.66
250.094	14008.39
250.165	13966.11
250.235	13950.25
250.306	13927.5
250.377	13886.52
250.448	13862.61
250.519	13816.34
250.59	13805.49
250.66	13780.66
250.731	13763.5
250.802	13735.01
250.873	13714.67
250.944	13686.85
251.014	13661.35
251.085	13663.23
251.156	13648
251.227	13637.73
251.297	13621.58
251.368	13613.96
251.439	13607.94
251.51	13595.45
251.58	13572.22
251.651	13545.32
251.722	13520.44
251.792	13472.91
251.863	13444.95
251.934	13441.43
252.005	13445.58
252.075	13419.21
252.146	13404.94
252.217	13400.22
252.287	13386.62
252.358	13359.77
252.429	13353.12
252.499	13317.64
252.57	13291.13
252.641	13275.46
252.711	13243.93
252.782	13203.2
252.852	13194.91
252.923	13167.48
252.994	13139.66
253.064	13121.63
253.135	13085.38
253.205	13059.54
253.276	13062.29
253.347	13064.8
253.417	13032.79
253.488	13010.9
253.558	12980.34
253.629	12962.36
253.699	12943.41
253.77	12931.75
253.841	12905.72
253.911	12886.77
253.982	12875.06
254.052	12855.2
254.123	12834.76
254.193	12813.93
254.264	12830.47
254.334	12799.37
254.405	12760.67
254.475	12734.88
254.546	12717.09
254.616	12709.66
254.687	12692.7
254.757	12682.91
254.827	12657.17
254.898	12635.19
254.968	12605.49
255.039	12579.32
255.109	12563.75
255.18	12534.15
255.25	12488.84
255.321	12473.75
255.391	12441.45
255.461	12445.7
255.532	12402.89
255.602	12374.11
255.673	12334.49
255.743	12301.13
255.813	12254.42
255.884	12248.11
255.954	12229.36
256.024	12229.5
256.095	12215.04
256.165	12181.35
256.235	12154.5
256.306	12124.42
256.376	12117.48
256.446	12109
256.517	12103.98
256.587	12098.39
256.657	12081.86
256.728	12068.27
256.798	12055.44
256.868	12029.13
256.938	11996.69
257.009	11985.75
257.079	11971
257.149	11969.84
257.219	11922.31
257.29	11907.52
257.36	11865.05
257.43	11857.82
257.5	11812.51
257.571	11786.97
257.641	11780.8
257.711	11750.14
257.781	11739.78
257.852	11726
257.922	11692.45
257.992	11664.4
258.062	11630.99
258.132	11616.78
258.202	11597.5
258.273	11576.96
258.343	11578.31
258.413	11549.06
258.483	11530.02
258.553	11499.17
258.623	11473
258.693	11461.58
258.764	11462.64
258.834	11464.86
258.904	11443.22
258.974	11413.82
259.044	11398.01
259.114	11382.97
259.184	11368.13
259.254	11347.02
259.324	11306.15
259.394	11285.53
259.464	11283.36
259.535	11267.84
259.605	11240.99
259.675	11222.78
259.745	11204.42
259.815	11174.05
259.885	11150.39
259.955	11155.07
260.025	11133.62
260.095	11126.01
260.165	11117.53
260.235	11110.1
260.305	11079.6
260.375	11051.17
260.445	11054.78
260.515	11049.96
260.585	11041.24
260.655	11023.31
260.725	11018.93
260.795	11013.38
260.865	11018.44
260.934	10993.67
261.004	10980.37
261.074	10969.43
261.144	10958.59
261.214	10950.79
261.284	10930.26
261.354	10928.38
261.424	10903.41
261.494	10900.62
261.564	10876.04
261.634	10864.67
261.703	10835.66
261.773	10832.29
261.843	10828.92
261.913	10816.48
261.983	10782.99
262.053	10774.56
262.123	10758.03
262.192	10725.94
262.262	10721.8
262.332	10688.69
262.402	10682.86
