Data from 20250702_urea_0.5M_MAYP1162681_15-45-00-035.txt Node
Date: Wed Jul 02 15:45:00 BST 2025
User: adleo
Spectrometer: MAYP116268
Trigger mode: 0
Integration Time (sec): 1.000000E0
Scans to average: 1
Electric dark correction enabled: true
Nonlinearity correction enabled: true
Boxcar width: 10
XAxis mode: Wavelengths
Number of Pixels in Spectrum: 2068
>>>>>Begin Spectral Data<<<<<
179.565	1118.91
179.642	1169.39
179.718	1208.27
179.795	1239.24
179.871	1268.28
179.948	1284.77
180.024	1302.9
180.101	1323.56
180.177	1336.63
180.254	1357.68
180.33	1378.48
180.407	1423.91
180.483	1512.7
180.56	1596.65
180.636	1672.75
180.712	1658.45
180.789	1667.24
180.865	1677.49
180.942	1684.38
181.018	1692.46
181.095	1704.06
181.171	1709.09
181.248	1711.09
181.324	1726.25
181.4	1734.95
181.477	1744.5
181.553	1756.8
181.63	1776.15
181.706	1790.59
181.782	1798.2
181.859	1797.1
181.935	1802.24
182.011	1799.43
182.088	1814.4
182.164	1830.1
182.24	1844.26
182.317	1853.47
182.393	1850.53
182.469	1862.74
182.546	1874.72
182.622	1880.95
182.698	1875.34
182.775	1886.32
182.851	1895.44
182.927	1888.79
183.003	1885.6
183.08	1881.14
183.156	1890.36
183.232	1888.41
183.308	1876.34
183.385	1886.41
183.461	1903.62
183.537	1904.72
183.613	1915.22
183.69	1906.05
183.766	1895.11
183.842	1902.72
183.918	1907.61
183.995	1920.54
184.071	1923.49
184.147	1919.02
184.223	1906.81
184.299	1919.55
184.375	1907.95
184.452	1918.37
184.528	1972.35
184.604	1981.86
184.68	1996.12
184.756	2001.78
184.832	2004.83
184.908	2011
184.985	2007.15
185.061	1990.66
185.137	2000.26
185.213	1993.75
185.289	1996.03
185.365	1990.52
185.441	1987.28
185.517	1999.98
185.593	1996.32
185.669	1997.51
185.745	2008.21
185.822	2024.46
185.898	2016.28
185.974	2027.64
186.05	2019.32
186.126	1978.03
186.202	1971.14
186.278	1963.81
186.354	1956.97
186.43	1961.96
186.506	1961.58
186.582	1962.2
186.658	1970.47
186.734	1950.03
186.81	1949.69
186.886	1951.02
186.962	1964.48
187.038	1961.58
187.114	1956.06
187.19	1964.19
187.266	1954.49
187.341	1953.73
187.417	1947.5
187.493	1949.45
187.569	1951.17
187.645	1945.13
187.721	1934.9
187.797	1942.94
187.873	1949.64
187.949	1941.23
188.025	1937.9
188.101	1939.56
188.176	1942.23
188.252	1937.19
188.328	1943.74
188.404	1945.6
188.48	1941.65
188.556	1935.23
188.632	1936.23
188.707	1936.42
188.783	1933.19
188.859	1925.49
188.935	1915.89
189.011	1923.92
189.086	1917.74
189.162	1909.94
189.238	1908.33
189.314	1907.99
189.39	1902.34
189.465	1895.54
189.541	1910.56
189.617	1894.45
189.693	1889.22
189.768	1893.73
189.844	1915.61
189.92	1908.86
189.996	1914.57
190.071	1923.32
190.147	1921.99
190.223	1929.74
190.298	1922.6
190.374	1912.19
190.45	1924.88
190.526	1932.87
190.601	1926.97
190.677	1927.59
190.753	1951.47
190.828	1954.56
190.904	1967.35
190.98	1981.62
191.055	1988.66
191.131	1982.05
191.207	2000.78
191.282	2009.38
191.358	2002.63
191.433	1989.26
191.509	2003.09
191.585	2000.15
191.66	2002.81
191.736	2010.08
191.811	2001.14
191.887	2017.74
191.963	2038.67
192.038	2045.47
192.114	2045.14
192.189	2048.42
192.265	2046.23
192.34	2027.58
192.416	2024.87
192.491	2020.02
192.567	2022.54
192.642	2026.2
192.718	2027.96
192.793	2018.5
192.869	2014.55
192.944	2016.46
193.02	2025.45
193.095	2028.77
193.171	2035.48
193.246	2034.01
193.322	2030.77
193.397	2031.1
193.473	2015.36
193.548	1997
193.624	2000.05
193.699	2000.47
193.775	2014.6
193.85	2015.65
193.925	2020.69
194.001	2021.26
194.076	2016.55
194.152	2005.04
194.227	1997.24
194.302	1986.73
194.378	1991.3
194.453	1989.25
194.529	2000.62
194.604	1984.98
194.679	1975.09
194.755	1957.83
194.83	1969.63
194.905	1966.44
194.981	1974.57
195.056	1970.86
195.131	1978.04
195.207	1977.85
195.282	1967.82
195.357	1951.22
195.433	1965.87
195.508	1957.97
195.583	1965.82
195.659	1977.8
195.734	1988.27
195.809	1989.74
195.884	1997.82
195.96	1997.01
196.035	2013.56
196.11	2007.62
196.185	2020.65
196.261	2027.63
196.336	2055.5
196.411	2041.75
196.486	2047.32
196.561	2042.56
196.637	2049.65
196.712	2066.06
196.787	2067.92
196.862	2082.13
196.937	2090.6
197.013	2095.97
197.088	2106.44
197.163	2125.75
197.238	2141.08
197.313	2138.66
197.388	2151.02
197.464	2180.19
197.539	2191.37
197.614	2182.62
197.689	2194.61
197.764	2210.08
197.839	2229.82
197.914	2225.59
197.989	2246.62
198.065	2259.41
198.14	2307.98
198.215	2332.25
198.29	2339.06
198.365	2351.63
198.44	2365.24
198.515	2395.04
198.59	2408.18
198.665	2431.74
198.74	2440.36
198.815	2442.74
198.89	2464.92
198.965	2491.5
199.04	2486.07
199.115	2500.11
199.19	2541.19
199.265	2545.81
199.34	2553
199.415	2582.59
199.49	2600.68
199.565	2612.54
199.64	2633.68
199.715	2629.3
199.79	2635.44
199.865	2645.87
199.94	2644.3
200.015	2674.03
200.09	2674.7
200.165	2679.6
200.24	2688.7
200.315	2726.9
200.39	2740.29
200.464	2745.62
200.539	2747.29
200.614	2765.72
200.689	2790.65
200.764	2797.65
200.839	2812.23
200.914	2817.37
200.989	2808.6
201.063	2824.09
201.138	2809.23
201.213	2814.09
201.288	2796.17
201.363	2803.27
201.438	2801.27
201.512	2817.08
201.587	2797.02
201.662	2804.84
201.737	2818.61
201.812	2822.61
201.886	2790.99
201.961	2799.72
202.036	2788.57
202.111	2786.05
202.186	2757.57
202.26	2738.31
202.335	2718.97
202.41	2713.92
202.485	2695.77
202.559	2678.29
202.634	2654.04
202.709	2661.23
202.784	2642.46
202.858	2644.27
202.933	2624.89
203.008	2616.93
203.082	2599.6
203.157	2600.84
203.232	2556.94
203.306	2537.45
203.381	2508.73
203.456	2487.54
203.53	2466.9
203.605	2446.73
203.68	2424.96
203.754	2420.68
203.829	2407.39
203.904	2388.02
203.978	2377.59
204.053	2385.21
204.127	2373.97
204.202	2371.55
204.277	2353.84
204.351	2346.13
204.426	2336.13
204.5	2329.75
204.575	2300.44
204.65	2308.16
204.724	2299.73
204.799	2306.86
204.873	2304.19
204.948	2302.72
205.022	2290.59
205.097	2282.59
205.171	2298.96
205.246	2307.14
205.32	2303.86
205.395	2300.39
205.469	2292.78
205.544	2301.16
205.618	2282.07
205.693	2292.54
205.767	2281.03
205.842	2298.97
205.916	2294.5
205.991	2285.46
206.065	2290.79
206.14	2302.39
206.214	2298.2
206.289	2291.68
206.363	2306.81
206.438	2308.58
206.512	2317.29
206.586	2337.08
206.661	2346.13
206.735	2325.15
206.81	2327.34
206.884	2342.04
206.958	2337.14
207.033	2353.37
207.107	2360.94
207.181	2395.22
207.256	2393.27
207.33	2414.45
207.405	2432.27
207.479	2452.31
207.553	2462.68
207.628	2451.93
207.702	2472.92
207.776	2474.68
207.851	2487.59
207.925	2508.17
207.999	2515.45
208.073	2523.02
208.148	2533.07
208.222	2531.65
208.296	2579.59
208.371	2609.91
208.445	2637.01
208.519	2680.22
208.593	2709.9
208.668	2724.29
208.742	2748.32
208.816	2771.1
208.89	2809.9
208.965	2837.24
209.039	2876.53
209.113	2929.11
209.187	2987.1
209.261	3018.9
209.336	3078.99
209.41	3135.8
209.484	3179.7
209.558	3243.83
209.632	3303.32
209.707	3367.41
209.781	3443.49
209.855	3514.6
209.929	3590.69
210.003	3663.95
210.077	3730.07
210.151	3845.19
210.226	3952.51
210.3	4056.4
210.374	4160.49
210.448	4249.3
210.522	4347.71
210.596	4450
210.67	4554.22
210.744	4694.96
210.818	4829.78
210.892	4956.36
210.966	5066.21
211.041	5192.18
211.115	5308.6
211.189	5449.95
211.263	5587.7
211.337	5718.72
211.411	5859.21
211.485	5986.17
211.559	6128.93
211.633	6272.36
211.707	6383.22
211.781	6536.2
211.855	6649
211.929	6792.71
212.003	6929.56
212.077	7091.64
212.151	7256.19
212.225	7427.36
212.299	7573.69
212.373	7722.87
212.447	7880.77
212.52	8074.41
212.594	8247.06
212.668	8429.39
212.742	8588.7
212.816	8755.54
212.89	8927.88
212.964	9101.05
213.038	9288.54
213.112	9482.15
213.186	9674.85
213.26	9834.13
213.333	9967.64
213.407	10157.44
213.481	10339.89
213.555	10533.28
213.629	10704.03
213.703	10877.3
213.777	11049.33
213.85	11227.44
213.924	11437.64
213.998	11609.88
214.072	11780.21
214.146	11947.51
214.219	12124.64
214.293	12301.76
214.367	12488.01
214.441	12670.4
214.515	12843.21
214.588	12986.76
214.662	13124.05
214.736	13273.48
214.81	13455.4
214.883	13637.23
214.957	13789.99
215.031	13949.55
215.105	14088.47
215.178	14240.08
215.252	14389.18
215.326	14529.55
215.4	14659.51
215.473	14773.94
215.547	14917.3
215.621	15052.17
215.694	15212.97
215.768	15342.34
215.842	15482.51
215.915	15615.83
215.989	15746.98
216.063	15875.24
216.136	16021.91
216.21	16172.39
216.284	16324.31
216.357	16467.11
216.431	16595.13
216.504	16737.11
216.578	16894.13
216.652	17041.47
216.725	17175.54
216.799	17324.22
216.873	17456.18
216.946	17589.05
217.02	17707.27
217.093	17832.61
217.167	17933.1
217.24	18034.63
217.314	18139.26
217.387	18246.05
217.461	18354.72
217.535	18472.36
217.608	18578.42
217.682	18679.33
217.755	18788.68
217.829	18874.5
217.902	18972.72
217.976	19081.53
218.049	19177.52
218.123	19251.54
218.196	19361.03
218.27	19452.21
218.343	19522.37
218.417	19613.02
218.49	19701.21
218.563	19809.69
218.637	19900.38
218.71	20020.62
218.784	20114.26
218.857	20219.46
218.931	20304.42
219.004	20388.71
219.077	20471.17
219.151	20547.46
219.224	20628.33
219.298	20700.14
219.371	20799.28
219.444	20856.67
219.518	20924.92
219.591	20994.03
219.665	21085.36
219.738	21141.08
219.811	21191.88
219.885	21264.03
219.958	21332.13
220.031	21394.4
220.105	21450.22
220.178	21517.31
220.251	21565.95
220.325	21633.1
220.398	21693.35
220.471	21760.2
220.544	21820.7
220.618	21871.7
220.691	21932.67
220.764	21989.7
220.838	22045.57
220.911	22079.84
220.984	22156.58
221.057	22214.43
221.131	22270.54
221.204	22295.13
221.277	22364.11
221.35	22446.21
221.424	22481.98
221.497	22525.71
221.57	22573.68
221.643	22628.06
221.716	22660.31
221.79	22684.13
221.863	22706.21
221.936	22733.54
222.009	22764.45
222.082	22794
222.155	22826.5
222.229	22864.49
222.302	22893.18
222.375	22915.6
222.448	22956.48
222.521	22972.68
222.594	22991.87
222.667	23001.76
222.74	23037.78
222.814	23047.9
222.887	23062.61
222.96	23094.38
223.033	23131.37
223.106	23147.47
223.179	23167.39
223.252	23182.58
223.325	23212.57
223.398	23241.74
223.471	23266.29
223.544	23295.7
223.617	23314.36
223.69	23325.35
223.763	23324.05
223.837	23340.69
223.91	23368.17
223.983	23360.75
224.056	23366.25
224.129	23387.13
224.202	23413.6
224.275	23406.41
224.348	23402.27
224.42	23395.18
224.493	23399.61
224.566	23398.22
224.639	23402.75
224.712	23399.37
224.785	23404.19
224.858	23405.26
224.931	23400.48
225.004	23377.43
225.077	23367.69
225.15	23346.52
225.223	23347.63
225.296	23375.75
225.369	23361.81
225.442	23350.09
225.514	23352.07
225.587	23357.18
225.66	23346.52
225.733	23343.63
225.806	23353.32
225.879	23354.58
225.952	23342.04
226.025	23341.7
226.097	23348.02
226.17	23348.21
226.243	23323.14
226.316	23321.5
226.389	23315.71
226.461	23312.05
226.534	23325.98
226.607	23314.41
226.68	23329.41
226.753	23314.36
226.825	23278.92
226.898	23282
226.971	23269.66
227.044	23275.35
227.117	23270
227.189	23266.38
227.262	23265.22
227.335	23264.45
227.407	23255.87
227.48	23255.05
227.553	23246.42
227.626	23226.74
227.698	23213.48
227.771	23210.93
227.844	23189.76
227.916	23179.29
227.989	23157.4
228.062	23137.44
228.134	23143.56
228.207	23129.34
228.28	23115.98
228.352	23111.64
228.425	23095.97
228.498	23092.6
228.57	23072.59
228.643	23065.16
228.716	23048.19
228.788	23027.65
228.861	23002.33
228.934	22995.39
229.006	22980.15
229.079	22962.56
229.151	22933.05
229.224	22904.94
229.296	22889.7
229.369	22897.23
229.442	22896.65
229.514	22870.18
229.587	22855.28
229.659	22821.15
229.732	22805.86
229.804	22794.39
229.877	22796.7
229.949	22796.03
230.022	22797.86
230.094	22770.09
230.167	22758.13
230.239	22736.19
230.312	22718.5
230.384	22727.9
230.457	22707.12
230.529	22686.34
230.602	22672.27
230.674	22661.8
230.747	22657.13
230.819	22658.43
230.892	22618.37
230.964	22596.14
231.037	22588.57
231.109	22580.81
231.181	22576.86
231.254	22546.24
231.326	22530.67
231.399	22503.24
231.471	22475.42
231.544	22433.77
231.616	22436.18
231.688	22415.73
231.761	22382.71
231.833	22361.45
231.905	22313.48
231.978	22298.2
232.05	22275.98
232.122	22247.39
232.195	22224.93
232.267	22212.01
232.339	22182.36
232.412	22167.8
232.484	22139.41
232.556	22108.61
232.629	22101.14
232.701	22083.93
232.773	22063.54
232.846	22038.9
232.918	22014.7
232.99	21996.96
233.062	21985.49
233.135	21957.63
233.207	21918.39
233.279	21910.34
233.351	21891.4
233.424	21864.84
233.496	21833.84
233.568	21832.4
233.64	21801.84
233.713	21776.43
233.785	21757.3
233.857	21733.68
233.929	21695.07
234.001	21687.55
234.074	21681.09
234.146	21634.48
234.218	21603.3
234.29	21580.79
234.362	21551.05
234.434	21501.16
234.507	21454.5
234.579	21398.02
234.651	21361.48
234.723	21332.56
234.795	21306.78
234.867	21268.22
234.939	21247.49
235.012	21214.52
235.084	21184.16
235.156	21154.66
235.228	21115.58
235.3	21075.86
235.372	21047.18
235.444	21033.59
235.516	20977.44
235.588	20950.16
235.66	20925.87
235.732	20880.81
235.804	20907.08
235.876	20874.4
235.948	20863.8
236.02	20840.33
236.092	20818.74
236.164	20786.25
236.236	20748.9
236.308	20714.45
236.38	20684.28
236.452	20653.91
236.524	20618.93
236.596	20596.71
236.668	20575.84
236.74	20546.64
236.812	20514.88
236.884	20486.25
236.956	20450.35
237.028	20405.29
237.1	20353.24
237.172	20333.05
237.244	20318.3
237.316	20233.96
237.388	20193.04
237.46	20155.07
237.532	20132.75
237.604	20088.71
237.675	20069.67
237.747	20050.97
237.819	20005.1
237.891	19967.6
237.963	19917.77
238.035	19883.08
238.107	19814.93
238.178	19803.42
238.25	19765.59
238.322	19746.46
238.394	19691.42
238.466	19658.56
238.538	19640.49
238.609	19622.99
238.681	19570.99
238.753	19525.84
238.825	19504.49
238.897	19472.25
238.968	19450.13
239.04	19409.27
239.112	19407.34
239.184	19361.61
239.255	19315.73
239.327	19289.13
239.399	19253.28
239.471	19228.56
239.542	19200.99
239.614	19172.75
239.686	19096.42
239.758	19069.82
239.829	19022.79
239.901	19001
239.973	18960.24
240.044	18924.24
240.116	18883.71
240.188	18838.27
240.259	18801.16
240.331	18753.6
240.403	18730.76
240.474	18680.83
240.546	18634.57
240.618	18573.66
240.689	18536.12
240.761	18499.78
240.833	18480.55
240.904	18443.93
240.976	18402.73
241.048	18364.13
241.119	18334.49
241.191	18312.8
241.262	18283.79
241.334	18251.75
241.405	18218.88
241.477	18173.44
241.549	18129
241.62	18088.19
241.692	18066.02
241.763	18042.07
241.835	18007.23
241.906	17972.48
241.978	17915.57
242.049	17881.59
242.121	17851.47
242.192	17821.69
242.264	17777.88
242.335	17722.08
242.407	17696.39
242.478	17655.47
242.55	17624.78
242.621	17585.89
242.693	17543.43
242.764	17508.25
242.836	17463.72
242.907	17432.88
242.979	17403.33
243.05	17377.12
243.122	17357.74
243.193	17322.22
243.264	17263.14
243.336	17224.54
243.407	17195.48
243.479	17182.37
243.55	17155.76
243.622	17125.35
243.693	17095.38
243.764	17078.12
243.836	17033.35
243.907	16991.9
243.978	16963.23
244.05	16929.35
244.121	16883.46
244.192	16865.15
244.264	16820.81
244.335	16793.29
244.407	16736.47
244.478	16707.5
244.549	16668.22
244.62	16607.3
244.692	16564.22
244.763	16535.73
244.834	16490.91
244.906	16448.5
244.977	16418.37
245.048	16396.11
245.119	16357.26
245.191	16296.58
245.262	16242.6
245.333	16230.31
245.405	16196.57
245.476	16170.06
245.547	16138.39
245.618	16117.48
245.689	16069.81
245.761	16037.61
245.832	16003.25
245.903	15984.4
245.974	15951.67
246.045	15918.37
246.117	15903.14
246.188	15860.19
246.259	15818.59
246.33	15784.37
246.401	15751.98
246.473	15695.35
246.544	15660.59
246.615	15638.66
246.686	15606.13
246.757	15581.64
246.828	15532.91
246.899	15519.22
246.97	15460.9
247.042	15423.25
247.113	15393.95
247.184	15381.22
247.255	15342.18
247.326	15310.22
247.397	15276.62
247.468	15250.3
247.539	15220.76
247.61	15186.05
247.681	15170.05
247.752	15157.47
247.823	15121.41
247.894	15088.58
247.965	15055.23
248.037	15012.81
248.108	14966.1
248.179	14940.07
248.25	14915.29
248.321	14893.84
248.392	14845.35
248.463	14838.51
248.534	14807.46
248.605	14790.69
248.675	14763.31
248.746	14747.69
248.817	14721.37
248.888	14695.29
248.959	14645.55
249.03	14628.53
249.101	14598.98
249.172	14561.33
249.243	14504.45
249.314	14489.12
249.385	14462.17
249.456	14447.81
249.527	14414.02
249.598	14394.73
249.669	14366.97
249.739	14344.84
249.81	14315.92
249.881	14279.47
249.952	14258.31
250.023	14230.26
250.094	14179.35
250.165	14134.42
250.235	14096.78
250.306	14064.57
250.377	14027.89
250.448	14007.35
250.519	13953.22
250.59	13939.14
250.66	13909.64
250.731	13906.17
250.802	13883.46
250.873	13865.82
250.944	13841.62
251.014	13810.91
251.085	13805.75
251.156	13792.88
251.227	13777.17
251.297	13771.19
251.368	13765.07
251.439	13744.92
251.51	13731.95
251.58	13699.6
251.651	13669.81
251.722	13660.36
251.792	13628.79
251.863	13604.83
251.934	13601.31
252.005	13605.31
252.075	13569.21
252.146	13550.98
252.217	13536.81
252.287	13516.18
252.358	13488.8
252.429	13488.36
252.499	13460.16
252.57	13432.2
252.641	13414.99
252.711	13385.06
252.782	13345.77
252.852	13337.28
252.923	13310.72
252.994	13287.97
253.064	13278.86
253.135	13254.66
253.205	13220.29
253.276	13214.45
253.347	13201.05
253.417	13163.74
253.488	13129.75
253.558	13113.61
253.629	13095.72
253.699	13081.26
253.77	13069.79
253.841	13040.28
253.911	13013.05
253.982	12995.6
254.052	12989.76
254.123	12970.43
254.193	12948.11
254.264	12956.6
254.334	12924.4
254.405	12892.19
254.475	12852.43
254.546	12829
254.616	12821.09
254.687	12806.24
254.757	12780.12
254.827	12754.42
254.898	12738.9
254.968	12722.61
255.039	12691.61
255.109	12674.55
255.18	12639.5
255.25	12594.43
255.321	12578.04
255.391	12540.1
255.461	12541.12
255.532	12486.02
255.602	12459.36
255.673	12425.47
255.743	12394.53
255.813	12343.72
255.884	12329.74
255.954	12325.69
256.024	12321.16
256.095	12297.3
256.165	12261.05
256.235	12247.65
256.306	12226.78
256.376	12215.79
256.446	12201.52
256.517	12180.55
256.587	12171.06
256.657	12156.02
256.728	12136.54
256.798	12117.55
256.868	12093.93
256.938	12064.24
257.009	12055.52
257.079	12040.53
257.149	12047.71
257.219	12007.41
257.29	12001.48
257.36	11971.55
257.43	11950.87
257.5	11912.26
257.571	11887.49
257.641	11879.97
257.711	11844.64
257.781	11830.47
257.852	11816.54
257.922	11779.47
257.992	11761.3
258.062	11738.69
258.132	11733.05
258.202	11720.09
258.273	11704.52
258.343	11709.29
258.413	11678.78
258.483	11655.7
258.553	11622.44
258.623	11590
258.693	11582.77
258.764	11576.02
258.834	11568.26
258.904	11555.44
258.974	11529.8
259.044	11514.14
259.114	11500.26
259.184	11493.03
259.254	11469.61
259.324	11427.48
259.394	11421.41
259.464	11423.72
259.535	11401.55
259.605	11369.94
259.675	11339.67
259.745	11326.51
259.815	11295.57
259.885	11275.62
259.955	11284.63
260.025	11263.19
260.095	11240.88
260.165	11217.69
260.235	11211.09
260.305	11190.13
260.375	11158.13
260.445	11162.42
260.515	11154.66
260.585	11145.79
260.655	11120.39
260.725	11115.24
260.795	11105.6
260.865	11104.35
260.934	11071.86
261.004	11066.37
261.074	11050.37
261.144	11052.59
261.214	11035.86
261.284	11013.55
261.354	11010.04
261.424	10983.62
261.494	10986.76
261.564	10973.46
261.634	10973.22
261.703	10940.59
261.773	10928.11
261.843	10922.52
261.913	10896.4
261.983	10863.3
262.053	10851.93
262.123	10837.61
