Data from 20250702_urea_0.5M_MAYP1162681_04-25-00-378.txt Node
Date: Thu Jul 03 04:25:00 BST 2025
User: adleo
Spectrometer: MAYP116268
Trigger mode: 0
Integration Time (sec): 1.000000E0
Scans to average: 1
Electric dark correction enabled: true
Nonlinearity correction enabled: true
Boxcar width: 10
XAxis mode: Wavelengths
Number of Pixels in Spectrum: 2068
>>>>>Begin Spectral Data<<<<<
179.565	1176.29
179.642	1231.18
179.718	1274.24
179.795	1312.58
179.871	1345.14
179.948	1360.73
180.024	1381.75
180.101	1404.32
180.177	1417.59
180.254	1440.9
180.33	1462.28
180.407	1514.21
180.483	1606.81
180.56	1693.04
180.636	1776.12
180.712	1762.81
180.789	1773.79
180.865	1788.04
180.942	1794.08
181.018	1803.3
181.095	1818.61
181.171	1822.93
181.248	1823.6
181.324	1836.72
181.4	1843.66
181.477	1852.03
181.553	1867.57
181.63	1887.06
181.706	1902.46
181.782	1908.97
181.859	1906.79
181.935	1909.97
182.011	1905.07
182.088	1919.67
182.164	1942.26
182.24	1954.43
182.317	1966.27
182.393	1962.23
182.469	1976.44
182.546	1991.23
182.622	1995.6
182.698	1990.66
182.775	2004.21
182.851	2018.57
182.927	2013.25
183.003	2008.16
183.08	2004.5
183.156	2011.54
183.232	2006.97
183.308	1995.46
183.385	2009.01
183.461	2025.42
183.537	2026.99
183.613	2040.35
183.69	2034.17
183.766	2020.32
183.842	2026.17
183.918	2031.31
183.995	2046.29
184.071	2046.53
184.147	2038.97
184.223	2028.18
184.299	2041.02
184.375	2027.42
184.452	2032.18
184.528	2084.6
184.604	2094.02
184.68	2107.43
184.756	2114.71
184.832	2119.46
184.908	2125.31
184.985	2119.98
185.061	2106.43
185.137	2116.85
185.213	2105.34
185.289	2106.1
185.365	2102.2
185.441	2101.63
185.517	2114.62
185.593	2107.82
185.669	2108.39
185.745	2119.66
185.822	2138.49
185.898	2129.07
185.974	2138.25
186.05	2131.06
186.126	2094.29
186.202	2089.48
186.278	2085.53
186.354	2077.5
186.43	2083.54
186.506	2079.45
186.582	2081.35
186.658	2088.15
186.734	2068.8
186.81	2072.27
186.886	2075.74
186.962	2086.25
187.038	2084.35
187.114	2076.45
187.19	2085.29
187.266	2075.55
187.341	2074.36
187.417	2065.18
187.493	2066.13
187.569	2071.22
187.645	2064.66
187.721	2051.1
187.797	2059.04
187.873	2061.99
187.949	2055.05
188.025	2048.29
188.101	2053.33
188.176	2058.52
188.252	2055.09
188.328	2064.5
188.404	2066.64
188.48	2060.51
188.556	2053.66
188.632	2053.14
188.707	2053.14
188.783	2048.62
188.859	2046.24
188.935	2037.54
189.011	2046.38
189.086	2040.11
189.162	2028.03
189.238	2029.26
189.314	2025.46
189.39	2019.51
189.465	2012.19
189.541	2029.07
189.617	2015.28
189.693	2011
189.768	2014.57
189.844	2035.7
189.92	2026.19
189.996	2030.47
190.071	2041.03
190.147	2039.6
190.223	2047.88
190.298	2037.51
190.374	2025.53
190.45	2035.46
190.526	2046.12
190.601	2040.51
190.677	2039.98
190.753	2069.29
190.828	2069.77
190.904	2089.22
190.98	2102.12
191.055	2111.44
191.131	2101.16
191.207	2120.76
191.282	2130.46
191.358	2119.04
191.433	2105.01
191.509	2119.08
191.585	2117.03
191.66	2119.32
191.736	2126.31
191.811	2119.7
191.887	2134.82
191.963	2160.27
192.038	2163.98
192.114	2159.27
192.189	2163.51
192.265	2165.17
192.34	2144.61
192.416	2142.61
192.491	2137.95
192.567	2141.66
192.642	2144.9
192.718	2147.85
192.793	2138.71
192.869	2132.15
192.944	2136.38
193.02	2145.42
193.095	2149.89
193.171	2154.6
193.246	2152.65
193.322	2148.37
193.397	2146.66
193.473	2136.67
193.548	2117.25
193.624	2123.2
193.699	2125.01
193.775	2138.81
193.85	2135.1
193.925	2143.71
194.001	2144.52
194.076	2134.44
194.152	2124.25
194.227	2115.41
194.302	2104.8
194.378	2106.13
194.453	2103.66
194.529	2114.65
194.604	2098.33
194.679	2091.86
194.755	2073.94
194.83	2086.26
194.905	2087.17
194.981	2095.97
195.056	2087.22
195.131	2095.21
195.207	2093.78
195.282	2085.79
195.357	2068.99
195.433	2086.02
195.508	2070.61
195.583	2078.88
195.659	2093.39
195.734	2101.05
195.809	2101.39
195.884	2110.95
195.96	2115.18
196.035	2129.69
196.11	2124.45
196.185	2134.73
196.261	2137.34
196.336	2168.97
196.411	2156.98
196.486	2162.83
196.561	2156.7
196.637	2167.78
196.712	2181.29
196.787	2183.91
196.862	2192.76
196.937	2202.27
197.013	2208.79
197.088	2224.06
197.163	2244.82
197.238	2262.81
197.313	2262.72
197.388	2277.57
197.464	2307.41
197.539	2314.03
197.614	2310.55
197.689	2323.98
197.764	2341.92
197.839	2362.48
197.914	2356.06
197.989	2377.05
198.065	2388.85
198.14	2439.34
198.215	2463.62
198.29	2474.53
198.365	2487.19
198.44	2499.47
198.515	2526.66
198.59	2540.19
198.665	2564.24
198.74	2570.14
198.815	2568.76
198.89	2590.05
198.965	2617.92
199.04	2613.15
199.115	2630.96
199.19	2675.16
199.265	2678.26
199.34	2689.65
199.415	2723.39
199.49	2746.25
199.565	2754.4
199.64	2777.93
199.715	2774.64
199.79	2784.08
199.865	2790.75
199.94	2790.22
200.015	2825.58
200.09	2831.4
200.165	2839.07
200.24	2846.94
200.315	2890.39
200.39	2903.11
200.464	2911.31
200.539	2917.46
200.614	2932.14
200.689	2954.97
200.764	2956.4
200.839	2975.6
200.914	2979.08
200.989	2965.2
201.063	2977.26
201.138	2961.69
201.213	2964.22
201.288	2943.24
201.363	2945.53
201.438	2945.29
201.512	2959.16
201.587	2940.99
201.662	2946.14
201.737	2957.54
201.812	2966.12
201.886	2929.62
201.961	2941.64
202.036	2928.35
202.111	2920.95
202.186	2891.95
202.26	2879.22
202.335	2859.29
202.41	2851.09
202.485	2834.94
202.559	2818.41
202.634	2790.53
202.709	2797.63
202.784	2779.47
202.858	2780.47
202.933	2762.22
203.008	2757.79
203.082	2740.55
203.157	2739.64
203.232	2697.11
203.306	2675.61
203.381	2643.68
203.456	2622.3
203.53	2601.94
203.605	2581.66
203.68	2559.5
203.754	2556.41
203.829	2537.02
203.904	2516.78
203.978	2503.35
204.053	2507.88
204.127	2494.78
204.202	2494.93
204.277	2480.59
204.351	2471.07
204.426	2462.21
204.5	2455.98
204.575	2423.08
204.65	2435.04
204.724	2429.61
204.799	2433.32
204.873	2430.51
204.948	2426.32
205.022	2415.75
205.097	2407.75
205.171	2423.22
205.246	2430.51
205.32	2428.51
205.395	2427.65
205.469	2419.52
205.544	2425.66
205.618	2407.33
205.693	2419.85
205.767	2407.09
205.842	2428.62
205.916	2423.67
205.991	2415.86
206.065	2419.05
206.14	2431.85
206.214	2423.04
206.289	2415.89
206.363	2429.6
206.438	2430.32
206.512	2438.41
206.586	2456.45
206.661	2462.93
206.735	2441.47
206.81	2443.13
206.884	2460.75
206.958	2449.94
207.033	2468.5
207.107	2480.08
207.181	2513.8
207.256	2508.18
207.33	2530.22
207.405	2541.9
207.479	2562.85
207.553	2572.19
207.628	2561.81
207.702	2577.86
207.776	2578.19
207.851	2583.9
207.925	2604.63
207.999	2603.96
208.073	2607.68
208.148	2618.06
208.222	2612.06
208.296	2649.39
208.371	2670.12
208.445	2683.13
208.519	2715.99
208.593	2736.05
208.668	2737.15
208.742	2745.92
208.816	2758.59
208.89	2784.62
208.965	2794.68
209.039	2813.47
209.113	2845.4
209.187	2878.17
209.261	2888.75
209.336	2926.36
209.41	2961.45
209.484	2981.53
209.558	3024.97
209.632	3056.05
209.707	3087.39
209.781	3133.07
209.855	3172.1
209.929	3217.8
210.003	3253.91
210.077	3286.3
210.151	3358.61
210.226	3427.55
210.3	3490.23
210.374	3545.34
210.448	3583.92
210.522	3626.9
210.596	3675.99
210.67	3723.51
210.744	3814.91
210.818	3891.46
210.892	3956.47
210.966	3998.46
211.041	4064.23
211.115	4113.36
211.189	4192.04
211.263	4264.43
211.337	4324.87
211.411	4394.61
211.485	4447.97
211.559	4521.39
211.633	4581.35
211.707	4618.69
211.781	4689.05
211.855	4717.29
211.929	4778.97
212.003	4832.85
212.077	4916.8
212.151	5000.14
212.225	5083.72
212.299	5143.39
212.373	5208.3
212.447	5280.68
212.52	5387.55
212.594	5466.84
212.668	5557.48
212.742	5623.07
212.816	5695.53
212.89	5768.93
212.964	5852.02
213.038	5939.93
213.112	6038.2
213.186	6137.83
213.26	6202.44
213.333	6240.31
213.407	6335.3
213.481	6424.98
213.555	6521
213.629	6596.49
213.703	6667.09
213.777	6755.28
213.85	6833.92
213.924	6955.86
213.998	7042.74
214.072	7121.95
214.146	7198.07
214.219	7284.87
214.293	7369.07
214.367	7461.74
214.441	7569.18
214.515	7646.6
214.588	7709.64
214.662	7753.68
214.736	7826
214.81	7917.44
214.883	8017.34
214.957	8094.77
215.031	8171.14
215.105	8236.54
215.178	8311.26
215.252	8398.97
215.326	8459.55
215.4	8523.26
215.473	8558.25
215.547	8622.07
215.621	8692.69
215.694	8775.77
215.768	8838.73
215.842	8909.49
215.915	8980.02
215.989	9025.71
216.063	9091.29
216.136	9169.52
216.21	9258.49
216.284	9354.37
216.357	9437.09
216.431	9508.89
216.504	9591.33
216.578	9693.92
216.652	9785.46
216.725	9865.08
216.799	9950.25
216.873	10028.43
216.946	10106.46
217.02	10176.49
217.093	10252.89
217.167	10313.31
217.24	10369.53
217.314	10440.21
217.387	10514.16
217.461	10576.75
217.535	10670.94
217.608	10740.28
217.682	10815.5
217.755	10893.8
217.829	10950.04
217.902	11019.14
217.976	11095.52
218.049	11165.4
218.123	11222.94
218.196	11298.22
218.27	11360.1
218.343	11416.49
218.417	11489.75
218.49	11559.64
218.563	11647.4
218.637	11717.43
218.71	11805.16
218.784	11887.05
218.857	11964.12
218.931	12033.67
219.004	12111.32
219.077	12186.13
219.151	12254.58
219.224	12318.59
219.298	12387.28
219.371	12471.44
219.444	12530.25
219.518	12599.38
219.591	12661.75
219.665	12749.2
219.738	12817.07
219.811	12872.94
219.885	12946.89
219.958	13021.27
220.031	13079.74
220.105	13151.09
220.178	13221.47
220.251	13285.2
220.325	13358.18
220.398	13427.41
220.471	13493.74
220.544	13560.89
220.618	13610.49
220.691	13682.42
220.764	13750.44
220.838	13824.87
220.911	13879.97
220.984	13962.74
221.057	14031.77
221.131	14100.12
221.204	14132.81
221.277	14199.57
221.35	14296.95
221.424	14347.08
221.497	14407.34
221.57	14482.01
221.643	14545.44
221.716	14612.93
221.79	14657.67
221.863	14710.4
221.936	14758.56
222.009	14821.56
222.082	14884.8
222.155	14941.3
222.229	15012.93
222.302	15068.36
222.375	15106.68
222.448	15162.84
222.521	15218.32
222.594	15274.23
222.667	15311.4
222.74	15383.27
222.814	15440.29
222.887	15489.6
222.96	15555.01
223.033	15612.8
223.106	15657.05
223.179	15711.37
223.252	15749.98
223.325	15809.94
223.398	15856.36
223.471	15915.26
223.544	15959.7
223.617	16004.57
223.69	16055.56
223.763	16084.24
223.837	16139.81
223.91	16199.1
223.983	16227.78
224.056	16253.52
224.129	16291.16
224.202	16348.27
224.275	16377.67
224.348	16405.34
224.42	16435.08
224.493	16453.82
224.566	16484
224.639	16534.7
224.712	16579.09
224.785	16616.53
224.858	16641.89
224.931	16683.29
225.004	16714.03
225.077	16758.86
225.15	16776.01
225.223	16814.09
225.296	16878.72
225.369	16898.38
225.442	16920.26
225.514	16963.25
225.587	17010.48
225.66	17051.98
225.733	17094.87
225.806	17138.58
225.879	17175.59
225.952	17198.53
226.025	17248.32
226.097	17301.33
226.17	17331.4
226.243	17343.64
226.316	17382.58
226.389	17423.65
226.461	17463.21
226.534	17497.81
226.607	17527.93
226.68	17578.39
226.753	17603.89
226.825	17608.37
226.898	17648.99
226.971	17687.55
227.044	17730.68
227.117	17762.34
227.189	17797.71
227.262	17831.5
227.335	17859.64
227.407	17881.57
227.48	17919.74
227.553	17953.9
227.626	17975.3
227.698	18012.55
227.771	18043.59
227.844	18063.49
227.916	18091.49
227.989	18100.4
228.062	18125.46
228.134	18167.29
228.207	18192.4
228.28	18214.33
228.352	18239.39
228.425	18277.31
228.498	18310.9
228.57	18312.35
228.643	18351.14
228.716	18365.21
228.788	18377.59
228.861	18393.69
228.934	18436.48
229.006	18459.95
229.079	18472.29
229.151	18487.71
229.224	18481.2
229.296	18501.06
229.369	18546.93
229.442	18590.55
229.514	18611.27
229.587	18636.91
229.659	18637
229.732	18656.42
229.804	18693.72
229.877	18735.79
229.949	18758.92
230.022	18796.27
230.094	18828.75
230.167	18844.27
230.239	18848.17
230.312	18870.96
230.384	18912.98
230.457	18928.36
230.529	18949.32
230.602	18977.8
230.674	18994.18
230.747	19033.12
230.819	19055.92
230.892	19040.3
230.964	19052.11
231.037	19067.19
231.109	19083.14
231.181	19101.94
231.254	19111.86
231.326	19118.32
231.399	19139.48
231.471	19136.59
231.544	19120.63
231.616	19140.2
231.688	19147.14
231.761	19163.76
231.833	19184.39
231.905	19170.56
231.978	19180.25
232.05	19175.81
232.122	19187.96
232.195	19189.79
232.267	19209.01
232.339	19213.98
232.412	19236.19
232.484	19235.71
232.556	19246.94
232.629	19281.88
232.701	19301.44
232.773	19304.67
232.846	19310.36
232.918	19301.97
232.99	19311.42
233.062	19334.07
233.135	19338.45
233.207	19342.02
233.279	19351.22
233.351	19335.85
233.424	19339.51
233.496	19333.63
233.568	19357.49
233.64	19345.92
233.713	19347.42
233.785	19346.4
233.857	19343.08
233.929	19333.2
234.001	19354.93
234.074	19360.91
234.146	19332.81
234.218	19325.39
234.29	19331.8
234.362	19322.26
234.434	19301.68
234.507	19279.28
234.579	19251.66
234.651	19232.72
234.723	19234.31
234.795	19242.55
234.867	19252.53
234.939	19250.8
235.012	19243.33
235.084	19241.16
235.156	19233.69
235.228	19219.28
235.3	19200.2
235.372	19201.35
235.444	19203.71
235.516	19164.97
235.588	19160.68
235.66	19145.69
235.732	19130.56
235.804	19161.84
235.876	19156.87
235.948	19170.8
236.02	19178.22
236.092	19174.75
236.164	19168.05
236.236	19151.19
236.308	19128.54
236.38	19117.41
236.452	19103.24
236.524	19091.14
236.596	19092.64
236.668	19090.76
236.74	19078.57
236.812	19071.39
236.884	19068.59
236.956	19057.8
237.028	19039.29
237.1	19014.52
237.172	19022.71
237.244	19030.18
237.316	18991.39
237.388	18971.1
237.46	18944.98
237.532	18936.5
237.604	18913.9
237.675	18911.92
237.747	18902.58
237.819	18880.51
237.891	18855.06
237.963	18826.97
238.035	18809.96
238.107	18747.07
238.178	18741.28
238.25	18725
238.322	18731.41
238.394	18688.81
238.466	18670.06
238.538	18654.69
238.609	18633.15
238.681	18586.55
238.753	18546.26
238.825	18514.65
238.897	18493.83
238.968	18483.18
239.04	18453.49
239.112	18458.84
239.184	18427.76
239.255	18394.85
239.327	18377.5
239.399	18359.48
239.471	18347.43
239.542	18329.89
239.614	18334.46
239.686	18280.3
239.758	18266.37
239.829	18223.96
239.901	18215.68
239.973	18186.52
240.044	18164.88
240.116	18142.04
240.188	18129.08
240.259	18105.8
240.331	18074.43
240.403	18065.03
240.474	18028.74
240.546	17991.93
240.618	17940.7
240.689	17908.12
240.761	17882.63
240.833	17868.31
240.904	17840.27
240.976	17812.89
241.048	17790.87
241.119	17762.15
241.191	17741.57
241.262	17733.19
241.334	17702.58
241.405	17673.14
241.477	17639.65
241.549	17614.15
241.62	17590.1
241.692	17561.62
241.763	17546.63
241.835	17516.85
241.906	17497.86
241.978	17451.74
242.049	17437.96
242.121	17416.51
242.192	17397.28
242.264	17354.25
242.335	17306.58
242.407	17278.44
242.478	17242.53
242.55	17205.96
242.621	17168.51
242.693	17138.44
242.764	17101.86
242.836	17069.86
242.907	17043.93
242.979	17021.81
243.05	16988.41
243.122	16969.04
243.193	16942.62
243.264	16893.8
243.336	16858.96
243.407	16820.4
243.479	16813.61
243.55	16786.86
243.622	16765.51
243.693	16743.05
243.764	16729.46
243.836	16696.11
243.907	16670.8
243.978	16646.22
244.05	16624.1
244.121	16582.65
244.192	16566.84
244.264	16516.05
244.335	16485.1
244.407	16438.69
244.478	16407.8
244.549	16378.83
244.62	16327.84
244.692	16291.69
244.763	16263.64
244.834	16237.8
244.906	16203.92
244.977	16175.44
245.048	16157.46
245.119	16119.77
245.191	16077.79
245.262	16027.08
245.333	16014.21
245.405	15980.71
245.476	15954.93
245.547	15927.79
245.618	15910.97
245.689	15879.54
245.761	15856.41
245.832	15825.8
245.903	15806.67
245.974	15778.37
246.045	15749.55
246.117	15734.22
246.188	15685.97
246.259	15645.92
246.33	15619.6
246.401	15580.36
246.473	15532.31
246.544	15493.65
246.615	15469.89
246.686	15438.27
246.757	15427.57
246.828	15382.21
246.899	15366.01
246.97	15315.11
247.042	15274.14
247.113	15252.16
247.184	15236.11
247.255	15199.48
247.326	15168.92
247.397	15134.88
247.468	15106.97
247.539	15071.21
247.61	15032.12
247.681	15017.51
247.752	15008.74
247.823	14973.79
247.894	14952.24
247.965	14912.14
248.037	14873.91
248.108	14830.72
248.179	14792.69
248.25	14763.86
248.321	14747.04
248.392	14705
248.463	14704.33
248.534	14681.24
248.605	14659.21
248.675	14628.7
248.746	14613.75
248.817	14594.91
248.888	14566.13
248.959	14521.39
249.03	14507.56
249.101	14478.78
249.172	14450.39
249.243	14393.79
249.314	14374.51
249.385	14343.42
249.456	14337.3
249.527	14307.27
249.598	14288.27
249.669	14265.91
249.739	14243.54
249.81	14217.55
249.881	14176.77
249.952	14151.27
250.023	14123.65
250.094	14078.63
250.165	14042.57
250.235	14012.15
250.306	13985.06
250.377	13956.13
250.448	13940.8
250.519	13895.35
250.59	13884.98
250.66	13853.26
250.731	13847.72
250.802	13817.4
250.873	13799.51
250.944	13775.07
251.014	13747.83
251.085	13740.22
251.156	13722
251.227	13701.17
251.297	13694.95
251.368	13689.26
251.439	13668.92
251.51	13655.76
251.58	13619.27
251.651	13587.31
251.722	13574.29
251.792	13524.93
251.863	13492.68
251.934	13480.24
252.005	13486.99
252.075	13465.05
252.146	13452.47
252.217	13438.59
252.287	13426.68
252.358	13400.51
252.429	13393.13
252.499	13368.35
252.57	13352.25
252.641	13342.8
252.711	13322.56
252.782	13282.83
252.852	13275.65
252.923	13254.87
252.994	13229.32
253.064	13223.11
253.135	13198.23
253.205	13164.44
253.276	13164.01
253.347	13162.41
253.417	13130.69
253.488	13089.48
253.558	13062
253.629	13043.44
253.699	13023.19
253.77	13002.8
253.841	12975.66
253.911	12954.16
253.982	12926.69
254.052	12905.33
254.123	12875.49
254.193	12850.28
254.264	12864.12
254.334	12826.85
254.405	12784.67
254.475	12753.58
254.546	12730.68
254.616	12716.37
254.687	12699.93
254.757	12685.71
254.827	12658.13
254.898	12641.6
254.968	12633.4
255.039	12600.67
255.109	12589.01
255.18	12558.16
255.25	12514
255.321	12502.87
255.391	12460.45
255.461	12467.77
255.532	12421.02
255.602	12394.79
255.673	12354.64
255.743	12321.09
255.813	12280.6
255.884	12275.59
255.954	12263
256.024	12255.48
256.095	12239.34
256.165	12207.38
256.235	12190.65
256.306	12165.49
256.376	12154.11
256.446	12131.22
256.517	12120.66
256.587	12102.87
256.657	12081.96
256.728	12064.07
256.798	12043.73
256.868	12025.17
256.938	11989.5
257.009	11981.6
257.079	11969.02
257.149	11980.97
257.219	11941.35
257.29	11923.42
257.36	11890.69
257.43	11877.44
257.5	11837.91
257.571	11812.56
257.641	11800.95
257.711	11765.33
257.781	11752.26
257.852	11738.96
257.922	11705.56
257.992	11692.98
258.062	11665.02
258.132	11656.64
258.202	11640.15
258.273	11614.56
258.343	11613.21
258.413	11592.82
258.483	11567.13
258.553	11542.36
258.623	11505.01
258.693	11486.69
258.764	11488.71
258.834	11481.15
258.904	11463.75
258.974	11442.06
259.044	11421.68
259.114	11409.19
259.184	11399.55
259.254	11379.6
259.324	11334.68
259.394	11328.47
259.464	11318.2
259.535	11304.75
259.605	11281.62
259.675	11258.25
259.745	11249.62
259.815	11214.53
259.885	11188.03
259.955	11203.4
260.025	11173.62
260.095	11162.2
260.165	11152.32
260.235	11150.73
260.305	11126.59
260.375	11096.56
260.445	11099.89
260.515	11096.32
260.585	11091.31
260.655	11071.31
260.725	11062.4
260.795	11062.93
260.865	11062.49
260.934	11037.1
261.004	11028.08
261.074	11017.39
261.144	11014.78
261.214	11008.95
261.284	10996.13
261.354	10988.57
261.424	10957.15
261.494	10959.12
261.564	10937.87
261.634	10925.44
261.703	10881.92
261.773	10871.37
261.843	10866.17
261.913	10849.2
261.983	10818.46
262.053	10804.34
262.123	10789.6
262.192	10768.49
262.262	10758.42
262.332	10722.76
