Data from 20250702_urea_0.5M_MAYP1162681_06-04-59-864.txt Node
Date: Thu Jul 03 06:04:59 BST 2025
User: adleo
Spectrometer: MAYP116268
Trigger mode: 0
Integration Time (sec): 1.000000E0
Scans to average: 1
Electric dark correction enabled: true
Nonlinearity correction enabled: true
Boxcar width: 10
XAxis mode: Wavelengths
Number of Pixels in Spectrum: 2068
>>>>>Begin Spectral Data<<<<<
179.565	1170.64
179.642	1224.69
179.718	1265.9
179.795	1301.3
179.871	1334.03
179.948	1351.27
180.024	1367.41
180.101	1390.02
180.177	1403.37
180.254	1425.77
180.33	1449.4
180.407	1500.29
180.483	1593.88
180.56	1682.49
180.636	1765.53
180.712	1751.93
180.789	1759.58
180.865	1770.18
180.942	1779.11
181.018	1790.94
181.095	1801.64
181.171	1807.53
181.248	1811.62
181.324	1825.03
181.4	1835.29
181.477	1842.19
181.553	1855.4
181.63	1879.12
181.706	1896.04
181.782	1903.88
181.859	1903.22
181.935	1906.88
182.011	1901.94
182.088	1916.01
182.164	1931.28
182.24	1944.11
182.317	1954.9
182.393	1954.33
182.469	1972.44
182.546	1984.9
182.622	1989.32
182.698	1983.95
182.775	1992.41
182.851	2005.3
182.927	1999.69
183.003	1993.75
183.08	1990.8
183.156	2000.26
183.232	1997.41
183.308	1984.95
183.385	1992.22
183.461	2009.01
183.537	2010.67
183.613	2026.27
183.69	2017.24
183.766	2007.01
183.842	2011.77
183.918	2017.33
183.995	2031.64
184.071	2032.93
184.147	2025.56
184.223	2014.15
184.299	2027.7
184.375	2021.43
184.452	2026.95
184.528	2085.09
184.604	2098.26
184.68	2109.72
184.756	2118.81
184.832	2122.33
184.908	2125.52
184.985	2128.46
185.061	2113.72
185.137	2122.19
185.213	2109.3
185.289	2112.2
185.365	2107.78
185.441	2106.97
185.517	2117.06
185.593	2112.11
185.669	2106.59
185.745	2121.86
185.822	2137.26
185.898	2129.6
185.974	2137.74
186.05	2128.27
186.126	2084.96
186.202	2073.5
186.278	2070.36
186.354	2057.71
186.43	2066.37
186.506	2065.18
186.582	2062.52
186.658	2068.79
186.734	2050.01
186.81	2052.91
186.886	2054.81
186.962	2067.75
187.038	2062.94
187.114	2058.95
187.19	2066.65
187.266	2060.76
187.341	2057.52
187.417	2051.62
187.493	2051.43
187.569	2053.1
187.645	2049.25
187.721	2038.26
187.797	2048.29
187.873	2052.43
187.949	2046.53
188.025	2037.4
188.101	2039.63
188.176	2045.2
188.252	2040.59
188.328	2048.1
188.404	2048.76
188.48	2043.53
188.556	2035.92
188.632	2035.4
188.707	2035.16
188.783	2033.5
188.859	2025.03
188.935	2016.24
189.011	2024.04
189.086	2015.67
189.162	2007.58
189.238	2003.54
189.314	2001.69
189.39	1994.22
189.465	1988.37
189.541	2005.44
189.617	1992.7
189.693	1990.04
189.768	1992.89
189.844	2017.39
189.92	2008.5
189.996	2018.11
190.071	2029.1
190.147	2026.2
190.223	2038.85
190.298	2030.43
190.374	2015.73
190.45	2029.95
190.526	2036.37
190.601	2031.23
190.677	2034.13
190.753	2059.45
190.828	2061.4
190.904	2076.43
190.98	2091.7
191.055	2098.35
191.131	2090.03
191.207	2109.77
191.282	2119.23
191.358	2109.96
191.433	2093.06
191.509	2104.43
191.585	2099.86
191.66	2103
191.736	2113.51
191.811	2102.95
191.887	2120.41
191.963	2145.77
192.038	2151.9
192.114	2154.9
192.189	2157.18
192.265	2156.18
192.34	2136.86
192.416	2138.62
192.491	2132.96
192.567	2137
192.642	2143.09
192.718	2142.67
192.793	2130.16
192.869	2124.88
192.944	2129.25
193.02	2138.67
193.095	2145.28
193.171	2148.18
193.246	2147.61
193.322	2141.24
193.397	2144.05
193.473	2128.77
193.548	2109.03
193.624	2113.93
193.699	2112.21
193.775	2129.68
193.85	2129.68
193.925	2137.39
194.001	2133.44
194.076	2127.3
194.152	2115.27
194.227	2106.13
194.302	2096.53
194.378	2100.38
194.453	2098.67
194.529	2110.37
194.604	2098.33
194.679	2091.29
194.755	2073.7
194.83	2084.89
194.905	2085.98
194.981	2092.12
195.056	2085.51
195.131	2091.26
195.207	2088.6
195.282	2080.08
195.357	2059.2
195.433	2074.46
195.508	2063.33
195.583	2071.42
195.659	2084.45
195.734	2092.59
195.809	2092.4
195.884	2101.57
195.96	2101.15
196.035	2115.37
196.11	2110.66
196.185	2118.65
196.261	2121.98
196.336	2152.37
196.411	2138.43
196.486	2143.37
196.561	2137.28
196.637	2143.47
196.712	2159.98
196.787	2164.6
196.862	2176.58
196.937	2187.09
197.013	2193.52
197.088	2201.7
197.163	2226.5
197.238	2242.97
197.313	2243.07
197.388	2258.72
197.464	2287.57
197.539	2299.04
197.614	2294.52
197.689	2307.32
197.764	2323.88
197.839	2342.02
197.914	2339.25
197.989	2361.01
198.065	2373.76
198.14	2424.73
198.215	2455.14
198.29	2464.57
198.365	2474.19
198.44	2483.57
198.515	2513.76
198.59	2526.52
198.665	2554.99
198.74	2563.52
198.815	2565.14
198.89	2589.48
198.965	2617.92
199.04	2615.16
199.115	2631.49
199.19	2672.59
199.265	2672.83
199.34	2684.45
199.415	2719.29
199.49	2736.63
199.565	2746.3
199.64	2771.02
199.715	2766.11
199.79	2773.78
199.865	2782.6
199.94	2783.27
200.015	2816.38
200.09	2818.43
200.165	2825.58
200.24	2830.49
200.315	2868.36
200.39	2884.85
200.464	2888.52
200.539	2890.43
200.614	2904.25
200.689	2924.27
200.764	2929.08
200.839	2951.52
200.914	2957.39
200.989	2947.61
201.063	2963.39
201.138	2947.95
201.213	2946.86
201.288	2929.17
201.363	2932.7
201.438	2934.7
201.512	2952.43
201.587	2936.22
201.662	2941.18
201.737	2952.57
201.812	2961.87
201.886	2927.66
201.961	2937.44
202.036	2924.48
202.111	2917.42
202.186	2890.8
202.26	2877.93
202.335	2859.95
202.41	2850.23
202.485	2834.79
202.559	2814.78
202.634	2789.14
202.709	2798.52
202.784	2777.61
202.858	2775.75
202.933	2757.74
203.008	2749.45
203.082	2729.15
203.157	2727.48
203.232	2683.86
203.306	2665.66
203.381	2631.69
203.456	2610.92
203.53	2585.79
203.605	2567.32
203.68	2544.69
203.754	2536.51
203.829	2517.46
203.904	2495.03
203.978	2483.5
204.053	2483.5
204.127	2470.12
204.202	2469.27
204.277	2451.65
204.351	2447.84
204.426	2445.46
204.5	2435.7
204.575	2401.33
204.65	2412
204.724	2405.62
204.799	2416.37
204.873	2411.18
204.948	2410.56
205.022	2397.52
205.097	2387.85
205.171	2401.94
205.246	2411.94
205.32	2416.32
205.395	2418.37
205.469	2410.37
205.544	2415.56
205.618	2400.28
205.693	2414.56
205.767	2400.95
205.842	2422.38
205.916	2417.91
205.991	2405.76
206.065	2411.57
206.14	2426.7
206.214	2422.22
206.289	2418.22
206.363	2430.22
206.438	2430.6
206.512	2438.74
206.586	2457.02
206.661	2466.45
206.735	2444.94
206.81	2445.89
206.884	2454.84
206.958	2441.9
207.033	2458.6
207.107	2469.46
207.181	2502.04
207.256	2495.09
207.33	2514.7
207.405	2526.19
207.479	2544.47
207.553	2551.95
207.628	2538.91
207.702	2551
207.776	2546.09
207.851	2549.09
207.925	2566.2
207.999	2569.96
208.073	2571.06
208.148	2579.3
208.222	2573.96
208.296	2609.57
208.371	2630.4
208.445	2650.17
208.519	2686.27
208.593	2705.52
208.668	2706.9
208.742	2716.29
208.816	2726.2
208.89	2752.75
208.965	2760.71
209.039	2780.06
209.113	2811.18
209.187	2842.09
209.261	2853.38
209.336	2887.75
209.41	2923.17
209.484	2939.67
209.558	2977.72
209.632	3010.61
209.707	3041.03
209.781	3085.38
209.855	3127.07
209.929	3169.42
210.003	3201.48
210.077	3227.57
210.151	3301.25
210.226	3365.03
210.3	3421.34
210.374	3477.83
210.448	3516.5
210.522	3560.19
210.596	3606.03
210.67	3649.15
210.744	3736.37
210.818	3807.65
210.892	3868.66
210.966	3903.14
211.041	3960.62
211.115	4007.3
211.189	4079.47
211.263	4141.22
211.337	4196.33
211.411	4259.8
211.485	4309.13
211.559	4378.46
211.633	4439.94
211.707	4465.41
211.781	4529.76
211.855	4553.49
211.929	4609.51
212.003	4650.55
212.077	4723.99
212.151	4796.43
212.225	4874.13
212.299	4926.69
212.373	4981.94
212.447	5045.33
212.52	5147.93
212.594	5224.79
212.668	5307.54
212.742	5364.95
212.816	5434.73
212.89	5505.47
212.964	5576.92
213.038	5650.97
213.112	5737.89
213.186	5827.41
213.26	5886.43
213.333	5920.34
213.407	6008.77
213.481	6087.38
213.555	6176.77
213.629	6245.6
213.703	6316.74
213.777	6395.33
213.85	6460.05
213.924	6573.66
213.998	6656.84
214.072	6730.11
214.146	6797.59
214.219	6874.12
214.293	6953.95
214.367	7040.91
214.441	7127.54
214.515	7198.86
214.588	7259.22
214.662	7305.55
214.736	7367.12
214.81	7463.42
214.883	7552.9
214.957	7620.81
215.031	7689.94
215.105	7749.68
215.178	7819.36
215.252	7894.29
215.326	7952.77
215.4	8010.67
215.473	8045.07
215.547	8099.81
215.621	8164.39
215.694	8245.12
215.768	8302.81
215.842	8368.49
215.915	8429.56
215.989	8480.86
216.063	8547.85
216.136	8627.79
216.21	8704.07
216.284	8788.88
216.357	8860.75
216.431	8932.76
216.504	9013.2
216.578	9109.92
216.652	9197.19
216.725	9265.9
216.799	9342.27
216.873	9409.97
216.946	9494.37
217.02	9565.59
217.093	9641.15
217.167	9693.98
217.24	9753.99
217.314	9816.51
217.387	9875.74
217.461	9945.83
217.535	10030.99
217.608	10087.25
217.682	10147.95
217.755	10221.9
217.829	10280.29
217.902	10344.42
217.976	10405.36
218.049	10468.28
218.123	10518.73
218.196	10583.34
218.27	10647.43
218.343	10693.06
218.417	10763.84
218.49	10828.17
218.563	10907.44
218.637	10978.52
218.71	11058.18
218.784	11130.37
218.857	11208.58
218.931	11282.56
219.004	11341.21
219.077	11412.97
219.151	11487.14
219.224	11552.59
219.298	11615.44
219.371	11696.32
219.444	11746.98
219.518	11823.66
219.591	11892.06
219.665	11991.59
219.738	12061.97
219.811	12114.41
219.885	12195.34
219.958	12267.69
220.031	12334.26
220.105	12407.28
220.178	12472.02
220.251	12533.87
220.325	12596.15
220.398	12664.74
220.471	12738.16
220.544	12817.51
220.618	12873.91
220.691	12939.66
220.764	13003.82
220.838	13070.92
220.911	13123.8
220.984	13215.3
221.057	13275.8
221.131	13341.45
221.204	13364.5
221.277	13434.69
221.35	13533.51
221.424	13597.14
221.497	13660.24
221.57	13715.97
221.643	13778.25
221.716	13845.6
221.79	13900.02
221.863	13957.24
221.936	14013.11
222.009	14060.79
222.082	14117.04
222.155	14163.8
222.229	14233.22
222.302	14300.37
222.375	14355.23
222.448	14416.83
222.521	14466.1
222.594	14522.64
222.667	14563.33
222.74	14625.85
222.814	14683.75
222.887	14724.24
222.96	14780.49
223.033	14841.37
223.106	14898.11
223.179	14954.36
223.252	14999.96
223.325	15057.47
223.398	15113.91
223.471	15164.96
223.544	15222.8
223.617	15270.91
223.69	15328.9
223.763	15364.13
223.837	15420.14
223.91	15470.99
223.983	15494.52
224.056	15527.82
224.129	15576.36
224.202	15635.27
224.275	15675.75
224.348	15702.07
224.42	15733.16
224.493	15760.97
224.566	15791.24
224.639	15837.37
224.712	15870.53
224.785	15913.76
224.858	15946.11
224.931	15979.27
225.004	16011.95
225.077	16058.65
225.15	16075.81
225.223	16114.85
225.296	16179.14
225.369	16195.77
225.442	16229.56
225.514	16275.44
225.587	16324.61
225.66	16367.69
225.733	16398.54
225.806	16442.74
225.879	16488.62
225.952	16522.55
226.025	16579.62
226.097	16634.94
226.17	16670.75
226.243	16681.36
226.316	16722.52
226.389	16767.77
226.461	16817.99
226.534	16852.26
226.607	16882.62
226.68	16939.25
226.753	16972.89
226.825	16980.31
226.898	17032.41
226.971	17064.51
227.044	17108.75
227.117	17133.86
227.189	17170.82
227.262	17222.2
227.335	17259.35
227.407	17283.89
227.48	17321.57
227.553	17346.15
227.626	17369.77
227.698	17410.59
227.771	17455.26
227.844	17472.08
227.916	17495.6
227.989	17500.75
228.062	17539.07
228.134	17592.37
228.207	17611.31
228.28	17628.22
228.352	17658.49
228.425	17676.66
228.498	17714.05
228.57	17736.51
228.643	17781.43
228.716	17796.56
228.788	17807.79
228.861	17822.58
228.934	17860.75
229.006	17888.27
229.079	17910.14
229.151	17925.71
229.224	17928.51
229.296	17953.57
229.369	18003.73
229.442	18044.07
229.514	18067.3
229.587	18092.21
229.659	18088.79
229.732	18117.08
229.804	18154.38
229.877	18198.33
229.949	18231.48
230.022	18273.79
230.094	18291.77
230.167	18315.43
230.239	18337.21
230.312	18365.84
230.384	18423.95
230.457	18450.46
230.529	18470.7
230.602	18500
230.674	18532.91
230.747	18574.02
230.819	18620.42
230.892	18609.1
230.964	18635.31
231.037	18663.75
231.109	18682.69
231.181	18710.15
231.254	18729.33
231.326	18756.56
231.399	18779.64
231.471	18798.49
231.544	18788.56
231.616	18809.81
231.688	18823.69
231.761	18832.56
231.833	18839.74
231.905	18813.28
231.978	18824.51
232.05	18832.07
232.122	18847.83
232.195	18852.7
232.267	18870.92
232.339	18858.68
232.412	18880.31
232.484	18880.51
232.556	18886.1
232.629	18919.54
232.701	18927.35
232.773	18932.36
232.846	18935.54
232.918	18937.61
232.99	18935.49
233.062	18961.32
233.135	18978.23
233.207	18968.36
233.279	18983.25
233.351	18994.04
233.424	19006.57
233.496	19002.47
233.568	19041.8
233.64	19022.66
233.713	19018.18
233.785	19021.17
233.857	19028.98
233.929	19024.01
234.001	19043.24
234.074	19057.99
234.146	19034.71
234.218	19035.53
234.29	19042.33
234.362	19025.17
234.434	19006.76
234.507	19001.51
234.579	18979.25
234.651	18970.23
234.723	18979.39
234.795	18984.31
234.867	18974.86
234.939	18985.13
235.012	18988.45
235.084	18979.73
235.156	18989.56
235.228	18984.4
235.3	18970.72
235.372	18974.09
235.444	18984.35
235.516	18950.77
235.588	18947.59
235.66	18941.8
235.732	18929.18
235.804	18969.61
235.876	18971.44
235.948	18971.73
236.02	18956.6
236.092	18948.26
236.164	18948.84
236.236	18927.78
236.308	18905.66
236.38	18907.59
236.452	18883.88
236.524	18874.58
236.596	18870.72
236.668	18863.21
236.74	18854.29
236.812	18847.93
236.884	18833.86
236.956	18812.65
237.028	18794.53
237.1	18770.44
237.172	18772.27
237.244	18777.14
237.316	18730.15
237.388	18716.76
237.46	18694.78
237.532	18704.32
237.604	18676.18
237.675	18662.98
237.747	18667.41
237.819	18652.04
237.891	18634.45
237.963	18611.56
238.035	18585.82
238.107	18539.85
238.178	18537.92
238.25	18512.48
238.322	18506.41
238.394	18470.89
238.466	18455.76
238.538	18442.84
238.609	18432.53
238.681	18397.93
238.753	18367.09
238.825	18352.54
238.897	18330.56
238.968	18331.81
239.04	18297.5
239.112	18308.59
239.184	18272.93
239.255	18240.25
239.327	18220.54
239.399	18195.29
239.471	18193.31
239.542	18179.68
239.614	18167.97
239.686	18114.57
239.758	18106.38
239.829	18080.6
239.901	18073.95
239.973	18047.97
240.044	18035.59
240.116	18007.35
240.188	17982.14
240.259	17967.59
240.331	17928.55
240.403	17908.89
240.474	17866.44
240.546	17831.69
240.618	17789.52
240.689	17761.76
240.761	17740.32
240.833	17730.58
240.904	17708.75
240.976	17677.48
241.048	17653.67
241.119	17629.14
241.191	17606.92
241.262	17592.8
241.334	17558.78
241.405	17526.54
241.477	17491.79
241.549	17462.59
241.62	17440.66
241.692	17422.54
241.763	17399.26
241.835	17367.31
241.906	17340.61
241.978	17302.73
242.049	17295.55
242.121	17289.19
242.192	17282.78
242.264	17240.66
242.335	17195.6
242.407	17175.11
242.478	17139.88
242.55	17114.92
242.621	17081.52
242.693	17056.85
242.764	17032.51
242.836	16999.4
242.907	16975.59
242.979	16957.52
243.05	16926.29
243.122	16899.88
243.193	16863.15
243.264	16810.52
243.336	16786.95
243.407	16767.34
243.479	16756.64
243.55	16726.9
243.622	16684.64
243.693	16642.95
243.764	16636.44
243.836	16594.32
243.907	16557.98
243.978	16533.06
244.05	16504.33
244.121	16459.99
244.192	16439.75
244.264	16384.47
244.335	16360.76
244.407	16320.65
244.478	16295.64
244.549	16265.95
244.62	16217.17
244.692	16186.57
244.763	16168.25
244.834	16133.5
244.906	16095.28
244.977	16066.41
245.048	16050.75
245.119	16018.89
245.191	15985.05
245.262	15933.58
245.333	15929.48
245.405	15905.57
245.476	15875.3
245.547	15850.48
245.618	15831.25
245.689	15803.15
245.761	15780.93
245.832	15740.2
245.903	15724.97
245.974	15689.93
246.045	15660.09
246.117	15653.44
246.188	15614.73
246.259	15569.37
246.33	15529.85
246.401	15491.67
246.473	15453.59
246.544	15409.54
246.615	15388.86
246.686	15355.02
246.757	15334.3
246.828	15286.77
246.899	15269.47
246.97	15224.2
247.042	15181.54
247.113	15168.24
247.184	15158.31
247.255	15123.56
247.326	15093.24
247.397	15055.4
247.468	15029.56
247.539	15000.98
247.61	14953.64
247.681	14933.64
247.752	14929.3
247.823	14897.24
247.894	14880.66
247.965	14839.49
248.037	14808.26
248.108	14759.72
248.179	14734.94
248.25	14702.64
248.321	14686.01
248.392	14642.82
248.463	14639.54
248.534	14614.38
248.605	14583.24
248.675	14541.98
248.746	14526.84
248.817	14509.39
248.888	14487.36
248.959	14439.3
249.03	14419.39
249.101	14399.92
249.172	14369.31
249.243	14310.35
249.314	14301.43
249.385	14273.18
249.456	14256.22
249.527	14227.44
249.598	14211.77
249.669	14183.04
249.739	14160.96
249.81	14135.46
249.881	14089.91
249.952	14062.48
250.023	14037.99
250.094	14000.63
250.165	13968.76
250.235	13934.06
250.306	13911.74
250.377	13872.16
250.448	13854.08
250.519	13805.63
250.59	13795.75
250.66	13769.38
250.731	13764.37
250.802	13737.33
250.873	13712.5
250.944	13691.1
251.014	13663.96
251.085	13666.65
251.156	13641.44
251.227	13626.31
251.297	13612.52
251.368	13609.58
251.439	13595.41
251.51	13575.54
251.58	13543.1
251.651	13510.47
251.722	13497.16
251.792	13454.26
251.863	13434.68
251.934	13431.02
252.005	13436.42
252.075	13407.83
252.146	13393.66
252.217	13383.39
252.287	13369.85
252.358	13344.1
252.429	13333.11
252.499	13307.08
252.57	13274.98
252.641	13272.13
252.711	13251.07
252.782	13217.71
252.852	13210.14
252.923	13174.51
252.994	13154.36
253.064	13144.19
253.135	13112.86
253.205	13082.15
253.276	13080.13
253.347	13069.95
253.417	13034.23
253.488	13015.1
253.558	12988.73
253.629	12964.82
253.699	12942.79
253.77	12923.12
253.841	12900.8
253.911	12884.26
253.982	12855.44
254.052	12839.43
254.123	12814.37
254.193	12790.17
254.264	12803.91
254.334	12768.81
254.405	12741.72
254.475	12707.01
254.546	12681.85
254.616	12681.32
254.687	12665.12
254.757	12649.17
254.827	12627.28
254.898	12607.18
254.968	12573.58
255.039	12541.38
255.109	12522.68
255.18	12499.64
255.25	12452.35
255.321	12434.71
255.391	12397.78
255.461	12403.81
255.532	12360.76
255.602	12334.68
255.673	12298.82
255.743	12263.82
255.813	12223.33
255.884	12214.8
255.954	12206.37
256.024	12205.06
256.095	12181.88
256.165	12144.86
256.235	12126.64
256.306	12094.54
256.376	12090.87
256.446	12080.51
256.517	12066.63
256.587	12063.25
256.657	12039.73
256.728	12032.55
256.798	12013.46
256.868	11985.46
256.938	11949.64
257.009	11940.39
257.079	11929.49
257.149	11936.24
257.219	11892.04
257.29	11874.84
257.36	11840.66
257.43	11829.77
257.5	11786.73
257.571	11762.53
257.641	11756.46
257.711	11727.97
257.781	11717.9
257.852	11699.44
257.922	11664.01
257.992	11649.65
258.062	11619.86
258.132	11607.04
258.202	11585.59
258.273	11576.48
258.343	11580.34
258.413	11563.04
258.483	11539.42
258.553	11508.19
258.623	11476.18
258.693	11468.38
258.764	11463.36
258.834	11462.01
258.904	11440.9
258.974	11413.53
259.044	11393.38
259.114	11376.47
259.184	11356.71
259.254	11334.83
259.324	11293.33
259.394	11283.41
259.464	11282.3
259.535	11264.99
259.605	11241.48
259.675	11216.08
259.745	11198.58
259.815	11167.88
259.885	11141.67
259.955	11156.08
260.025	11126.64
260.095	11109.96
260.165	11095.75
260.235	11099.36
260.305	11070.06
260.375	11039.94
260.445	11045.82
260.515	11041.67
260.585	11036.37
260.655	11022.49
260.725	11017.63
260.795	11013.87
260.865	11011.94
260.934	10983.7
261.004	10970.98
261.074	10961.44
261.144	10960.57
261.214	10954.35
261.284	10938.64
261.354	10938.59
261.424	10909.77
261.494	10914.5
261.564	10893.78
261.634	10887.66
261.703	10851.08
261.773	10839.52
261.843	10833.97
261.913	10815.86
261.983	10782.99
262.053	10770.32
262.123	10749.22
262.192	10719.92
262.262	10713.03
