Data from 20250702_urea_0.5M_MAYP1162681_18-15-00-294.txt Node
Date: Wed Jul 02 18:15:00 BST 2025
User: adleo
Spectrometer: MAYP116268
Trigger mode: 0
Integration Time (sec): 1.000000E0
Scans to average: 1
Electric dark correction enabled: true
Nonlinearity correction enabled: true
Boxcar width: 10
XAxis mode: Wavelengths
Number of Pixels in Spectrum: 2068
>>>>>Begin Spectral Data<<<<<
179.565	1136.96
179.642	1189.53
179.718	1230.47
179.795	1263.79
179.871	1290.93
179.948	1308.14
180.024	1324.43
180.101	1345.35
180.177	1360.23
180.254	1381.5
180.33	1402.32
180.407	1450.69
180.483	1541.14
180.56	1626.37
180.636	1704.94
180.712	1691.54
180.789	1701.8
180.865	1712.82
180.942	1719.99
181.018	1729.31
181.095	1744
181.171	1748.41
181.248	1749.98
181.324	1764.15
181.4	1772.42
181.477	1785.01
181.553	1797.03
181.63	1818.51
181.706	1834.49
181.782	1840
181.859	1838.43
181.935	1842.85
182.011	1839.9
182.088	1854.73
182.164	1869.47
182.24	1880.45
182.317	1889.86
182.393	1887.58
182.469	1900.65
182.546	1915.53
182.622	1921.33
182.698	1915.34
182.775	1927.65
182.851	1939.73
182.927	1933.79
183.003	1928.61
183.08	1922.38
183.156	1929.75
183.232	1925.71
183.308	1915.29
183.385	1924.28
183.461	1938.87
183.537	1938.4
183.613	1952.57
183.69	1943.87
183.766	1938.25
183.842	1948.33
183.918	1952.18
183.995	1965.21
184.071	1966.35
184.147	1960.88
184.223	1946.67
184.299	1956.18
184.375	1943.68
184.452	1949.29
184.528	2004.76
184.604	2017.5
184.68	2029.3
184.756	2038.9
184.832	2044.7
184.908	2048.08
184.985	2046.04
185.061	2034.53
185.137	2045.37
185.213	2028.83
185.289	2032.82
185.365	2023.41
185.441	2019.65
185.517	2032.3
185.593	2028.78
185.669	2026.93
185.745	2034.87
185.822	2051.46
185.898	2045.08
185.974	2057.16
186.05	2050.93
186.126	2009.3
186.202	1998.79
186.278	1993.04
186.354	1980.96
186.43	1987.9
186.506	1986.05
186.582	1982.91
186.658	1987.48
186.734	1967.7
186.81	1973.64
186.886	1971.31
186.962	1981.82
187.038	1980.25
187.114	1970.26
187.19	1980.44
187.266	1972.69
187.341	1974.02
187.417	1968.74
187.493	1968.6
187.569	1969.17
187.645	1963.42
187.721	1951.57
187.797	1962.65
187.873	1969.83
187.949	1965.6
188.025	1958.23
188.101	1961.65
188.176	1969.92
188.252	1967.07
188.328	1974.72
188.404	1974.06
188.48	1971.49
188.556	1965.97
188.632	1966.59
188.707	1972.25
188.783	1965.59
188.859	1958.8
188.935	1947.67
189.011	1954.8
189.086	1948.43
189.162	1939.68
189.238	1938.25
189.314	1937.07
189.39	1930.98
189.465	1923.04
189.541	1938.68
189.617	1923.57
189.693	1917.53
189.768	1919.05
189.844	1939.79
189.92	1933.99
189.996	1943.83
190.071	1953.06
190.147	1953.2
190.223	1961.9
190.298	1951.49
190.374	1938.7
190.45	1951.53
190.526	1959.38
190.601	1954.29
190.677	1956.52
190.753	1986.69
190.828	1987.78
190.904	2003.9
190.98	2017.03
191.055	2026.35
191.131	2018.12
191.207	2039.66
191.282	2047.55
191.358	2040.47
191.433	2030.48
191.509	2042.46
191.585	2036.8
191.66	2039.79
191.736	2044.69
191.811	2034.56
191.887	2050.54
191.963	2075.37
192.038	2079.93
192.114	2082.12
192.189	2086.54
192.265	2083.6
192.34	2055.53
192.416	2053.58
192.491	2046.44
192.567	2051.15
192.642	2051.53
192.718	2051.06
192.793	2039.4
192.869	2036.84
192.944	2040.54
193.02	2047.4
193.095	2049.3
193.171	2056.38
193.246	2057.29
193.322	2056.81
193.397	2056.76
193.473	2043.97
193.548	2026.84
193.624	2031.55
193.699	2030.22
193.775	2044.92
193.85	2045.25
193.925	2057.48
194.001	2059.99
194.076	2054.34
194.152	2043.3
194.227	2040.3
194.302	2031.08
194.378	2033.98
194.453	2032.89
194.529	2045.63
194.604	2030.41
194.679	2025.8
194.755	2008.35
194.83	2017.39
194.905	2015.68
194.981	2026.76
195.056	2022.15
195.131	2024.43
195.207	2024.91
195.282	2015.92
195.357	1996.66
195.433	2013.54
195.508	2002.65
195.583	2006.74
195.659	2019.39
195.734	2026.95
195.809	2024.96
195.884	2033.99
195.96	2033.8
196.035	2047.83
196.11	2041.88
196.185	2054.01
196.261	2056.95
196.336	2083.16
196.411	2070.84
196.486	2076.64
196.561	2066.98
196.637	2072.64
196.712	2088.34
196.787	2092.29
196.862	2105.18
196.937	2115.45
197.013	2118.73
197.088	2128.82
197.163	2152.23
197.238	2166.84
197.313	2165.7
197.388	2177.17
197.464	2206.67
197.539	2217.56
197.614	2210.86
197.689	2222.66
197.764	2237.13
197.839	2257.11
197.914	2251.68
197.989	2275.19
198.065	2289.14
198.14	2336.37
198.215	2362.35
198.29	2374.16
198.365	2384.92
198.44	2396.91
198.515	2424.62
198.59	2439.19
198.665	2463.66
198.74	2472.37
198.815	2473.61
198.89	2494.18
198.965	2526.61
199.04	2522.66
199.115	2538.75
199.19	2581.65
199.265	2582.37
199.34	2593.46
199.415	2625.01
199.49	2647.24
199.565	2655.48
199.64	2678.25
199.715	2674.87
199.79	2682.92
199.865	2689.59
199.94	2687.54
200.015	2716.55
200.09	2722.13
200.165	2729.51
200.24	2738.76
200.315	2778.48
200.39	2794.73
200.464	2800.93
200.539	2801.07
200.614	2820.27
200.689	2844.77
200.764	2852.06
200.839	2870.49
200.914	2874.78
200.989	2865.67
201.063	2879.64
201.138	2863.02
201.213	2862.73
201.288	2848.58
201.363	2853.15
201.438	2853.49
201.512	2870.02
201.587	2852.62
201.662	2851.9
201.737	2865.77
201.812	2871.68
201.886	2835.15
201.961	2841.78
202.036	2831.73
202.111	2826.77
202.186	2796.48
202.26	2778.32
202.335	2756.01
202.41	2750.63
202.485	2733.19
202.559	2715.33
202.634	2691.6
202.709	2700.03
202.784	2681.88
202.858	2679.88
202.933	2661.39
203.008	2655.34
203.082	2636.25
203.157	2638.1
203.232	2602.63
203.306	2579.52
203.381	2546.51
203.456	2525.99
203.53	2505.97
203.605	2485.12
203.68	2463.17
203.754	2456.46
203.829	2439.88
203.904	2420.94
203.978	2407.37
204.053	2417.08
204.127	2404.37
204.202	2401.23
204.277	2383.71
204.351	2375.38
204.426	2369.48
204.5	2363.43
204.575	2330.36
204.65	2339.41
204.724	2330.02
204.799	2335.16
204.873	2333.26
204.948	2337.02
205.022	2324.88
205.097	2317.79
205.171	2331.11
205.246	2340.97
205.32	2340.02
205.395	2340.64
205.469	2332.6
205.544	2340.83
205.618	2319.12
205.693	2328.88
205.767	2318.6
205.842	2339.45
205.916	2335.55
205.991	2325.18
206.065	2330.17
206.14	2345.11
206.214	2344.01
206.289	2340.06
206.363	2352.58
206.438	2352.43
206.512	2357.91
206.586	2381.47
206.661	2389.09
206.735	2371.39
206.81	2375.29
206.884	2390.24
206.958	2379.44
207.033	2396.52
207.107	2404.81
207.181	2439.43
207.256	2436.33
207.33	2455.99
207.405	2475.58
207.479	2498
207.553	2509.33
207.628	2495.63
207.702	2511.05
207.776	2508.52
207.851	2515.14
207.925	2537.92
207.999	2543.11
208.073	2550.82
208.148	2558.87
208.222	2557.49
208.296	2599.05
208.371	2623.79
208.445	2645.99
208.519	2687.76
208.593	2713.49
208.668	2725.31
208.742	2742.09
208.816	2764.05
208.89	2797.42
208.965	2812.69
209.039	2846.07
209.113	2889.02
209.187	2938.46
209.261	2966.54
209.336	3017.27
209.41	3070.07
209.484	3105.61
209.558	3164.24
209.632	3217.38
209.707	3274.55
209.781	3342.59
209.855	3402.6
209.929	3470.16
210.003	3534.19
210.077	3591.73
210.151	3698.99
210.226	3795.42
210.3	3891.63
210.374	3982.39
210.448	4059.11
210.522	4140.59
210.596	4225.76
210.67	4316.38
210.744	4446.13
210.818	4562.16
210.892	4670.71
210.966	4759.19
211.041	4873.38
211.115	4970.52
211.189	5093.7
211.263	5212.64
211.337	5325.66
211.411	5450.32
211.485	5555.62
211.559	5677.47
211.633	5797.63
211.707	5886.31
211.781	6018.88
211.855	6108.04
211.929	6230.38
212.003	6340.78
212.077	6486.5
212.151	6628.34
212.225	6774.06
212.299	6901.4
212.373	7031.29
212.447	7160.17
212.52	7332.03
212.594	7475.91
212.668	7633.58
212.742	7765.18
212.816	7914.17
212.89	8056.04
212.964	8208.94
213.038	8364.78
213.112	8532.66
213.186	8699.91
213.26	8837.96
213.333	8955.23
213.407	9115.21
213.481	9277.04
213.555	9455.73
213.629	9604.39
213.703	9752.53
213.777	9906.23
213.85	10045.43
213.924	10240.19
213.998	10412.41
214.072	10566.6
214.146	10709.59
214.219	10857.18
214.293	11013
214.367	11163.3
214.441	11334.75
214.515	11474.27
214.588	11605.6
214.662	11726.04
214.736	11856.61
214.81	12015.94
214.883	12168.24
214.957	12305.56
215.031	12439.36
215.105	12557.12
215.178	12685.97
215.252	12822.53
215.326	12944.15
215.4	13072.08
215.473	13158.9
215.547	13275.08
215.621	13398.1
215.694	13547.39
215.768	13666.36
215.842	13794.78
215.915	13915.39
215.989	14015.08
216.063	14144.7
216.136	14273.65
216.21	14402.41
216.284	14543.6
216.357	14670.18
216.431	14793.78
216.504	14926.38
216.578	15068.73
216.652	15202.01
216.725	15319.14
216.799	15451.74
216.873	15573.69
216.946	15693.57
217.02	15803.51
217.093	15909.41
217.167	16001.47
217.24	16094.4
217.314	16203.66
217.387	16296.64
217.461	16396.36
217.535	16516.85
217.608	16604.43
217.682	16699.9
217.755	16809.6
217.829	16901.46
217.902	16998.81
217.976	17090.52
218.049	17180.55
218.123	17263.39
218.196	17349.61
218.27	17440.31
218.343	17508.36
218.417	17600.55
218.49	17684.12
218.563	17790.62
218.637	17885.95
218.71	17988.64
218.784	18070.23
218.857	18159.58
218.931	18253.69
219.004	18334.32
219.077	18426.17
219.151	18515.61
219.224	18600.28
219.298	18681.82
219.371	18765.52
219.444	18824.03
219.518	18896.89
219.591	18971.05
219.665	19065.02
219.738	19138.08
219.811	19201.5
219.885	19287.66
219.958	19355.95
220.031	19421.15
220.105	19494.2
220.178	19555.02
220.251	19612.9
220.325	19686.63
220.398	19756.51
220.471	19821.8
220.544	19890.09
220.618	19929.8
220.691	19986.47
220.764	20041.17
220.838	20095.67
220.911	20141.7
220.984	20221.31
221.057	20286.47
221.131	20343.77
221.204	20367.77
221.277	20443.19
221.35	20518.66
221.424	20555.38
221.497	20612.64
221.57	20662.23
221.643	20706.85
221.716	20768.16
221.79	20803.24
221.863	20841.7
221.936	20875.78
222.009	20915.54
222.082	20961.18
222.155	20997.37
222.229	21048.75
222.302	21087.98
222.375	21129.29
222.448	21174.25
222.521	21203.99
222.594	21234.93
222.667	21253.25
222.74	21297.88
222.814	21332.44
222.887	21368.25
222.96	21409.56
223.033	21442.72
223.106	21478.77
223.179	21512.9
223.252	21537.91
223.325	21576.76
223.398	21608.19
223.471	21639.09
223.544	21666.17
223.617	21691.14
223.69	21722.47
223.763	21740.98
223.837	21775.69
223.91	21793.42
223.983	21796.94
224.056	21815.89
224.129	21841.43
224.202	21879.42
224.275	21888.91
224.348	21896.91
224.42	21897.68
224.493	21900.62
224.566	21909.49
224.639	21932.82
224.712	21950.52
224.785	21951.67
224.858	21961.27
224.931	21965.89
225.004	21973.22
225.077	21975.97
225.15	21961.22
225.223	21970.81
225.296	21996.6
225.369	21981.37
225.442	21987.68
225.514	22000.41
225.587	22001.71
225.66	22005.66
225.733	22014
225.806	22026.54
225.879	22027.5
225.952	22028.42
226.025	22044.81
226.097	22064.33
226.17	22051.03
226.243	22026.59
226.316	22048.13
226.389	22050.4
226.461	22060.57
226.534	22071.18
226.607	22074.69
226.68	22105.74
226.753	22098.17
226.825	22077.15
226.898	22099.08
226.971	22091.18
227.044	22104.77
227.117	22108.29
227.189	22118.9
227.262	22123.28
227.335	22128.92
227.407	22115.48
227.48	22116.39
227.553	22118.66
227.626	22118.61
227.698	22133.74
227.771	22135.48
227.844	22111.71
227.916	22109.5
227.989	22094.22
228.062	22082.84
228.134	22101.83
228.207	22100.96
228.28	22107.91
228.352	22110.41
228.425	22112.15
228.498	22125.84
228.57	22103.91
228.643	22109.74
228.716	22097.2
228.788	22081.73
228.861	22060.28
228.934	22076.28
229.006	22074.31
229.079	22057.53
229.151	22031.31
229.224	22003.45
229.296	22002.48
229.369	22025.09
229.442	22031.41
229.514	22018.25
229.587	22029.72
229.659	22003.98
229.732	21995.01
229.804	21998.34
229.877	22010.92
229.949	22007.3
230.022	22021.48
230.094	22019.07
230.167	22018.25
230.239	21999.69
230.312	21990.29
230.384	22018.44
230.457	22015.07
230.529	22011.45
230.602	22009.77
230.674	22011.55
230.747	22022.59
230.819	22029.82
230.892	21989.81
230.964	21977.61
231.037	21978.96
231.109	21958.28
231.181	21960.45
231.254	21938.33
231.326	21907.57
231.399	21882.07
231.471	21866.26
231.544	21824.23
231.616	21830.98
231.688	21822.49
231.761	21811.26
231.833	21800.17
231.905	21748.36
231.978	21722.09
232.05	21695
232.122	21689.69
232.195	21662.22
232.267	21662.36
232.339	21639.71
232.412	21644.77
232.484	21630.36
232.556	21602.02
232.629	21605.39
232.701	21590.16
232.773	21576.33
232.846	21567.89
232.918	21555.21
232.99	21541.53
233.062	21537.91
233.135	21514.24
233.207	21475.78
233.279	21467.1
233.351	21450.96
233.424	21433.41
233.496	21406.52
233.568	21414.71
233.64	21371.09
233.713	21352.92
233.785	21324.34
233.857	21308.97
233.929	21266.7
234.001	21260.67
234.074	21256.19
234.146	21228.57
234.218	21203.51
234.29	21179.75
234.362	21150.45
234.434	21108.32
234.507	21073.62
234.579	21023.01
234.651	20993.18
234.723	20974.77
234.795	20948.45
234.867	20924.5
234.939	20920.93
235.012	20904.6
235.084	20875.77
235.156	20862.28
235.228	20832.54
235.3	20797.75
235.372	20770.03
235.444	20757.12
235.516	20707.67
235.588	20676.49
235.66	20638.46
235.732	20605.59
235.804	20627.14
235.876	20611.48
235.948	20603.33
236.02	20571.67
236.092	20549.11
236.164	20520.58
236.236	20490.56
236.308	20463.96
236.38	20436.49
236.452	20402.56
236.524	20376.97
236.596	20361.93
236.668	20340.29
236.74	20318.32
236.812	20293.26
236.884	20269.79
236.956	20235.04
237.028	20202.71
237.1	20160.49
237.172	20149.79
237.244	20139.91
237.316	20078.85
237.388	20052.2
237.46	20014.56
237.532	20000.69
237.604	19967.77
237.675	19947.96
237.747	19921.99
237.819	19876.55
237.891	19842.86
237.963	19798.86
238.035	19757.13
238.107	19689.66
238.178	19676.27
238.25	19635.4
238.322	19618.58
238.394	19575.07
238.466	19547.41
238.538	19515.55
238.609	19495.99
238.681	19439.36
238.753	19387.12
238.825	19351.03
238.897	19313.83
238.968	19283.47
239.04	19233.69
239.112	19223.71
239.184	19181.84
239.255	19143.96
239.327	19117.65
239.399	19085.84
239.471	19057.41
239.542	19042.57
239.614	19032.83
239.686	18971.82
239.758	18949.18
239.829	18899.88
239.901	18878.72
239.973	18848.07
240.044	18821.42
240.116	18794.25
240.188	18758.73
240.259	18729.82
240.331	18687.22
240.403	18650.01
240.474	18602.02
240.546	18559.32
240.618	18506.36
240.689	18465.4
240.761	18438.27
240.833	18424.48
240.904	18382.27
240.976	18354.8
241.048	18304.59
241.119	18268.06
241.191	18240.35
241.262	18222.71
241.334	18192.01
241.405	18148.26
241.477	18104.4
241.549	18070.43
241.62	18031.06
241.692	18005.47
241.763	17983.06
241.835	17952.7
241.906	17921.86
241.978	17881.95
242.049	17866.48
242.121	17843.5
242.192	17824.85
242.264	17775.5
242.335	17721.86
242.407	17708.17
242.478	17667.31
242.55	17643.26
242.621	17597.09
242.693	17561.28
242.764	17520.85
242.836	17483.5
242.907	17459.31
242.979	17428.32
243.05	17389.91
243.122	17373.24
243.193	17334.44
243.264	17273.57
243.336	17237.86
243.407	17209.91
243.479	17195.79
243.55	17162.29
243.622	17126.82
243.693	17096.41
243.764	17078.1
243.836	17034.82
243.907	16991.54
243.978	16956.12
244.05	16924.65
244.121	16875.73
244.192	16845.13
244.264	16789.94
244.335	16759.29
244.407	16704.49
244.478	16682.51
244.549	16650.9
244.62	16592.58
244.692	16561.98
244.763	16544.53
244.834	16504.62
244.906	16459.99
244.977	16426.01
245.048	16414.69
245.119	16371.74
245.191	16319.06
245.262	16256.55
245.333	16235.87
245.405	16194.57
245.476	16170.42
245.547	16138.71
245.618	16120.63
245.689	16086.65
245.761	16068.29
245.832	16031.71
245.903	16006.35
245.974	15967.6
246.045	15927.16
246.117	15915.4
246.188	15860.31
246.259	15820.93
246.33	15787.67
246.401	15762.85
246.473	15718.51
246.544	15669.05
246.615	15651.61
246.686	15616.23
246.757	15602.92
246.828	15560.26
246.899	15548.65
246.97	15500.88
247.042	15462.22
247.113	15439.71
247.184	15430.65
247.255	15382.74
247.326	15351.99
247.397	15321.14
247.468	15294.48
247.539	15268.89
247.61	15212.97
247.681	15197.16
247.752	15177.74
247.823	15137.15
247.894	15106.06
247.965	15064.7
248.037	15031.15
248.108	14987.33
248.179	14963.81
248.25	14938.02
248.321	14921.54
248.392	14874.54
248.463	14867.93
248.534	14829.76
248.605	14804.74
248.675	14762.22
248.746	14753.21
248.817	14724.34
248.888	14699.41
248.959	14647.26
249.03	14622.05
249.101	14599.44
249.172	14571.33
249.243	14518.6
249.314	14505.39
249.385	14481.34
249.456	14467.64
249.527	14430.33
249.598	14403.48
249.669	14369.45
249.739	14341.78
249.81	14320.43
249.881	14286.59
249.952	14254.58
250.023	14226.18
250.094	14183.91
250.165	14149.87
250.235	14114.35
250.306	14096.94
250.377	14058.38
250.448	14049.22
250.519	14011.91
250.59	14003.28
250.66	13969.25
250.731	13958.64
250.802	13931.26
250.873	13901.42
250.944	13876.02
251.014	13847.04
251.085	13849.12
251.156	13834.08
251.227	13824.92
251.297	13808.82
251.368	13798.07
251.439	13773.29
251.51	13758.15
251.58	13723.73
251.651	13697.8
251.722	13677.89
251.792	13634.69
251.863	13610.59
251.934	13592.27
252.005	13586.97
252.075	13555.06
252.146	13540.11
252.217	13529.46
252.287	13513.07
252.358	13487.71
252.429	13478.31
252.499	13450.79
252.57	13426.78
252.641	13413.23
252.711	13380.65
252.782	13337.45
252.852	13332.34
252.923	13309.54
252.994	13295.7
253.064	13285.53
253.135	13259.07
253.205	13230.72
253.276	13226.48
253.347	13218.38
253.417	13192.16
253.488	13167.72
253.558	13148.34
253.629	13122.02
253.699	13104.81
253.77	13092.71
253.841	13071.45
253.911	13052.17
253.982	13033.51
254.052	13014.23
254.123	12986.17
254.193	12965.2
254.264	12984.82
254.334	12947.85
254.405	12917.38
254.475	12879.97
254.546	12853.65
254.616	12837.65
254.687	12820.2
254.757	12801.11
254.827	12779.13
254.898	12757.73
254.968	12725.67
255.039	12699.93
255.109	12690.48
255.18	12651.19
255.25	12604.67
255.321	12586.79
255.391	12550.01
255.461	12549.82
255.532	12504.17
255.602	12481.22
255.673	12439.33
255.743	12403.18
255.813	12359.75
255.884	12351.99
255.954	12348.03
256.024	12345.87
256.095	12325.23
256.165	12292.94
256.235	12279.73
256.306	12250.95
256.376	12236.35
256.446	12224.68
256.517	12207.47
256.587	12197.74
256.657	12184.96
256.728	12167.18
256.798	12152.23
256.868	12125.63
256.938	12097.28
257.009	12083.88
257.079	12071.64
257.149	12078.24
257.219	12034.67
257.29	12024.55
257.36	11985.89
257.43	11968.97
257.5	11928.96
257.571	11906.26
257.641	11900.48
257.711	11862.3
257.781	11853.77
257.852	11843.17
257.922	11805.62
257.992	11786.97
258.062	11769.42
258.132	11760.89
258.202	11737.95
258.273	11721.7
258.343	11724.84
258.413	11694.57
258.483	11674.95
258.553	11645.12
258.623	11612.58
258.693	11602.51
258.764	11596.58
258.834	11594.89
258.904	11577.4
258.974	11549.45
259.044	11524
259.114	11504
259.184	11488.86
259.254	11466.69
259.324	11429.73
259.394	11425.97
259.464	11422.01
259.535	11388.95
259.605	11360.61
259.675	11338.15
259.745	11313.82
259.815	11283.69
259.885	11261.43
259.955	11275.55
260.025	11254.68
260.095	11245.09
260.165	11233.33
260.235	11227.16
260.305	11194.88
260.375	11165.33
260.445	11172.37
260.515	11172.47
260.585	11166.06
260.655	11146.63
260.725	11134.39
260.795	11125.53
260.865	11122.25
260.934	11097.77
261.004	11092.47
261.074	11072.8
261.144	11071.36
261.214	11064.08
261.284	11048.08
261.354	11047.5
261.424	11018.59
261.494	11020.08
261.564	10995.17
261.634	10983.79
261.703	10942.98
261.773	10936.76
261.843	10931.27
261.913	10907.66
261.983	10877.06
262.053	10865.11
