Data from 20250702_urea_0.5M_MAYP1162681_01-55-00-091.txt Node
Date: Thu Jul 03 01:55:00 BST 2025
User: adleo
Spectrometer: MAYP116268
Trigger mode: 0
Integration Time (sec): 1.000000E0
Scans to average: 1
Electric dark correction enabled: true
Nonlinearity correction enabled: true
Boxcar width: 10
XAxis mode: Wavelengths
Number of Pixels in Spectrum: 2068
>>>>>Begin Spectral Data<<<<<
179.565	1196.28
179.642	1253.22
179.718	1295.71
179.795	1332.14
179.871	1363.77
179.948	1381.72
180.024	1402.79
180.101	1426.56
180.177	1441.47
180.254	1466.26
180.33	1489.22
180.407	1542.3
180.483	1635.7
180.56	1726.5
180.636	1810.44
180.712	1799.31
180.789	1810.38
180.865	1823.64
180.942	1833.48
181.018	1844.7
181.095	1858.06
181.171	1863.33
181.248	1863.43
181.324	1880.55
181.4	1890.15
181.477	1900.04
181.553	1911.82
181.63	1931.84
181.706	1949.48
181.782	1957.09
181.859	1953.71
181.935	1958.18
182.011	1954.9
182.088	1971.45
182.164	1988.05
182.24	2002.26
182.317	2011.01
182.393	2008.35
182.469	2020.24
182.546	2033.46
182.622	2034.64
182.698	2031.12
182.775	2042.68
182.851	2058.23
182.927	2048.53
183.003	2041.4
183.08	2037.83
183.156	2048.53
183.232	2044.58
183.308	2028.99
183.385	2041.97
183.461	2061.9
183.537	2061.04
183.613	2071.45
183.69	2064.08
183.766	2054.33
183.842	2062.23
183.918	2067.17
183.995	2080.73
184.071	2085.77
184.147	2079.44
184.223	2070.41
184.299	2081.4
184.375	2070.6
184.452	2073.65
184.528	2129.89
184.604	2141.88
184.68	2152.62
184.756	2158.62
184.832	2164.14
184.908	2169.75
184.985	2166.56
185.061	2149.58
185.137	2159.76
185.213	2151.25
185.289	2152.67
185.365	2145.02
185.441	2142.68
185.517	2154.77
185.593	2148.35
185.669	2146.3
185.745	2158.2
185.822	2175.84
185.898	2165.56
185.974	2173.6
186.05	2168.89
186.126	2129.87
186.202	2123.64
186.278	2120.45
186.354	2110.93
186.43	2118.31
186.506	2120.26
186.582	2119.17
186.658	2126.35
186.734	2105.99
186.81	2108.7
186.886	2111.56
186.962	2125.63
187.038	2119.45
187.114	2112.41
187.19	2124.54
187.266	2113.51
187.341	2113.36
187.417	2105.37
187.493	2105.85
187.569	2112.08
187.645	2104.9
187.721	2092.91
187.797	2099.9
187.873	2104.37
187.949	2099.9
188.025	2092
188.101	2092
188.176	2094.81
188.252	2088.2
188.328	2099.61
188.404	2098.09
188.48	2092.14
188.556	2086.24
188.632	2087.1
188.707	2089.76
188.783	2083.77
188.859	2079.39
188.935	2068.79
189.011	2079.54
189.086	2074.26
189.162	2063.56
189.238	2060.94
189.314	2058.28
189.39	2053.66
189.465	2047.34
189.541	2064.18
189.617	2048.39
189.693	2043.87
189.768	2047.63
189.844	2072.8
189.92	2061.82
189.996	2070.42
190.071	2084.6
190.147	2082.03
190.223	2094.64
190.298	2084.41
190.374	2075.37
190.45	2085.88
190.526	2093.44
190.601	2084.5
190.677	2086.78
190.753	2115.15
190.828	2118.81
190.904	2134.75
190.98	2150.5
191.055	2161.87
191.131	2149.83
191.207	2170.81
191.282	2180.13
191.358	2170.38
191.433	2155.34
191.509	2172.12
191.585	2169.27
191.66	2168.65
191.736	2177.35
191.811	2169.17
191.887	2185.87
191.963	2207.57
192.038	2213.66
192.114	2212.33
192.189	2217.75
192.265	2212.8
192.34	2191.48
192.416	2189.67
192.491	2184.44
192.567	2187.96
192.642	2189.67
192.718	2193.19
192.793	2181.96
192.869	2178.3
192.944	2184.44
193.02	2192.91
193.095	2193.57
193.171	2200.71
193.246	2200.8
193.322	2198.24
193.397	2196.47
193.473	2181.87
193.548	2161.6
193.624	2167.54
193.699	2168.21
193.775	2179.3
193.85	2182.91
193.925	2192.48
194.001	2194.09
194.076	2188.48
194.152	2176.63
194.227	2169.11
194.302	2158.79
194.378	2162.31
194.453	2158.65
194.529	2169.02
194.604	2155.18
194.679	2148.75
194.755	2127.59
194.83	2138.87
194.905	2135.26
194.981	2142.82
195.056	2137.12
195.131	2143.92
195.207	2141.58
195.282	2132.83
195.357	2117.42
195.433	2133.45
195.508	2119.7
195.583	2124.41
195.659	2136.06
195.734	2140.2
195.809	2138.16
195.884	2149.52
195.96	2152.28
196.035	2166.84
196.11	2161.84
196.185	2173.21
196.261	2177.11
196.336	2210.18
196.411	2196.61
196.486	2203.65
196.561	2197.52
196.637	2204.74
196.712	2221.36
196.787	2226.16
196.862	2241.81
196.937	2250
197.013	2252.09
197.088	2263.22
197.163	2288.22
197.238	2305.6
197.313	2305.41
197.388	2318.69
197.464	2345.39
197.539	2354.63
197.614	2348.77
197.689	2360.77
197.764	2376.43
197.839	2398.57
197.914	2390.62
197.989	2411.56
198.065	2425.18
198.14	2477.39
198.215	2505.19
198.29	2515.91
198.365	2525.43
198.44	2535.48
198.515	2563.62
198.59	2583.1
198.665	2608.92
198.74	2617.02
198.815	2620.26
198.89	2643.83
198.965	2673.42
199.04	2671.7
199.115	2687.18
199.19	2728.9
199.265	2734.33
199.34	2746.43
199.415	2777.7
199.49	2802.42
199.565	2814.05
199.64	2836.92
199.715	2830.77
199.79	2839.54
199.865	2849.02
199.94	2851.6
200.015	2883.96
200.09	2889.3
200.165	2894.78
200.24	2900.17
200.315	2940.43
200.39	2952.73
200.464	2960.17
200.539	2963.03
200.614	2978.28
200.689	3004.31
200.764	3010.27
200.839	3027.09
200.914	3030.24
200.989	3019.51
201.063	3032.95
201.138	3013.94
201.213	3014.9
201.288	2998.83
201.363	3002.69
201.438	3001.55
201.512	3015.03
201.587	2995.1
201.662	3000.63
201.737	3012.36
201.812	3019.13
201.886	2983.97
201.961	2995.7
202.036	2984.41
202.111	2982.69
202.186	2955.77
202.26	2937.94
202.335	2916.96
202.41	2907.29
202.485	2889.61
202.559	2871.83
202.634	2842.86
202.709	2852.09
202.784	2833.6
202.858	2830.46
202.933	2811.16
203.008	2802.44
203.082	2785.24
203.157	2788.24
203.232	2745.04
203.306	2721.92
203.381	2690.85
203.456	2669.41
203.53	2647.53
203.605	2626.15
203.68	2601.46
203.754	2594.04
203.829	2578.31
203.904	2559.98
203.978	2551.31
204.053	2557.12
204.127	2543.74
204.202	2544.31
204.277	2528.79
204.351	2522.26
204.426	2515.12
204.5	2507.17
204.575	2475.37
204.65	2483.08
204.724	2474.32
204.799	2484.31
204.873	2481.69
204.948	2483.97
205.022	2471.27
205.097	2460.83
205.171	2475.02
205.246	2484.97
205.32	2481.83
205.395	2480.88
205.469	2470.84
205.544	2474.27
205.618	2456.7
205.693	2468.03
205.767	2454.7
205.842	2475.32
205.916	2466.18
205.991	2458.42
206.065	2466.14
206.14	2483.69
206.214	2481.5
206.289	2473.88
206.363	2485.93
206.438	2490.93
206.512	2494.41
206.586	2515.12
206.661	2522.69
206.735	2502.08
206.81	2504.85
206.884	2522.22
206.958	2510.94
207.033	2530.88
207.107	2539.32
207.181	2572.09
207.256	2569.33
207.33	2591.04
207.405	2604.48
207.479	2628.96
207.553	2637.58
207.628	2620.78
207.702	2633.97
207.776	2629.4
207.851	2636.92
207.925	2653.89
207.999	2652.6
208.073	2656.75
208.148	2661.99
208.222	2656.13
208.296	2699.03
208.371	2720.83
208.445	2741.75
208.519	2780.43
208.593	2800.97
208.668	2811.84
208.742	2823.76
208.816	2837.53
208.89	2865.28
208.965	2874.87
209.039	2894.13
209.113	2929.69
209.187	2971.71
209.261	2985.96
209.336	3027.82
209.41	3066.26
209.484	3090.88
209.558	3139.53
209.632	3181.79
209.707	3217.8
209.781	3266.88
209.855	3308.55
209.929	3354.64
210.003	3392.59
210.077	3428.77
210.151	3511.47
210.226	3580.78
210.3	3649.88
210.374	3713.75
210.448	3757.51
210.522	3813.98
210.596	3871.4
210.67	3924.25
210.744	4017.65
210.818	4098.1
210.892	4170.73
210.966	4221.83
211.041	4295.42
211.115	4346.44
211.189	4425.74
211.263	4508.3
211.337	4577.66
211.411	4656.1
211.485	4716.62
211.559	4799.13
211.633	4870.77
211.707	4911.97
211.781	4988.73
211.855	5032.66
211.929	5103.39
212.003	5166.55
212.077	5257.65
212.151	5349.57
212.225	5444.85
212.299	5521.74
212.373	5597.09
212.447	5673.54
212.52	5794.59
212.594	5883.04
212.668	5984.91
212.742	6066.38
212.816	6153.24
212.89	6244.26
212.964	6334.32
213.038	6436.83
213.112	6541.76
213.186	6648.48
213.26	6723.55
213.333	6780.94
213.407	6879.19
213.481	6980.14
213.555	7093.1
213.629	7177.59
213.703	7270.35
213.777	7366.77
213.85	7443.45
213.924	7580.53
213.998	7688.81
214.072	7782.9
214.146	7873.21
214.219	7975.46
214.293	8071.02
214.367	8179.07
214.441	8290.54
214.515	8383.88
214.588	8464.43
214.662	8532.86
214.736	8618.03
214.81	8731.77
214.883	8840.71
214.957	8930.85
215.031	9018.64
215.105	9090.68
215.178	9176.66
215.252	9262.56
215.326	9341.76
215.4	9423.66
215.473	9473.94
215.547	9550.75
215.621	9627.63
215.694	9730.51
215.768	9806.56
215.842	9883.19
215.915	9956.85
215.989	10025.11
216.063	10111.68
216.136	10200.42
216.21	10289.49
216.284	10385.7
216.357	10475.94
216.431	10563.97
216.504	10658.64
216.578	10770.87
216.652	10873.11
216.725	10966.54
216.799	11063.6
216.873	11152.07
216.946	11242.43
217.02	11327.05
217.093	11411.97
217.167	11476.94
217.24	11535.54
217.314	11613.57
217.387	11696.61
217.461	11771.27
217.535	11859.67
217.608	11924.69
217.682	12005.57
217.755	12100.86
217.829	12163.62
217.902	12239.01
217.976	12309.72
218.049	12377.59
218.123	12437.7
218.196	12514.73
218.27	12583.86
218.343	12642.96
218.417	12711.65
218.49	12787.62
218.563	12869.13
218.637	12945.83
218.71	13039.64
218.784	13125.35
218.857	13199.97
218.931	13274.06
219.004	13347.87
219.077	13425.96
219.151	13497.06
219.224	13559.06
219.298	13624.57
219.371	13714.33
219.444	13777.91
219.518	13851.19
219.591	13919.59
219.665	14013.93
219.738	14081.08
219.811	14139.17
219.885	14221.55
219.958	14297.43
220.031	14354.84
220.105	14433.85
220.178	14500.66
220.251	14558.55
220.325	14626.86
220.398	14701.38
220.471	14778.56
220.544	14852.55
220.618	14907.41
220.691	14989.02
220.764	15057.13
220.838	15119.12
220.911	15170.07
220.984	15247.72
221.057	15315.4
221.131	15382.35
221.204	15410.6
221.277	15496.35
221.35	15590.63
221.424	15640.18
221.497	15703.7
221.57	15773.5
221.643	15823.82
221.716	15881.03
221.79	15934.97
221.863	15992.28
221.936	16046.36
222.009	16088.63
222.082	16150.9
222.155	16202.76
222.229	16258.19
222.302	16317.42
222.375	16371.16
222.448	16437.53
222.521	16485.15
222.594	16544.09
222.667	16590.7
222.74	16652.49
222.814	16696.25
222.887	16731.24
222.96	16792.74
223.033	16850.47
223.106	16899.05
223.179	16956.02
223.252	17009.76
223.325	17063.88
223.398	17109.28
223.471	17161.18
223.544	17218.2
223.617	17254.97
223.69	17304.13
223.763	17337.24
223.837	17384.9
223.91	17439.21
223.983	17458.78
224.056	17490.83
224.129	17527.6
224.202	17574.68
224.275	17611.69
224.348	17636.99
224.42	17665.62
224.493	17678.63
224.566	17709.09
224.639	17754.68
224.712	17782.97
224.785	17818.1
224.858	17850.63
224.931	17881.23
225.004	17903.83
225.077	17937.23
225.15	17951.69
225.223	17988.55
225.296	18041.56
225.369	18056.4
225.442	18072.64
225.514	18110.43
225.587	18150.33
225.66	18188.16
225.733	18219.82
225.806	18252.06
225.879	18288.68
225.952	18310.08
226.025	18360.78
226.097	18398.08
226.17	18423.86
226.243	18431.71
226.316	18455.33
226.389	18487.23
226.461	18524.86
226.534	18552.43
226.607	18572.62
226.68	18617.82
226.753	18648.23
226.825	18654.69
226.898	18695.07
226.971	18725.53
227.044	18758.05
227.117	18777.48
227.189	18804.8
227.262	18833.95
227.335	18864.8
227.407	18873.95
227.48	18905.13
227.553	18930.04
227.626	18946.86
227.698	18973.7
227.771	19010.95
227.844	19015.2
227.916	19036.74
227.989	19039.77
228.062	19058.42
228.134	19106.32
228.207	19126.08
228.28	19134.51
228.352	19154.56
228.425	19179.52
228.498	19205.26
228.57	19213.54
228.643	19251.9
228.716	19263.28
228.788	19280.91
228.861	19282.36
228.934	19323.8
229.006	19343.22
229.079	19352.43
229.151	19361.2
229.224	19363.75
229.296	19377.53
229.369	19427.6
229.442	19457.82
229.514	19468.47
229.587	19498.64
229.659	19479.94
229.732	19498.73
229.804	19520.56
229.877	19562.87
229.949	19579.26
230.022	19613.04
230.094	19635.3
230.167	19637.81
230.239	19642.68
230.312	19658
230.384	19697.52
230.457	19712.17
230.529	19737.95
230.602	19755.64
230.674	19777.66
230.747	19795.25
230.819	19826.09
230.892	19802.52
230.964	19807.54
231.037	19830.19
231.109	19836.6
231.181	19865.51
231.254	19868.3
231.326	19877.32
231.399	19876.54
231.471	19877.89
231.544	19863.87
231.616	19881.75
231.688	19900.83
231.761	19902.81
231.833	19912.74
231.905	19900.69
231.978	19895.48
232.05	19883.97
232.122	19886.28
232.195	19879.05
232.267	19902.42
232.339	19894.76
232.412	19919.15
232.484	19920.98
232.556	19916.54
232.629	19945.89
232.701	19957.65
232.773	19964.2
232.846	19957.65
232.918	19963
232.99	19966.76
233.062	19966.47
233.135	19963.05
233.207	19946.33
233.279	19952.11
233.351	19949.46
233.424	19944.16
233.496	19937.75
233.568	19959
233.64	19952.06
233.713	19953.36
233.785	19944.25
233.857	19933.75
233.929	19911.39
234.001	19925.07
234.074	19939.63
234.146	19914.09
234.218	19896.4
234.29	19877.51
234.362	19860.16
234.434	19828.79
234.507	19805.51
234.579	19791.92
234.651	19776.65
234.723	19774.14
234.795	19776.41
234.867	19763.68
234.939	19773.47
235.012	19764.02
235.084	19751.44
235.156	19746.62
235.228	19723.25
235.3	19704.6
235.372	19692.55
235.444	19700.17
235.516	19656.02
235.588	19639.74
235.66	19623.98
235.732	19607.11
235.804	19660.65
235.876	19661.23
235.948	19671.35
236.02	19665.91
236.092	19644.75
236.164	19632.22
236.236	19614.25
236.308	19589.04
236.38	19578.2
236.452	19543.16
236.524	19531.5
236.596	19534.15
236.668	19526.49
236.74	19516.37
236.812	19501.19
236.884	19495.46
236.956	19472.33
237.028	19456.18
237.1	19431.32
237.172	19424.18
237.244	19423.7
237.316	19361.01
237.388	19343.71
237.46	19303.85
237.532	19293.44
237.604	19268.53
237.675	19267.61
237.747	19259.37
237.819	19232
237.891	19211.38
237.963	19188.82
238.035	19155.81
238.107	19094.71
238.178	19075.19
238.25	19048.3
238.322	19044.45
238.394	19001.32
238.466	18973.37
238.538	18956.36
238.609	18930.62
238.681	18886.14
238.753	18856.84
238.825	18837.42
238.897	18811.21
238.968	18810.53
239.04	18781.48
239.112	18776.95
239.184	18728.8
239.255	18697.19
239.327	18677.87
239.399	18652.33
239.471	18632.52
239.542	18614.45
239.614	18607.08
239.686	18556.33
239.758	18547.66
239.829	18514.55
239.901	18508.14
239.973	18483.61
240.044	18456
240.116	18433.16
240.188	18404.58
240.259	18376.34
240.331	18336.83
240.403	18316.1
240.474	18280.11
240.546	18240.73
240.618	18197.36
240.689	18169.32
240.761	18138.76
240.833	18134.33
240.904	18109.03
240.976	18082.43
241.048	18059.3
241.119	18033.13
241.191	18022.09
241.262	18000.17
241.334	17957.52
241.405	17930.14
241.477	17897.9
241.549	17863.06
241.62	17839.06
241.692	17813.23
241.763	17795.55
241.835	17775.84
241.906	17745.91
241.978	17690.68
242.049	17671.69
242.121	17653.62
242.192	17636.27
242.264	17601.38
242.335	17545.04
242.407	17516.95
242.478	17479.89
242.55	17453.72
242.621	17413.72
242.693	17376.37
242.764	17347.31
242.836	17324.51
242.907	17296.9
242.979	17269.14
243.05	17249.38
243.122	17220.99
243.193	17194.25
243.264	17138.97
243.336	17100.22
243.407	17084.32
243.479	17078.34
243.55	17049.38
243.622	17027.93
243.693	17000.51
243.764	16978.68
243.836	16937.81
243.907	16904.17
243.978	16877.71
244.05	16846.86
244.121	16799.05
244.192	16774.42
244.264	16724.4
244.335	16687.24
244.407	16632.15
244.478	16604.29
244.549	16568.77
244.62	16523.23
244.692	16492.28
244.763	16468.96
244.834	16439.99
244.906	16387.55
244.977	16351.07
245.048	16338.73
245.119	16297.57
245.191	16250.09
245.262	16198.96
245.333	16188.11
245.405	16153.99
245.476	16131.58
245.547	16101.4
245.618	16091.38
245.689	16061.01
245.761	16041.06
245.832	16016.67
245.903	16003.66
245.974	15984.33
246.045	15950.2
246.117	15933.43
246.188	15892.22
246.259	15854.29
246.33	15808.93
246.401	15787.53
246.473	15748.78
246.544	15713.54
246.615	15687.18
246.686	15655.75
246.757	15638.3
246.828	15590.82
246.899	15578
246.97	15525.37
247.042	15485.65
247.113	15451.72
247.184	15440.53
247.255	15393.2
247.326	15364.33
247.397	15329.77
247.468	15293.23
247.539	15263.3
247.61	15224.06
247.681	15201.16
247.752	15178.22
247.823	15139.56
247.894	15116.42
247.965	15078.1
248.037	15036.74
248.108	14997.99
248.179	14965.55
248.25	14938.31
248.321	14923.66
248.392	14875.79
248.463	14868.37
248.534	14846.15
248.605	14828.7
248.675	14791.48
248.746	14775.43
248.817	14742.99
248.888	14718.41
248.959	14678.35
249.03	14655.64
249.101	14631.83
249.172	14594.14
249.243	14541.83
249.314	14538.22
249.385	14503.99
249.456	14486.59
249.527	14454.63
249.598	14428.84
249.669	14406.86
249.739	14382.32
249.81	14361.74
249.881	14316.38
249.952	14290.44
250.023	14252.99
250.094	14203.04
250.165	14165.44
250.235	14135.7
250.306	14111.55
250.377	14068.6
250.448	14045.22
250.519	13998.17
250.59	13984.72
250.66	13963.12
250.731	13956.38
250.802	13921.47
250.873	13898.38
250.944	13867.92
251.014	13836
251.085	13838.94
251.156	13817.16
251.227	13802.89
251.297	13793.1
251.368	13785.24
251.439	13765.09
251.51	13758.54
251.58	13728.31
251.651	13704.74
251.722	13691.1
251.792	13649.01
251.863	13628.04
251.934	13621.73
252.005	13627.7
252.075	13597.53
252.146	13584.85
252.217	13578.44
252.287	13563.97
252.358	13536.06
252.429	13543.25
252.499	13517.65
252.57	13491.86
252.641	13478.55
252.711	13450.4
252.782	13402.72
252.852	13398.53
252.923	13375
252.994	13348.39
253.064	13342.03
253.135	13309.15
253.205	13277.82
253.276	13279.8
253.347	13276.23
253.417	13247.06
253.488	13216.26
253.558	13189.02
253.629	13161.98
253.699	13131.22
253.77	13124.14
253.841	13098.35
253.911	13067.88
253.982	13052.12
254.052	13041.95
254.123	13019.68
254.193	12997.89
254.264	13013.75
254.334	12986.12
254.405	12948.72
254.475	12918.35
254.546	12893.28
254.616	12887.88
254.687	12872.21
254.757	12851.44
254.827	12829.02
254.898	12810.75
254.968	12785.73
255.039	12753.24
255.109	12741.05
255.18	12718.49
255.25	12668.74
255.321	12656.01
255.391	12624.54
255.461	12620.44
255.532	12563.99
255.602	12533.77
255.673	12489.03
255.743	12448.59
255.813	12402.36
255.884	12403.61
255.954	12390.12
256.024	12388.09
256.095	12366.74
256.165	12331.16
256.235	12312.8
256.306	12280.02
256.376	12270.67
256.446	12262.76
256.517	12251.15
256.587	12240.88
256.657	12221.84
256.728	12210.56
256.798	12189.93
256.868	12158.69
256.938	12123.46
257.009	12114.68
257.079	12108.13
257.149	12117.38
257.219	12078.48
257.29	12070.05
257.36	12022.81
257.43	12010.18
257.5	11968.73
257.571	11939.23
257.641	11932.77
257.711	11901.25
257.781	11890.6
257.852	11874.93
257.922	11839.89
257.992	11825.48
258.062	11797.62
258.132	11793.76
258.202	11765.23
258.273	11748.41
258.343	11756.74
258.413	11731.87
258.483	11711.68
258.553	11680.25
258.623	11656.83
258.693	11647.29
258.764	11642.32
258.834	11644.35
258.904	11623.09
258.974	11593.02
259.044	11571.52
259.114	11555.86
259.184	11541.11
259.254	11522.41
259.324	11475.9
259.394	11460.91
259.464	11458.74
259.535	11440.62
259.605	11410.45
259.675	11389.92
259.745	11371.12
259.815	11338.83
259.885	11316.27
259.955	11325.87
260.025	11299.46
260.095	11275.94
260.165	11267.7
260.235	11259.6
260.305	11239.26
260.375	11217.86
260.445	11224.66
260.515	11224.56
260.585	11214.87
260.655	11191.07
260.725	11180.95
260.795	11172.47
260.865	11173.43
260.934	11143.21
261.004	11136.32
261.074	11116.61
261.144	11117.81
261.214	11118.25
261.284	11096.9
261.354	11093.58
261.424	11062.2
261.494	11069.62
261.564	11051.45
261.634	11038.49
261.703	11004.95
261.773	10989.09
261.843	10975.07
261.913	10964.95
261.983	10927.94
262.053	10924.14
262.123	10915.94
262.192	10891.03
262.262	10886.55
