Data from 20250702_urea_0.5M_MAYP1162681_04-14-59-438.txt Node
Date: Thu Jul 03 04:14:59 BST 2025
User: adleo
Spectrometer: MAYP116268
Trigger mode: 0
Integration Time (sec): 1.000000E0
Scans to average: 1
Electric dark correction enabled: true
Nonlinearity correction enabled: true
Boxcar width: 10
XAxis mode: Wavelengths
Number of Pixels in Spectrum: 2068
>>>>>Begin Spectral Data<<<<<
179.565	1181.43
179.642	1236
179.718	1277.04
179.795	1312.7
179.871	1346.01
179.948	1362.37
180.024	1381.91
180.101	1402.05
180.177	1416.35
180.254	1439.24
180.33	1461.04
180.407	1513.88
180.483	1606.86
180.56	1693.8
180.636	1775.41
180.712	1761.15
180.789	1771.79
180.865	1781.77
180.942	1791.89
181.018	1797.78
181.095	1811.43
181.171	1817.8
181.248	1815.99
181.324	1831.68
181.4	1838.72
181.477	1847.99
181.553	1861.34
181.63	1882.64
181.706	1899.42
181.782	1909.07
181.859	1909.26
181.935	1913.87
182.011	1910.83
182.088	1927.09
182.164	1948.35
182.24	1962.47
182.317	1974.16
182.393	1972.16
182.469	1987.71
182.546	1998.27
182.622	2003.88
182.698	1999.6
182.775	2010.11
182.851	2027.13
182.927	2019.8
183.003	2017.33
183.08	2011.58
183.156	2020.71
183.232	2017.95
183.308	2007.16
183.385	2012.53
183.461	2026.94
183.537	2028.94
183.613	2040.25
183.69	2034.12
183.766	2021.04
183.842	2029.17
183.918	2031.36
183.995	2044.86
184.071	2048.19
184.147	2043.29
184.223	2036.31
184.299	2047.15
184.375	2034.93
184.452	2038.4
184.528	2093.69
184.604	2103.06
184.68	2115.71
184.756	2123.13
184.832	2126.7
184.908	2131.54
184.985	2131.88
185.061	2119.27
185.137	2130.45
185.213	2117.04
185.289	2114.9
185.365	2108.63
185.441	2106.25
185.517	2119.67
185.593	2116.72
185.669	2112.91
185.745	2124.95
185.822	2136.26
185.898	2128.03
185.974	2140.97
186.05	2134.4
186.126	2095.43
186.202	2089.06
186.278	2084.11
186.354	2075.17
186.43	2081.21
186.506	2078.5
186.582	2079.64
186.658	2082.49
186.734	2060.43
186.81	2063.8
186.886	2069.18
186.962	2081.59
187.038	2075.98
187.114	2069.12
187.19	2076.31
187.266	2067.56
187.341	2066.18
187.417	2063.75
187.493	2065.32
187.569	2067.46
187.645	2061.95
187.721	2049.77
187.797	2055.85
187.873	2058.95
187.949	2053.19
188.025	2046.48
188.101	2050.52
188.176	2055.9
188.252	2052.43
188.328	2057.75
188.404	2057.85
188.48	2053.04
188.556	2043.44
188.632	2044.67
188.707	2045.43
188.783	2043.53
188.859	2036.21
188.935	2025.56
189.011	2031.69
189.086	2024.04
189.162	2016.19
189.238	2013
189.314	2012.86
189.39	2007.68
189.465	2000.12
189.541	2017.33
189.617	2003.54
189.693	2002.12
189.768	2001.79
189.844	2026.81
189.92	2021.44
189.996	2029.9
190.071	2038.18
190.147	2041.55
190.223	2050.78
190.298	2041.6
190.374	2024.58
190.45	2040.12
190.526	2049.59
190.601	2042.6
190.677	2045.59
190.753	2070.53
190.828	2077.9
190.904	2091.12
190.98	2106.25
191.055	2119.14
191.131	2108.77
191.207	2127.89
191.282	2133.74
191.358	2126.6
191.433	2111.52
191.509	2123.45
191.585	2121.26
191.66	2122.74
191.736	2130.92
191.811	2125.16
191.887	2142.01
191.963	2167.07
192.038	2169.21
192.114	2168.22
192.189	2172.97
192.265	2171.21
192.34	2152.17
192.416	2148.23
192.491	2143.37
192.567	2148.08
192.642	2148.08
192.718	2149.37
192.793	2137.33
192.869	2133.96
192.944	2136.05
193.02	2146.28
193.095	2150.23
193.171	2156.36
193.246	2159.6
193.322	2156.32
193.397	2154.08
193.473	2139.71
193.548	2121.06
193.624	2130.34
193.699	2130.91
193.775	2145.19
193.85	2146.33
193.925	2150.9
194.001	2150.32
194.076	2140.67
194.152	2128.01
194.227	2120.16
194.302	2112.27
194.378	2119.02
194.453	2114.98
194.529	2125.3
194.604	2108.8
194.679	2100.57
194.755	2080.41
194.83	2090.02
194.905	2087.12
194.981	2095.06
195.056	2090.45
195.131	2096.49
195.207	2091.11
195.282	2081.6
195.357	2064.85
195.433	2077.69
195.508	2068.7
195.583	2077.03
195.659	2095.77
195.734	2103.05
195.809	2103.53
195.884	2110.28
195.96	2108.23
196.035	2124.5
196.11	2123.55
196.185	2134.63
196.261	2142.58
196.336	2173.07
196.411	2160.03
196.486	2165.83
196.561	2160.69
196.637	2167.35
196.712	2185.62
196.787	2188.62
196.862	2201.99
196.937	2211.65
197.013	2216.5
197.088	2227.54
197.163	2247.72
197.238	2261.81
197.313	2261.01
197.388	2276.52
197.464	2307.51
197.539	2318.93
197.614	2310.65
197.689	2322.36
197.764	2339.11
197.839	2356.58
197.914	2350.49
197.989	2370.24
198.065	2382.62
198.14	2433.68
198.215	2459.96
198.29	2471.63
198.365	2484.67
198.44	2496.76
198.515	2522.24
198.59	2539.53
198.665	2564.67
198.74	2572.58
198.815	2573.91
198.89	2597.43
198.965	2626.73
199.04	2621.02
199.115	2635.4
199.19	2680.59
199.265	2682.07
199.34	2692.84
199.415	2729.83
199.49	2753.54
199.565	2765.21
199.64	2788.85
199.715	2783.79
199.79	2790.7
199.865	2795.94
199.94	2795.46
200.015	2825.01
200.09	2832.16
200.165	2837.21
200.24	2845.36
200.315	2884.47
200.39	2898.96
200.464	2904.11
200.539	2904.54
200.614	2919.45
200.689	2944.1
200.764	2948.2
200.839	2967.64
200.914	2971.59
200.989	2956.81
201.063	2969.73
201.138	2949.86
201.213	2953.73
201.288	2932.14
201.363	2936.47
201.438	2936.47
201.512	2955.2
201.587	2938.65
201.662	2944.52
201.737	2956.06
201.812	2962.44
201.886	2931.25
201.961	2942.26
202.036	2931.35
202.111	2928.59
202.186	2901.25
202.26	2886.04
202.335	2865.68
202.41	2855.91
202.485	2839.09
202.559	2821.56
202.634	2794.16
202.709	2803.11
202.784	2783.24
202.858	2787.48
202.933	2772.04
203.008	2766.75
203.082	2744.02
203.157	2744.74
203.232	2699.59
203.306	2680.48
203.381	2647.17
203.456	2622.97
203.53	2600.47
203.605	2582.23
203.68	2561.36
203.754	2556.41
203.829	2538.22
203.904	2518.74
203.978	2511.36
204.053	2518.74
204.127	2504.08
204.202	2503.93
204.277	2490.13
204.351	2480.55
204.426	2469.89
204.5	2457.27
204.575	2423.14
204.65	2436.09
204.724	2427.14
204.799	2434.42
204.873	2429.32
204.948	2430.37
205.022	2419.71
205.097	2410.04
205.171	2422.89
205.246	2428.65
205.32	2428.13
205.395	2431.41
205.469	2420.99
205.544	2425.61
205.618	2406.14
205.693	2419.76
205.767	2406.29
205.842	2427.24
205.916	2421
205.991	2415.67
206.065	2424.34
206.14	2439.65
206.214	2434.08
206.289	2426.98
206.363	2440.55
206.438	2442.79
206.512	2449.84
206.586	2470.64
206.661	2479.26
206.735	2458.18
206.81	2462.33
206.884	2474.84
206.958	2463.89
207.033	2484.26
207.107	2493.55
207.181	2525.37
207.256	2521.9
207.33	2544.75
207.405	2556.19
207.479	2577.09
207.553	2583.85
207.628	2571.24
207.702	2583.95
207.776	2578.62
207.851	2583.71
207.925	2599.63
207.999	2602.39
208.073	2604.34
208.148	2613.3
208.222	2605.44
208.296	2644.53
208.371	2662.16
208.445	2678.36
208.519	2709.51
208.593	2727.76
208.668	2733.58
208.742	2745.5
208.816	2759.45
208.89	2781.91
208.965	2794.45
209.039	2815.43
209.113	2844.5
209.187	2876.12
209.261	2890.46
209.336	2927.88
209.41	2967.98
209.484	2989.44
209.558	3034.51
209.632	3070.08
209.707	3103.94
209.781	3153.92
209.855	3191.47
209.929	3237.02
210.003	3271.99
210.077	3301.81
210.151	3379.75
210.226	3439.82
210.3	3501.92
210.374	3557.09
210.448	3598.78
210.522	3642.1
210.596	3691.33
210.67	3747.41
210.744	3841.05
210.818	3915.98
210.892	3984.56
210.966	4025.51
211.041	4092.95
211.115	4136.06
211.189	4212.07
211.263	4281.98
211.337	4339.84
211.411	4413.42
211.485	4467.21
211.559	4540.72
211.633	4606.37
211.707	4640.56
211.781	4714.12
211.855	4744.33
211.929	4804.57
212.003	4856.3
212.077	4938.29
212.151	5020.63
212.225	5100.39
212.299	5161.17
212.373	5225.07
212.447	5293.32
212.52	5398.23
212.594	5477.62
212.668	5570.89
212.742	5636.15
212.816	5707.12
212.89	5782.3
212.964	5864.34
213.038	5950.42
213.112	6050.95
213.186	6147.62
213.26	6208.15
213.333	6250.77
213.407	6338.52
213.481	6425.66
213.555	6524.94
213.629	6601.58
213.703	6677.42
213.777	6762.3
213.85	6836.61
213.924	6960.87
213.998	7050.14
214.072	7140.99
214.146	7219.47
214.219	7305.02
214.293	7388.93
214.367	7488.77
214.441	7590.88
214.515	7668.44
214.588	7736.38
214.662	7791.98
214.736	7860.98
214.81	7955.82
214.883	8052.23
214.957	8134.56
215.031	8208.08
215.105	8272.77
215.178	8348.11
215.252	8428.56
215.326	8496.6
215.4	8564.16
215.473	8599.58
215.547	8665.19
215.621	8736.44
215.694	8825.06
215.768	8887.16
215.842	8960.81
215.915	9022.1
215.989	9079.68
216.063	9145.07
216.136	9222.06
216.21	9301.69
216.284	9396.22
216.357	9485.11
216.431	9561.96
216.504	9644.94
216.578	9756.58
216.652	9850.54
216.725	9932.9
216.799	10021.15
216.873	10096.15
216.946	10177.22
217.02	10257.38
217.093	10339.37
217.167	10389.53
217.24	10448.31
217.314	10517.15
217.387	10591.11
217.461	10663.96
217.535	10753.05
217.608	10823.64
217.682	10907.3
217.755	10990.08
217.829	11054.85
217.902	11131.14
217.976	11205.21
218.049	11271.95
218.123	11321.26
218.196	11399.86
218.27	11458.03
218.343	11518.52
218.417	11594.39
218.49	11662.25
218.563	11740.09
218.637	11811.28
218.71	11902.37
218.784	11978.48
218.857	12060.28
218.931	12134.6
219.004	12204.3
219.077	12277.91
219.151	12344.47
219.224	12402.95
219.298	12473.85
219.371	12550.79
219.444	12596.73
219.518	12668.21
219.591	12743.51
219.665	12847.63
219.738	12912.37
219.811	12977.45
219.885	13048.6
219.958	13119.22
220.031	13179.87
220.105	13253.43
220.178	13315.76
220.251	13373.7
220.325	13438.16
220.398	13499.62
220.471	13561.52
220.544	13634.69
220.618	13692.11
220.691	13769.43
220.764	13836.48
220.838	13900.36
220.911	13954.83
220.984	14043.34
221.057	14107.64
221.131	14172
221.204	14193.79
221.277	14270.82
221.35	14356.77
221.424	14407.14
221.497	14471.45
221.57	14539.32
221.643	14598.52
221.716	14668.22
221.79	14720.57
221.863	14784.2
221.936	14847.4
222.009	14901.19
222.082	14966.7
222.155	15015.72
222.229	15074.72
222.302	15131.07
222.375	15176.96
222.448	15243.29
222.521	15300.84
222.594	15357.96
222.667	15401.15
222.74	15472.49
222.814	15520.88
222.887	15565.8
222.96	15637.86
223.033	15697.15
223.106	15756.53
223.179	15807.96
223.252	15853.08
223.325	15904.12
223.398	15958.88
223.471	16009.48
223.544	16065.35
223.617	16102.03
223.69	16153.94
223.763	16197.51
223.837	16249.47
223.91	16306.63
223.983	16333.28
224.056	16347.36
224.129	16385.58
224.202	16439.17
224.275	16467.61
224.348	16488.43
224.42	16523.32
224.493	16544.19
224.566	16570.85
224.639	16612.97
224.712	16650.61
224.785	16688.15
224.858	16727.92
224.931	16754.52
225.004	16777.12
225.077	16816.35
225.15	16831.92
225.223	16861.08
225.296	16916.16
225.369	16932.98
225.442	16961.71
225.514	17003.49
225.587	17055.74
225.66	17089.95
225.733	17120.8
225.806	17161.91
225.879	17202.05
225.952	17230.92
226.025	17274.34
226.097	17328.17
226.17	17350.39
226.243	17360.9
226.316	17390.97
226.389	17424.08
226.461	17466.3
226.534	17511.07
226.607	17540.7
226.68	17600.42
226.753	17634.49
226.825	17646.54
226.898	17700.17
226.971	17720.85
227.044	17744.65
227.117	17779.59
227.189	17817.09
227.262	17861.18
227.335	17896.6
227.407	17925.08
227.48	17962.87
227.553	17993.47
227.626	18017.9
227.698	18050.52
227.771	18090.38
227.844	18106.96
227.916	18134.91
227.989	18146.76
228.062	18166.18
228.134	18202.66
228.207	18224.98
228.28	18241.12
228.352	18267.29
228.425	18288.01
228.498	18326.75
228.57	18356.39
228.643	18390.22
228.716	18419.81
228.788	18434.56
228.861	18444.63
228.934	18481.93
229.006	18494.31
229.079	18515.56
229.151	18521.78
229.224	18532.57
229.296	18551.56
229.369	18604.71
229.442	18641.29
229.514	18651.07
229.587	18686.35
229.659	18695.79
229.732	18722.15
229.804	18760.32
229.877	18794.15
229.949	18820.56
230.022	18861.08
230.094	18877.28
230.167	18889.42
230.239	18889.61
230.312	18903.4
230.384	18955.3
230.457	18966.28
230.529	18990.86
230.602	19007.05
230.674	19022.33
230.747	19055.96
230.819	19086.85
230.892	19069.79
230.964	19088.54
231.037	19117.65
231.109	19133.31
231.181	19164.34
231.254	19170.46
231.326	19179.14
231.399	19195.43
231.471	19204.15
231.544	19189.31
231.616	19211.95
231.688	19235.37
231.761	19249.11
231.833	19263.37
231.905	19252.82
231.978	19273.3
232.05	19279.18
232.122	19295.47
232.195	19313.15
232.267	19333.44
232.339	19338.16
232.412	19363.03
232.484	19357.44
232.556	19358.98
232.629	19379.08
232.701	19376.43
232.773	19377.1
232.846	19380.96
232.918	19382.64
232.99	19393.34
233.062	19401.73
233.135	19412.47
233.207	19400.23
233.279	19412.42
233.351	19420.95
233.424	19409.87
233.496	19395.46
233.568	19419.6
233.64	19408.42
233.713	19409.92
233.785	19405.05
233.857	19406.11
233.929	19390.74
234.001	19411.56
234.074	19430.11
234.146	19410.74
234.218	19409.77
234.29	19411.94
234.362	19406.4
234.434	19383.8
234.507	19361.44
234.579	19346.69
234.651	19332.86
234.723	19329.87
234.795	19330.31
234.867	19318.89
234.939	19329.39
235.012	19326.74
235.084	19321.49
235.156	19320
235.228	19306.5
235.3	19289.2
235.372	19284.67
235.444	19289.78
235.516	19249.06
235.588	19234.7
235.66	19224.15
235.732	19217.01
235.804	19264.24
235.876	19258.46
235.948	19269.73
236.02	19258.22
236.092	19259.08
236.164	19248.82
236.236	19234.65
236.308	19208.77
236.38	19195.62
236.452	19179.23
236.524	19171.28
236.596	19163.96
236.668	19152.25
236.74	19134.03
236.812	19129.31
236.884	19119.33
236.956	19113.6
237.028	19096.35
237.1	19063.29
237.172	19060.01
237.244	19052.5
237.316	18987.15
237.388	18969.85
237.46	18936.84
237.532	18934.14
237.604	18904.79
237.675	18895.83
237.747	18885.71
237.819	18868.46
237.891	18854.96
237.963	18826.58
238.035	18802.92
238.107	18750.73
238.178	18747.65
238.25	18729.09
238.322	18724.27
238.394	18687.07
238.466	18657.63
238.538	18645.58
238.609	18635.27
238.681	18598.59
238.753	18563.08
238.825	18552.48
238.897	18530.21
238.968	18532.04
239.04	18504.96
239.112	18502.36
239.184	18468.34
239.255	18446.6
239.327	18423.13
239.399	18399.09
239.471	18391.86
239.542	18370.85
239.614	18363.38
239.686	18305.5
239.758	18302.47
239.829	18269.65
239.901	18260.83
239.973	18238.37
240.044	18218.08
240.116	18199.29
240.188	18178.47
240.259	18157.7
240.331	18122.86
240.403	18100.69
240.474	18054.09
240.546	18018.77
240.618	17970.67
240.689	17937.76
240.761	17914.29
240.833	17907.54
240.904	17877.33
240.976	17847.16
241.048	17825.52
241.119	17808.61
241.191	17798.53
241.262	17766.73
241.334	17728.56
241.405	17694.2
241.477	17651.64
241.549	17626.87
241.62	17595.07
241.692	17573.28
241.763	17557.43
241.835	17520.95
241.906	17501.86
241.978	17467.12
242.049	17457.82
242.121	17445.48
242.192	17438.2
242.264	17380.13
242.335	17330.34
242.407	17310.01
242.478	17272.56
242.55	17241.04
242.621	17198.78
242.693	17163.93
242.764	17142.05
242.836	17107.64
242.907	17088.27
242.979	17071.93
243.05	17042
243.122	17022.68
243.193	16987.2
243.264	16931.35
243.336	16902.86
243.407	16877.42
243.479	16860.31
243.55	16823.58
243.622	16796.11
243.693	16759.15
243.764	16758.81
243.836	16716.4
243.907	16679.24
243.978	16644.68
244.05	16623.76
244.121	16582.7
244.192	16564.53
244.264	16508.57
244.335	16480.43
244.407	16431.75
244.478	16402.25
244.549	16370.68
244.62	16326.58
244.692	16297.57
244.763	16278.19
244.834	16245.8
244.906	16208.35
244.977	16182.04
245.048	16172.11
245.119	16134.37
245.191	16101.74
245.262	16049.16
245.333	16046.31
245.405	16011.9
245.476	15986.3
245.547	15955.65
245.618	15932.85
245.689	15889.28
245.761	15860.75
245.832	15830.67
245.903	15814.76
245.974	15784.11
246.045	15746.17
246.117	15732.63
246.188	15688.96
246.259	15642.98
246.33	15602.25
246.401	15559.49
246.473	15513.65
246.544	15469.7
246.615	15448.82
246.686	15412.19
246.757	15398.26
246.828	15352.28
246.899	15345.53
246.97	15296.22
247.042	15257.22
247.113	15236.3
247.184	15236.16
247.255	15206.32
247.326	15185.16
247.397	15151.51
247.468	15130.5
247.539	15110.73
247.61	15057.66
247.681	15037.42
247.752	15030.28
247.823	15000.06
247.894	14985.41
247.965	14943.9
248.037	14908.33
248.108	14866.68
248.179	14840.41
248.25	14805.94
248.321	14790.86
248.392	14744.68
248.463	14744.39
248.534	14716.72
248.605	14695.27
248.675	14659.21
248.746	14633.86
248.817	14604.02
248.888	14578.52
248.959	14533.83
249.03	14502.74
249.101	14478.15
249.172	14450.05
249.243	14395.53
249.314	14386.23
249.385	14353.54
249.456	14330.84
249.527	14302.98
249.598	14282.78
249.669	14248.7
249.739	14230.18
249.81	14201.98
249.881	14169.35
249.952	14138.5
250.023	14112.51
250.094	14069.9
250.165	14030.47
250.235	14012.73
250.306	13986.79
250.377	13948.57
250.448	13923.31
250.519	13879.82
250.59	13878.67
250.66	13845.21
250.731	13846.42
250.802	13817.16
250.873	13792.76
250.944	13779.31
251.014	13749.43
251.085	13744.03
251.156	13730.72
251.227	13720.26
251.297	13708.98
251.368	13689.5
251.439	13678.8
251.51	13661.64
251.58	13628.76
251.651	13602.4
251.722	13582.39
251.792	13546.14
251.863	13519.14
251.934	13513.6
252.005	13516.35
252.075	13484.92
252.146	13478.22
252.217	13463.56
252.287	13449
252.358	13424.46
252.429	13422.87
252.499	13392.07
252.57	13366.71
252.641	13347.43
252.711	13319.52
252.782	13275.94
252.852	13272.61
252.923	13241.62
252.994	13217.9
253.064	13210.38
253.135	13174.56
253.205	13135.37
253.276	13127.51
253.347	13119.32
253.417	13082.59
253.488	13063.06
253.558	13037.66
253.629	13007.96
253.699	12979.86
253.77	12965.11
253.841	12943.7
253.911	12920.8
253.982	12910.01
254.052	12898.15
254.123	12882.87
254.193	12856.79
254.264	12868.65
254.334	12829.02
254.405	12796.63
254.475	12765.39
254.546	12739.55
254.616	12741.38
254.687	12734.1
254.757	12721.57
254.827	12696.84
254.898	12679.25
254.968	12654.04
255.039	12624.1
255.109	12611.42
255.18	12586.5
255.25	12537.33
255.321	12522.2
255.391	12485.08
255.461	12479.63
255.532	12430.22
255.602	12398.12
255.673	12361.53
255.743	12332.9
255.813	12297.13
255.884	12287.49
255.954	12271.68
256.024	12265.32
256.095	12235.77
256.165	12201.21
256.235	12176.19
256.306	12149.53
256.376	12143.08
256.446	12129.14
256.517	12119.5
256.587	12108.47
256.657	12085.71
256.728	12074.15
256.798	12051.35
256.868	12032.93
256.938	11998.42
257.009	11992.93
257.079	11982.08
257.149	11984.73
257.219	11947.13
257.29	11939.52
257.36	11901.88
257.43	11895.56
257.5	11853.05
257.571	11836.28
257.641	11823.26
257.711	11797.38
257.781	11787.5
257.852	11775.78
257.922	11736.5
257.992	11711.15
258.062	11683.39
258.132	11677.26
258.202	11654.08
258.273	11640.73
258.343	11636.59
258.413	11616.87
258.483	11592.63
258.553	11557.93
258.623	11528.72
258.693	11510.12
258.764	11499.32
258.834	11502.4
258.904	11485.2
258.974	11458.26
259.044	11432.09
259.114	11420.57
259.184	11409.87
259.254	11386.4
259.324	11342.93
259.394	11330.97
259.464	11337.34
259.535	11317.53
259.605	11291.74
259.675	11263.41
259.745	11248.61
259.815	11213.62
259.885	11187.6
259.955	11201.14
260.025	11178.98
260.095	11159.51
260.165	11148.23
260.235	11147.84
260.305	11114.98
260.375	11084.13
260.445	11097.67
260.515	11103.31
260.585	11097.43
260.655	11072.13
260.725	11073.19
260.795	11068.08
260.865	11071.79
260.934	11037.39
261.004	11034.01
261.074	11019.12
261.144	11022.06
261.214	11013.14
261.284	10993.39
261.354	10984.57
261.424	10954.88
261.494	10960.23
261.564	10949
261.634	10944.71
261.703	10912.52
261.773	10908.72
261.843	10899.46
261.913	10873.78
261.983	10833.35
262.053	10819.91
262.123	10798.03
262.192	10766.95
262.262	10759.87
