Data from 20250702_urea_0.5M_MAYP1162681_22-05-00-197.txt Node
Date: Wed Jul 02 22:05:00 BST 2025
User: adleo
Spectrometer: MAYP116268
Trigger mode: 0
Integration Time (sec): 1.000000E0
Scans to average: 1
Electric dark correction enabled: true
Nonlinearity correction enabled: true
Boxcar width: 10
XAxis mode: Wavelengths
Number of Pixels in Spectrum: 2068
>>>>>Begin Spectral Data<<<<<
179.565	1230.76
179.642	1288.4
179.718	1334.49
179.795	1370.42
179.871	1401.24
179.948	1418.59
180.024	1441.07
180.101	1464.21
180.177	1478.4
180.254	1501.9
180.33	1523.59
180.407	1579.61
180.483	1677.91
180.56	1771.18
180.636	1856.87
180.712	1842.47
180.789	1854.83
180.865	1867.8
180.942	1878.64
181.018	1886.62
181.095	1900.46
181.171	1903.65
181.248	1903.22
181.324	1915.96
181.4	1926.9
181.477	1941.78
181.553	1957.37
181.63	1979.11
181.706	1994.7
181.782	2002.4
181.859	2001.12
181.935	2008.35
182.011	2004.16
182.088	2021.19
182.164	2038.94
182.24	2052.06
182.317	2065.8
182.393	2062.9
182.469	2076.93
182.546	2091.63
182.622	2099.05
182.698	2094.15
182.775	2107.8
182.851	2123.54
182.927	2117.36
183.003	2110.08
183.08	2101.57
183.156	2107.85
183.232	2101.33
183.308	2089.39
183.385	2097.24
183.461	2115.22
183.537	2115.03
183.613	2127.3
183.69	2116.02
183.766	2106.74
183.842	2112.69
183.918	2118.35
183.995	2133.29
184.071	2135.71
184.147	2128.48
184.223	2114.65
184.299	2127.68
184.375	2117.27
184.452	2122.6
184.528	2179.9
184.604	2192.17
184.68	2205.2
184.756	2212.77
184.832	2219.76
184.908	2226.85
184.985	2229.75
185.061	2214.38
185.137	2224.71
185.213	2213.39
185.289	2214.24
185.365	2207.3
185.441	2209.06
185.517	2220.01
185.593	2215.82
185.669	2211.54
185.745	2220.96
185.822	2240.69
185.898	2229.65
185.974	2240.5
186.05	2232.65
186.126	2190.33
186.202	2183.39
186.278	2177.34
186.354	2170.35
186.43	2173.87
186.506	2171.54
186.582	2169.83
186.658	2176.15
186.734	2155.8
186.81	2156.89
186.886	2162.45
186.962	2174.78
187.038	2168.64
187.114	2159.69
187.19	2168.16
187.266	2159.03
187.341	2162.22
187.417	2155.51
187.493	2154.46
187.569	2154.51
187.645	2147.76
187.721	2137.71
187.797	2144.66
187.873	2149.75
187.949	2143.85
188.025	2138.95
188.101	2140.71
188.176	2146.28
188.252	2141.81
188.328	2148.84
188.404	2150.55
188.48	2142.9
188.556	2136
188.632	2139.42
188.707	2141.37
188.783	2137.52
188.859	2131.2
188.935	2117.83
189.011	2126.44
189.086	2122.16
189.162	2113.83
189.238	2113.55
189.314	2113.45
189.39	2107.74
189.465	2098.61
189.541	2114.69
189.617	2099.23
189.693	2095.9
189.768	2098.52
189.844	2122.41
189.92	2114.04
189.996	2123.6
190.071	2136.54
190.147	2134.69
190.223	2141.21
190.298	2133.31
190.374	2121.08
190.45	2137.59
190.526	2147.58
190.601	2139.58
190.677	2144.72
190.753	2171.61
190.828	2173.8
190.904	2186.12
190.98	2201.68
191.055	2215.72
191.131	2207.29
191.207	2230.41
191.282	2240.26
191.358	2232.36
191.433	2218.8
191.509	2234.25
191.585	2231.21
191.66	2233.73
191.736	2240.2
191.811	2231.59
191.887	2244.82
191.963	2268.09
192.038	2269.61
192.114	2269.8
192.189	2275.6
192.265	2268.28
192.34	2247.05
192.416	2246.24
192.491	2244.38
192.567	2248.91
192.642	2252.14
192.718	2250.91
192.793	2238.34
192.869	2233.59
192.944	2235.11
193.02	2240.77
193.095	2244.06
193.171	2250.29
193.246	2247.39
193.322	2246.34
193.397	2246.72
193.473	2232.68
193.548	2211.88
193.624	2218.31
193.699	2216.07
193.775	2230.78
193.85	2233.59
193.925	2243.06
194.001	2242.82
194.076	2234.59
194.152	2224.69
194.227	2214.5
194.302	2205.47
194.378	2207.99
194.453	2203.9
194.529	2215.41
194.604	2202.76
194.679	2193.76
194.755	2174.36
194.83	2187.16
194.905	2185.31
194.981	2196.77
195.056	2190.78
195.131	2198.2
195.207	2195.11
195.282	2189.4
195.357	2171.36
195.433	2185.39
195.508	2174.64
195.583	2184.35
195.659	2197.86
195.734	2204
195.809	2205.24
195.884	2214.8
195.96	2215.61
196.035	2232.02
196.11	2224.93
196.185	2235.21
196.261	2240.39
196.336	2272.85
196.411	2259.37
196.486	2264.47
196.561	2256.42
196.637	2267.98
196.712	2285.41
196.787	2289.4
196.862	2302.49
196.937	2311.77
197.013	2318.81
197.088	2327.67
197.163	2350.24
197.238	2369.05
197.313	2366.29
197.388	2382.1
197.464	2412.57
197.539	2423.37
197.614	2417.23
197.689	2436.71
197.764	2454.51
197.839	2475.41
197.914	2465.6
197.989	2488.17
198.065	2503.65
198.14	2554.63
198.215	2582.11
198.29	2593.59
198.365	2605.68
198.44	2615.97
198.515	2645.7
198.59	2661.22
198.665	2689.18
198.74	2694.38
198.815	2692.76
198.89	2719.77
198.965	2749.6
199.04	2747.03
199.115	2764.13
199.19	2808.1
199.265	2807.34
199.34	2815.25
199.415	2852.25
199.49	2876.69
199.565	2885.03
199.64	2906.14
199.715	2906.14
199.79	2913.34
199.865	2920.34
199.94	2921.68
200.015	2955.62
200.09	2956.81
200.165	2964.91
200.24	2973.16
200.315	3014.01
200.39	3029.55
200.464	3034.46
200.539	3034.36
200.614	3050.95
200.689	3076.13
200.764	3081.09
200.839	3101.11
200.914	3111.21
200.989	3098.48
201.063	3113.07
201.138	3096.87
201.213	3097.11
201.288	3076.32
201.363	3080.13
201.438	3076.32
201.512	3093
201.587	3074.73
201.662	3082.22
201.737	3092.42
201.812	3101.68
201.886	3066.94
201.961	3076.86
202.036	3063.13
202.111	3061.56
202.186	3030.16
202.26	3013.75
202.335	2993.25
202.41	2984.57
202.485	2968.36
202.559	2948.77
202.634	2921.93
202.709	2933.56
202.784	2918.07
202.858	2915.64
202.933	2896.95
203.008	2892.23
203.082	2872.69
203.157	2873.17
203.232	2828.1
203.306	2809.98
203.381	2776.33
203.456	2753.32
203.53	2728.94
203.605	2710.52
203.68	2684.45
203.754	2677.35
203.829	2659.91
203.904	2638.95
203.978	2628.28
204.053	2631.28
204.127	2616.95
204.202	2617.57
204.277	2597.47
204.351	2589.75
204.426	2584.51
204.5	2574.79
204.575	2540.7
204.65	2545.71
204.724	2535.94
204.799	2546.03
204.873	2539.17
204.948	2534.31
205.022	2523.46
205.097	2516.26
205.171	2529.45
205.246	2540.55
205.32	2543.36
205.395	2543.55
205.469	2533.98
205.544	2539.22
205.618	2520.12
205.693	2534.7
205.767	2522.51
205.842	2545.08
205.916	2537.28
205.991	2526.65
206.065	2532.61
206.14	2552.17
206.214	2553.55
206.289	2546.07
206.363	2559.12
206.438	2562.31
206.512	2570.22
206.586	2588.12
206.661	2595.27
206.735	2573.32
206.81	2573.13
206.884	2585.8
206.958	2571.42
207.033	2590.22
207.107	2598.94
207.181	2632.96
207.256	2628.01
207.33	2645.73
207.405	2658.27
207.479	2685.75
207.553	2696.04
207.628	2682.38
207.702	2696
207.776	2692.62
207.851	2702.29
207.925	2720.07
207.999	2722.02
208.073	2726.98
208.148	2740.56
208.222	2739.7
208.296	2780.37
208.371	2802.97
208.445	2825.23
208.519	2866.11
208.593	2890.09
208.668	2898.76
208.742	2912.69
208.816	2926.13
208.89	2955.56
208.965	2973.16
209.039	2994.68
209.113	3034.26
209.187	3074.61
209.261	3091.49
209.336	3137.19
209.41	3180.84
209.484	3207.37
209.558	3263.49
209.632	3308.62
209.707	3353.67
209.781	3410.13
209.855	3463.18
209.929	3523.15
210.003	3570.32
210.077	3612.91
210.151	3706.45
210.226	3785.44
210.3	3864.96
210.374	3941.47
210.448	4003.75
210.522	4070.63
210.596	4142.25
210.67	4210.29
210.744	4324.02
210.818	4426.25
210.892	4517.84
210.966	4584.71
211.041	4676.77
211.115	4740.95
211.189	4843.19
211.263	4941.06
211.337	5026.86
211.411	5126.55
211.485	5205.87
211.559	5302.91
211.633	5395.25
211.707	5457.25
211.781	5567.72
211.855	5629.67
211.929	5724.15
212.003	5800.7
212.077	5915.8
212.151	6023.66
212.225	6137.13
212.299	6235.23
212.373	6329.92
212.447	6429.46
212.52	6570.04
212.594	6685.26
212.668	6815.15
212.742	6916.51
212.816	7026.73
212.89	7140.15
212.964	7259.7
213.038	7375.73
213.112	7511.3
213.186	7649.78
213.26	7750.62
213.333	7818.86
213.407	7944.73
213.481	8067.59
213.555	8209.2
213.629	8325.41
213.703	8437.66
213.777	8562.59
213.85	8666.97
213.924	8829.28
213.998	8958.1
214.072	9081.8
214.146	9194.79
214.219	9316.61
214.293	9441.5
214.367	9567.04
214.441	9701.79
214.515	9816.28
214.588	9929.22
214.662	10028.11
214.736	10127.43
214.81	10259.35
214.883	10395.57
214.957	10507.23
215.031	10617.98
215.105	10716.7
215.178	10819.19
215.252	10929.58
215.326	11025.66
215.4	11131.1
215.473	11194.9
215.547	11291.29
215.621	11384.46
215.694	11504.32
215.768	11598.74
215.842	11697.88
215.915	11796.69
215.989	11882.19
216.063	11981.83
216.136	12087.19
216.21	12186.3
216.284	12309.16
216.357	12422.87
216.431	12527.33
216.504	12638.49
216.578	12765.89
216.652	12875.02
216.725	12974.08
216.799	13097.25
216.873	13200.31
216.946	13307.91
217.02	13403.45
217.093	13492.58
217.167	13569.81
217.24	13647.42
217.314	13741.57
217.387	13832.72
217.461	13918.87
217.535	14025.07
217.608	14104.07
217.682	14196.24
217.755	14305.91
217.829	14384.82
217.902	14464.65
217.976	14546.84
218.049	14629.17
218.123	14694.49
218.196	14790.75
218.27	14873.08
218.343	14936.76
218.417	15026.08
218.49	15104.94
218.563	15197.83
218.637	15290.66
218.71	15404.71
218.784	15485.83
218.857	15571.15
218.931	15655.02
219.004	15727.8
219.077	15806.99
219.151	15895.34
219.224	15957.18
219.298	16023.07
219.371	16112.82
219.444	16170.22
219.518	16248.64
219.591	16320.36
219.665	16424.85
219.738	16489.53
219.811	16549.63
219.885	16629.73
219.958	16699.52
220.031	16762.9
220.105	16836.06
220.178	16896.4
220.251	16945.75
220.325	17027.44
220.398	17100.17
220.471	17167.54
220.544	17249.13
220.618	17304.03
220.691	17368.99
220.764	17445.71
220.838	17509.13
220.911	17560.46
220.984	17649.13
221.057	17714.72
221.131	17775.93
221.204	17803.69
221.277	17886.19
221.35	17973.9
221.424	18025.08
221.497	18081.75
221.57	18140.11
221.643	18211.53
221.716	18280.59
221.79	18334.66
221.863	18379.95
221.936	18413.35
222.009	18467.32
222.082	18512.91
222.155	18564.91
222.229	18622.06
222.302	18672.61
222.375	18720.18
222.448	18778.49
222.521	18823.3
222.594	18876.6
222.667	18906.62
222.74	18960.84
222.814	18998.14
222.887	19040.69
222.96	19089.7
223.033	19141.26
223.106	19178.99
223.179	19226.46
223.252	19273.54
223.325	19308.43
223.398	19346.31
223.471	19404.81
223.544	19430.06
223.617	19479.02
223.69	19513.77
223.763	19531.74
223.837	19569.23
223.91	19605.71
223.983	19617.38
224.056	19644.32
224.129	19669.9
224.202	19711.64
224.275	19742.14
224.348	19749.18
224.42	19752.21
224.493	19758.77
224.566	19768.94
224.639	19811.29
224.712	19827.29
224.785	19844.35
224.858	19871.15
224.931	19892.5
225.004	19899.15
225.077	19929.75
225.15	19919.15
225.223	19941.89
225.296	19990.52
225.369	19997.26
225.442	20004.73
225.514	20022.71
225.587	20044.54
225.66	20066.56
225.733	20106.18
225.806	20127.96
225.879	20155.77
225.952	20166.95
226.025	20204.29
226.097	20251.28
226.17	20265.26
226.243	20259.72
226.316	20274.7
226.389	20293.93
226.461	20327.28
226.534	20354.9
226.607	20371.72
226.68	20416.97
226.753	20438.27
226.825	20434.99
226.898	20456.29
226.971	20481.88
227.044	20509.79
227.117	20514.8
227.189	20537.26
227.262	20547.43
227.335	20573.45
227.407	20584
227.48	20613.21
227.553	20629.4
227.626	20624.53
227.698	20627.14
227.771	20647.04
227.844	20643.28
227.916	20661.21
227.989	20648.54
228.062	20652.05
228.134	20687.19
228.207	20700.78
228.28	20704.87
228.352	20709.79
228.425	20729.26
228.498	20749.98
228.57	20749.12
228.643	20782.76
228.716	20779.58
228.788	20785.84
228.861	20779.24
228.934	20805.22
229.006	20815.96
229.079	20815.19
229.151	20819.63
229.224	20818.37
229.296	20837.02
229.369	20878.38
229.442	20887.1
229.514	20886.28
229.587	20912.21
229.659	20892.11
229.732	20898.47
229.804	20914.23
229.877	20942.28
229.949	20961.85
230.022	20985.08
230.094	20995.78
230.167	21002.24
230.239	21007.2
230.312	21014.96
230.384	21038.1
230.457	21033.66
230.529	21035.69
230.602	21047.21
230.674	21060.27
230.747	21082.92
230.819	21081.38
230.892	21043.64
230.964	21044.41
231.037	21051.64
231.109	21045.42
231.181	21064.6
231.254	21048.99
231.326	21040.7
231.399	21038.15
231.471	21022.14
231.544	20987.25
231.616	20991.1
231.688	20980.89
231.761	20968.4
231.833	20962.91
231.905	20940.11
231.978	20941.94
232.05	20940.74
232.122	20936.55
232.195	20915.1
232.267	20917.61
232.339	20911.97
232.412	20937.56
232.484	20936.31
232.556	20926.91
232.629	20937.75
232.701	20924.26
232.773	20921.41
232.846	20912.26
232.918	20909.51
232.99	20903.34
233.062	20911.29
233.135	20901.65
233.207	20880.25
233.279	20880.83
233.351	20871.63
233.424	20855.24
233.496	20839.58
233.568	20851.24
233.64	20818.18
233.713	20804.16
233.785	20783.38
233.857	20773.41
233.929	20740.15
234.001	20740.25
234.074	20747.58
234.146	20715.19
234.218	20700.39
234.29	20687.57
234.362	20666.22
234.434	20630.22
234.507	20597.89
234.579	20558.56
234.651	20538.9
234.723	20531.09
234.795	20521.5
234.867	20501.88
234.939	20502.8
235.012	20485.21
235.084	20470.41
235.156	20470.65
235.228	20470.36
235.3	20460.77
235.372	20442.7
235.444	20435.43
235.516	20385.01
235.588	20367.42
235.66	20350.65
235.732	20328.24
235.804	20364.87
235.876	20365.07
235.948	20356.78
236.02	20341.93
236.092	20328.83
236.164	20306.8
236.236	20277.79
236.308	20246.56
236.38	20233.45
236.452	20196.3
236.524	20174.23
236.596	20156.68
236.668	20144.54
236.74	20110.42
236.812	20086.9
236.884	20070.47
236.956	20046.47
237.028	20029.22
237.1	19997.22
237.172	19984.3
237.244	19972.74
237.316	19907.1
237.388	19865.27
237.46	19836.35
237.532	19825.8
237.604	19791.34
237.675	19792.6
237.747	19781.75
237.819	19751.83
237.891	19718
237.963	19692.02
238.035	19659.88
238.107	19592.13
238.178	19577.62
238.25	19540.75
238.322	19536.13
238.394	19486.97
238.466	19461.92
238.538	19438.11
238.609	19413.24
238.681	19374.6
238.753	19336.19
238.825	19307.76
238.897	19289.78
238.968	19279.47
239.04	19244.24
239.112	19247.66
239.184	19198.08
239.255	19167.86
239.327	19146.71
239.399	19124.06
239.471	19108.78
239.542	19081.22
239.614	19076.78
239.686	19010.86
239.758	18998.04
239.829	18953.13
239.901	18944.65
239.973	18906.72
240.044	18888.89
240.116	18862.53
240.188	18822.15
240.259	18792.9
240.331	18761.77
240.403	18736.8
240.474	18691.75
240.546	18647.89
240.618	18589.25
240.689	18544.96
240.761	18509.49
240.833	18496.48
240.904	18462.36
240.976	18423.91
241.048	18394.99
241.119	18361.79
241.191	18343.91
241.262	18331.67
241.334	18288.49
241.405	18245.89
241.477	18211.67
241.549	18174.91
241.62	18141.41
241.692	18120.06
241.763	18104.11
241.835	18065.46
241.906	18028.6
241.978	17977.95
242.049	17960.02
242.121	17941.18
242.192	17927.97
242.264	17878.63
242.335	17819.01
242.407	17798.15
242.478	17759.01
242.55	17737.09
242.621	17698.25
242.693	17664.99
242.764	17623.5
242.836	17588.32
242.907	17569.81
242.979	17541.43
243.05	17506.06
243.122	17478.68
243.193	17439.41
243.264	17380.85
243.336	17344.71
243.407	17328.75
243.479	17318.34
243.55	17297.04
243.622	17271.31
243.693	17234.54
243.764	17225.57
243.836	17182.53
243.907	17140.17
243.978	17106.2
244.05	17079.79
244.121	17034.48
244.192	17008.46
244.264	16959.44
244.335	16936.5
244.407	16883.15
244.478	16858.52
244.549	16818.09
244.62	16770.62
244.692	16739.24
244.763	16715.53
244.834	16680.97
244.906	16633.02
244.977	16599.28
245.048	16572.44
245.119	16526.41
245.191	16494.65
245.262	16437.97
245.333	16429.82
245.405	16396.47
245.476	16372.85
245.547	16336.61
245.618	16310.58
245.689	16278.96
245.761	16252.94
245.832	16218.14
245.903	16196.21
245.974	16165.89
246.045	16140.59
246.117	16125.55
246.188	16086.9
246.259	16052.48
246.33	16020.33
246.401	15985.73
246.473	15943.5
246.544	15901.76
246.615	15886.15
246.686	15846.48
246.757	15834.62
246.828	15784.16
246.899	15767.86
246.97	15720.58
247.042	15683.66
247.113	15667.56
247.184	15658.31
247.255	15614.54
247.326	15580.61
247.397	15542
247.468	15514.09
247.539	15480.93
247.61	15440.24
247.681	15418.94
247.752	15394.74
247.823	15356.95
247.894	15329.28
247.965	15290.53
248.037	15258.28
248.108	15215.43
248.179	15184.29
248.25	15144.38
248.321	15125.24
248.392	15077.04
248.463	15073.38
248.534	15041.18
248.605	15016.64
248.675	14982.32
248.746	14963.52
248.817	14947.13
248.888	14929.4
248.959	14880.9
249.03	14858.1
249.101	14826.34
249.172	14788.21
249.243	14734.6
249.314	14720.24
249.385	14697.39
249.456	14670.35
249.527	14643.98
249.598	14622.96
249.669	14597.51
249.739	14580.59
249.81	14561.64
249.881	14522.21
249.952	14488.47
250.023	14452.56
250.094	14406.95
250.165	14366.46
250.235	14340.38
250.306	14303.84
250.377	14262.05
250.448	14240.31
250.519	14194.51
250.59	14184.87
250.66	14161.2
250.731	14161.25
250.802	14130.88
250.873	14096.37
250.944	14075.83
251.014	14039.19
251.085	14031.87
251.156	14012.01
251.227	13997.45
251.297	13983.03
251.368	13976.19
251.439	13964.91
251.51	13957.82
251.58	13931.45
251.651	13896.7
251.722	13876.64
251.792	13838.08
251.863	13812.14
251.934	13805.68
252.005	13809.83
252.075	13789
252.146	13777.92
252.217	13761.62
252.287	13747.3
252.358	13722.48
252.429	13721.85
252.499	13696.45
252.57	13668.97
252.641	13657.25
252.711	13631.8
252.782	13598.88
252.852	13594.44
252.923	13563.35
252.994	13550.28
253.064	13532.54
253.135	13504.49
253.205	13478.79
253.276	13477.49
253.347	13473.49
253.417	13436.28
253.488	13399.01
253.558	13362.86
253.629	13329.79
253.699	13309.69
253.77	13295.99
253.841	13280.47
253.911	13253.96
253.982	13227.59
254.052	13216.94
254.123	13189.94
254.193	13168.25
254.264	13180.11
254.334	13148.87
254.405	13118.93
254.475	13079.93
254.546	13057.18
254.616	13056.79
254.687	13039.44
254.757	13023
254.827	12998.66
254.898	12973.25
254.968	12958.79
255.039	12928.9
255.109	12917.09
255.18	12884.27
255.25	12840.3
255.321	12821.31
255.391	12788.34
255.461	12793.35
255.532	12743.79
255.602	12722.01
255.673	12678.33
255.743	12642.23
255.813	12585.63
255.884	12571.61
255.954	12558.69
256.024	12557.34
256.095	12532.7
256.165	12501.61
256.235	12474.62
256.306	12448.35
256.376	12447.09
256.446	12432.58
256.517	12419.86
256.587	12415.47
256.657	12397.11
256.728	12382.45
256.798	12363.51
256.868	12340.08
256.938	12306.15
257.009	12299.01
257.079	12286.09
257.149	12291.59
257.219	12247.77
257.29	12242.42
257.36	12208.44
257.43	12192.15
257.5	12148.19
257.571	12121.63
257.641	12110.11
257.711	12087.06
257.781	12075.98
257.852	12065.81
257.922	12028.88
257.992	12015.87
258.062	11985.98
258.132	11977.79
258.202	11951.43
258.273	11926.94
258.343	11924.53
258.413	11895.42
258.483	11872.28
258.553	11843.75
258.623	11811.31
258.693	11794.05
258.764	11796.22
258.834	11791.74
258.904	11776.36
258.974	11752.26
259.044	11731.2
259.114	11719.68
259.184	11703.24
259.254	11680.69
259.324	11631.33
259.394	11626.99
259.464	11617.07
259.535	11595.23
259.605	11564.1
259.675	11541.01
259.745	11539.66
259.815	11508.52
259.885	11499.18
259.955	11514.36
260.025	11481.59
260.095	11470.21
260.165	11466.5
260.235	11455.46
260.305	11432.52
260.375	11399.56
260.445	11403.8
260.515	11405.39
260.585	11394.83
260.655	11375.31
260.725	11371.46
260.795	11369.1
260.865	11363.75
260.934	11340.76
261.004	11337.72
261.074	11329.05
261.144	11329.34
261.214	11311.02
261.284	11292.32
261.354	11276.23
261.424	11239.84
261.494	11246.44
261.564	11227.45
261.634	11221.28
261.703	11188.22
261.773	11168.61
261.843	11161.43
261.913	11144.08
261.983	11109.81
262.053	11102.73
262.123	11084.03
262.192	11048.37
