Data from 20250702_urea_0.5M_MAYP1162681_18-35-00-189.txt Node
Date: Wed Jul 02 18:35:00 BST 2025
User: adleo
Spectrometer: MAYP116268
Trigger mode: 0
Integration Time (sec): 1.000000E0
Scans to average: 1
Electric dark correction enabled: true
Nonlinearity correction enabled: true
Boxcar width: 10
XAxis mode: Wavelengths
Number of Pixels in Spectrum: 2068
>>>>>Begin Spectral Data<<<<<
179.565	1143.8
179.642	1194.18
179.718	1236.57
179.795	1270.63
179.871	1299.21
179.948	1314
180.024	1331.68
180.101	1352.61
180.177	1367.5
180.254	1387.88
180.33	1410.75
180.407	1460.83
180.483	1550.62
180.56	1634.24
180.636	1714.61
180.712	1700.83
180.789	1711.19
180.865	1722.3
180.942	1729.81
181.018	1742.02
181.095	1753.05
181.171	1756.04
181.248	1758.56
181.324	1771.58
181.4	1781.09
181.477	1793.92
181.553	1806.42
181.63	1826.43
181.706	1842.26
181.782	1846.63
181.859	1847.15
181.935	1850.57
182.011	1845.39
182.088	1859.7
182.164	1878.1
182.24	1887.08
182.317	1896.16
182.393	1893.12
182.469	1906.9
182.546	1916.98
182.622	1921.4
182.698	1916.51
182.775	1929.44
182.851	1941.37
182.927	1934.57
183.003	1928.92
183.08	1921.45
183.156	1932.58
183.232	1929.06
183.308	1916.84
183.385	1927.25
183.461	1944.7
183.537	1946.84
183.613	1958.87
183.69	1956.59
183.766	1946.55
183.842	1956.01
183.918	1961.34
183.995	1974.13
184.071	1976.84
184.147	1972.84
184.223	1962.58
184.299	1975.18
184.375	1964.2
184.452	1970.47
184.528	2023.22
184.604	2032.97
184.68	2045.19
184.756	2052.37
184.832	2057.03
184.908	2062.02
184.985	2062.31
185.061	2046.04
185.137	2055.32
185.213	2043.91
185.289	2042.96
185.365	2036.35
185.441	2033.69
185.517	2046.86
185.593	2043.15
185.669	2041.39
185.745	2051.71
185.822	2068.4
185.898	2060.22
185.974	2069.92
186.05	2062.69
186.126	2022.54
186.202	2017.07
186.278	2013.93
186.354	2004.47
186.43	2013.17
186.506	2012.18
186.582	2010.32
186.658	2017.98
186.734	1997.2
186.81	2000.86
186.886	2000.91
186.962	2011.56
187.038	2007.89
187.114	1998.66
187.19	2006.46
187.266	1996.58
187.341	1996.58
187.417	1985.69
187.493	1986.26
187.569	1984.78
187.645	1977.22
187.721	1968.52
187.797	1975.37
187.873	1977.79
187.949	1972.33
188.025	1965.33
188.101	1966.33
188.176	1971.42
188.252	1966.9
188.328	1975.55
188.404	1973.79
188.48	1972.56
188.556	1966.76
188.632	1967.99
188.707	1972.8
188.783	1965.9
188.859	1961.81
188.935	1952.49
189.011	1963.57
189.086	1956.82
189.162	1949.97
189.238	1950.64
189.314	1948.69
189.39	1941.08
189.465	1936.61
189.541	1951.69
189.617	1935.52
189.693	1930.82
189.768	1935
189.844	1958.6
189.92	1948.61
189.996	1956.6
190.071	1963.16
190.147	1964.92
190.223	1974.34
190.298	1964.54
190.374	1956.37
190.45	1966.35
190.526	1974.1
190.601	1968.68
190.677	1970.91
190.753	1997.7
190.828	1998.88
190.904	2015.25
190.98	2032.8
191.055	2044.02
191.131	2035.17
191.207	2055.57
191.282	2064.32
191.358	2054.52
191.433	2040.49
191.509	2051.42
191.585	2053.22
191.66	2056.17
191.736	2062.12
191.811	2050.56
191.887	2064.12
191.963	2086.38
192.038	2094.03
192.114	2094.7
192.189	2097.98
192.265	2095.51
192.34	2075.86
192.416	2077.43
192.491	2069.81
192.567	2070.77
192.642	2072.34
192.718	2075.09
192.793	2064.2
192.869	2063.97
192.944	2066.39
193.02	2072.48
193.095	2078.47
193.171	2079.52
193.246	2079.95
193.322	2077.47
193.397	2078.09
193.473	2066.48
193.548	2049.41
193.624	2054.78
193.699	2052.88
193.775	2067.96
193.85	2068.77
193.925	2077.66
194.001	2074
194.076	2068.77
194.152	2058.12
194.227	2049.7
194.302	2037.48
194.378	2043.33
194.453	2039.38
194.529	2050.7
194.604	2036.77
194.679	2029.16
194.755	2011.09
194.83	2020.47
194.905	2017.99
194.981	2027.5
195.056	2022.61
195.131	2028.84
195.207	2026.93
195.282	2016.33
195.357	1997.02
195.433	2011.33
195.508	1999.87
195.583	2010.23
195.659	2023.41
195.734	2032.26
195.809	2031.54
195.884	2040.2
195.96	2038.39
196.035	2052.8
196.11	2050.37
196.185	2060.07
196.261	2066.35
196.336	2098.12
196.411	2082.61
196.486	2088.65
196.561	2083.75
196.637	2089.65
196.712	2103.35
196.787	2106.35
196.862	2123.37
196.937	2135.17
197.013	2140.69
197.088	2148.77
197.163	2168.05
197.238	2182.28
197.313	2180.66
197.388	2193.46
197.464	2222.25
197.539	2232.72
197.614	2225.49
197.689	2234.62
197.764	2251.33
197.839	2269.27
197.914	2260.56
197.989	2286.87
198.065	2299.58
198.14	2347.68
198.215	2373.42
198.29	2385.8
198.365	2397.94
198.44	2406.03
198.515	2433.46
198.59	2448.22
198.665	2476.35
198.74	2484.31
198.815	2487.36
198.89	2509.45
198.965	2539.69
199.04	2537.12
199.115	2554.74
199.19	2598.97
199.265	2601.64
199.34	2612.88
199.415	2647.76
199.49	2670.8
199.565	2677.66
199.64	2701.67
199.715	2698.05
199.79	2704.81
199.865	2709.81
199.94	2707.1
200.015	2744.27
200.09	2746.55
200.165	2753.6
200.24	2759.18
200.315	2799.57
200.39	2811.63
200.464	2817.01
200.539	2816.25
200.614	2831.73
200.689	2848.32
200.764	2851.42
200.839	2873.04
200.914	2875.71
200.989	2862.07
201.063	2876.37
201.138	2858.27
201.213	2855.56
201.288	2839.07
201.363	2846.41
201.438	2847.5
201.512	2865.13
201.587	2842.53
201.662	2847.59
201.737	2859.22
201.812	2866.41
201.886	2832.36
201.961	2841.8
202.036	2828.51
202.111	2826.84
202.186	2799.6
202.26	2784.87
202.335	2767.43
202.41	2757.61
202.485	2740.56
202.559	2723.46
202.634	2695.92
202.709	2706.97
202.784	2689.39
202.858	2689.01
202.933	2670.81
203.008	2665.81
203.082	2644.76
203.157	2645.47
203.232	2604.28
203.306	2582.84
203.381	2550.59
203.456	2528.3
203.53	2506.9
203.605	2489.29
203.68	2464.76
203.754	2458.1
203.829	2446.15
203.904	2422.49
203.978	2413.39
204.053	2418.72
204.127	2406.68
204.202	2407.16
204.277	2391.31
204.351	2384.97
204.426	2375.69
204.5	2366.93
204.575	2333.47
204.65	2345.28
204.724	2336.66
204.799	2346.94
204.873	2342.84
204.948	2343.65
205.022	2332.61
205.097	2327.33
205.171	2343.46
205.246	2349.79
205.32	2347.46
205.395	2346.13
205.469	2338.37
205.544	2341.95
205.618	2329.76
205.693	2341.99
205.767	2326.96
205.842	2345.05
205.916	2340.48
205.991	2335.1
206.065	2339.57
206.14	2354.94
206.214	2350.08
206.289	2344.22
206.363	2354.79
206.438	2359.74
206.512	2366.41
206.586	2386.92
206.661	2393.16
206.735	2370.7
206.81	2376.27
206.884	2392.69
206.958	2380.13
207.033	2398.25
207.107	2409.83
207.181	2438.69
207.256	2435.88
207.33	2460.63
207.405	2477.45
207.479	2498.83
207.553	2508.73
207.628	2499.5
207.702	2515.02
207.776	2514.02
207.851	2526.21
207.925	2550.7
207.999	2552.89
208.073	2556.99
208.148	2568.75
208.222	2568.71
208.296	2611.22
208.371	2639.77
208.445	2663.26
208.519	2708.61
208.593	2738.05
208.668	2748.92
208.742	2770.28
208.816	2789.53
208.89	2821.37
208.965	2840.07
209.039	2872.25
209.113	2912.82
209.187	2965.57
209.261	2992.45
209.336	3044.14
209.41	3094.27
209.484	3125.96
209.558	3188.41
209.632	3247.32
209.707	3297.18
209.781	3363.03
209.855	3427.72
209.929	3492.23
210.003	3552.82
210.077	3608.93
210.151	3711.27
210.226	3804.07
210.3	3890.61
210.374	3983.58
210.448	4059.05
210.522	4147.19
210.596	4235.08
210.67	4324.55
210.744	4446.38
210.818	4561.74
210.892	4664.35
210.966	4749.71
211.041	4861.16
211.115	4953.04
211.189	5072.54
211.263	5192.32
211.337	5299.05
211.411	5419.65
211.485	5523.6
211.559	5647.74
211.633	5760.99
211.707	5847.69
211.781	5976.75
211.855	6068.82
211.929	6184.97
212.003	6294.93
212.077	6428.84
212.151	6568.91
212.225	6706.06
212.299	6827.91
212.373	6950.11
212.447	7085.18
212.52	7247.68
212.594	7387.18
212.668	7541.08
212.742	7674.84
212.816	7813.18
212.89	7955.03
212.964	8103.06
213.038	8252.87
213.112	8413.44
213.186	8575.8
213.26	8709.65
213.333	8815.44
213.407	8969.68
213.481	9125.48
213.555	9291.11
213.629	9432.97
213.703	9575.56
213.777	9741.24
213.85	9885.35
213.924	10078.93
213.998	10232.46
214.072	10384.89
214.146	10523.3
214.219	10678.97
214.293	10828.72
214.367	10997.42
214.441	11158.51
214.515	11301.35
214.588	11438.98
214.662	11558.22
214.736	11696.29
214.81	11853.35
214.883	12010.71
214.957	12151.39
215.031	12284.52
215.105	12408.97
215.178	12540.32
215.252	12676.73
215.326	12791.99
215.4	12908.98
215.473	12998.93
215.547	13120.65
215.621	13247.24
215.694	13393.97
215.768	13506.05
215.842	13624.59
215.915	13737.54
215.989	13851.25
216.063	13968.06
216.136	14086.06
216.21	14211.44
216.284	14343.28
216.357	14463.22
216.431	14580.5
216.504	14704.96
216.578	14849
216.652	14983.68
216.725	15102.5
216.799	15227.19
216.873	15341.05
216.946	15465.07
217.02	15568.27
217.093	15681.59
217.167	15773.22
217.24	15865.14
217.314	15966.07
217.387	16061.84
217.461	16146.38
217.535	16264.9
217.608	16352.14
217.682	16460.05
217.755	16573.41
217.829	16664.6
217.902	16770.53
217.976	16864.85
218.049	16949.48
218.123	17023.6
218.196	17115.95
218.27	17198.07
218.343	17262.7
218.417	17347.85
218.49	17426.36
218.563	17534.12
218.637	17620.87
218.71	17725.06
218.784	17819.61
218.857	17915.37
218.931	18006.83
219.004	18098.35
219.077	18175.65
219.151	18267.64
219.224	18342.15
219.298	18411.25
219.371	18499.63
219.444	18556.64
219.518	18631.34
219.591	18711.72
219.665	18813.64
219.738	18879.13
219.811	18935.66
219.885	19023.7
219.958	19109.82
220.031	19179.02
220.105	19252.46
220.178	19318.33
220.251	19374.33
220.325	19441.7
220.398	19506.81
220.471	19573.26
220.544	19639.67
220.618	19689.79
220.691	19756.19
220.764	19812.38
220.838	19873.15
220.911	19913.1
220.984	19988.86
221.057	20052.81
221.131	20108.18
221.204	20128.08
221.277	20198.1
221.35	20281.86
221.424	20324.7
221.497	20358.58
221.57	20409.57
221.643	20447.5
221.716	20503.45
221.79	20541.52
221.863	20576.46
221.936	20608.71
222.009	20644.32
222.082	20686.68
222.155	20730.11
222.229	20779.17
222.302	20823.22
222.375	20854.5
222.448	20903.85
222.521	20939.03
222.594	20969.06
222.667	20985.11
222.74	21024.92
222.814	21056.48
222.887	21097.21
222.96	21135.43
223.033	21176.88
223.106	21201.94
223.179	21245.37
223.252	21269.04
223.325	21305.18
223.398	21331.98
223.471	21370.59
223.544	21402.69
223.617	21425.97
223.69	21456
223.763	21462.65
223.837	21495.76
223.91	21533.84
223.983	21540.92
224.056	21542.76
224.129	21566.42
224.202	21618.14
224.275	21641.66
224.348	21643.78
224.42	21639.2
224.493	21652.84
224.566	21678.15
224.639	21704.08
224.712	21709.87
224.785	21734.21
224.858	21738.55
224.931	21748.09
225.004	21748.57
225.077	21769.97
225.15	21771.61
225.223	21779.76
225.296	21815.96
225.369	21793.4
225.442	21788.05
225.514	21814.95
225.587	21834.33
225.66	21847.92
225.733	21853.65
225.806	21861.17
225.879	21875.35
225.952	21875.68
226.025	21883.44
226.097	21894.24
226.17	21901.86
226.243	21887.64
226.316	21876.17
226.389	21887.54
226.461	21895.98
226.534	21909.76
226.607	21899.5
226.68	21915.16
226.753	21928.51
226.825	21900.46
226.898	21932.9
226.971	21941.96
227.044	21941.67
227.117	21943.74
227.189	21958.25
227.262	21959.36
227.335	21963.03
227.407	21962.59
227.48	21970.4
227.553	21980.28
227.626	21972.04
227.698	21961.44
227.771	21972.38
227.844	21965.1
227.916	21968.67
227.989	21960.18
228.062	21959.27
228.134	21983.71
228.207	21984.53
228.28	21962.11
228.352	21962.01
228.425	21953.58
228.498	21946.49
228.57	21928.71
228.643	21949.05
228.716	21935.94
228.788	21923.21
228.861	21918.49
228.934	21922.34
229.006	21913.43
229.079	21907.25
229.151	21899.45
229.224	21884.7
229.296	21881.95
229.369	21908.75
229.442	21919.16
229.514	21909.91
229.587	21908.66
229.659	21875.15
229.732	21871.15
229.804	21885.9
229.877	21907.55
229.949	21924.13
230.022	21940.66
230.094	21941.15
230.167	21937.24
230.239	21927.12
230.312	21917.77
230.384	21935.22
230.457	21940.76
230.529	21950.31
230.602	21934.93
230.674	21926.3
230.747	21939.7
230.819	21953.97
230.892	21917.48
230.964	21899.4
231.037	21897.91
231.109	21884.84
231.181	21892.75
231.254	21869.56
231.326	21843.78
231.399	21821.55
231.471	21791.23
231.544	21761.97
231.616	21757.68
231.688	21729.05
231.761	21706.49
231.833	21691.74
231.905	21648.89
231.978	21619.73
232.05	21589.7
232.122	21580.35
232.195	21557.46
232.267	21554.9
232.339	21524.44
232.412	21523.47
232.484	21506.99
232.556	21492.14
232.629	21493.97
232.701	21487.23
232.773	21480.04
232.846	21462.69
232.918	21445.97
232.99	21434.83
233.062	21426.59
233.135	21414.78
233.207	21395.46
233.279	21393.96
233.351	21382.06
233.424	21359.11
233.496	21327.88
233.568	21331.93
233.64	21311.45
233.713	21305.86
233.785	21281.37
233.857	21261.13
233.929	21221.61
234.001	21227.63
234.074	21221.46
234.146	21178.33
234.218	21150.23
234.29	21122.51
234.362	21098.08
234.434	21065.45
234.507	21029.06
234.579	20996.77
234.651	20962.7
234.723	20943.71
234.795	20913.2
234.867	20889.58
234.939	20881.29
235.012	20862.88
235.084	20834.54
235.156	20807.17
235.228	20764.13
235.3	20733.19
235.372	20713.53
235.444	20708.52
235.516	20650.39
235.588	20624.65
235.66	20601.38
235.732	20557.33
235.804	20585.57
235.876	20579.84
235.948	20564.46
236.02	20538.2
236.092	20506.73
236.164	20480.7
236.236	20456.22
236.308	20435.35
236.38	20418.15
236.452	20377.38
236.524	20352.51
236.596	20350.92
236.668	20332.27
236.74	20303.98
236.812	20288.22
236.884	20266.3
236.956	20237.91
237.028	20197.14
237.1	20152.56
237.172	20139.07
237.244	20130.4
237.316	20060.76
237.388	20012.95
237.46	19979.65
237.532	19967.36
237.604	19925.48
237.675	19910.06
237.747	19882.11
237.819	19836.57
237.891	19800.62
237.963	19775.03
238.035	19740.14
238.107	19670.8
238.178	19643.04
238.25	19615.09
238.322	19592.44
238.394	19539.09
238.466	19506.08
238.538	19484.2
238.609	19463.53
238.681	19417.85
238.753	19369.03
238.825	19343.97
238.897	19313.85
238.968	19297.66
239.04	19253.61
239.112	19253.33
239.184	19211.21
239.255	19164.61
239.327	19139.36
239.399	19107.5
239.471	19080.18
239.542	19059.12
239.614	19040.9
239.686	18982.31
239.758	18965.92
239.829	18920.24
239.901	18907.61
239.973	18872.92
240.044	18848.63
240.116	18814.65
240.188	18775.72
240.259	18751.91
240.331	18703.77
240.403	18676.93
240.474	18628.16
240.546	18584.4
240.618	18532.6
240.689	18491.88
240.761	18466.72
240.833	18446.58
240.904	18414.48
240.976	18373.57
241.048	18339.07
241.119	18311.16
241.191	18294.01
241.262	18263.94
241.334	18225.39
241.405	18175.7
241.477	18128.43
241.549	18081.78
241.62	18042.6
241.692	18018.45
241.763	17998.55
241.835	17965.64
241.906	17925.88
241.978	17868.53
242.049	17841.21
242.121	17815.23
242.192	17790.36
242.264	17742.8
242.335	17690.94
242.407	17665.4
242.478	17624.44
242.55	17593.88
242.621	17541.64
242.693	17496.78
242.764	17455.86
242.836	17423.96
242.907	17405.02
242.979	17378.51
243.05	17358.56
243.122	17336.39
243.193	17296.78
243.264	17244.63
243.336	17215.91
243.407	17197.5
243.479	17195.43
243.55	17173.74
243.622	17140.44
243.693	17104.44
243.764	17089.06
243.836	17045.5
243.907	16997.83
243.978	16969.49
244.05	16935.03
244.121	16890.65
244.192	16868.67
244.264	16821.73
244.335	16787.31
244.407	16730.06
244.478	16704.76
244.549	16670.92
244.62	16622.44
244.692	16593.13
244.763	16564.07
244.834	16522.53
244.906	16476.5
244.977	16443.49
245.048	16424.54
245.119	16377.5
245.191	16331.43
245.262	16274.94
245.333	16263.71
245.405	16237.59
245.476	16209.87
245.547	16182.64
245.618	16162.98
245.689	16140.18
245.761	16110.83
245.832	16075.98
245.903	16060.22
245.974	16036.07
246.045	15987.92
246.117	15965.99
246.188	15908.92
246.259	15859.56
246.33	15818.64
246.401	15789.19
246.473	15737.09
246.544	15693.13
246.615	15675.01
246.686	15645.51
246.757	15626.61
246.828	15573.74
246.899	15557.78
246.97	15506.25
247.042	15463.84
247.113	15442.97
247.184	15421.52
247.255	15378.47
247.326	15353.41
247.397	15315.42
247.468	15271.42
247.539	15256.47
247.61	15220.42
247.681	15213.48
247.752	15204.61
247.823	15164.36
247.894	15135.49
247.965	15091.14
248.037	15055.42
248.108	15008.66
248.179	14979.36
248.25	14948.41
248.321	14929.99
248.392	14881.12
248.463	14878.9
248.534	14846.31
248.605	14823.08
248.675	14788.95
248.746	14773.96
248.817	14746
248.888	14720.17
248.959	14675.82
249.03	14642.94
249.101	14609.25
249.172	14574.06
249.243	14523.49
249.314	14521.66
249.385	14490.08
249.456	14477.65
249.527	14450.65
249.598	14431.61
249.669	14404.52
249.739	14381.67
249.81	14362.2
249.881	14316.54
249.952	14292.2
250.023	14265.3
250.094	14218.06
250.165	14178.53
250.235	14145.37
250.306	14118.57
250.377	14081.88
250.448	14063.56
250.519	14013.52
250.59	14001.86
250.66	13964.74
250.731	13947.05
250.802	13921.64
250.873	13897.49
250.944	13868.37
251.014	13828.27
251.085	13828.8
251.156	13809.66
251.227	13796.79
251.297	13784.83
251.368	13781.22
251.439	13757.16
251.51	13748.87
251.58	13718.79
251.651	13689.05
251.722	13681.62
251.792	13638.96
251.863	13611.77
251.934	13597.7
252.005	13610.33
252.075	13589.74
252.146	13581.88
252.217	13580.44
252.287	13563.61
252.358	13541.05
252.429	13539.9
252.499	13516.61
252.57	13491.83
252.641	13472.12
252.711	13446.52
252.782	13404.15
252.852	13385.73
252.923	13359.36
252.994	13331.74
253.064	13318.58
253.135	13288.84
253.205	13256.59
253.276	13248
253.347	13246.32
253.417	13216.82
253.488	13176.76
253.558	13147.69
253.629	13123.49
253.699	13101.26
253.77	13079.38
253.841	13053.06
253.911	13028.81
253.982	13007.36
254.052	12984.27
254.123	12961.85
254.193	12940.93
254.264	12956.4
254.334	12933.02
254.405	12901.55
254.475	12867.71
254.546	12839.75
254.616	12829.72
254.687	12814.63
254.757	12800.94
254.827	12775.3
254.898	12756.06
254.968	12738.13
255.039	12705.69
255.109	12689.44
255.18	12651.41
255.25	12608.75
255.321	12593.95
255.391	12551.29
255.461	12549.46
255.532	12504.92
255.602	12476.72
255.673	12429.43
255.743	12392.16
255.813	12342.52
255.884	12332.39
255.954	12319.86
256.024	12321.4
256.095	12301.83
256.165	12266.69
256.235	12244.52
256.306	12218.68
256.376	12213.38
256.446	12199.64
256.517	12183.97
256.587	12175.44
256.657	12161.56
256.728	12144.4
256.798	12118.42
256.868	12108.25
256.938	12086.51
257.009	12079.57
257.079	12071.13
257.149	12083.67
257.219	12042.31
257.29	12037.39
257.36	11996.04
257.43	11982.54
257.5	11938.48
257.571	11910.72
257.641	11899.01
257.711	11865.22
257.781	11847.63
257.852	11829.12
257.922	11794.61
257.992	11775.04
258.062	11750.6
258.132	11740.43
258.202	11719.03
258.273	11707.99
258.343	11705.2
258.413	11671.84
258.483	11654.25
258.553	11622.3
258.623	11586.92
258.693	11575.45
258.764	11570.34
258.834	11569.52
258.904	11552.79
258.974	11529.9
259.044	11515.25
259.114	11501.08
259.184	11488.45
259.254	11468.98
259.324	11428.35
259.394	11419.43
259.464	11413.27
259.535	11389.75
259.605	11365.26
259.675	11340.73
259.745	11326.95
259.815	11291.48
259.885	11274.95
259.955	11282.51
260.025	11257.7
260.095	11241.31
260.165	11223.53
260.235	11222.03
260.305	11192.25
260.375	11165.12
260.445	11171.14
260.515	11171.67
260.585	11164.68
260.655	11154.95
260.725	11142.71
260.795	11131.96
260.865	11130.9
260.934	11108.2
261.004	11099.77
261.074	11083.33
261.144	11090.66
261.214	11079.33
261.284	11064.49
261.354	11059.48
261.424	11029.21
261.494	11035.62
261.564	11028.2
261.634	11021.79
261.703	10987.58
261.773	10981.84
261.843	10972.64
261.913	10947.19
261.983	10908.64
262.053	10902.91
262.123	10877.8
