Data from 20250702_urea_0.5M_MAYP1162681_12-54-59-878.txt Node
Date: Wed Jul 02 12:54:59 BST 2025
User: adleo
Spectrometer: MAYP116268
Trigger mode: 0
Integration Time (sec): 1.000000E0
Scans to average: 1
Electric dark correction enabled: true
Nonlinearity correction enabled: true
Boxcar width: 10
XAxis mode: Wavelengths
Number of Pixels in Spectrum: 2068
>>>>>Begin Spectral Data<<<<<
179.565	1073.94
179.642	1124.18
179.718	1165.15
179.795	1195.71
179.871	1225.32
179.948	1240.44
180.024	1259.13
180.101	1279.17
180.177	1293.01
180.254	1313.7
180.33	1333.41
180.407	1376.17
180.483	1461.68
180.56	1542.73
180.636	1618.26
180.712	1606.72
180.789	1616.41
180.865	1627.66
180.942	1637.78
181.018	1648.66
181.095	1658.06
181.171	1665.24
181.248	1667.04
181.324	1680.59
181.4	1686.86
181.477	1698.12
181.553	1710.8
181.63	1730.14
181.706	1745.59
181.782	1754.24
181.859	1754.71
181.935	1761.08
182.011	1758.75
182.088	1773.91
182.164	1789.31
182.24	1801.48
182.317	1811.88
182.393	1810.31
182.469	1824
182.546	1836.5
182.622	1842.2
182.698	1842.06
182.775	1849
182.851	1863.02
182.927	1856.08
183.003	1853.95
183.08	1847.43
183.156	1856.18
183.232	1852.95
183.308	1839.21
183.385	1842.59
183.461	1859.03
183.537	1858.89
183.613	1869.73
183.69	1860.84
183.766	1852.23
183.842	1860.74
183.918	1865.73
183.995	1875.62
184.071	1878.28
184.147	1873.82
184.223	1862.41
184.299	1872.44
184.375	1863.13
184.452	1867.5
184.528	1920.34
184.604	1930.98
184.68	1941.96
184.756	1947
184.832	1949.9
184.908	1957.03
184.985	1959.88
185.061	1943.34
185.137	1952.8
185.213	1943.67
185.289	1947.81
185.365	1942.91
185.441	1939.63
185.517	1953.76
185.593	1953.05
185.669	1950.1
185.745	1956.75
185.822	1973.62
185.898	1966.35
185.974	1974.14
186.05	1965.92
186.126	1926.06
186.202	1917.89
186.278	1914.18
186.354	1906.48
186.43	1912.99
186.506	1911.38
186.582	1908.05
186.658	1914.32
186.734	1894.79
186.81	1895.31
186.886	1895.98
186.962	1907
187.038	1904.77
187.114	1894.54
187.19	1899.49
187.266	1887.89
187.341	1890.22
187.417	1883.23
187.493	1883.42
187.569	1885.23
187.645	1878.86
187.721	1868.26
187.797	1876.1
187.873	1880.9
187.949	1877.34
188.025	1871.01
188.101	1875.1
188.176	1881.33
188.252	1878.09
188.328	1885.98
188.404	1887.64
188.48	1884.7
188.556	1879.04
188.632	1878.37
188.707	1878.23
188.783	1874.57
188.859	1871.43
188.935	1860.02
189.011	1867.16
189.086	1860.64
189.162	1853.75
189.238	1854.18
189.314	1850.95
189.39	1845.91
189.465	1837.3
189.541	1850.14
189.617	1838.35
189.693	1831.46
189.768	1838.79
189.844	1860.18
189.92	1851.73
189.996	1860.33
190.071	1867.75
190.147	1865.51
190.223	1873.31
190.298	1866.51
190.374	1858.52
190.45	1869.55
190.526	1880.63
190.601	1874.73
190.677	1877.25
190.753	1903.31
190.828	1906.4
190.904	1922.95
190.98	1938.21
191.055	1949
191.131	1941.73
191.207	1958.84
191.282	1968.96
191.358	1956.94
191.433	1943.86
191.509	1957.45
191.585	1953.93
191.66	1955.55
191.736	1963.58
191.811	1957.64
191.887	1970.76
191.963	1988.07
192.038	1996.29
192.114	1994.72
192.189	1998.96
192.265	1997.43
192.34	1976.32
192.416	1975.94
192.491	1970.42
192.567	1972.84
192.642	1972.99
192.718	1973.84
192.793	1963.29
192.869	1960.91
192.944	1963.19
193.02	1970.8
193.095	1971.51
193.171	1974.84
193.246	1976.22
193.322	1972.89
193.397	1968.61
193.473	1956.01
193.548	1941.32
193.624	1945.03
193.699	1945.08
193.775	1958.11
193.85	1957.11
193.925	1966.05
194.001	1964.67
194.076	1959.25
194.152	1951.12
194.227	1945.65
194.302	1934.72
194.378	1938.52
194.453	1934.39
194.529	1944.66
194.604	1930.3
194.679	1926.21
194.755	1913
194.83	1923.22
194.905	1920.51
194.981	1931.45
195.056	1925.93
195.131	1932.07
195.207	1930.93
195.282	1922.99
195.357	1907.29
195.433	1919.89
195.508	1910.86
195.583	1917.84
195.659	1930.45
195.734	1935.3
195.809	1934.63
195.884	1944.9
195.96	1945.75
196.035	1962.58
196.11	1960.25
196.185	1971.19
196.261	1974.33
196.336	2000.81
196.411	1987.64
196.486	1995.48
196.561	1989.2
196.637	1998.28
196.712	2012.94
196.787	2015.03
196.862	2027.87
196.937	2036.14
197.013	2043.89
197.088	2051.93
197.163	2071.39
197.238	2088.43
197.313	2088.76
197.388	2101.98
197.464	2129.1
197.539	2137.85
197.614	2128.48
197.689	2141.85
197.764	2157.22
197.839	2176.82
197.914	2170.58
197.989	2190.52
198.065	2203.55
198.14	2248.78
198.215	2274.99
198.29	2286.13
198.365	2297.03
198.44	2307.5
198.515	2334.77
198.59	2348.72
198.665	2373.85
198.74	2380.27
198.815	2380.7
198.89	2400.12
198.965	2429.17
199.04	2426.93
199.115	2440.97
199.19	2482.57
199.265	2484.09
199.34	2493.43
199.415	2525.3
199.49	2545.62
199.565	2557.14
199.64	2576.24
199.715	2576.52
199.79	2582.38
199.865	2587.67
199.94	2587.81
200.015	2614.2
200.09	2619.25
200.165	2627.06
200.24	2633.2
200.315	2671.53
200.39	2683.15
200.464	2693.73
200.539	2693.35
200.614	2708.3
200.689	2732.22
200.764	2736.94
200.839	2755.6
200.914	2757.32
200.989	2746.74
201.063	2757.79
201.138	2738.98
201.213	2739.84
201.288	2719.17
201.363	2722.93
201.438	2723.93
201.512	2738.88
201.587	2726.83
201.662	2729.35
201.737	2740.31
201.812	2747.75
201.886	2714.04
201.961	2725.86
202.036	2711.95
202.111	2710.72
202.186	2683.62
202.26	2665.95
202.335	2644.18
202.41	2632.46
202.485	2620.41
202.559	2601.65
202.634	2575.5
202.709	2584.17
202.784	2566.64
202.858	2567.83
202.933	2551.21
203.008	2544.78
203.082	2528.11
203.157	2524.78
203.232	2486.27
203.306	2465.31
203.381	2437.83
203.456	2420.93
203.53	2397.29
203.605	2379.45
203.68	2358.4
203.754	2351.69
203.829	2339.84
203.904	2324.42
203.978	2313.9
204.053	2317.42
204.127	2307.48
204.202	2310.05
204.277	2297.05
204.351	2288.54
204.426	2281.68
204.5	2273.21
204.575	2242.05
204.65	2248.85
204.724	2241.19
204.799	2248.42
204.873	2245.23
204.948	2242.33
205.022	2228.82
205.097	2223.96
205.171	2236.23
205.246	2243.09
205.32	2244.75
205.395	2244.52
205.469	2236.19
205.544	2244.09
205.618	2229.11
205.693	2240.86
205.767	2230.54
205.842	2250
205.916	2248.53
205.991	2241.25
206.065	2248.34
206.14	2261.99
206.214	2257.32
206.289	2253.13
206.363	2263.5
206.438	2265.69
206.512	2274.36
206.586	2295.1
206.661	2300.72
206.735	2282.93
206.81	2284.12
206.884	2296.39
206.958	2286.12
207.033	2304.43
207.107	2313.91
207.181	2346.52
207.256	2343.24
207.33	2363.75
207.405	2381.76
207.479	2402.99
207.553	2413.79
207.628	2405.51
207.702	2422.17
207.776	2426.12
207.851	2438.79
207.925	2464.22
207.999	2474.32
208.073	2483.08
208.148	2497.22
208.222	2499.75
208.296	2544.45
208.371	2576.43
208.445	2606.68
208.519	2653.54
208.593	2686.03
208.668	2709.53
208.742	2738.38
208.816	2770.25
208.89	2812.06
208.965	2841.55
209.039	2884.61
209.113	2940.1
209.187	3000.33
209.261	3042.95
209.336	3108.63
209.41	3170.5
209.484	3219.9
209.558	3293.15
209.632	3361.24
209.707	3438.39
209.781	3522.59
209.855	3604.89
209.929	3694.61
210.003	3777.31
210.077	3858.49
210.151	3984.42
210.226	4097.9
210.3	4214.27
210.374	4330.51
210.448	4433.46
210.522	4548.1
210.596	4660.52
210.67	4777.27
210.744	4928.79
210.818	5077.22
210.892	5218.33
210.966	5346.67
211.041	5491.55
211.115	5617.75
211.189	5777.5
211.263	5926.66
211.337	6078
211.411	6243.29
211.485	6390.79
211.559	6554.37
211.633	6715.61
211.707	6850.57
211.781	7026.13
211.855	7156.88
211.929	7317.94
212.003	7476.17
212.077	7659.71
212.151	7855.86
212.225	8051.84
212.299	8226.68
212.373	8402.42
212.447	8585.77
212.52	8800.5
212.594	9001.85
212.668	9209.54
212.742	9395.19
212.816	9581.52
212.89	9779.04
212.964	9969.39
213.038	10172.67
213.112	10388.19
213.186	10603.62
213.26	10791.55
213.333	10958.85
213.407	11174.89
213.481	11378.8
213.555	11600.02
213.629	11797.09
213.703	11983.86
213.777	12188.8
213.85	12383.23
213.924	12619.03
213.998	12825.96
214.072	13024.46
214.146	13215.01
214.219	13425.56
214.293	13629.41
214.367	13845.46
214.441	14048.5
214.515	14244.88
214.588	14418.56
214.662	14582.31
214.736	14758.35
214.81	14954.88
214.883	15155.98
214.957	15339.34
215.031	15521.35
215.105	15684.13
215.178	15853.31
215.252	16031.84
215.326	16188.15
215.4	16343.64
215.473	16483.5
215.547	16636.62
215.621	16799.43
215.694	16974.18
215.768	17115.49
215.842	17275.11
215.915	17429.52
215.989	17581.04
216.063	17734.96
216.136	17897.42
216.21	18057.71
216.284	18221.51
216.357	18376.21
216.431	18523.28
216.504	18673.64
216.578	18850.6
216.652	19009.48
216.725	19149.72
216.799	19300.36
216.873	19435.06
216.946	19582.71
217.02	19709.55
217.093	19838.99
217.167	19942.27
217.24	20055.95
217.314	20173.73
217.387	20280.24
217.461	20384.19
217.535	20510.55
217.608	20611.13
217.682	20727.33
217.755	20845.31
217.829	20944.35
217.902	21049.18
217.976	21150.83
218.049	21248.77
218.123	21320.63
218.196	21426.72
218.27	21527.55
218.343	21621.31
218.417	21722.77
218.49	21817.35
218.563	21914.57
218.637	22010.54
218.71	22123.92
218.784	22208
218.857	22307.59
218.931	22399.42
219.004	22492.37
219.077	22580.36
219.151	22664.77
219.224	22733.33
219.298	22807
219.371	22893.16
219.444	22956.99
219.518	23023.77
219.591	23095.42
219.665	23197.55
219.738	23258.59
219.811	23313.66
219.885	23371.57
219.958	23437.11
220.031	23494.3
220.105	23562.05
220.178	23624.31
220.251	23678.09
220.325	23746.96
220.398	23803.19
220.471	23860.87
220.544	23914.98
220.618	23948.12
220.691	24000.4
220.764	24053.79
220.838	24114.18
220.911	24161.89
220.984	24231.39
221.057	24279.53
221.131	24315.75
221.204	24331
221.277	24385.51
221.35	24448.41
221.424	24479.23
221.497	24522.07
221.57	24552.61
221.643	24585.46
221.716	24620.05
221.79	24630.28
221.863	24650.78
221.936	24678.66
222.009	24706.21
222.082	24746.11
222.155	24771.44
222.229	24808.49
222.302	24828.85
222.375	24840.05
222.448	24857.8
222.521	24868.23
222.594	24883.18
222.667	24892.78
222.74	24910.15
222.814	24922.65
222.887	24939.05
222.96	24961.59
223.033	24973.8
223.106	24994.16
223.179	25013.65
223.252	25029.86
223.325	25049.5
223.398	25053.07
223.471	25056.88
223.544	25066.1
223.617	25064.17
223.69	25080.72
223.763	25070.58
223.837	25085.3
223.91	25091.14
223.983	25085.01
224.056	25074.64
224.129	25085.54
224.202	25106.15
224.275	25103.35
224.348	25081.15
224.42	25053.79
224.493	25038.83
224.566	25023.1
224.639	25029.47
224.712	25012.1
224.785	24986.91
224.858	24983.44
224.931	24983.44
225.004	24963.32
225.077	24948.94
225.15	24918.02
225.223	24901.95
225.296	24916.13
225.369	24875.7
225.442	24861.13
225.514	24851.92
225.587	24843.09
225.66	24828.32
225.733	24815.83
225.806	24809.41
225.879	24804.97
225.952	24784.18
226.025	24787.6
226.097	24782.92
226.17	24750.31
226.243	24710.36
226.316	24703.71
226.389	24683.01
226.461	24665.4
226.534	24672.54
226.607	24655.65
226.68	24665.59
226.753	24638.82
226.825	24598.34
226.898	24602.78
226.971	24582.61
227.044	24553.42
227.117	24537.5
227.189	24514.49
227.262	24495.73
227.335	24474.21
227.407	24444.74
227.48	24434.51
227.553	24406.91
227.626	24385.16
227.698	24370.01
227.771	24368.32
227.844	24336.78
227.916	24323.65
227.989	24296.21
228.062	24252.12
228.134	24255.11
228.207	24217.05
228.28	24197.47
228.352	24175.95
228.425	24163.8
228.498	24149.81
228.57	24122.22
228.643	24107.17
228.716	24084.84
228.788	24057.73
228.861	24028.17
228.934	24023.44
229.006	24002.02
229.079	23970.77
229.151	23952.68
229.224	23920.13
229.296	23899.87
229.369	23904.69
229.442	23889.36
229.514	23862.3
229.587	23861.48
229.659	23814.7
229.732	23801.19
229.804	23786.1
229.877	23777.08
229.949	23769.22
230.022	23761.5
230.094	23754.55
230.167	23743.12
230.239	23716.07
230.312	23693.89
230.384	23691.04
230.457	23668.76
230.529	23648.17
230.602	23631.82
230.674	23609.01
230.747	23595.6
230.819	23582.1
230.892	23522.35
230.964	23491.58
231.037	23464.92
231.109	23433.14
231.181	23411.06
231.254	23379.23
231.326	23347.6
231.399	23322.18
231.471	23264.99
231.544	23210.93
231.616	23190.73
231.688	23155.48
231.761	23131.08
231.833	23097.76
231.905	23047.09
231.978	23018.44
232.05	22980.98
232.122	22956
232.195	22921.91
232.267	22905.91
232.339	22872.97
232.412	22860.34
232.484	22833.97
232.556	22810.1
232.629	22791.54
232.701	22765.26
232.773	22735.32
232.846	22702.78
232.918	22661.56
232.99	22646.61
233.062	22627.14
233.135	22592.47
233.207	22546.43
233.279	22517.6
233.351	22496.78
233.424	22463.37
233.496	22409.95
233.568	22398.34
233.64	22355.19
233.713	22314.89
233.785	22277.28
233.857	22235.39
233.929	22189.55
234.001	22171.76
234.074	22151.9
234.146	22112.27
234.218	22085.28
234.29	22042.71
234.362	22004.3
234.434	21965.01
234.507	21915.7
234.579	21868.79
234.651	21833.46
234.723	21810.81
234.795	21777.88
234.867	21735.13
234.939	21714.59
235.012	21689.19
235.084	21661.43
235.156	21638.97
235.228	21599.68
235.3	21550.18
235.372	21516.44
235.444	21496.2
235.516	21434.5
235.588	21402.11
235.66	21368.76
235.732	21320.17
235.804	21347.5
235.876	21326.44
235.948	21306.77
236.02	21270
236.092	21231.93
236.164	21201.13
236.236	21164.88
236.308	21129.02
236.38	21096.59
236.452	21046.85
236.524	21023.33
236.596	20998.03
236.668	20963.57
236.74	20939.23
236.812	20910.94
236.884	20888.72
236.956	20860.53
237.028	20827.22
237.1	20770.11
237.172	20740.38
237.244	20725.92
237.316	20644.99
237.388	20602.3
237.46	20550.25
237.532	20522.92
237.604	20481.14
237.675	20453.67
237.747	20425.57
237.819	20376.56
237.891	20339.79
237.963	20305.53
238.035	20251.6
238.107	20176.13
238.178	20149.96
238.25	20104.08
238.322	20084.08
238.394	20038.78
238.466	19990.06
238.538	19948.04
238.609	19920.62
238.681	19864.76
238.753	19813.63
238.825	19778.41
238.897	19737.54
238.968	19721.97
239.04	19684.39
239.112	19677.25
239.184	19620.73
239.255	19568.78
239.327	19540.15
239.399	19506.13
239.471	19474.81
239.542	19453.36
239.614	19434.04
239.686	19356.84
239.758	19334.19
239.829	19286.05
239.901	19247.74
239.973	19206.39
240.044	19179.16
240.116	19140.9
240.188	19104.27
240.259	19062.88
240.331	19019.6
240.403	18988.04
240.474	18934.6
240.546	18886.17
240.618	18823.09
240.689	18782.08
240.761	18750.8
240.833	18729.45
240.904	18687.43
240.976	18637.99
241.048	18590.28
241.119	18555.83
241.191	18535.39
241.262	18504.79
241.334	18457.81
241.405	18425.38
241.477	18384.41
241.549	18339.26
241.62	18302.73
241.692	18266.68
241.763	18240.23
241.835	18194.16
241.906	18157.34
241.978	18111.27
242.049	18087.8
242.121	18064.62
242.192	18045.87
242.264	17995.47
242.335	17942.79
242.407	17908.82
242.478	17869.88
242.55	17838.56
242.621	17791.09
242.693	17753.98
242.764	17703.76
242.836	17670.13
242.907	17635.43
242.979	17602.8
243.05	17573.6
243.122	17538.22
243.193	17501.21
243.264	17442.32
243.336	17415
243.407	17382.18
243.479	17362.9
243.55	17320.15
243.622	17284.63
243.693	17241.36
243.764	17218.9
243.836	17163.33
243.907	17124.68
243.978	17101.11
244.05	17072.48
244.121	17029.49
244.192	16999.57
244.264	16953.3
244.335	16926.31
244.407	16876.52
244.478	16851.03
244.549	16808.43
244.62	16764.13
244.692	16728.03
244.763	16703.99
244.834	16660.51
244.906	16615.02
244.977	16578.92
245.048	16564.17
245.119	16526.87
245.191	16479.3
245.262	16423.97
245.333	16413.84
245.405	16374.85
245.476	16338.85
245.547	16303.57
245.618	16276.82
245.689	16243.61
245.761	16210.88
245.832	16175.85
245.903	16151.75
245.974	16117.14
246.045	16086.44
246.117	16065.28
246.188	16020.26
246.259	15976.54
246.33	15934.46
246.401	15898.31
246.473	15848.81
246.544	15805.48
246.615	15778.49
246.686	15749.91
246.757	15735.35
246.828	15690.05
246.899	15676.6
246.97	15627.91
247.042	15587.71
247.113	15563.9
247.184	15552.77
247.255	15518.11
247.326	15481.09
247.397	15438.05
247.468	15408.55
247.539	15382.76
247.61	15340.64
247.681	15324.63
247.752	15309.4
247.823	15275.08
247.894	15259.32
247.965	15220.71
248.037	15186.39
248.108	15135.92
248.179	15107.87
248.25	15074.27
248.321	15051.95
248.392	15005.58
248.463	15001.43
248.534	14971.07
248.605	14942.91
248.675	14911.73
248.746	14890.52
248.817	14869.12
248.888	14848.05
248.959	14801.92
249.03	14771.5
249.101	14747.06
249.172	14707.58
249.243	14657.07
249.314	14641.64
249.385	14605.2
249.456	14583.89
249.527	14554.15
249.598	14542.05
249.669	14508.59
249.739	14482.81
249.81	14455.23
249.881	14414.59
249.952	14381.43
250.023	14350.67
250.094	14311.53
250.165	14271.09
250.235	14245.06
250.306	14223.17
250.377	14187.84
250.448	14162.24
250.519	14115.34
250.59	14100.78
250.66	14072.72
250.731	14063.51
250.802	14036.66
250.873	14017.24
250.944	13997.18
251.014	13963.87
251.085	13950.76
251.156	13930.27
251.227	13909.01
251.297	13901.4
251.368	13894.74
251.439	13879.99
251.51	13863.41
251.58	13829.95
251.651	13796.84
251.722	13782.57
251.792	13738.31
251.863	13712.72
251.934	13706.5
252.005	13716.96
252.075	13686.83
252.146	13672.66
252.217	13651.25
252.287	13642.48
252.358	13613.56
252.429	13609.94
252.499	13580.82
252.57	13556.53
252.641	13539.46
252.711	13520.13
252.782	13470.14
252.852	13463.2
252.923	13439.63
252.994	13420.05
253.064	13407.13
253.135	13376.62
253.205	13339.89
253.276	13334.68
253.347	13325.47
253.417	13292.07
253.488	13252.58
253.558	13227.42
253.629	13203.99
253.699	13190.59
253.77	13164.27
253.841	13140.55
253.911	13115.2
253.982	13095.58
254.052	13080.25
254.123	13060.53
254.193	13039.61
254.264	13054.89
254.334	13019.17
254.405	12979.45
254.475	12944.93
254.546	12917.79
254.616	12910.75
254.687	12896.44
254.757	12874.65
254.827	12844.62
254.898	12831.79
254.968	12813.43
255.039	12788.17
255.109	12774.33
255.18	12742.9
255.25	12705.11
255.321	12690.36
255.391	12655.6
255.461	12654.3
255.532	12606.1
255.602	12579.97
255.673	12547.62
255.743	12524.87
255.813	12484.91
255.884	12476.33
255.954	12468.47
256.024	12468.13
256.095	12446.92
256.165	12416.27
256.235	12397.76
256.306	12376.84
256.376	12359.1
256.446	12351.53
256.517	12340.3
256.587	12332.1
256.657	12320.39
256.728	12301.11
256.798	12281.83
256.868	12254.74
256.938	12221.81
257.009	12218.34
257.079	12202.73
257.149	12201.23
257.219	12152.98
257.29	12142.42
257.36	12107.96
257.43	12093.74
257.5	12058.12
257.571	12034.31
257.641	12020.09
257.711	11984.42
257.781	11970.73
257.852	11958.68
257.922	11917.28
257.992	11889.66
258.062	11863.1
258.132	11851.34
258.202	11832.01
258.273	11812.87
258.343	11814.13
258.413	11794.99
258.483	11776.34
258.553	11745.83
258.623	11720.14
258.693	11699.65
258.764	11689.96
258.834	11685.24
258.904	11666.2
258.974	11639.89
259.044	11615.4
259.114	11606.34
259.184	11597.67
259.254	11582.24
259.324	11539.73
259.394	11528.7
259.464	11527.68
259.535	11501.42
259.605	11471.58
259.675	11445.61
259.745	11428.69
259.815	11396.69
259.885	11367.91
259.955	11371.29
260.025	11348.11
260.095	11326.13
260.165	11324.54
260.235	11319.34
260.305	11293.84
260.375	11257.79
260.445	11263.48
260.515	11259.09
260.585	11249.16
260.655	11230.61
260.725	11214.47
260.795	11213.84
260.865	11211.38
260.934	11186.37
261.004	11177.36
261.074	11158.22
261.144	11161.5
261.214	11153.84
261.284	11142.13
261.354	11139.43
261.424	11107.76
261.494	11111.47
261.564	11096.53
261.634	11084.39
261.703	11053.21
261.773	11041.6
261.843	11038.27
261.913	11014.47
261.983	10986.32
262.053	10971.48
262.123	10949.6
