Data from 20250702_urea_0.5M_MAYP1162681_01-45-00-140.txt Node
Date: Thu Jul 03 01:45:00 BST 2025
User: adleo
Spectrometer: MAYP116268
Trigger mode: 0
Integration Time (sec): 1.000000E0
Scans to average: 1
Electric dark correction enabled: true
Nonlinearity correction enabled: true
Boxcar width: 10
XAxis mode: Wavelengths
Number of Pixels in Spectrum: 2068
>>>>>Begin Spectral Data<<<<<
179.565	1193.42
179.642	1246.9
179.718	1290.38
179.795	1326.72
179.871	1360.15
179.948	1378.86
180.024	1400.18
180.101	1422.23
180.177	1440.08
180.254	1464.37
180.33	1485.92
180.407	1541.28
180.483	1635.3
180.56	1723.34
180.636	1806.37
180.712	1794.58
180.789	1801.81
180.865	1813.68
180.942	1822.76
181.018	1833.26
181.095	1846.01
181.171	1853.33
181.248	1854.85
181.324	1870.78
181.4	1882.62
181.477	1894.6
181.553	1907.9
181.63	1929.21
181.706	1944.56
181.782	1947.03
181.859	1944.42
181.935	1948.89
182.011	1944.47
182.088	1961.63
182.164	1981.85
182.24	1997.58
182.317	2008.09
182.393	2007
182.469	2022.35
182.546	2035.62
182.622	2037.86
182.698	2032.2
182.775	2044.18
182.851	2059.02
182.927	2052.41
183.003	2045.7
183.08	2037.86
183.156	2045.94
183.232	2040.56
183.308	2030.82
183.385	2040.51
183.461	2056.4
183.537	2058.92
183.613	2071.81
183.69	2063.1
183.766	2051.31
183.842	2057.58
183.918	2062.01
183.995	2076.47
184.071	2082.84
184.147	2077.66
184.223	2066.2
184.299	2077.71
184.375	2066.3
184.452	2074.82
184.528	2129.78
184.604	2142.05
184.68	2154.84
184.756	2162.45
184.832	2168.4
184.908	2173.54
184.985	2174.34
185.061	2160.36
185.137	2169.97
185.213	2159.46
185.289	2160.55
185.365	2158.6
185.441	2156.27
185.517	2168.98
185.593	2166.6
185.669	2161.46
185.745	2172.21
185.822	2189.8
185.898	2182.62
185.974	2195.89
186.05	2184.18
186.126	2144.87
186.202	2136.88
186.278	2133.41
186.354	2123.8
186.43	2132.51
186.506	2130.23
186.582	2131.13
186.658	2137.93
186.734	2117.05
186.81	2117.48
186.886	2121.09
186.962	2128.61
187.038	2124.71
187.114	2117.14
187.19	2124.61
187.266	2114.58
187.341	2114.58
187.417	2107.68
187.493	2107.39
187.569	2105.11
187.645	2099.83
187.721	2084.23
187.797	2091.08
187.873	2095.41
187.949	2089.84
188.025	2080.37
188.101	2081.7
188.176	2087.6
188.252	2083.75
188.328	2093.73
188.404	2093.59
188.48	2087.65
188.556	2082.6
188.632	2083.46
188.707	2085.22
188.783	2081.75
188.859	2075.76
188.935	2064.29
189.011	2073.28
189.086	2068.72
189.162	2062.39
189.238	2060.82
189.314	2062.01
189.39	2058.25
189.465	2049.98
189.541	2066.1
189.617	2050.31
189.693	2045.89
189.768	2049.03
189.844	2076.54
189.92	2067.22
189.996	2076.87
190.071	2087.72
190.147	2087.58
190.223	2098.14
190.298	2089.72
190.374	2077.07
190.45	2090.57
190.526	2101.51
190.601	2096.13
190.677	2095.8
190.753	2120.36
190.828	2126.68
190.904	2140.53
190.98	2152.28
191.055	2162.31
191.131	2153.7
191.207	2176.06
191.282	2186.28
191.358	2174.58
191.433	2157.73
191.509	2172.47
191.585	2168.24
191.66	2169.05
191.736	2176.85
191.811	2165.67
191.887	2183.32
191.963	2204.78
192.038	2209.77
192.114	2208.11
192.189	2211.58
192.265	2206.45
192.34	2187.07
192.416	2183.84
192.491	2180.75
192.567	2184.75
192.642	2186.41
192.718	2186.41
192.793	2174.23
192.869	2170.66
192.944	2174.37
193.02	2178.18
193.095	2181.37
193.171	2186.03
193.246	2186.32
193.322	2183.89
193.397	2186.12
193.473	2169.99
193.548	2151.05
193.624	2158.34
193.699	2158.34
193.775	2173.9
193.85	2177.8
193.925	2185.08
194.001	2183.65
194.076	2177.13
194.152	2166.85
194.227	2161.71
194.302	2153.91
194.378	2155.96
194.453	2153.77
194.529	2165.1
194.604	2153.54
194.679	2145.64
194.755	2127.52
194.83	2139.94
194.905	2136.14
194.981	2143.8
195.056	2138.38
195.131	2146.84
195.207	2142.46
195.282	2133.14
195.357	2113.39
195.433	2128.9
195.508	2118.1
195.583	2125.19
195.659	2138.85
195.734	2144.84
195.809	2143.32
195.884	2152.64
195.96	2155.07
196.035	2169.34
196.11	2164.53
196.185	2173.71
196.261	2179.61
196.336	2210.44
196.411	2198.35
196.486	2201.82
196.561	2194.83
196.637	2201.91
196.712	2216.62
196.787	2218.86
196.862	2233.18
196.937	2246.55
197.013	2251.4
197.088	2263.87
197.163	2287.91
197.238	2304.96
197.313	2305.1
197.388	2319.47
197.464	2349.99
197.539	2359.7
197.614	2354.18
197.689	2368.36
197.764	2387.36
197.839	2407.5
197.914	2402.97
197.989	2424.92
198.065	2443.87
198.14	2494.22
198.215	2524.12
198.29	2536.08
198.365	2552.03
198.44	2563.07
198.515	2589.7
198.59	2606.75
198.665	2631.7
198.74	2636.95
198.815	2638.09
198.89	2660.61
198.965	2690.01
199.04	2683.68
199.115	2702.06
199.19	2744.64
199.265	2749.03
199.34	2756.65
199.415	2788.3
199.49	2811.31
199.565	2816.74
199.64	2838.42
199.715	2838.28
199.79	2842.09
199.865	2851.2
199.94	2851.34
200.015	2881.99
200.09	2886.47
200.165	2889.8
200.24	2897.62
200.315	2936.78
200.39	2950.84
200.464	2958.38
200.539	2961.19
200.614	2976.49
200.689	3000.14
200.764	3006.38
200.839	3021.68
200.914	3028.4
200.989	3018.29
201.063	3032.21
201.138	3016.3
201.213	3016.73
201.288	2995.9
201.363	3003.38
201.438	3001.04
201.512	3015.53
201.587	3002.32
201.662	3008.09
201.737	3022.83
201.812	3031.36
201.886	3001.64
201.961	3010.8
202.036	2997.88
202.111	2992.35
202.186	2966.62
202.26	2949.5
202.335	2926.14
202.41	2920.23
202.485	2901.84
202.559	2884.11
202.634	2857.04
202.709	2868.42
202.784	2848.59
202.858	2849.55
202.933	2829.1
203.008	2821.57
203.082	2801.85
203.157	2798.7
203.232	2755.5
203.306	2734.81
203.381	2701.3
203.456	2675.96
203.53	2654.4
203.605	2638.17
203.68	2615.01
203.754	2606.87
203.829	2590.34
203.904	2572.91
203.978	2562.81
204.053	2568.43
204.127	2557.33
204.202	2554
204.277	2538.71
204.351	2533.28
204.426	2522.71
204.5	2515.99
204.575	2483.53
204.65	2494.15
204.724	2486.53
204.799	2493.14
204.873	2487.38
204.948	2483.9
205.022	2472.57
205.097	2464.19
205.171	2473.33
205.246	2481.14
205.32	2480.62
205.395	2479.95
205.469	2470.72
205.544	2475.67
205.618	2459.2
205.693	2467.77
205.767	2456.58
205.842	2474.73
205.916	2466.97
205.991	2455.83
206.065	2460.59
206.14	2476.77
206.214	2469.72
206.289	2464.48
206.363	2477.09
206.438	2480.86
206.512	2490.28
206.586	2514.85
206.661	2521.62
206.735	2502.96
206.81	2508.01
206.884	2524.91
206.958	2512.63
207.033	2527.86
207.107	2535.15
207.181	2569.45
207.256	2564.5
207.33	2582.5
207.405	2596.8
207.479	2619.61
207.553	2634.32
207.628	2620.66
207.702	2637.76
207.776	2635.23
207.851	2641.14
207.925	2659.92
207.999	2660.34
208.073	2663.87
208.148	2667.54
208.222	2662.77
208.296	2702.06
208.371	2721.18
208.445	2740.91
208.519	2779.26
208.593	2801.94
208.668	2805.75
208.742	2817.63
208.816	2829.49
208.89	2861.15
208.965	2872.55
209.039	2892.81
209.113	2924.61
209.187	2963.2
209.261	2975.73
209.336	3016.36
209.41	3051.79
209.484	3074.3
209.558	3121.86
209.632	3157.86
209.707	3197.89
209.781	3249.46
209.855	3296.14
209.929	3343.42
210.003	3378.83
210.077	3412.76
210.151	3495.55
210.226	3571.02
210.3	3637.63
210.374	3703.5
210.448	3748.08
210.522	3806.04
210.596	3863.46
210.67	3918.21
210.744	4011.27
210.818	4097.19
210.892	4173.83
210.966	4229.66
211.041	4303.49
211.115	4358.48
211.189	4442.74
211.263	4521.58
211.337	4590.14
211.411	4671.76
211.485	4736.11
211.559	4820.91
211.633	4894.36
211.707	4940.35
211.781	5021.19
211.855	5060.28
211.929	5134.31
212.003	5194.4
212.077	5280.77
212.151	5375.28
212.225	5471.86
212.299	5550.42
212.373	5625.79
212.447	5700.51
212.52	5818.16
212.594	5913.97
212.668	6017.77
212.742	6096.78
212.816	6182.92
212.89	6271.26
212.964	6359.71
213.038	6458.18
213.112	6567.39
213.186	6680.79
213.26	6753.13
213.333	6807.74
213.407	6916.84
213.481	7018.9
213.555	7132.58
213.629	7221.2
213.703	7307.28
213.777	7405.2
213.85	7488.71
213.924	7624.84
213.998	7735.72
214.072	7834.33
214.146	7919.99
214.219	8022.54
214.293	8126.86
214.367	8227.69
214.441	8339.54
214.515	8434.96
214.588	8518.35
214.662	8588.8
214.736	8669.36
214.81	8785.65
214.883	8896.62
214.957	8986.91
215.031	9077.93
215.105	9154.16
215.178	9240
215.252	9331
215.326	9404.04
215.4	9476.26
215.473	9516.38
215.547	9595.03
215.621	9678.22
215.694	9781.35
215.768	9853.21
215.842	9938.66
215.915	10022.05
215.989	10089.2
216.063	10170.81
216.136	10262.49
216.21	10349.83
216.284	10449.9
216.357	10532.58
216.431	10619.79
216.504	10714.42
216.578	10825.15
216.652	10923.64
216.725	11010.52
216.799	11108.64
216.873	11198.94
216.946	11297.39
217.02	11382.64
217.093	11457.92
217.167	11526.55
217.24	11596.97
217.314	11673.79
217.387	11740.16
217.461	11821.47
217.535	11921.58
217.608	11991.13
217.682	12066.47
217.755	12149.81
217.829	12222.65
217.902	12308.74
217.976	12382.24
218.049	12451.95
218.123	12505.84
218.196	12586.05
218.27	12665.78
218.343	12725.17
218.417	12806.97
218.49	12884.01
218.563	12979.4
218.637	13062.17
218.71	13146.68
218.784	13221.54
218.857	13308.55
218.931	13389.11
219.004	13459.29
219.077	13540.62
219.151	13619.68
219.224	13693.67
219.298	13775.38
219.371	13855.07
219.444	13912.63
219.518	13986
219.591	14060.57
219.665	14159.54
219.738	14236.38
219.811	14293.21
219.885	14372.51
219.958	14442.26
220.031	14514.18
220.105	14582.68
220.178	14646.79
220.251	14712.5
220.325	14783.16
220.398	14854.99
220.471	14928.3
220.544	15003.5
220.618	15054.89
220.691	15118.71
220.764	15176.21
220.838	15238.54
220.911	15297.78
220.984	15380.35
221.057	15452.51
221.131	15528.95
221.204	15562.31
221.277	15637.65
221.35	15726.67
221.424	15787.89
221.497	15843.94
221.57	15896.92
221.643	15960.49
221.716	16033.51
221.79	16079.69
221.863	16137.81
221.936	16190.16
222.009	16249.2
222.082	16298.17
222.155	16345.79
222.229	16417.46
222.302	16481.75
222.375	16531.15
222.448	16593.28
222.521	16636.12
222.594	16673.14
222.667	16697.48
222.74	16757.19
222.814	16802.88
222.887	16850.79
222.96	16900.86
223.033	16966.5
223.106	17012.91
223.179	17062.99
223.252	17112.87
223.325	17167.18
223.398	17206.7
223.471	17246.12
223.544	17285.4
223.617	17344.05
223.69	17389.26
223.763	17418.51
223.837	17465.02
223.91	17508.97
223.983	17534.22
224.056	17572.39
224.129	17628.73
224.202	17690.17
224.275	17730.51
224.348	17747.67
224.42	17762.8
224.493	17782.22
224.566	17800.92
224.639	17848.05
224.712	17875.09
224.785	17905.49
224.858	17935.66
224.931	17965.93
225.004	17988.29
225.077	18021.01
225.15	18020.04
225.223	18056.14
225.296	18113.53
225.369	18114.93
225.442	18136.62
225.514	18167.65
225.587	18198.35
225.66	18226.59
225.733	18241
225.806	18267.07
225.879	18308.32
225.952	18333.28
226.025	18381.04
226.097	18425.57
226.17	18447.69
226.243	18452.46
226.316	18466.38
226.389	18498.24
226.461	18536.79
226.534	18576.69
226.607	18605.46
226.68	18663.24
226.753	18693.07
226.825	18696.88
226.898	18744.54
226.971	18781.74
227.044	18816.63
227.117	18844.24
227.189	18868.43
227.262	18909.2
227.335	18937.34
227.407	18952.81
227.48	18977.73
227.553	18990.02
227.626	19011.94
227.698	19031.7
227.771	19065
227.844	19080.76
227.916	19100.71
227.989	19103.21
228.062	19115.65
228.134	19162.87
228.207	19179.59
228.28	19191.93
228.352	19203.98
228.425	19229.66
228.498	19250.34
228.57	19253.28
228.643	19285.23
228.716	19307.64
228.788	19320.5
228.861	19330.72
228.934	19361.56
229.006	19384.26
229.079	19409.46
229.151	19410.42
229.224	19417.07
229.296	19435.24
229.369	19486.66
229.442	19521.26
229.514	19529.94
229.587	19562.99
229.659	19556.68
229.732	19581.31
229.804	19600.87
229.877	19638.46
229.949	19664.97
230.022	19702.12
230.094	19712.96
230.167	19719.85
230.239	19719.08
230.312	19735.95
230.384	19775.13
230.457	19787.95
230.529	19801.68
230.602	19811.71
230.674	19837.73
230.747	19870.88
230.819	19900.76
230.892	19871.85
230.964	19887.36
231.037	19908.52
231.109	19910.98
231.181	19925.15
231.254	19906.11
231.326	19916.91
231.399	19917.72
231.471	19909.34
231.544	19878.26
231.616	19900.38
231.688	19921.53
231.761	19919.51
231.833	19915.56
231.905	19897.1
231.978	19907.12
232.05	19911.56
232.122	19921.24
232.195	19925.72
232.267	19936.18
232.339	19926.83
232.412	19952.95
232.484	19933.48
232.556	19928.71
232.629	19951.55
232.701	19960.9
232.773	19972.61
232.846	19961.96
232.918	19965.72
232.99	19982.49
233.062	19999.12
233.135	20007.46
233.207	19982.83
233.279	19990.49
233.351	19992.47
233.424	19985.24
233.496	19963.51
233.568	19978.4
233.64	19957.67
233.713	19940.71
233.785	19936.47
233.857	19942.35
233.929	19920.04
234.001	19937.72
234.074	19950.25
234.146	19917.05
234.218	19905.63
234.29	19899.56
234.362	19886.98
234.434	19862.45
234.507	19827.56
234.579	19816.04
234.651	19793.15
234.723	19802.84
234.795	19804.57
234.867	19802.11
234.939	19808.09
235.012	19806.93
235.084	19802.02
235.156	19808.19
235.228	19802.26
235.3	19778.4
235.372	19759.75
235.444	19758.31
235.516	19716.38
235.588	19702.65
235.66	19695.03
235.732	19667.81
235.804	19697.3
235.876	19699.23
235.948	19703.71
236.02	19694.89
236.092	19663.57
236.164	19644.48
236.236	19618.56
236.308	19601.4
236.38	19583.52
236.452	19562.8
236.524	19555.24
236.596	19553.02
236.668	19534.13
236.74	19512.88
236.812	19501.5
236.884	19490.28
236.956	19480.49
237.028	19464.54
237.1	19440.5
237.172	19445.12
237.244	19444.98
237.316	19388.45
237.388	19358.76
237.46	19330.48
237.532	19323.78
237.604	19307.54
237.675	19307.3
237.747	19296.46
237.819	19268.99
237.891	19241.71
237.963	19207.16
238.035	19172.66
238.107	19106.49
238.178	19091.84
238.25	19064.47
238.322	19062.78
238.394	19026.06
238.466	18995.61
238.538	18974.84
238.609	18961.68
238.681	18913.88
238.753	18877.54
238.825	18862.65
238.897	18838.56
238.968	18833.26
239.04	18804.44
239.112	18812.87
239.184	18776.73
239.255	18748.97
239.327	18723.62
239.399	18702.71
239.471	18682.13
239.542	18659.34
239.614	18658.37
239.686	18609.56
239.758	18597.37
239.829	18551.15
239.901	18544.55
239.973	18518.96
240.044	18494.29
240.116	18457.9
240.188	18426.05
240.259	18397.95
240.331	18363.26
240.403	18358.05
240.474	18312.32
240.546	18265.33
240.618	18203.31
240.689	18168.42
240.761	18136.96
240.833	18126.93
240.904	18093.58
240.976	18065.25
241.048	18033.63
241.119	18006.5
241.191	17982.12
241.262	17968.48
241.334	17948.05
241.405	17906.84
241.477	17864
241.549	17834.75
241.62	17810.94
241.692	17796.29
241.763	17787.28
241.835	17753.35
241.906	17716.73
241.978	17669.98
242.049	17666.37
242.121	17651.28
242.192	17635.14
242.264	17584.05
242.335	17535.96
242.407	17512.2
242.478	17483.96
242.55	17460.39
242.621	17423.09
242.693	17395.19
242.764	17353.26
242.836	17309.65
242.907	17286.9
242.979	17268.34
243.05	17245.31
243.122	17220.2
243.193	17188.63
243.264	17133.69
243.336	17107.96
243.407	17079.91
243.479	17067.96
243.55	17035.09
243.622	17005.74
243.693	16979.09
243.764	16974.17
243.836	16933.01
243.907	16899.42
243.978	16868.28
244.05	16839.56
244.121	16794.35
244.192	16775.89
244.264	16733.29
244.335	16708.47
244.407	16656.37
244.478	16626.63
244.549	16587.93
244.62	16540.12
244.692	16501.71
244.763	16474.28
244.834	16429.36
244.906	16392.83
244.977	16368.64
245.048	16353.26
245.119	16319.67
245.191	16269.4
245.262	16216.52
245.333	16204.09
245.405	16176.91
245.476	16153.72
245.547	16136.71
245.618	16119.26
245.689	16083.98
245.761	16064.27
245.832	16034.72
245.903	16021.85
245.974	15993.41
246.045	15957.75
246.117	15950.66
246.188	15907.19
246.259	15868.82
246.33	15842.02
246.401	15805.87
246.473	15756.13
246.544	15712.07
246.615	15689.32
246.686	15659.82
246.757	15642.86
246.828	15600.83
246.899	15588.82
246.97	15532.86
247.042	15486.83
247.113	15457.14
247.184	15452.66
247.255	15404.5
247.326	15376.11
247.397	15335.91
247.468	15304.97
247.539	15277.49
247.61	15225.87
247.681	15206.49
247.752	15186.05
247.823	15147.34
247.894	15117.84
247.965	15079.23
248.037	15046.02
248.108	14995.02
248.179	14966.24
248.25	14935.1
248.321	14913.56
248.392	14864.01
248.463	14865.45
248.534	14835.81
248.605	14817.39
248.675	14780.18
248.746	14757.14
248.817	14730.34
248.888	14707.2
248.959	14661.12
249.03	14639.42
249.101	14611.66
249.172	14575.5
249.243	14525.03
249.314	14510.76
249.385	14484.73
249.456	14465.4
249.527	14436.53
249.598	14415.99
249.669	14387.02
249.739	14358.58
249.81	14336.21
249.881	14297.84
249.952	14267.76
250.023	14237.54
250.094	14193.52
250.165	14152.65
250.235	14131.48
250.306	14095.14
250.377	14057.54
250.448	14039.99
250.519	13995.16
250.59	13986.87
250.66	13960.35
250.731	13961.56
250.802	13943.58
250.873	13921.88
250.944	13901.69
251.014	13877.1
251.085	13883.27
251.156	13861.92
251.227	13854.88
251.297	13845.96
251.368	13836.85
251.439	13822.82
251.51	13811.73
251.58	13777.17
251.651	13743.66
251.722	13734.12
251.792	13699.56
251.863	13671.31
251.934	13665.18
252.005	13667.26
252.075	13643.73
252.146	13636.84
252.217	13621.08
252.287	13596.68
252.358	13572.19
252.429	13563.56
252.499	13526.88
252.57	13506.05
252.641	13495.3
252.711	13468.84
252.782	13421.02
252.852	13410.03
252.923	13376.91
252.994	13357.53
253.064	13344.8
253.135	13324.07
253.205	13293.22
253.276	13293.75
253.347	13297.37
253.417	13261.74
253.488	13232.58
253.558	13205.68
253.629	13185.58
253.699	13168.66
253.77	13158.53
253.841	13136.02
253.911	13114.91
253.982	13092.49
254.052	13073.02
254.123	13053.88
254.193	13029.15
254.264	13043.85
254.334	13008.27
254.405	12970.72
254.475	12941.03
254.546	12922.76
254.616	12909.94
254.687	12885.25
254.757	12864.67
254.827	12837.05
254.898	12821.19
254.968	12799.79
255.039	12772.74
255.109	12757.32
255.18	12714.12
255.25	12665.49
255.321	12647.26
255.391	12613.38
255.461	12620.37
255.532	12569.07
255.602	12541.94
255.673	12504.24
255.743	12470.83
255.813	12427.79
255.884	12421.67
255.954	12400.75
256.024	12395.54
256.095	12370.96
256.165	12336.78
256.235	12323.38
256.306	12291.18
256.376	12281.1
256.446	12273.39
256.517	12250.01
256.587	12234.49
256.657	12220.42
256.728	12209.23
256.798	12189.71
256.868	12165.56
256.938	12136.88
257.009	12126.81
257.079	12112.06
257.149	12121.84
257.219	12081.21
257.29	12074.75
257.36	12043.32
257.43	12034.55
257.5	11994.49
257.571	11978.49
257.641	11968.51
257.711	11934.63
257.781	11924.94
257.852	11909.03
257.922	11867.05
257.992	11854.08
258.062	11829.5
258.132	11825.6
258.202	11799.14
258.273	11783.81
258.343	11783.09
258.413	11752.82
258.483	11737.97
258.553	11703.7
258.623	11668.52
258.693	11656.61
258.764	11647.6
258.834	11639.02
258.904	11626.01
258.974	11599.55
259.044	11572.17
259.114	11562.96
259.184	11550.43
259.254	11528.41
259.324	11491.73
259.394	11483.2
259.464	11473.46
259.535	11449.75
259.605	11418.9
259.675	11396.35
259.745	11380.2
259.815	11349.55
259.885	11329.89
259.955	11334.08
260.025	11310.9
260.095	11293.94
260.165	11280.15
260.235	11276.54
260.305	11248.3
260.375	11217.79
260.445	11226.37
260.515	11230.85
260.585	11219.72
260.655	11196.78
260.725	11192.87
260.795	11186.13
260.865	11181.79
260.934	11160.63
261.004	11151.77
261.074	11141.55
261.144	11140.3
261.214	11133.16
261.284	11117.65
261.354	11112.25
261.424	11082.7
261.494	11089.93
261.564	11074.42
261.634	11067.38
261.703	11038.03
261.773	11033.21
261.843	11020.25
261.913	11003.43
261.983	10970.56
262.053	10960.11
262.123	10946.28
262.192	10912.11
