Data from 20250702_urea_0.5M_MAYP1162681_00-44-59-445.txt Node
Date: Thu Jul 03 00:44:59 BST 2025
User: adleo
Spectrometer: MAYP116268
Trigger mode: 0
Integration Time (sec): 1.000000E0
Scans to average: 1
Electric dark correction enabled: true
Nonlinearity correction enabled: true
Boxcar width: 10
XAxis mode: Wavelengths
Number of Pixels in Spectrum: 2068
>>>>>Begin Spectral Data<<<<<
179.565	1219.58
179.642	1275.76
179.718	1321.83
179.795	1358.61
179.871	1392.88
179.948	1407.34
180.024	1429.02
180.101	1453.73
180.177	1465.69
180.254	1489.19
180.33	1510.3
180.407	1565.33
180.483	1662.54
180.56	1753.09
180.636	1837.84
180.712	1826.9
180.789	1835.5
180.865	1845.25
180.942	1853.66
181.018	1866.06
181.095	1874.29
181.171	1880.28
181.248	1881.56
181.324	1893.93
181.4	1902.91
181.477	1913.14
181.553	1929.96
181.63	1950.69
181.706	1966.62
181.782	1974.51
181.859	1977.27
181.935	1985.59
182.011	1981.93
182.088	1997.91
182.164	2016.41
182.24	2030.06
182.317	2041.09
182.393	2042.04
182.469	2057.64
182.546	2073.47
182.622	2076.52
182.698	2075.23
182.775	2087.41
182.851	2099.78
182.927	2094.54
183.003	2087.84
183.08	2083.99
183.156	2091.45
183.232	2087.51
183.308	2075.19
183.385	2087.84
183.461	2100.63
183.537	2101.34
183.613	2112.52
183.69	2102.01
183.766	2093.21
183.842	2098.06
183.918	2100.44
183.995	2113.04
184.071	2117.28
184.147	2109.48
184.223	2099.35
184.299	2111.67
184.375	2098.35
184.452	2106.11
184.528	2159.79
184.604	2171.48
184.68	2183.38
184.756	2190.13
184.832	2195.56
184.908	2197.89
184.985	2196.94
185.061	2183.24
185.137	2191.09
185.213	2181.86
185.289	2183.43
185.365	2176.48
185.441	2177.86
185.517	2193.38
185.593	2186.05
185.669	2182.91
185.745	2198.14
185.822	2213.78
185.898	2205.41
185.974	2215.11
186.05	2207.31
186.126	2168.19
186.202	2163.67
186.278	2156.34
186.354	2147.06
186.43	2152.11
186.506	2152.39
186.582	2150.11
186.658	2155.49
186.734	2134.46
186.81	2135.27
186.886	2138.79
186.962	2151.06
187.038	2146.02
187.114	2138.12
187.19	2147.87
187.266	2139.17
187.341	2135.6
187.417	2128.7
187.493	2129.65
187.569	2132.65
187.645	2125.56
187.721	2114
187.797	2120.23
187.873	2127.08
187.949	2123.94
188.025	2118.85
188.101	2121.75
188.176	2128.13
188.252	2123.23
188.328	2131.74
188.404	2133.88
188.48	2128.27
188.556	2122.84
188.632	2122.94
188.707	2121.75
188.783	2117.04
188.859	2111.33
188.935	2101.34
189.011	2108.24
189.086	2100.2
189.162	2091.73
189.238	2092.11
189.314	2089.59
189.39	2081.56
189.465	2072.76
189.541	2087.79
189.617	2071.52
189.693	2070.67
189.768	2071.05
189.844	2096.6
189.92	2087.14
189.996	2095.37
190.071	2105.69
190.147	2105.07
190.223	2115.64
190.298	2106.98
190.374	2096.7
190.45	2109.16
190.526	2118.34
190.601	2112.54
190.677	2114.3
190.753	2141.67
190.828	2142.62
190.904	2159.51
190.98	2175.59
191.055	2183.01
191.131	2175.73
191.207	2198.28
191.282	2205.55
191.358	2197.14
191.433	2182.67
191.509	2196.17
191.585	2191.74
191.66	2193.55
191.736	2199.26
191.811	2189.56
191.887	2208.45
191.963	2230.14
192.038	2236.24
192.114	2235.52
192.189	2240.85
192.265	2239.37
192.34	2218.71
192.416	2217.67
192.491	2211.67
192.567	2215.24
192.642	2220.95
192.718	2220.67
192.793	2207.49
192.869	2202.63
192.944	2207.25
193.02	2217.19
193.095	2223.9
193.171	2231.18
193.246	2231.52
193.322	2227.66
193.397	2228.33
193.473	2211.29
193.548	2194.16
193.624	2199.39
193.699	2198.44
193.775	2215.86
193.85	2217.01
193.925	2226.86
194.001	2227.33
194.076	2219.67
194.152	2208.35
194.227	2198.83
194.302	2188.37
194.378	2191.31
194.453	2184.09
194.529	2193.98
194.604	2176.42
194.679	2167.86
194.755	2148.64
194.83	2162.12
194.905	2161.78
194.981	2168.92
195.056	2163.83
195.131	2171.73
195.207	2169.92
195.282	2162.26
195.357	2141.89
195.433	2156.02
195.508	2143.12
195.583	2151.88
195.659	2167.34
195.734	2178.86
195.809	2180.19
195.884	2190.99
195.96	2194.6
196.035	2212.2
196.11	2211.06
196.185	2224.15
196.261	2228.19
196.336	2258.16
196.411	2242.36
196.486	2247.98
196.561	2243.5
196.637	2251.54
196.712	2264.11
196.787	2267.01
196.862	2278.57
196.937	2288.09
197.013	2296.18
197.088	2308.08
197.163	2330.46
197.238	2346.13
197.313	2340.89
197.388	2354.69
197.464	2384.07
197.539	2394.97
197.614	2389.45
197.689	2400.64
197.764	2414.64
197.839	2435.06
197.914	2429.2
197.989	2451.43
198.065	2464.43
198.14	2516.36
198.215	2542.45
198.29	2556.41
198.365	2569.32
198.44	2581.93
198.515	2610.42
198.59	2623.66
198.665	2647.71
198.74	2654.67
198.815	2658.34
198.89	2685.01
198.965	2719.37
199.04	2717.27
199.115	2731.99
199.19	2774.48
199.265	2777.82
199.34	2789.3
199.415	2824.15
199.49	2850.26
199.565	2863.31
199.64	2886.19
199.715	2880.08
199.79	2888.47
199.865	2895.28
199.94	2893.57
200.015	2926.46
200.09	2932.23
200.165	2938.09
200.24	2945.96
200.315	2983.93
200.39	2995.66
200.464	2999.09
200.539	2995.99
200.614	3010.05
200.689	3034.18
200.764	3042.29
200.839	3062.21
200.914	3068.22
200.989	3058.77
201.063	3071.84
201.138	3051.11
201.213	3053.73
201.288	3035.38
201.363	3040.53
201.438	3039.39
201.512	3053.06
201.587	3036.32
201.662	3040.28
201.737	3050.01
201.812	3057.69
201.886	3027.2
201.961	3039.07
202.036	3026.78
202.111	3023.44
202.186	2994.42
202.26	2976.01
202.335	2953.89
202.41	2943.45
202.485	2929.72
202.559	2908.42
202.634	2879.77
202.709	2890.77
202.784	2871.47
202.858	2872.94
202.933	2856.17
203.008	2850.88
203.082	2832.58
203.157	2831.39
203.232	2785.18
203.306	2770.12
203.381	2738.38
203.456	2715.27
203.53	2690.57
203.605	2672.99
203.68	2650.17
203.754	2641.89
203.829	2629.59
203.904	2607.35
203.978	2595.49
204.053	2595.2
204.127	2580.63
204.202	2578.54
204.277	2561.96
204.351	2554.15
204.426	2547.34
204.5	2538.67
204.575	2504.25
204.65	2517.4
204.724	2511.25
204.799	2524.24
204.873	2516.05
204.948	2517.33
205.022	2503.1
205.097	2495.1
205.171	2506.62
205.246	2514.86
205.32	2515.71
205.395	2511.62
205.469	2503.34
205.544	2510.29
205.618	2492.86
205.693	2506.48
205.767	2492.11
205.842	2513.97
205.916	2508.54
205.991	2496.54
206.065	2499.02
206.14	2512.67
206.214	2506.81
206.289	2498.95
206.363	2510.38
206.438	2516.91
206.512	2522.58
206.586	2545.05
206.661	2553.72
206.735	2533.02
206.81	2533.35
206.884	2548.97
206.958	2535.49
207.033	2559.87
207.107	2567.11
207.181	2603.7
207.256	2598.37
207.33	2619.13
207.405	2630.19
207.479	2651.29
207.553	2661.24
207.628	2649.43
207.702	2663.43
207.776	2660.39
207.851	2666.2
207.925	2684.55
207.999	2685.55
208.073	2689.07
208.148	2694.55
208.222	2690.84
208.296	2730.69
208.371	2756.82
208.445	2778.41
208.519	2821.96
208.593	2840.12
208.668	2848.84
208.742	2860.15
208.816	2876.11
208.89	2904.1
208.965	2918.74
209.039	2944.59
209.113	2978.2
209.187	3018.46
209.261	3037.48
209.336	3078.01
209.41	3120.56
209.484	3146.18
209.558	3192.27
209.632	3229.71
209.707	3268.73
209.781	3317.68
209.855	3365.56
209.929	3411.94
210.003	3444.58
210.077	3481.01
210.151	3567.56
210.226	3641.07
210.3	3709.76
210.374	3779.9
210.448	3831.6
210.522	3890.57
210.596	3950.07
210.67	4011.57
210.744	4109.72
210.818	4196.84
210.892	4275.23
210.966	4324.27
211.041	4402.77
211.115	4458
211.189	4545.59
211.263	4632.91
211.337	4708.9
211.411	4794.89
211.485	4861.12
211.559	4956.75
211.633	5027.35
211.707	5070.43
211.781	5160.36
211.855	5205.01
211.929	5275.57
212.003	5340.76
212.077	5433.57
212.151	5531.09
212.225	5632.98
212.299	5712.62
212.373	5790.02
212.447	5875.61
212.52	6001.95
212.594	6100.44
212.668	6216.74
212.742	6302.41
212.816	6395.16
212.89	6490.2
212.964	6590.83
213.038	6698.51
213.112	6813.8
213.186	6934.29
213.26	7024.43
213.333	7083.96
213.407	7198.58
213.481	7307.68
213.555	7427.06
213.629	7526.3
213.703	7624.05
213.777	7728.21
213.85	7824.05
213.924	7969.26
213.998	8078.88
214.072	8182.76
214.146	8276.77
214.219	8376.65
214.293	8481.19
214.367	8590.57
214.441	8705.78
214.515	8805.18
214.588	8888.35
214.662	8959.64
214.736	9047.73
214.81	9152.03
214.883	9276.08
214.957	9368.99
215.031	9467.79
215.105	9544.81
215.178	9630.87
215.252	9721.7
215.326	9797.51
215.4	9873.27
215.473	9930.07
215.547	10019.81
215.621	10108.8
215.694	10210.98
215.768	10283.53
215.842	10369.67
215.915	10453.84
215.989	10530.21
216.063	10605.43
216.136	10712.74
216.21	10806.89
216.284	10915.6
216.357	11018.96
216.431	11091.2
216.504	11187.19
216.578	11304.64
216.652	11412.49
216.725	11507.09
216.799	11601.08
216.873	11696.7
216.946	11800.51
217.02	11888.33
217.093	11966.99
217.167	12031.1
217.24	12102.29
217.314	12189.53
217.387	12268.92
217.461	12342.57
217.535	12444.72
217.608	12518.42
217.682	12600.32
217.755	12693.64
217.829	12761.13
217.902	12843.22
217.976	12929.94
218.049	13006.11
218.123	13065.16
218.196	13148.65
218.27	13217.64
218.343	13287.78
218.417	13371.46
218.49	13439.53
218.563	13530.88
218.637	13614.95
218.71	13714.16
218.784	13805.22
218.857	13893.25
218.931	13970.71
219.004	14048.81
219.077	14115.48
219.151	14190.58
219.224	14247.27
219.298	14315
219.371	14404.08
219.444	14462.27
219.518	14536.84
219.591	14606.01
219.665	14701.79
219.738	14766.87
219.811	14831.61
219.885	14909.99
219.958	14981.95
220.031	15055.03
220.105	15123.86
220.178	15192.12
220.251	15248.8
220.325	15310.98
220.398	15386.03
220.471	15462.91
220.544	15546.88
220.618	15608.48
220.691	15688.88
220.764	15760.07
220.838	15832.71
220.911	15888.48
220.984	15976.73
221.057	16042.28
221.131	16102.92
221.204	16124.22
221.277	16208.08
221.35	16303.03
221.424	16352.15
221.497	16414.13
221.57	16475.44
221.643	16533.51
221.716	16601.95
221.79	16654.29
221.863	16711.93
221.936	16755.12
222.009	16809.39
222.082	16857.82
222.155	16908.67
222.229	16972.38
222.302	17031.66
222.375	17078.07
222.448	17142.07
222.521	17188.63
222.594	17234.46
222.667	17281.31
222.74	17346.66
222.814	17381.98
222.887	17418.32
222.96	17482.32
223.033	17533.74
223.106	17578.08
223.179	17627.47
223.252	17663.86
223.325	17714.12
223.398	17758.6
223.471	17808.63
223.544	17848.43
223.617	17894.46
223.69	17940.91
223.763	17970.26
223.837	18005.78
223.91	18054.02
223.983	18066.31
224.056	18087.41
224.129	18131.99
224.202	18177.58
224.275	18214.74
224.348	18247.94
224.42	18275.99
224.493	18289.82
224.566	18310.06
224.639	18352.7
224.712	18376.32
224.785	18410.97
224.858	18436.56
224.931	18462.82
225.004	18488.26
225.077	18520.79
225.15	18522.38
225.223	18544.26
225.296	18600.79
225.369	18621.41
225.442	18637.51
225.514	18668.21
225.587	18703.14
225.66	18729.21
225.733	18769.02
225.806	18796.05
225.879	18829.54
225.952	18848.05
226.025	18894.46
226.097	18943.18
226.17	18968.91
226.243	18977.87
226.316	18996.91
226.389	19029.63
226.461	19061.14
226.534	19090.15
226.607	19113.67
226.68	19166.92
226.753	19195.35
226.825	19197.38
226.898	19241.37
226.971	19271.83
227.044	19304.26
227.117	19328.4
227.189	19355.97
227.262	19386.33
227.335	19415.87
227.407	19426.91
227.48	19451.92
227.553	19463.67
227.626	19479.05
227.698	19495.38
227.771	19529.55
227.844	19541.74
227.916	19560.39
227.989	19559.91
228.062	19567.38
228.134	19606.99
228.207	19613.01
228.28	19624.15
228.352	19629.21
228.425	19631.57
228.498	19654.51
228.57	19657.59
228.643	19691.76
228.716	19700.67
228.788	19694.46
228.861	19692.63
228.934	19719.81
229.006	19732
229.079	19749.15
229.151	19749.49
229.224	19740.82
229.296	19754.5
229.369	19795.85
229.442	19821.39
229.514	19837.54
229.587	19862.59
229.659	19854.59
229.732	19877.82
229.804	19906.93
229.877	19950.3
229.949	19980.66
230.022	20006.78
230.094	20022.59
230.167	20027.31
230.239	20029.29
230.312	20045.19
230.384	20092.61
230.457	20112.27
230.529	20128.37
230.602	20144.13
230.674	20153.91
230.747	20181.09
230.819	20204.32
230.892	20176.32
230.964	20189.91
231.037	20202.58
231.109	20218.78
231.181	20232.8
231.254	20230.49
231.326	20233.38
231.399	20238.25
231.471	20231.69
231.544	20220.13
231.616	20234
231.688	20241.47
231.761	20254.05
231.833	20262.97
231.905	20233.81
231.978	20223.26
232.05	20223.88
232.122	20222.63
232.195	20224.51
232.267	20244.65
232.339	20234.63
232.412	20253.71
232.484	20245.04
232.556	20235.4
232.629	20246.53
232.701	20248.65
232.773	20243.93
232.846	20242.82
232.918	20233.18
232.99	20238.68
233.062	20244.7
233.135	20248.03
233.207	20227.45
233.279	20222.78
233.351	20222.05
233.424	20224.12
233.496	20214.1
233.568	20228.8
233.64	20206.44
233.713	20204.46
233.785	20190.82
233.857	20183.07
233.929	20166.73
234.001	20168.75
234.074	20179.55
234.146	20150.15
234.218	20150.63
234.29	20140.13
234.362	20115.79
234.434	20088.66
234.507	20066.06
234.579	20038.35
234.651	20030.25
234.723	20034.54
234.795	20034.68
234.867	20021.33
234.939	20013.24
235.012	20008.66
235.084	19993.38
235.156	19998.64
235.228	19977.43
235.3	19968.71
235.372	19970.4
235.444	19967.12
235.516	19939.12
235.588	19928.33
235.66	19918.3
235.732	19887.41
235.804	19938.25
235.876	19936.47
235.948	19934.69
236.02	19912.09
236.092	19890.26
236.164	19865.34
236.236	19845.92
236.308	19814.69
236.38	19799.71
236.452	19778.99
236.524	19769.3
236.596	19763.95
236.668	19746.7
236.74	19730.31
236.812	19708.29
236.884	19685.54
236.956	19666.8
237.028	19633.64
237.1	19598.03
237.172	19588.39
237.244	19592.05
237.316	19528.97
237.388	19497.17
237.46	19467.82
237.532	19470.52
237.604	19442.76
237.675	19439.96
237.747	19421.03
237.819	19405.41
237.891	19383.73
237.963	19346.72
238.035	19320.36
238.107	19259.93
238.178	19248.31
238.25	19217.86
238.322	19218.1
238.394	19168.37
238.466	19137.77
238.538	19120.23
238.609	19098.73
238.681	19060.33
238.753	19021.39
238.825	18993.49
238.897	18976.23
238.968	18966.21
239.04	18922.89
239.112	18923.76
239.184	18879.61
239.255	18844.39
239.327	18813.45
239.399	18787.14
239.471	18775.62
239.542	18751.62
239.614	18748.59
239.686	18693.36
239.758	18685.02
239.829	18635.05
239.901	18631.82
239.973	18604.4
240.044	18584.21
240.116	18564.4
240.188	18533.66
240.259	18509.23
240.331	18484.36
240.403	18458.92
240.474	18421.09
240.546	18392.51
240.618	18336.75
240.689	18304.56
240.761	18284.47
240.833	18277.14
240.904	18240.95
240.976	18207.7
241.048	18181.19
241.119	18150.88
241.191	18136.09
241.262	18121.25
241.334	18088.91
241.405	18049.49
241.477	18011.32
241.549	17981.44
241.62	17957.25
241.692	17932.72
241.763	17901.64
241.835	17862.94
241.906	17838.7
241.978	17793.64
242.049	17765.88
242.121	17757.11
242.192	17738.03
242.264	17686.8
242.335	17636.15
242.407	17612.01
242.478	17582.95
242.55	17547.57
242.621	17507.38
242.693	17467.96
242.764	17422.47
242.836	17393.12
242.907	17375.82
242.979	17354.71
243.05	17321.36
243.122	17289.65
243.193	17260.34
243.264	17213.21
243.336	17181.36
243.407	17156.01
243.479	17146.61
243.55	17124.34
243.622	17102.61
243.693	17071.86
243.764	17061.79
243.836	17011.76
243.907	16980.77
243.978	16949.01
244.05	16919.42
244.121	16872.81
244.192	16850.07
244.264	16812.52
244.335	16777.72
244.407	16720.08
244.478	16691.74
244.549	16657.62
244.62	16607.16
244.692	16566.72
244.763	16546.53
244.834	16506.14
244.906	16460.21
244.977	16428.06
245.048	16415.96
245.119	16366.37
245.191	16327.72
245.262	16264.96
245.333	16264.82
245.405	16224.48
245.476	16201
245.547	16175.75
245.618	16153.24
245.689	16124.42
245.761	16086.44
245.832	16058.82
245.903	16043.06
245.974	16022.57
246.045	15992.5
246.117	15984.98
246.188	15948.78
246.259	15899.81
246.33	15877.4
246.401	15842.74
246.473	15788.95
246.544	15744.66
246.615	15727.35
246.686	15686.77
246.757	15677.51
246.828	15625.36
246.899	15613.55
246.97	15558.5
247.042	15513.24
247.113	15494.54
247.184	15479.36
247.255	15454.49
247.326	15429.28
247.397	15397.27
247.468	15362.9
247.539	15331.19
247.61	15286.75
247.681	15267.22
247.752	15251.94
247.823	15205.14
247.894	15182.72
247.965	15144.35
248.037	15106.08
248.108	15055.85
248.179	15021.29
248.25	14986.49
248.321	14966.97
248.392	14919.54
248.463	14917.03
248.534	14890.57
248.605	14869.21
248.675	14842.51
248.746	14810.89
248.817	14783.31
248.888	14761.86
248.959	14707.83
249.03	14680.78
249.101	14650.37
249.172	14622.21
249.243	14576.37
249.314	14563.79
249.385	14536.6
249.456	14529.71
249.527	14499.97
249.598	14483.38
249.669	14468.2
249.739	14448.82
249.81	14426.45
249.881	14384.18
249.952	14353.76
250.023	14320.98
250.094	14269.83
250.165	14224.57
250.235	14199.94
250.306	14176.99
250.377	14133.36
250.448	14122.57
250.519	14089.3
250.59	14080.96
250.66	14053.2
250.731	14045.73
250.802	14018.97
250.873	13998.19
250.944	13964.79
251.014	13934.03
251.085	13934.85
251.156	13908.87
251.227	13897.54
251.297	13885.15
251.368	13884.52
251.439	13873.39
251.51	13855.17
251.58	13829.38
251.651	13797.61
251.722	13781.51
251.792	13730.65
251.863	13711.41
251.934	13700.42
252.005	13696.23
252.075	13666.68
252.146	13643.83
252.217	13634.52
252.287	13622.18
252.358	13590.95
252.429	13588.78
252.499	13560.33
252.57	13536.14
252.641	13532.71
252.711	13505.43
252.782	13465.08
252.852	13446.71
252.923	13422.51
252.994	13410.85
253.064	13408.68
253.135	13386.36
253.205	13366.06
253.276	13370.02
253.347	13365.1
253.417	13328.75
253.488	13305.03
253.558	13282.57
253.629	13263.24
253.699	13233.88
253.77	13215.51
253.841	13194.98
253.911	13179.26
253.982	13158.63
254.052	13142.72
254.123	13120.11
254.193	13098.37
254.264	13114.67
254.334	13088.59
254.405	13043.08
254.475	13006.54
254.546	12978.77
254.616	12963.01
254.687	12941.99
254.757	12912.15
254.827	12884.19
254.898	12873.93
254.968	12851.08
255.039	12818.2
255.109	12802.53
255.18	12770.72
255.25	12725.07
255.321	12712.44
255.391	12670.21
255.461	12667.46
255.532	12622.82
255.602	12592.89
255.673	12551.05
255.743	12518.07
255.813	12480.09
255.884	12479.41
255.954	12466.06
256.024	12465
256.095	12453.09
256.165	12415.78
256.235	12400.17
256.306	12373.99
256.376	12362.28
256.446	12347.77
256.517	12339.67
256.587	12338.61
256.657	12322.32
256.728	12308.63
256.798	12282.5
256.868	12259.56
256.938	12234.68
257.009	12221.72
257.079	12210.63
257.149	12222.83
257.219	12183.4
257.29	12172.89
257.36	12133.41
257.43	12123
257.5	12073.79
257.571	12048.96
257.641	12040.09
257.711	12010.93
257.781	11991.75
257.852	11974.64
257.922	11935.88
257.992	11907.73
258.062	11877.75
258.132	11880.59
258.202	11861.41
258.273	11843.53
258.343	11845.7
258.413	11819.57
258.483	11794.7
258.553	11761.25
258.623	11730.5
258.693	11715.56
258.764	11710.06
258.834	11705.29
258.904	11687.41
258.974	11660.42
259.044	11636.37
259.114	11620.8
259.184	11607.11
259.254	11591.26
259.324	11553.04
259.394	11547.59
259.464	11552.12
259.535	11522.77
259.605	11488.69
259.675	11459.92
259.745	11448.59
259.815	11415.58
259.885	11394.23
259.955	11396.74
260.025	11362.47
260.095	11342.23
260.165	11326.9
260.235	11324.69
260.305	11297.41
260.375	11269.55
260.445	11283.86
260.515	11283.62
260.585	11275.19
260.655	11257.6
260.725	11250.37
260.795	11240.3
260.865	11240.97
260.934	11212.01
261.004	11206.56
261.074	11194.46
261.144	11199.86
261.214	11194.66
261.284	11177.93
261.354	11174.13
261.424	11153.55
261.494	11167.91
261.564	11149.74
261.634	11139.76
261.703	11098.51
261.773	11083.91
261.843	11078.56
261.913	11053.84
261.983	11017.12
262.053	11013.26
