Data from 20250702_urea_0.5M_MAYP1162681_21-35-00-364.txt Node
Date: Wed Jul 02 21:35:00 BST 2025
User: adleo
Spectrometer: MAYP116268
Trigger mode: 0
Integration Time (sec): 1.000000E0
Scans to average: 1
Electric dark correction enabled: true
Nonlinearity correction enabled: true
Boxcar width: 10
XAxis mode: Wavelengths
Number of Pixels in Spectrum: 2068
>>>>>Begin Spectral Data<<<<<
179.565	1229.16
179.642	1285.32
179.718	1330.24
179.795	1369.38
179.871	1399.77
179.948	1419.51
180.024	1437.68
180.101	1460.66
180.177	1478.17
180.254	1500.26
180.33	1524.87
180.407	1582.56
180.483	1678.77
180.56	1771.03
180.636	1856.68
180.712	1844.37
180.789	1855.44
180.865	1871.74
180.942	1876.59
181.018	1888.19
181.095	1899.75
181.171	1905.88
181.248	1906.31
181.324	1924.24
181.4	1931.7
181.477	1945.02
181.553	1957.9
181.63	1981.67
181.706	1999.03
181.782	2006.21
181.859	2005.21
181.935	2010.16
182.011	2004.93
182.088	2023.14
182.164	2045.03
182.24	2060.67
182.317	2070.75
182.393	2064.14
182.469	2077.55
182.546	2093.77
182.622	2096.91
182.698	2092.86
182.775	2104.47
182.851	2118.36
182.927	2108.37
183.003	2103.9
183.08	2098.57
183.156	2107.23
183.232	2104.09
183.308	2093.34
183.385	2100.38
183.461	2118.4
183.537	2116.69
183.613	2130.3
183.69	2121.88
183.766	2106.69
183.842	2110.22
183.918	2117.68
183.995	2133.95
184.071	2136.61
184.147	2130.1
184.223	2120.59
184.299	2133.81
184.375	2119.93
184.452	2127.49
184.528	2185.99
184.604	2197.12
184.68	2207.06
184.756	2215.67
184.832	2219.53
184.908	2223.95
184.985	2223.66
185.061	2209.39
185.137	2218.72
185.213	2204.83
185.289	2207.73
185.365	2202.59
185.441	2204.83
185.517	2217.54
185.593	2213.16
185.669	2208.83
185.745	2220.68
185.822	2238.51
185.898	2230.18
185.974	2241.36
186.05	2235.22
186.126	2192.85
186.202	2185.39
186.278	2182.39
186.354	2174.3
186.43	2180.72
186.506	2178.25
186.582	2176.68
186.658	2182.91
186.734	2163.27
186.81	2167.88
186.886	2167.17
186.962	2178.25
187.038	2174.73
187.114	2166.64
187.19	2178.87
187.266	2168.55
187.341	2170.17
187.417	2160.46
187.493	2158.75
187.569	2162.65
187.645	2154.75
187.721	2142.05
187.797	2149.18
187.873	2155.56
187.949	2146.57
188.025	2139.67
188.101	2141.52
188.176	2145.18
188.252	2140.76
188.328	2151.65
188.404	2151.03
188.48	2147.32
188.556	2140.76
188.632	2140.61
188.707	2139.76
188.783	2133
188.859	2130.1
188.935	2116.63
189.011	2122.91
189.086	2115.73
189.162	2107.79
189.238	2105.08
189.314	2103.51
189.39	2099.56
189.465	2092.56
189.541	2111.17
189.617	2095.71
189.693	2091.67
189.768	2097.42
189.844	2121.84
189.92	2110.23
189.996	2119.94
190.071	2131.45
190.147	2128.55
190.223	2137.45
190.298	2131.22
190.374	2117.8
190.45	2129.69
190.526	2138.68
190.601	2133.02
190.677	2135.21
190.753	2159.34
190.828	2162.81
190.904	2175.99
190.98	2187.89
191.055	2196.36
191.131	2186.41
191.207	2207.29
191.282	2217.14
191.358	2205.87
191.433	2190.16
191.509	2206.37
191.585	2202.38
191.66	2202.09
191.736	2210.56
191.811	2199.14
191.887	2213.51
191.963	2236.92
192.038	2244.34
192.114	2244.53
192.189	2251.29
192.265	2249.58
192.34	2226.64
192.416	2227.02
192.491	2224.02
192.567	2227.78
192.642	2227.25
192.718	2228.4
192.793	2215.83
192.869	2212.5
192.944	2216.02
193.02	2223.31
193.095	2224.78
193.171	2231.63
193.246	2230.16
193.322	2228.16
193.397	2229.63
193.473	2218.83
193.548	2203.12
193.624	2205.69
193.699	2204.36
193.775	2220.31
193.85	2218.55
193.925	2229.97
194.001	2227.64
194.076	2220.6
194.152	2211.84
194.227	2207.41
194.302	2197.71
194.378	2204.09
194.453	2201.85
194.529	2215.36
194.604	2202.99
194.679	2195.43
194.755	2174.88
194.83	2187.49
194.905	2184.5
194.981	2191.97
195.056	2184.26
195.131	2190.59
195.207	2190.92
195.282	2180.22
195.357	2159.23
195.433	2178.59
195.508	2165.89
195.583	2174.02
195.659	2188.78
195.734	2198.87
195.809	2201.1
195.884	2208.52
195.96	2209.71
196.035	2221.27
196.11	2218.27
196.185	2227.98
196.261	2233.45
196.336	2265.43
196.411	2253.1
196.486	2260.09
196.561	2255.81
196.637	2263.09
196.712	2279.56
196.787	2281.22
196.862	2298.26
196.937	2310.87
197.013	2314.67
197.088	2328.05
197.163	2350.76
197.238	2363.76
197.313	2358.71
197.388	2369.71
197.464	2400.75
197.539	2411.32
197.614	2407.51
197.689	2419.08
197.764	2438.37
197.839	2458.03
197.914	2451.22
197.989	2474.79
198.065	2491.21
198.14	2540.86
198.215	2566.19
198.29	2576.1
198.365	2590.72
198.44	2601.91
198.515	2629.68
198.59	2644.07
198.665	2667.12
198.74	2675.79
198.815	2681.18
198.89	2706.13
198.965	2738.02
199.04	2733.16
199.115	2747.83
199.19	2794.14
199.265	2796.76
199.34	2804.95
199.415	2840.23
199.49	2864.19
199.565	2871.58
199.64	2889.74
199.715	2888.55
199.79	2898.36
199.865	2904.42
199.94	2902.51
200.015	2934.16
200.09	2939.93
200.165	2949.32
200.24	2961
200.315	3000.84
200.39	3015.62
200.464	3024.73
200.539	3025.59
200.614	3041.7
200.689	3063.87
200.764	3067.54
200.839	3087.08
200.914	3095.28
200.989	3084.88
201.063	3097.28
201.138	3078.65
201.213	3084.99
201.288	3065.4
201.363	3069.98
201.438	3072.55
201.512	3090.95
201.587	3074.83
201.662	3076.45
201.737	3089.04
201.812	3096.58
201.886	3063.46
201.961	3074.29
202.036	3058.89
202.111	3053.98
202.186	3028.11
202.26	3012.42
202.335	2993.01
202.41	2986
202.485	2965.79
202.559	2946.15
202.634	2921.79
202.709	2932.27
202.784	2914.2
202.858	2912.44
202.933	2890.95
203.008	2885.7
203.082	2864.83
203.157	2862.4
203.232	2819.71
203.306	2798.78
203.381	2764.89
203.456	2741.31
203.53	2716.36
203.605	2697.69
203.68	2675.1
203.754	2667.96
203.829	2655.15
203.904	2631.33
203.978	2621.04
204.053	2628.56
204.127	2611.75
204.202	2609.71
204.277	2592.18
204.351	2584.99
204.426	2579.13
204.5	2574.13
204.575	2533.32
204.65	2542.04
204.724	2533.04
204.799	2542.03
204.873	2537.12
204.948	2533.36
205.022	2522.56
205.097	2514.69
205.171	2527.45
205.246	2537.03
205.32	2535.84
205.395	2534.08
205.469	2527.61
205.544	2530.27
205.618	2511.79
205.693	2527.6
205.767	2512.37
205.842	2535.28
205.916	2526.66
205.991	2518.8
206.065	2525.51
206.14	2543.74
206.214	2540.93
206.289	2534.4
206.363	2548.35
206.438	2553.02
206.512	2564.22
206.586	2585.07
206.661	2593.32
206.735	2571.56
206.81	2571.99
206.884	2587.28
206.958	2575.28
207.033	2591.46
207.107	2602.76
207.181	2634.68
207.256	2631.44
207.33	2654.83
207.405	2666.6
207.479	2691.09
207.553	2699.56
207.628	2685.42
207.702	2701.95
207.776	2695.71
207.851	2704.9
207.925	2722.68
207.999	2723.01
208.073	2728.97
208.148	2736.79
208.222	2734.59
208.296	2777.46
208.371	2801.4
208.445	2826.33
208.519	2864.3
208.593	2891.47
208.668	2897.67
208.742	2916.32
208.816	2933.43
208.89	2966.01
208.965	2988.82
209.039	3012.28
209.113	3052.3
209.187	3095.76
209.261	3114.54
209.336	3161.75
209.41	3206.4
209.484	3237.57
209.558	3290.39
209.632	3332.52
209.707	3373.99
209.781	3430.69
209.855	3481.3
209.929	3540.55
210.003	3581.8
210.077	3628.94
210.151	3722.44
210.226	3806.26
210.3	3884.93
210.374	3960.87
210.448	4022.54
210.522	4091.31
210.596	4163.07
210.67	4235.9
210.744	4349.66
210.818	4450.59
210.892	4540.78
210.966	4612.25
211.041	4701.98
211.115	4776.93
211.189	4880.66
211.263	4983.02
211.337	5074.72
211.411	5178.44
211.485	5262.65
211.559	5369.71
211.633	5466.24
211.707	5526.76
211.781	5635.75
211.855	5698.62
211.929	5792.92
212.003	5874.86
212.077	5990.8
212.151	6113.26
212.225	6228.87
212.299	6329.67
212.373	6429.03
212.447	6537.5
212.52	6680.6
212.594	6798.71
212.668	6928.77
212.742	7032.97
212.816	7148.15
212.89	7264.04
212.964	7386.68
213.038	7517.27
213.112	7655.26
213.186	7799.88
213.26	7908.19
213.333	7983.65
213.407	8116.95
213.481	8250.64
213.555	8391.27
213.629	8500.61
213.703	8613.36
213.777	8738.12
213.85	8842.95
213.924	9008.31
213.998	9145.76
214.072	9266.91
214.146	9381.74
214.219	9507.52
214.293	9633.87
214.367	9765.49
214.441	9903.67
214.515	10021.01
214.588	10117.16
214.662	10207.63
214.736	10308.51
214.81	10447.82
214.883	10585.49
214.957	10706.56
215.031	10819.16
215.105	10919.81
215.178	11036.57
215.252	11156.9
215.326	11255.64
215.4	11359.29
215.473	11437.33
215.547	11533.24
215.621	11641.3
215.694	11764.98
215.768	11851.88
215.842	11951.6
215.915	12054.27
215.989	12145.23
216.063	12246.5
216.136	12366.57
216.21	12482.35
216.284	12601.27
216.357	12703.9
216.431	12803.87
216.504	12913.39
216.578	13039.45
216.652	13155.58
216.725	13256.28
216.799	13368.21
216.873	13469.06
216.946	13584.17
217.02	13675.76
217.093	13772.8
217.167	13845.59
217.24	13924.41
217.314	14022.94
217.387	14117.04
217.461	14201.4
217.535	14303.4
217.608	14385.26
217.682	14466.14
217.755	14558.89
217.829	14643.15
217.902	14732.18
217.976	14826.23
218.049	14905.38
218.123	14978.75
218.196	15069.75
218.27	15148.37
218.343	15212.53
218.417	15304.35
218.49	15380.27
218.563	15475.66
218.637	15558.04
218.71	15666.58
218.784	15766.98
218.857	15858.66
218.931	15937.76
219.004	16018.97
219.077	16104.62
219.151	16187.19
219.224	16259.1
219.298	16337.23
219.371	16419.02
219.444	16486.3
219.518	16561.82
219.591	16637.73
219.665	16738.8
219.738	16812.1
219.811	16874.23
219.885	16952.64
219.958	17031.68
220.031	17095.35
220.105	17179.54
220.178	17247.01
220.251	17305.08
220.325	17370.48
220.398	17442.63
220.471	17514.48
220.544	17583.35
220.618	17639.4
220.691	17699.69
220.764	17774.96
220.838	17850.29
220.911	17911.35
220.984	17989.95
221.057	18053.41
221.131	18110.66
221.204	18141.84
221.277	18216.11
221.35	18313.02
221.424	18356.77
221.497	18408.39
221.57	18473.68
221.643	18515.85
221.716	18584.38
221.79	18634.06
221.863	18683.12
221.936	18719.41
222.009	18770.73
222.082	18833.18
222.155	18875.44
222.229	18951.73
222.302	19001.32
222.375	19027.72
222.448	19072.4
222.521	19104.88
222.594	19144.44
222.667	19181.26
222.74	19238.31
222.814	19280.58
222.887	19307.8
222.96	19367.85
223.033	19416.52
223.106	19466.83
223.179	19510.49
223.252	19541.53
223.325	19583.16
223.398	19613.47
223.471	19659.59
223.544	19704.41
223.617	19733.85
223.69	19771.92
223.763	19788.36
223.837	19824.11
223.91	19876.69
223.983	19891.97
224.056	19926.81
224.129	19969.31
224.202	20020.49
224.275	20029.02
224.348	20043.29
224.42	20055.67
224.493	20061.12
224.566	20075.48
224.639	20102.61
224.712	20126.13
224.785	20155.33
224.858	20172.78
224.931	20195.67
225.004	20211.47
225.077	20226.27
225.15	20225.88
225.223	20248.34
225.296	20290.37
225.369	20291.67
225.442	20302.9
225.514	20328.53
225.587	20356
225.66	20370.37
225.733	20384
225.806	20416.2
225.879	20426.99
225.952	20437.5
226.025	20475.18
226.097	20502.32
226.17	20500.44
226.243	20492.25
226.316	20502.85
226.389	20531.19
226.461	20560.87
226.534	20579.57
226.607	20596.82
226.68	20634.75
226.753	20654.66
226.825	20641.02
226.898	20676.92
226.971	20688.34
227.044	20710.03
227.117	20722.18
227.189	20738.42
227.262	20753.21
227.335	20776.97
227.407	20788.97
227.48	20812.64
227.553	20824.01
227.626	20843.1
227.698	20868.88
227.771	20889.46
227.844	20892.98
227.916	20900.06
227.989	20890.38
228.062	20906.14
228.134	20940.02
228.207	20941.9
228.28	20943.54
228.352	20956.26
228.425	20954.76
228.498	20970.77
228.57	20975.87
228.643	21002.91
228.716	21005.76
228.788	21005.37
228.861	20993.47
228.934	21005.9
229.006	21001.71
229.079	20997.03
229.151	20994.09
229.224	20975.1
229.296	20988.55
229.369	21019.25
229.442	21031.06
229.514	21023.73
229.587	21033.18
229.659	21012.55
229.732	21017.13
229.804	21031.54
229.877	21060.46
229.949	21081.14
230.022	21105.77
230.094	21105.33
230.167	21099.74
230.239	21091.16
230.312	21094.34
230.384	21120.71
230.457	21139.36
230.529	21149.96
230.602	21163.8
230.674	21162.64
230.747	21182.69
230.819	21192.57
230.892	21157.92
230.964	21159.65
231.037	21171.36
231.109	21166.01
231.181	21180.37
231.254	21180.09
231.326	21171.75
231.399	21161.14
231.471	21147.65
231.544	21112.13
231.616	21117.43
231.688	21112.8
231.761	21110.1
231.833	21102.15
231.905	21074
231.978	21063.16
232.05	21057.9
232.122	21051.2
232.195	21043.69
232.267	21047.59
232.339	21029.61
232.412	21032.41
232.484	21015.73
232.556	20994.43
232.629	21011.68
232.701	21007.83
232.773	21004.41
232.846	20988.07
232.918	20979.54
232.99	20980.6
233.062	20986.04
233.135	20976.36
233.207	20955.78
233.279	20957.8
233.351	20960.45
233.424	20949.37
233.496	20925.75
233.568	20931.97
233.64	20909.56
233.713	20895.68
233.785	20874.81
233.857	20870.81
233.929	20853.65
234.001	20862.09
234.074	20874.38
234.146	20832.83
234.218	20806.57
234.29	20781.94
234.362	20757.84
234.434	20724.78
234.507	20693.6
234.579	20660.1
234.651	20645.6
234.723	20636.97
234.795	20617.64
234.867	20594.85
234.939	20588.05
235.012	20579.33
235.084	20559.43
235.156	20547.76
235.228	20529.55
235.3	20509.55
235.372	20493.21
235.444	20494.51
235.516	20441.54
235.588	20427.47
235.66	20413.45
235.732	20375.28
235.804	20408.58
235.876	20411.76
235.948	20412.63
236.02	20377.93
236.092	20359.23
236.164	20331.38
236.236	20297.93
236.308	20275.81
236.38	20260.49
236.452	20234.61
236.524	20213.79
236.596	20214.18
236.668	20197.12
236.74	20175.77
236.812	20157.31
236.884	20143.72
236.956	20118.32
237.028	20087.34
237.1	20045.17
237.172	20028.78
237.244	20029.56
237.316	19964.59
237.388	19919.39
237.46	19870.67
237.532	19876.26
237.604	19840.69
237.675	19831.78
237.747	19814.48
237.819	19783.68
237.891	19750.96
237.963	19711.98
238.035	19672.99
238.107	19596.13
238.178	19580.27
238.25	19547.89
238.322	19541.91
238.394	19487.41
238.466	19449.48
238.538	19440.9
238.609	19420.81
238.681	19373.92
238.753	19342.93
238.825	19320.43
238.897	19301.25
238.968	19308.24
239.04	19266.41
239.112	19267.85
239.184	19224.82
239.255	19195.33
239.327	19172.15
239.399	19140.2
239.471	19118.56
239.542	19102.32
239.614	19094.81
239.686	19038.13
239.758	19023.58
239.829	18976.98
239.901	18968.74
239.973	18941.27
240.044	18906.53
240.116	18880.84
240.188	18851.88
240.259	18822.92
240.331	18781.91
240.403	18764.42
240.474	18704.85
240.546	18653.96
240.618	18594.84
240.689	18559.66
240.761	18529.63
240.833	18507.56
240.904	18477.97
240.976	18446.84
241.048	18404.68
241.119	18378.61
241.191	18351.62
241.262	18326.32
241.334	18292.78
241.405	18255.38
241.477	18217.6
241.549	18188.64
241.62	18162.14
241.692	18141.7
241.763	18115.2
241.835	18090.86
241.906	18054.81
241.978	18013.61
242.049	18009.71
242.121	17997.13
242.192	17965.18
242.264	17921.18
242.335	17871.25
242.407	17847.64
242.478	17805.28
242.55	17785.47
242.621	17750.44
242.693	17718.73
242.764	17674.25
242.836	17640.42
242.907	17620.18
242.979	17589.86
243.05	17559.36
243.122	17522.87
243.193	17484.13
243.264	17420.18
243.336	17384.75
243.407	17355.79
243.479	17337.77
243.55	17301.28
243.622	17270.49
243.693	17249.62
243.764	17228.22
243.836	17189.43
243.907	17149.23
243.978	17122.87
244.05	17089.71
244.121	17034.05
244.192	17011.93
244.264	16964.26
244.335	16934.09
244.407	16879.83
244.478	16857.37
244.549	16824.31
244.62	16777.32
244.692	16750.08
244.763	16738.08
244.834	16693.94
244.906	16650.22
244.977	16623.81
245.048	16605.5
245.119	16561.3
245.191	16512.82
245.262	16461.2
245.333	16444.04
245.405	16414.69
245.476	16385.53
245.547	16361.48
245.618	16347.16
245.689	16317.43
245.761	16294.68
245.832	16253.9
245.903	16231.2
245.974	16192.26
246.045	16155.34
246.117	16148.78
246.188	16100.73
246.259	16062.36
246.33	16036.96
246.401	16008.86
246.473	15956.18
246.544	15919.55
246.615	15895.93
246.686	15869.76
246.757	15851.06
246.828	15806.04
246.899	15783
246.97	15733.54
247.042	15689.63
247.113	15661.29
247.184	15639.8
247.255	15605.09
247.326	15577.18
247.397	15541.23
247.468	15506.33
247.539	15480.49
247.61	15426.41
247.681	15407.42
247.752	15383.27
247.823	15339.5
247.894	15311.88
247.965	15273.03
248.037	15235.39
248.108	15190.36
248.179	15163.32
248.25	15129.97
248.321	15105
248.392	15065.95
248.463	15062.34
248.534	15030.91
248.605	15004.45
248.675	14977.36
248.746	14955.62
248.817	14935.71
248.888	14912.24
248.959	14874.39
249.03	14841.13
249.101	14817.9
249.172	14779.58
249.243	14730.22
249.314	14719.56
249.385	14687.51
249.456	14669.14
249.527	14636.8
249.598	14610.81
249.669	14570.75
249.739	14551.86
249.81	14530.21
249.881	14485.14
249.952	14450.96
250.023	14413.27
250.094	14370.41
250.165	14329.54
250.235	14298.88
250.306	14270.82
250.377	14227.15
250.448	14202.56
250.519	14163.9
250.59	14153.39
250.66	14123.41
250.731	14122.54
250.802	14090.87
250.873	14069.32
250.944	14044.3
251.014	14013.5
251.085	14019.91
251.156	14008.15
251.227	13990.6
251.297	13978.36
251.368	13974.5
251.439	13963.08
251.51	13958.35
251.58	13931.45
251.651	13900.7
251.722	13887.01
251.792	13841.07
251.863	13819.32
251.934	13817.11
252.005	13826.65
252.075	13796.04
252.146	13791.12
252.217	13767.94
252.287	13754.58
252.358	13731.35
252.429	13736.17
252.499	13708.88
252.57	13680.06
252.641	13664.34
252.711	13637.97
252.782	13600.66
252.852	13590.78
252.923	13567.3
252.994	13542.33
253.064	13530.33
253.135	13501.93
253.205	13473.15
253.276	13475.47
253.347	13472.43
253.417	13437.63
253.488	13403.21
253.558	13378.52
253.629	13357.6
253.699	13339.91
253.77	13324.53
253.841	13296.09
253.911	13271.94
253.982	13254.54
254.052	13238.97
254.123	13206.96
254.193	13184.54
254.264	13199.24
254.334	13170.75
254.405	13137.15
254.475	13099.41
254.546	13071.79
254.616	13058.19
254.687	13036.02
254.757	13012.59
254.827	12982.03
254.898	12961.44
254.968	12939.08
255.039	12908.08
255.109	12888.6
255.18	12853.12
255.25	12803.33
255.321	12784.77
255.391	12740.9
255.461	12745.29
255.532	12698.92
255.602	12679.05
255.673	12637.7
255.743	12604.67
255.813	12553
255.884	12540.95
255.954	12535.55
256.024	12536.71
256.095	12524.75
256.165	12489.27
256.235	12473.56
256.306	12447.24
256.376	12437.26
256.446	12425.11
256.517	12403.76
256.587	12393.01
256.657	12380.67
256.728	12368.14
256.798	12352.61
256.868	12331.5
256.938	12287.93
257.009	12287.54
257.079	12273.8
257.149	12284.07
257.219	12242.23
257.29	12236.73
257.36	12196.15
257.43	12184.24
257.5	12140.96
257.571	12111.02
257.641	12104.66
257.711	12077.42
257.781	12062.19
257.852	12047.2
257.922	12008.83
257.992	11993.84
258.062	11965.4
258.132	11958.7
258.202	11931.23
258.273	11912.38
258.343	11915.61
258.413	11895.32
258.483	11862.78
258.553	11841.38
258.623	11808.41
258.693	11798.24
258.764	11788.99
258.834	11794.63
258.904	11781.47
258.974	11758.14
259.044	11739.88
259.114	11721.32
259.184	11704.88
259.254	11687.05
259.324	11648.73
259.394	11638.22
259.464	11642.37
259.535	11622.56
259.605	11600.15
259.675	11575.76
259.745	11561.21
259.815	11524.58
259.885	11498.17
259.955	11513.4
260.025	11479.13
260.095	11465.49
260.165	11449.39
260.235	11452.28
260.305	11419.22
260.375	11377.63
260.445	11381.44
260.515	11377.58
260.585	11376.67
260.655	11358.64
260.725	11355.75
260.795	11349.43
260.865	11347.65
260.934	11321.1
261.004	11313.43
261.074	11289.53
261.144	11293.77
261.214	11286.97
261.284	11273.29
261.354	11268.37
261.424	11237.14
261.494	11245.91
261.564	11226.2
261.634	11214.82
261.703	11169.38
261.773	11156.42
261.843	11156.03
261.913	11134.44
261.983	11096.03
262.053	11083.41
262.123	11064.37
