Data from 20250702_urea_0.5M_MAYP1162681_07-04-59-585.txt Node
Date: Thu Jul 03 07:04:59 BST 2025
User: adleo
Spectrometer: MAYP116268
Trigger mode: 0
Integration Time (sec): 1.000000E0
Scans to average: 1
Electric dark correction enabled: true
Nonlinearity correction enabled: true
Boxcar width: 10
XAxis mode: Wavelengths
Number of Pixels in Spectrum: 2068
>>>>>Begin Spectral Data<<<<<
179.565	1180.33
179.642	1233.59
179.718	1274.9
179.795	1314.29
179.871	1345.71
179.948	1365.9
180.024	1385.36
180.101	1407.98
180.177	1422.55
180.254	1445.49
180.33	1468.38
180.407	1519.85
180.483	1615.19
180.56	1703.23
180.636	1787.07
180.712	1776.24
180.789	1787.55
180.865	1801.42
180.942	1810.4
181.018	1820.86
181.095	1833.6
181.171	1836.78
181.248	1840.54
181.324	1858.8
181.4	1864.45
181.477	1874.87
181.553	1885.89
181.63	1908.85
181.706	1923.07
181.782	1932.77
181.859	1933.38
181.935	1937.14
182.011	1935.43
182.088	1950.41
182.164	1973.43
182.24	1986.84
182.317	1994.39
182.393	1989.83
182.469	2002.53
182.546	2017.69
182.622	2021.45
182.698	2018.41
182.775	2031.86
182.851	2043.42
182.927	2036.24
183.003	2032.58
183.08	2029.06
183.156	2036.86
183.232	2031.24
183.308	2020.45
183.385	2028.01
183.461	2041.33
183.537	2042.13
183.613	2055.78
183.69	2048.08
183.766	2035.14
183.842	2042.13
183.918	2047.69
183.995	2061.34
184.071	2065.62
184.147	2056.35
184.223	2045.65
184.299	2056.07
184.375	2045.13
184.452	2053.17
184.528	2105.75
184.604	2118.73
184.68	2128.2
184.756	2135.19
184.832	2138.95
184.908	2143.04
184.985	2138.8
185.061	2128.34
185.137	2139.57
185.213	2127.15
185.289	2128.15
185.365	2118.97
185.441	2116.45
185.517	2128.68
185.593	2124.78
185.669	2121.83
185.745	2134.67
185.822	2151.55
185.898	2142.8
185.974	2151.98
186.05	2143.46
186.126	2100.49
186.202	2091.17
186.278	2087.6
186.354	2081.32
186.43	2089.98
186.506	2089.98
186.582	2093.17
186.658	2096.02
186.734	2073.76
186.81	2074.29
186.886	2077.85
186.962	2091.74
187.038	2088.08
187.114	2083.13
187.19	2091.6
187.266	2081.18
187.341	2080.95
187.417	2076.09
187.493	2076.57
187.569	2080.52
187.645	2075.71
187.721	2066.72
187.797	2073.57
187.873	2080.09
187.949	2072.1
188.025	2064.44
188.101	2067.29
188.176	2072.19
188.252	2069.34
188.328	2078.04
188.404	2080.61
188.48	2074.19
188.556	2067.24
188.632	2066.57
188.707	2069.72
188.783	2066.34
188.859	2063.67
188.935	2053.73
189.011	2060.06
189.086	2053.69
189.162	2042.32
189.238	2039.18
189.314	2039.23
189.39	2033.71
189.465	2023.72
189.541	2040.23
189.617	2026.53
189.693	2020.21
189.768	2023.49
189.844	2049.8
189.92	2042.58
189.996	2049.1
190.071	2060.99
190.147	2059.65
190.223	2069.6
190.298	2058.89
190.374	2045.77
190.45	2056.37
190.526	2063.17
190.601	2058.46
190.677	2059.84
190.753	2086.53
190.828	2088.01
190.904	2102.28
190.98	2118.12
191.055	2130.68
191.131	2124.83
191.207	2142.62
191.282	2151.36
191.358	2143.28
191.433	2125.67
191.509	2139.74
191.585	2137.41
191.66	2137.74
191.736	2146.35
191.811	2137.17
191.887	2152.21
191.963	2175.71
192.038	2179.61
192.114	2180.47
192.189	2181.23
192.265	2176.8
192.34	2157.34
192.416	2160.76
192.491	2156.48
192.567	2159.91
192.642	2161.95
192.718	2162.86
192.793	2152.63
192.869	2150.68
192.944	2151.3
193.02	2159.44
193.095	2161.96
193.171	2167.52
193.246	2166.29
193.322	2159.63
193.397	2159.86
193.473	2147.68
193.548	2129.46
193.624	2135.45
193.699	2131.32
193.775	2148.02
193.85	2152.77
193.925	2160.62
194.001	2157.91
194.076	2151.16
194.152	2140.26
194.227	2132.88
194.302	2121.28
194.378	2126.18
194.453	2125.42
194.529	2137.93
194.604	2123.23
194.679	2116.86
194.755	2095.7
194.83	2110.5
194.905	2109.97
194.981	2119.01
195.056	2111.97
195.131	2117.54
195.207	2118.92
195.282	2113.36
195.357	2094.61
195.433	2108.69
195.508	2098.18
195.583	2103.26
195.659	2115.21
195.734	2120.39
195.809	2120.68
195.884	2128.29
195.96	2129.19
196.035	2141.94
196.11	2137.85
196.185	2150.07
196.261	2153.64
196.336	2188.41
196.411	2172.8
196.486	2177.8
196.561	2171.52
196.637	2180.98
196.712	2199.31
196.787	2197.78
196.862	2212.77
196.937	2224.71
197.013	2225.94
197.088	2235.55
197.163	2261.64
197.238	2280.07
197.313	2282.93
197.388	2296.39
197.464	2328.38
197.539	2339.47
197.614	2330.81
197.689	2343.9
197.764	2359.76
197.839	2379.65
197.914	2373.13
197.989	2393.22
198.065	2409.49
198.14	2461.37
198.215	2485.89
198.29	2493.03
198.365	2510.36
198.44	2520.36
198.515	2548.84
198.59	2571.27
198.665	2596.41
198.74	2599.65
198.815	2600.89
198.89	2621.22
198.965	2649.67
199.04	2642.81
199.115	2657.1
199.19	2701.58
199.265	2700.62
199.34	2709.44
199.415	2741.37
199.49	2761.76
199.565	2771.81
199.64	2793.25
199.715	2788
199.79	2795.67
199.865	2808.4
199.94	2804.92
200.015	2835.8
200.09	2840.47
200.165	2844.24
200.24	2853.82
200.315	2894.55
200.39	2911.95
200.464	2920.53
200.539	2920.77
200.614	2938.54
200.689	2962.24
200.764	2971.87
200.839	2989.83
200.914	2996.88
200.989	2988.4
201.063	3002.51
201.138	2989.02
201.213	2988.88
201.288	2973.06
201.363	2977.11
201.438	2975.3
201.512	2993.74
201.587	2976.34
201.662	2978.72
201.737	2993.55
201.812	3000.94
201.886	2970.5
201.961	2976.51
202.036	2962.02
202.111	2958.02
202.186	2929.34
202.26	2911.65
202.335	2889.86
202.41	2888.29
202.485	2871.18
202.559	2853.36
202.634	2826.86
202.709	2833.1
202.784	2816.47
202.858	2816.33
202.933	2797.27
203.008	2790.41
203.082	2767.73
203.157	2768.78
203.232	2726.48
203.306	2702.98
203.381	2669.15
203.456	2646.76
203.53	2625.87
203.605	2608.69
203.68	2585.1
203.754	2580.2
203.829	2566.15
203.904	2543.43
203.978	2529.52
204.053	2534.91
204.127	2519.81
204.202	2519.48
204.277	2501.72
204.351	2495.86
204.426	2487.57
204.5	2480.57
204.575	2445.11
204.65	2456.92
204.724	2446.54
204.799	2456.05
204.873	2453.43
204.948	2455.34
205.022	2441.2
205.097	2430.25
205.171	2443.81
205.246	2454.29
205.32	2454.72
205.395	2450.15
205.469	2443.2
205.544	2447.01
205.618	2426.97
205.693	2439.3
205.767	2426.82
205.842	2449.11
205.916	2439.88
205.991	2427.97
206.065	2433.64
206.14	2449
206.214	2442.33
206.289	2438.91
206.363	2452.62
206.438	2453.09
206.512	2460.67
206.586	2477.23
206.661	2488.09
206.735	2467.06
206.81	2470.06
206.884	2481.43
206.958	2471.2
207.033	2488.24
207.107	2497.01
207.181	2528.44
207.256	2525.16
207.33	2543.58
207.405	2559.5
207.479	2581.65
207.553	2590.6
207.628	2579.41
207.702	2592.93
207.776	2590.17
207.851	2593.69
207.925	2611.37
207.999	2613.71
208.073	2612.99
208.148	2621.61
208.222	2610.7
208.296	2647.22
208.371	2664.91
208.445	2683.06
208.519	2719.59
208.593	2738.51
208.668	2741.46
208.742	2753.29
208.816	2762.38
208.89	2784.12
208.965	2790.8
209.039	2807.91
209.113	2838.03
209.187	2867.27
209.261	2878.52
209.336	2911.93
209.41	2945.11
209.484	2958.71
209.558	2992.13
209.632	3020.11
209.707	3050.63
209.781	3094.97
209.855	3130.56
209.929	3173.77
210.003	3201.48
210.077	3227.06
210.151	3296.53
210.226	3359.26
210.3	3412.66
210.374	3465
210.448	3503.28
210.522	3546.07
210.596	3591.86
210.67	3637.56
210.744	3723.11
210.818	3794.78
210.892	3854.36
210.966	3891.42
211.041	3950.14
211.115	3990.56
211.189	4060.03
211.263	4119.29
211.337	4171.73
211.411	4237.44
211.485	4277.38
211.559	4341.87
211.633	4396.18
211.707	4418.57
211.781	4481.53
211.855	4507.03
211.929	4557.73
212.003	4596.85
212.077	4666.8
212.151	4735.88
212.225	4805.63
212.299	4859.49
212.373	4907.61
212.447	4969.79
212.52	5062.84
212.594	5131.55
212.668	5211.49
212.742	5267.02
212.816	5338.42
212.89	5401.48
212.964	5469.18
213.038	5545.56
213.112	5631.64
213.186	5719.56
213.26	5774.49
213.333	5803.55
213.407	5877.62
213.481	5957.94
213.555	6049.05
213.629	6109.47
213.703	6174.93
213.777	6247.6
213.85	6300.55
213.924	6411.45
213.998	6487.17
214.072	6560.13
214.146	6621.07
214.219	6695.79
214.293	6770.36
214.367	6847.8
214.441	6937.72
214.515	7002.16
214.588	7055.39
214.662	7103.25
214.736	7158.99
214.81	7244.44
214.883	7328.23
214.957	7399.15
215.031	7458.45
215.105	7508.72
215.178	7571.5
215.252	7639.58
215.326	7696.47
215.4	7755.07
215.473	7785.04
215.547	7836.64
215.621	7901.35
215.694	7988.08
215.768	8042.58
215.842	8109.44
215.915	8167.18
215.989	8212.45
216.063	8277.22
216.136	8357.53
216.21	8423.73
216.284	8505.78
216.357	8582.73
216.431	8651.93
216.504	8728.55
216.578	8825.49
216.652	8911.06
216.725	8983.41
216.799	9065.59
216.873	9133.37
216.946	9207.27
217.02	9268.64
217.093	9340.67
217.167	9382.95
217.24	9429.9
217.314	9495.29
217.387	9556.01
217.461	9618.28
217.535	9703.05
217.608	9760.17
217.682	9822.93
217.755	9892.09
217.829	9951.58
217.902	10013.24
217.976	10077.07
218.049	10140.08
218.123	10193.8
218.196	10262.78
218.27	10320.5
218.343	10364.49
218.417	10431.22
218.49	10499.39
218.563	10581.06
218.637	10651.41
218.71	10735.92
218.784	10808.88
218.857	10884.38
218.931	10960.08
219.004	11032.85
219.077	11097.67
219.151	11162.97
219.224	11225.04
219.298	11295.16
219.371	11365.72
219.444	11418.97
219.518	11488.76
219.591	11552.57
219.665	11640.68
219.738	11699.81
219.811	11758.04
219.885	11833.71
219.958	11906.15
220.031	11968.57
220.105	12036.34
220.178	12100.79
220.251	12166.39
220.325	12240
220.398	12305.89
220.471	12367.54
220.544	12431.41
220.618	12487.71
220.691	12551.25
220.764	12622.06
220.838	12694.03
220.911	12752.36
220.984	12842.21
221.057	12905.46
221.131	12969.67
221.204	12993.24
221.277	13069.11
221.35	13159.16
221.424	13213.06
221.497	13275.68
221.57	13336.42
221.643	13402.51
221.716	13468.65
221.79	13522.16
221.863	13579.67
221.936	13636.74
222.009	13700.18
222.082	13759.67
222.155	13813.56
222.229	13896.04
222.302	13943.91
222.375	14000.22
222.448	14064.04
222.521	14106.08
222.594	14163.01
222.667	14206.2
222.74	14276.87
222.814	14330.04
222.887	14384.85
222.96	14453.64
223.033	14514.76
223.106	14579.16
223.179	14639.13
223.252	14686.03
223.325	14737.71
223.398	14791.36
223.471	14842.6
223.544	14881.65
223.617	14935.34
223.69	14990.63
223.763	15019.36
223.837	15074.41
223.91	15116.3
223.983	15145.56
224.056	15184.94
224.129	15235.84
224.202	15295.9
224.275	15334.32
224.348	15370.96
224.42	15397.66
224.493	15422.44
224.566	15454.73
224.639	15499.17
224.712	15532.14
224.785	15575.28
224.858	15614.8
224.931	15654.42
225.004	15679.44
225.077	15719.69
225.15	15734.29
225.223	15773.24
225.296	15836.14
225.369	15863.32
225.442	15897.45
225.514	15939.53
225.587	15988.5
225.66	16028.07
225.733	16067.88
225.806	16118.29
225.879	16165.48
225.952	16198.88
226.025	16251.13
226.097	16305.78
226.17	16339.86
226.243	16369.4
226.316	16401.84
226.389	16435.96
226.461	16477.41
226.534	16533.8
226.607	16571.45
226.68	16630.78
226.753	16667.65
226.825	16688.71
226.898	16745.14
226.971	16785.05
227.044	16838.64
227.117	16873.54
227.189	16915.61
227.262	16965.11
227.335	17003.95
227.407	17030.02
227.48	17067.66
227.553	17100.82
227.626	17123.71
227.698	17155.52
227.771	17186.37
227.844	17208.58
227.916	17244.73
227.989	17259.67
228.062	17279.67
228.134	17338.13
228.207	17369.12
228.28	17396.2
228.352	17418.13
228.425	17441.84
228.498	17481.26
228.57	17493.02
228.643	17538.47
228.716	17555.62
228.788	17572.63
228.861	17581.69
228.934	17613.93
229.006	17632.44
229.079	17652.87
229.151	17674.85
229.224	17689.26
229.296	17715.62
229.369	17769.59
229.442	17812.53
229.514	17832.34
229.587	17879.95
229.659	17882.55
229.732	17916.72
229.804	17959.47
229.877	18012
229.949	18044.77
230.022	18083.17
230.094	18109.39
230.167	18127.41
230.239	18151.85
230.312	18174.64
230.384	18226.01
230.457	18258.44
230.529	18299.79
230.602	18330.05
230.674	18363.02
230.747	18401.33
230.819	18440.51
230.892	18440.6
230.964	18466.14
231.037	18487.11
231.109	18492.7
231.181	18516.55
231.254	18516.65
231.326	18524.31
231.399	18528.98
231.471	18533.95
231.544	18535.15
231.616	18559.59
231.688	18577.22
231.761	18591.29
231.833	18604.84
231.905	18602.52
231.978	18611.77
232.05	18615.87
232.122	18628.4
232.195	18628.11
232.267	18652.64
232.339	18650.9
232.412	18674.08
232.484	18672.16
232.556	18683.96
232.629	18722.76
232.701	18743
232.773	18759.57
232.846	18766.03
232.918	18784.49
232.99	18804.34
233.062	18827.23
233.135	18845.16
233.207	18833.26
233.279	18844.77
233.351	18862.17
233.424	18863.23
233.496	18858.41
233.568	18884.87
233.64	18885.93
233.713	18902.02
233.785	18897.59
233.857	18915.61
233.929	18902.7
234.001	18928.86
234.074	18946.79
234.146	18928.72
234.218	18928.04
234.29	18933.97
234.362	18925.2
234.434	18906.41
234.507	18891.61
234.579	18869.25
234.651	18855.57
234.723	18872.72
234.795	18879.61
234.867	18868.34
234.939	18880.87
235.012	18886.02
235.084	18887.23
235.156	18886.94
235.228	18868.72
235.3	18860.43
235.372	18855.9
235.444	18870.17
235.516	18835.33
235.588	18826.41
235.66	18822.46
235.732	18803.91
235.804	18850.56
235.876	18860.1
235.948	18866.89
236.02	18863.66
236.092	18851.71
236.164	18855.52
236.236	18833.16
236.308	18813.74
236.38	18807.76
236.452	18781.55
236.524	18769.74
236.596	18780.15
236.668	18781.79
236.74	18776.92
236.812	18765.02
236.884	18760.25
236.956	18742.22
237.028	18728.35
237.1	18703.77
237.172	18710.8
237.244	18725.31
237.316	18674.52
237.388	18655.19
237.46	18634.23
237.532	18632.93
237.604	18609.03
237.675	18596.84
237.747	18600.55
237.819	18578.86
237.891	18559.73
237.963	18554.04
238.035	18540.65
238.107	18480.02
238.178	18467.98
238.25	18443.11
238.322	18455.78
238.394	18414.19
238.466	18399.98
238.538	18386.39
238.609	18377.43
238.681	18334.58
238.753	18299.45
238.825	18275.26
238.897	18256.28
238.968	18251.26
239.04	18217.77
239.112	18225.67
239.184	18202.78
239.255	18165.73
239.327	18151.32
239.399	18129
239.471	18102.93
239.542	18082.69
239.614	18079.46
239.686	18038.02
239.758	18029.1
239.829	17989.68
239.901	17990.41
239.973	17968.53
240.044	17951.28
240.116	17938.26
240.188	17910.36
240.259	17895.04
240.331	17869.88
240.403	17850.32
240.474	17817.02
240.546	17790.8
240.618	17756.63
240.689	17717.5
240.761	17705.35
240.833	17695.67
240.904	17673.79
240.976	17656.01
241.048	17637.6
241.119	17616.25
241.191	17601.4
241.262	17592.73
241.334	17564.68
241.405	17528.54
241.477	17496.97
241.549	17470.42
241.62	17439.14
241.692	17426.18
241.763	17408.06
241.835	17383.43
241.906	17366.56
241.978	17326.8
242.049	17316.78
242.121	17296.01
242.192	17288.73
242.264	17246.56
242.335	17200.97
242.407	17185.26
242.478	17140.58
242.55	17114.17
242.621	17080.24
242.693	17046.75
242.764	17010.84
242.836	16984.24
242.907	16960.14
242.979	16945.3
243.05	16922.99
243.122	16905.68
243.193	16869.34
243.264	16815.13
243.336	16785.82
243.407	16752.86
243.479	16737.63
243.55	16706.06
243.622	16682.64
243.693	16654.25
243.764	16642.39
243.836	16609.76
243.907	16567.06
243.978	16554.77
244.05	16529.18
244.121	16487.49
244.192	16470.86
244.264	16435.53
244.335	16400.4
244.407	16359.19
244.478	16318.85
244.549	16276.05
244.62	16227.85
244.692	16198.45
244.763	16182.88
244.834	16145.87
244.906	16110.01
244.977	16086.34
245.048	16072.85
245.119	16028.6
245.191	15983.39
245.262	15931.77
245.333	15912.78
245.405	15888.1
245.476	15861.15
245.547	15829.97
245.618	15802.64
245.689	15764.37
245.761	15725.86
245.832	15696.12
245.903	15671.78
245.974	15650.43
246.045	15625.65
246.117	15609.65
246.188	15561.59
246.259	15527.03
246.33	15498.5
246.401	15470.01
246.473	15421.52
246.544	15386.52
246.615	15373.65
246.686	15343.19
246.757	15332.15
246.828	15298.12
246.899	15279.42
246.97	15234.83
247.042	15197.76
247.113	15177.76
247.184	15174.29
247.255	15144.84
247.326	15122.52
247.397	15091.38
247.468	15059.47
247.539	15030.79
247.61	14993.82
247.681	14982.1
247.752	14954.29
247.823	14909.27
247.894	14886.42
247.965	14854.07
248.037	14814.6
248.108	14770.01
248.179	14744.36
248.25	14715.54
248.321	14691.92
248.392	14652.78
248.463	14649.11
248.534	14617.25
248.605	14595.46
248.675	14556.56
248.746	14532.31
248.817	14507.1
248.888	14488.59
248.959	14451.38
249.03	14436.19
249.101	14407.41
249.172	14376.18
249.243	14330.62
249.314	14325.9
249.385	14300.83
249.456	14280.44
249.527	14252
249.598	14228.23
249.669	14203.45
249.739	14166.87
249.81	14144.79
249.881	14109.84
249.952	14076.24
250.023	14053.58
250.094	14014.49
250.165	13979.44
250.235	13963.97
250.306	13934.18
250.377	13889.87
250.448	13860.61
250.519	13811.54
250.59	13799.44
250.66	13771.34
250.731	13771.05
250.802	13740.48
250.873	13717.15
250.944	13691.12
251.014	13660.65
251.085	13655.83
251.156	13629.56
251.227	13629.66
251.297	13612.06
251.368	13603.24
251.439	13587.67
251.51	13571.76
251.58	13540.81
251.651	13511.31
251.722	13488.99
251.792	13450.38
251.863	13429.55
251.934	13431.48
252.005	13434.85
252.075	13404
252.146	13389.68
252.217	13369.24
252.287	13361.87
252.358	13331.88
252.429	13338.01
252.499	13310.63
252.57	13291.58
252.641	13281.46
252.711	13253.4
252.782	13217.83
252.852	13207.85
252.923	13189.87
252.994	13170.63
253.064	13157.42
253.135	13127.39
253.205	13101.55
253.276	13101.07
253.347	13092.68
253.417	13053.01
253.488	13020.76
253.558	12998.78
253.629	12980.12
253.699	12963.35
253.77	12942.18
253.841	12917.65
253.911	12891.28
253.982	12878.17
254.052	12865.34
254.123	12845.34
254.193	12827.79
254.264	12848.71
254.334	12816.51
254.405	12775.34
254.475	12740.78
254.546	12720.2
254.616	12711.67
254.687	12692.43
254.757	12675.85
254.827	12653.72
254.898	12631.98
254.968	12612.41
255.039	12584.55
255.109	12565.65
255.18	12533.36
255.25	12487.71
255.321	12477.15
255.391	12437.96
255.461	12435.5
255.532	12384.69
255.602	12353.65
255.673	12307.57
255.743	12269.82
255.813	12230.49
255.884	12224.03
255.954	12213.81
256.024	12211.93
256.095	12193.42
256.165	12156.31
256.235	12134.86
256.306	12108.15
256.376	12105.98
256.446	12095.72
256.517	12090.56
256.587	12088.92
256.657	12071.52
256.728	12062.31
256.798	12042.94
256.868	12022.84
256.938	11991.22
257.009	11981.91
257.079	11975.84
257.149	11988.61
257.219	11949.76
257.29	11931.25
257.36	11890.33
257.43	11878.96
257.5	11835.96
257.571	11803.91
257.641	11796.92
257.711	11764.15
257.781	11752.24
257.852	11733.83
257.922	11693.87
257.992	11665.92
258.062	11641.57
258.132	11629.14
258.202	11602.49
258.273	11585.42
258.343	11585.18
258.413	11559.93
258.483	11541.81
258.553	11504.98
258.623	11469.99
258.693	11456.98
258.764	11456.3
258.834	11458.09
258.904	11438.66
258.974	11411.39
259.044	11406.42
259.114	11398.32
259.184	11384.3
259.254	11365.46
259.324	11333.12
259.394	11318.47
259.464	11319.86
259.535	11291.09
259.605	11267.62
259.675	11244.39
259.745	11225.79
259.815	11193.55
259.885	11172.63
259.955	11184.59
260.025	11164.35
260.095	11153.21
260.165	11138.03
260.235	11137.6
260.305	11110.71
260.375	11083
260.445	11093.84
260.515	11078.13
260.585	11060.83
260.655	11043.82
260.725	11039.77
260.795	11025.46
260.865	11032.44
260.934	11006.76
261.004	10998.86
261.074	10988.4
261.144	10985.84
261.214	10978.9
261.284	10963.05
261.354	10956.3
261.424	10922.91
261.494	10925.36
261.564	10905.65
261.634	10901.17
261.703	10861.37
261.773	10852.21
261.843	10839.44
261.913	10819.25
261.983	10789.23
262.053	10776.51
262.123	10759.21
262.192	10730.98
262.262	10722.35
