Data from 20250702_urea_0.5M_MAYP1162681_23-04-59-929.txt Node
Date: Wed Jul 02 23:04:59 BST 2025
User: adleo
Spectrometer: MAYP116268
Trigger mode: 0
Integration Time (sec): 1.000000E0
Scans to average: 1
Electric dark correction enabled: true
Nonlinearity correction enabled: true
Boxcar width: 10
XAxis mode: Wavelengths
Number of Pixels in Spectrum: 2068
>>>>>Begin Spectral Data<<<<<
179.565	1227.4
179.642	1283.24
179.718	1328.5
179.795	1371.21
179.871	1405.43
179.948	1424.21
180.024	1445.47
180.101	1467.31
180.177	1482.44
180.254	1506.04
180.33	1530
180.407	1586.84
180.483	1683.47
180.56	1776.22
180.636	1861.25
180.712	1846.6
180.789	1856.92
180.865	1868.32
180.942	1877.02
181.018	1887.81
181.095	1897.42
181.171	1904.74
181.248	1906.45
181.324	1917.96
181.4	1922.19
181.477	1932.7
181.553	1948.1
181.63	1969.73
181.706	1986.09
181.782	1995.08
181.859	1993.22
181.935	1994.93
182.011	1988.94
182.088	2004.49
182.164	2025.57
182.24	2043.59
182.317	2055.57
182.393	2051.39
182.469	2069.56
182.546	2084.4
182.622	2089.82
182.698	2087.39
182.775	2097.14
182.851	2109.22
182.927	2105.04
183.003	2100.38
183.08	2096.86
183.156	2103.9
183.232	2099.76
183.308	2090.72
183.385	2097.24
183.461	2116.83
183.537	2120.07
183.613	2134.72
183.69	2125.06
183.766	2110.17
183.842	2112.69
183.918	2118.68
183.995	2135.62
184.071	2135.76
184.147	2130.57
184.223	2120.3
184.299	2133.91
184.375	2123.59
184.452	2132.39
184.528	2188.6
184.604	2200.63
184.68	2210.72
184.756	2219.52
184.832	2220.57
184.908	2222.42
184.985	2222.9
185.061	2206.48
185.137	2212.67
185.213	2201.78
185.289	2205.87
185.365	2199.59
185.441	2199.64
185.517	2211.63
185.593	2208.06
185.669	2206.11
185.745	2215.91
185.822	2234.27
185.898	2223.99
185.974	2233.07
186.05	2226.17
186.126	2185.05
186.202	2178.39
186.278	2174.54
186.354	2163.5
186.43	2171.92
186.506	2172.59
186.582	2172.63
186.658	2181.29
186.734	2165.88
186.81	2167.88
186.886	2168.54
186.962	2178.29
187.038	2172.06
187.114	2164.26
187.19	2171.73
187.266	2161.88
187.341	2164.07
187.417	2155.22
187.493	2156.46
187.569	2161.12
187.645	2154.56
187.721	2142.14
187.797	2149.42
187.873	2152.75
187.949	2148.51
188.025	2145.37
188.101	2149.56
188.176	2153.12
188.252	2145.94
188.328	2156.17
188.404	2154.07
188.48	2152.98
188.556	2147.94
188.632	2151.98
188.707	2150.79
188.783	2145.56
188.859	2139.76
188.935	2128.1
189.011	2136
189.086	2130.91
189.162	2120.63
189.238	2117.92
189.314	2116.78
189.39	2111.74
189.465	2104.79
189.541	2119.78
189.617	2104.27
189.693	2095.61
189.768	2098.94
189.844	2126.79
189.92	2114.09
189.996	2123.37
190.071	2133.83
190.147	2132.79
190.223	2140.02
190.298	2135.4
190.374	2122.42
190.45	2133.78
190.526	2144.15
190.601	2137.02
190.677	2138.35
190.753	2166.53
190.828	2169.19
190.904	2185.51
190.98	2199.41
191.055	2211.06
191.131	2199.93
191.207	2218.39
191.282	2230.13
191.358	2221.14
191.433	2201.77
191.509	2214.89
191.585	2212.7
191.66	2217.65
191.736	2226.07
191.811	2218.84
191.887	2234.41
191.963	2258.72
192.038	2266.81
192.114	2265.43
192.189	2269.62
192.265	2266
192.34	2243.2
192.416	2244.1
192.491	2237.39
192.567	2241.87
192.642	2243.1
192.718	2246.96
192.793	2236.54
192.869	2230.88
192.944	2232.64
193.02	2243.25
193.095	2250.67
193.171	2258
193.246	2252.91
193.322	2250.34
193.397	2250.1
193.473	2233.77
193.548	2214.64
193.624	2218.78
193.699	2215.64
193.775	2232.92
193.85	2232.87
193.925	2241.91
194.001	2239.54
194.076	2234.92
194.152	2222.31
194.227	2217.31
194.302	2206.7
194.378	2208.08
194.453	2208.04
194.529	2220.93
194.604	2205.13
194.679	2194.1
194.755	2171.41
194.83	2183.88
194.905	2184.64
194.981	2192.68
195.056	2188.4
195.131	2195.82
195.207	2196.35
195.282	2186.69
195.357	2165.56
195.433	2179.5
195.508	2168.46
195.583	2179.12
195.659	2194.54
195.734	2203.53
195.809	2200.91
195.884	2210.57
195.96	2214.09
196.035	2229.13
196.11	2224.41
196.185	2235.69
196.261	2241.68
196.336	2276.56
196.411	2260.38
196.486	2267.42
196.561	2264.42
196.637	2272.6
196.712	2288.84
196.787	2291.84
196.862	2308.01
196.937	2320.72
197.013	2330
197.088	2342.18
197.163	2362.47
197.238	2378.42
197.313	2377.19
197.388	2393.18
197.464	2423.51
197.539	2433.41
197.614	2423.99
197.689	2437.8
197.764	2454.98
197.839	2475.12
197.914	2467.07
197.989	2491.98
198.065	2505.64
198.14	2551.57
198.215	2578.72
198.29	2587.63
198.365	2599.1
198.44	2609.01
198.515	2636.97
198.59	2654.02
198.665	2680.22
198.74	2688.18
198.815	2687.47
198.89	2710.81
198.965	2741.12
199.04	2735.73
199.115	2751.31
199.19	2797.19
199.265	2800
199.34	2808.95
199.415	2845.19
199.49	2870.82
199.565	2878.68
199.64	2899.32
199.715	2899.51
199.79	2906.14
199.865	2914.67
199.94	2912.95
200.015	2945.46
200.09	2950.75
200.165	2955.38
200.24	2961.1
200.315	3002.99
200.39	3019.3
200.464	3026.45
200.539	3026.4
200.614	3041.08
200.689	3065.73
200.764	3074.23
200.839	3093.72
200.914	3100.39
200.989	3090.56
201.063	3102.44
201.138	3088.1
201.213	3089.76
201.288	3070.12
201.363	3073.41
201.438	3073.36
201.512	3088.76
201.587	3073.4
201.662	3078.74
201.737	3091.62
201.812	3097.24
201.886	3063.07
201.961	3073.81
202.036	3061.94
202.111	3057.27
202.186	3029.87
202.26	3012.51
202.335	2988.14
202.41	2980.23
202.485	2962.26
202.559	2940.38
202.634	2912.3
202.709	2919.45
202.784	2900.48
202.858	2900.33
202.933	2882.32
203.008	2875.98
203.082	2856.63
203.157	2855.35
203.232	2810.09
203.306	2790.49
203.381	2759.61
203.456	2735.11
203.53	2712.94
203.605	2691.22
203.68	2669.63
203.754	2662.97
203.829	2647.67
203.904	2628.28
203.978	2615.71
204.053	2623.19
204.127	2610.61
204.202	2612.19
204.277	2593.14
204.351	2586.66
204.426	2577.46
204.5	2569.03
204.575	2536.66
204.65	2548.19
204.724	2538.8
204.799	2547.79
204.873	2539.55
204.948	2538.84
205.022	2527.41
205.097	2518.16
205.171	2531.07
205.246	2541.07
205.32	2541.41
205.395	2542.93
205.469	2532.79
205.544	2540.32
205.618	2519.13
205.693	2529.65
205.767	2515.89
205.842	2540.08
205.916	2533.04
205.991	2522.42
206.065	2527.75
206.14	2542.27
206.214	2538.84
206.289	2531.98
206.363	2544.79
206.438	2550.41
206.512	2560.51
206.586	2579.36
206.661	2582.74
206.735	2564.51
206.81	2565.42
206.884	2579.99
206.958	2565.13
207.033	2584.37
207.107	2590.37
207.181	2624.34
207.256	2619.48
207.33	2640.72
207.405	2653.5
207.479	2675.84
207.553	2686.75
207.628	2675.03
207.702	2688.56
207.776	2684.84
207.851	2692.42
207.925	2711.53
207.999	2713.58
208.073	2717.34
208.148	2728.3
208.222	2725.97
208.296	2766.45
208.371	2788.92
208.445	2809.79
208.519	2850.86
208.593	2872.55
208.668	2881.94
208.742	2898.35
208.816	2913.41
208.89	2939.64
208.965	2955.76
209.039	2982.05
209.113	3021.53
209.187	3064.03
209.261	3084.82
209.336	3129.99
209.41	3175.16
209.484	3199.35
209.558	3245.82
209.632	3289.57
209.707	3333.24
209.781	3387.59
209.855	3437.05
209.929	3487.4
210.003	3534.33
210.077	3573.58
210.151	3668.84
210.226	3745.81
210.3	3820.4
210.374	3894.8
210.448	3954.44
210.522	4017.4
210.596	4082.42
210.67	4147.67
210.744	4252.21
210.818	4345.48
210.892	4428.78
210.966	4488.94
211.041	4576.97
211.115	4645.91
211.189	4742.21
211.263	4828.85
211.337	4914.96
211.411	5006.87
211.485	5087.36
211.559	5179.17
211.633	5266.17
211.707	5320.2
211.781	5416.34
211.855	5472.19
211.929	5558.31
212.003	5629.9
212.077	5737.3
212.151	5845.37
212.225	5952.58
212.299	6041.33
212.373	6132.5
212.447	6228.6
212.52	6372.27
212.594	6481.69
212.668	6602.38
212.742	6695.93
212.816	6802.8
212.89	6906.34
212.964	7014.99
213.038	7134.27
213.112	7267.31
213.186	7399.36
213.26	7492.15
213.333	7567.62
213.407	7688.85
213.481	7809.31
213.555	7943.29
213.629	8046.8
213.703	8146.47
213.777	8266.75
213.85	8367.89
213.924	8524.67
213.998	8650.43
214.072	8763.23
214.146	8873.5
214.219	8989.22
214.293	9100.03
214.367	9226.94
214.441	9353.31
214.515	9465.27
214.588	9561.2
214.662	9642.35
214.736	9737.7
214.81	9861.17
214.883	9989.22
214.957	10097.68
215.031	10198.88
215.105	10289.53
215.178	10386.16
215.252	10499.28
215.326	10580.32
215.4	10680.29
215.473	10742.5
215.547	10830.64
215.621	10916.33
215.694	11028.23
215.768	11118.25
215.842	11213.86
215.915	11302.53
215.989	11384.85
216.063	11483.61
216.136	11583.37
216.21	11686.51
216.284	11799.63
216.357	11903.65
216.431	11994.5
216.504	12102.72
216.578	12232.81
216.652	12342.8
216.725	12454.59
216.799	12561.89
216.873	12673.43
216.946	12773.21
217.02	12866.53
217.093	12952.58
217.167	13031.49
217.24	13110.98
217.314	13194.86
217.387	13279.99
217.461	13362.04
217.535	13474.99
217.608	13544.5
217.682	13631.17
217.755	13724.89
217.829	13799.27
217.902	13887.78
217.976	13980.57
218.049	14051.19
218.123	14115.5
218.196	14206.75
218.27	14280.84
218.343	14347.9
218.417	14425.27
218.49	14495.36
218.563	14583.33
218.637	14676.85
218.71	14782.85
218.784	14868.74
218.857	14960.67
218.931	15049.51
219.004	15122.2
219.077	15194.89
219.151	15279.82
219.224	15349.86
219.298	15425.87
219.371	15513.02
219.444	15565.66
219.518	15627.55
219.591	15712.33
219.665	15811.67
219.738	15887.78
219.811	15947.35
219.885	16025.48
219.958	16110.26
220.031	16186.13
220.105	16264.74
220.178	16334.77
220.251	16381.52
220.325	16450.15
220.398	16518.78
220.471	16593.44
220.544	16674.07
220.618	16736.1
220.691	16799.62
220.764	16872.35
220.838	16942.04
220.911	17002.57
220.984	17093.28
221.057	17168.6
221.131	17226.68
221.204	17255.3
221.277	17327.4
221.35	17419.59
221.424	17474.63
221.497	17526.2
221.57	17585.38
221.643	17642
221.716	17699.64
221.79	17758.48
221.863	17806.43
221.936	17868.36
222.009	17911.4
222.082	17963.01
222.155	18007.34
222.229	18074.67
222.302	18116.11
222.375	18165.75
222.448	18218.52
222.521	18255.48
222.594	18304.39
222.667	18337.21
222.74	18393.5
222.814	18429.64
222.887	18464.05
222.96	18516.04
223.033	18564.86
223.106	18615.89
223.179	18667.41
223.252	18712.13
223.325	18754.54
223.398	18806.2
223.471	18836.17
223.544	18880.75
223.617	18928.02
223.69	18971.01
223.763	18999.29
223.837	19048.16
223.91	19087.53
223.983	19106.03
224.056	19132.83
224.129	19167.28
224.202	19218.7
224.275	19240.29
224.348	19267.71
224.42	19280.53
224.493	19295.76
224.566	19319.56
224.639	19348.96
224.712	19363.46
224.785	19391.17
224.858	19422.01
224.931	19440.9
225.004	19456.71
225.077	19484.32
225.15	19480.52
225.223	19501.82
225.296	19548.95
225.369	19557.62
225.442	19572.22
225.514	19604.65
225.587	19635.88
225.66	19663.25
225.733	19687.25
225.806	19727.06
225.879	19747.15
225.952	19769.22
226.025	19800.45
226.097	19841.61
226.17	19859.92
226.243	19861.46
226.316	19875.44
226.389	19897.7
226.461	19915.87
226.534	19955
226.607	19982.33
226.68	20026.9
226.753	20052.11
226.825	20050.08
226.898	20087.14
226.971	20113.4
227.044	20140.05
227.117	20162.27
227.189	20181.89
227.262	20212.68
227.335	20218.56
227.407	20228.87
227.48	20251.47
227.553	20275.62
227.626	20275.09
227.698	20286.65
227.771	20318.99
227.844	20324.48
227.916	20334.56
227.989	20339.33
228.062	20339.47
228.134	20367.14
228.207	20379.04
228.28	20381.88
228.352	20399.71
228.425	20407.71
228.498	20425.21
228.57	20418.12
228.643	20451.14
228.716	20465.3
228.788	20456.15
228.861	20468.49
228.934	20500.77
229.006	20514.9
229.079	20523.47
229.151	20544.97
229.224	20539.72
229.296	20548.34
229.369	20585.26
229.442	20611.96
229.514	20612.25
229.587	20632.78
229.659	20618.13
229.732	20630.8
229.804	20649.02
229.877	20673.16
229.949	20697.21
230.022	20720.54
230.094	20733.89
230.167	20735.19
230.239	20731.24
230.312	20744.88
230.384	20780.93
230.457	20784.35
230.529	20795.39
230.602	20799.29
230.674	20804.5
230.747	20832.11
230.819	20847.48
230.892	20824.59
230.964	20830.09
231.037	20845.99
231.109	20857.07
231.181	20874.18
231.254	20872.16
231.326	20875.1
231.399	20875.97
231.471	20866.95
231.544	20843.58
231.616	20852.83
231.688	20853.27
231.761	20846.37
231.833	20848.64
231.905	20819.72
231.978	20825.7
232.05	20818.32
232.122	20817.5
232.195	20800.35
232.267	20814.42
232.339	20799.38
232.412	20806.52
232.484	20788.3
232.556	20775.09
232.629	20782.03
232.701	20791.09
232.773	20782.71
232.846	20772.78
232.918	20757.98
232.99	20749.02
233.062	20751.38
233.135	20750.8
233.207	20732.35
233.279	20732.59
233.351	20724.59
233.424	20711.33
233.496	20685.55
233.568	20699.14
233.64	20683.86
233.713	20681.07
233.785	20666.37
233.857	20667.48
233.929	20647.28
234.001	20657.93
234.074	20669.21
234.146	20634.03
234.218	20609.35
234.29	20599.43
234.362	20581.06
234.434	20562.17
234.507	20549.26
234.579	20523.67
234.651	20508.29
234.723	20502.99
234.795	20505.55
234.867	20489.64
234.939	20496.77
235.012	20484.53
235.084	20468.29
235.156	20457.16
235.228	20431.71
235.3	20408.15
235.372	20396.15
235.444	20388
235.516	20348.15
235.588	20325.93
235.66	20321.01
235.732	20298.22
235.804	20334.46
235.876	20328.58
235.948	20324.15
236.02	20302.03
236.092	20283.33
236.164	20266.95
236.236	20235.96
236.308	20201.02
236.38	20179.19
236.452	20152.83
236.524	20129.21
236.596	20131.62
236.668	20123
236.74	20097.31
236.812	20082.42
236.884	20061.46
236.956	20050.95
237.028	20025.22
237.1	20000.98
237.172	19984.79
237.244	19983.58
237.316	19917.27
237.388	19885.89
237.46	19851.34
237.532	19841.08
237.604	19813.46
237.675	19799.68
237.747	19784.26
237.819	19757.23
237.891	19737.03
237.963	19696.84
238.035	19668.51
238.107	19596.03
238.178	19570.05
238.25	19544.51
238.322	19541.67
238.394	19497.19
238.466	19455.27
238.538	19432.47
238.609	19408.28
238.681	19369.34
238.753	19325.63
238.825	19308
238.897	19287.42
238.968	19276.34
239.04	19237.69
239.112	19230.56
239.184	19192.68
239.255	19165.6
239.327	19142.22
239.399	19109.31
239.471	19092.35
239.542	19072.3
239.614	19054.71
239.686	19005.46
239.758	18994.62
239.829	18948.69
239.901	18935.59
239.973	18917.71
240.044	18898.24
240.116	18872.65
240.188	18834.97
240.259	18806.68
240.331	18765.91
240.403	18743.5
240.474	18703.22
240.546	18670.45
240.618	18625.2
240.689	18583.22
240.761	18548.96
240.833	18540.86
240.904	18518.26
240.976	18488.96
241.048	18466.07
241.119	18454.36
241.191	18433.93
241.262	18422.46
241.334	18390.17
241.405	18356.97
241.477	18309.98
241.549	18275.62
241.62	18238.95
241.692	18222.86
241.763	18189.94
241.835	18153.32
241.906	18112.35
241.978	18059.39
242.049	18039.34
242.121	18020.02
242.192	18012.84
242.264	17976.98
242.335	17916.17
242.407	17888.55
242.478	17847.78
242.55	17820.89
242.621	17772.03
242.693	17735.98
242.764	17689.48
242.836	17650.49
242.907	17629.33
242.979	17613.81
243.05	17579.16
243.122	17559.16
243.193	17519.94
243.264	17475.12
243.336	17443.98
243.407	17434.68
243.479	17426.88
243.55	17401.43
243.622	17370.39
243.693	17324.66
243.764	17297.72
243.836	17261.09
243.907	17224.9
243.978	17196.17
244.05	17168.75
244.121	17121.28
244.192	17102.82
244.264	17052.27
244.335	17022.34
244.407	16971.11
244.478	16936.17
244.549	16897.13
244.62	16848.74
244.692	16813.51
244.763	16802.09
244.834	16760.98
244.906	16713.84
244.977	16681.79
245.048	16658.9
245.119	16610.17
245.191	16572.72
245.262	16532.24
245.333	16519.76
245.405	16482.6
245.476	16457.44
245.547	16419.17
245.618	16400.57
245.689	16361.43
245.761	16342.92
245.832	16304.12
245.903	16282.44
245.974	16253.95
246.045	16220.69
246.117	16211.29
246.188	16164.93
246.259	16113.84
246.33	16093.4
246.401	16061.2
246.473	16019.95
246.544	15980.18
246.615	15963.84
246.686	15926.2
246.757	15905.14
246.828	15860.5
246.899	15846.77
246.97	15793.94
247.042	15755.48
247.113	15727.23
247.184	15718.07
247.255	15674.07
247.326	15645.77
247.397	15607.74
247.468	15581.18
247.539	15555.64
247.61	15504.06
247.681	15489.26
247.752	15472.35
247.823	15429.54
247.894	15394.74
247.965	15353.19
248.037	15313.91
248.108	15261.32
248.179	15237.8
248.25	15203.76
248.321	15181.25
248.392	15130.35
248.463	15126.35
248.534	15093.38
248.605	15073.91
248.675	15038.53
248.746	15011.73
248.817	14993.89
248.888	14972.3
248.959	14916.86
249.03	14896.95
249.101	14872.08
249.172	14834.58
249.243	14786.18
249.314	14768.97
249.385	14748.1
249.456	14727.23
249.527	14702.4
249.598	14689.92
249.669	14658.87
249.739	14632.36
249.81	14607.49
249.881	14576.01
249.952	14542.17
250.023	14511.32
250.094	14466.15
250.165	14421.32
250.235	14392.06
250.306	14359.47
250.377	14314.45
250.448	14298.44
250.519	14251.64
250.59	14237.51
250.66	14208.88
250.731	14201.5
250.802	14175.86
250.873	14145.97
250.944	14124.37
251.014	14086
251.085	14085.13
251.156	14066.62
251.227	14061.22
251.297	14048.93
251.368	14034.47
251.439	14027.29
251.51	14018.71
251.58	13990.65
251.651	13969.97
251.722	13962.79
251.792	13920.22
251.863	13901.95
251.934	13896.12
252.005	13906.34
252.075	13877.94
252.146	13867
252.217	13850.76
252.287	13834.61
252.358	13810.12
252.429	13802.65
252.499	13772.13
252.57	13747.11
252.641	13731.06
252.711	13700.74
252.782	13657.3
252.852	13658.17
252.923	13628.76
252.994	13609.48
253.064	13597.09
253.135	13557.27
253.205	13530.62
253.276	13525.84
253.347	13516.44
253.417	13480.43
253.488	13443.46
253.558	13418.39
253.629	13394.77
253.699	13373.7
253.77	13358.18
253.841	13337.84
253.911	13323.81
253.982	13303.71
254.052	13287.37
254.123	13269.38
254.193	13245.86
254.264	13263.46
254.334	13226.72
254.405	13194.33
254.475	13155.76
254.546	13128.43
254.616	13123.27
254.687	13098.06
254.757	13082.3
254.827	13053.85
254.898	13044.21
254.968	13024.45
255.039	12996.25
255.109	12978.6
255.18	12949.63
255.25	12899.5
255.321	12881.66
255.391	12833.51
255.461	12842.71
255.532	12791.86
255.602	12752.91
255.673	12712.22
255.743	12676.45
255.813	12625.35
255.884	12611.66
255.954	12599.81
256.024	12593.15
256.095	12577.29
256.165	12542.44
256.235	12519.74
256.306	12493.66
256.376	12472.5
256.446	12454.32
256.517	12440.39
256.587	12435.67
256.657	12414.85
256.728	12410.55
256.798	12385.3
256.868	12368.09
256.938	12334.63
257.009	12324.75
257.079	12323.93
257.149	12329.57
257.219	12294.38
257.29	12289.03
257.36	12248.93
257.43	12235.58
257.5	12198.22
257.571	12173.3
257.641	12173.64
257.711	12146.06
257.781	12134.01
257.852	12125
257.922	12088.56
257.992	12070.97
258.062	12045.37
258.132	12035.87
258.202	12009.75
258.273	11993.22
258.343	11985.74
258.413	11958.37
258.483	11936.82
258.553	11899.85
258.623	11874.3
258.693	11851.99
258.764	11851.26
258.834	11850.4
258.904	11832.32
258.974	11807.11
259.044	11785.66
259.114	11761.52
259.184	11752.26
259.254	11735.92
259.324	11689.07
259.394	11681.6
259.464	11676.78
259.535	11653.94
259.605	11628.87
259.675	11602.32
259.745	11582.99
259.815	11558.84
259.885	11532.48
259.955	11544.92
260.025	11518.84
260.095	11495.42
260.165	11484.43
260.235	11479.37
260.305	11454.21
260.375	11421.44
260.445	11431.32
260.515	11429.05
260.585	11421.68
260.655	11403.27
260.725	11394.54
260.795	11394.74
260.865	11394.25
260.934	11363.26
261.004	11353.48
261.074	11333.05
261.144	11334.3
261.214	11336.32
261.284	11316.18
261.354	11312.13
261.424	11282.92
261.494	11284.46
261.564	11269.86
261.634	11262.49
261.703	11224.37
261.773	11211.69
261.843	11209.57
261.913	11189.43
261.983	11154.44
262.053	11142.54
262.123	11120.99
262.192	11090.83
