Data from 20250702_urea_0.5M_MAYP1162681_03-34-59-611.txt Node
Date: Thu Jul 03 03:34:59 BST 2025
User: adleo
Spectrometer: MAYP116268
Trigger mode: 0
Integration Time (sec): 1.000000E0
Scans to average: 1
Electric dark correction enabled: true
Nonlinearity correction enabled: true
Boxcar width: 10
XAxis mode: Wavelengths
Number of Pixels in Spectrum: 2068
>>>>>Begin Spectral Data<<<<<
179.565	1181.89
179.642	1232.09
179.718	1273.42
179.795	1310.71
179.871	1344.48
179.948	1362.93
180.024	1383.14
180.101	1407.54
180.177	1419.92
180.254	1443.18
180.33	1464.51
180.407	1518.97
180.483	1611.94
180.56	1699.98
180.636	1781.07
180.712	1767.14
180.789	1775.31
180.865	1786.86
180.942	1794.93
181.018	1804.06
181.095	1819.46
181.171	1825.93
181.248	1830.68
181.324	1847.13
181.4	1857.16
181.477	1866.53
181.553	1879.36
181.63	1898.71
181.706	1911.74
181.782	1920.86
181.859	1919.39
181.935	1925.57
182.011	1920.81
182.088	1936.83
182.164	1955.53
182.24	1969.22
182.317	1980.1
182.393	1979.06
182.469	1994.98
182.546	2008.15
182.622	2013.05
182.698	2008.91
182.775	2017.71
182.851	2029.65
182.927	2023.32
183.003	2014.38
183.08	2010.68
183.156	2018.19
183.232	2014.86
183.308	2004.97
183.385	2013.24
183.461	2031.98
183.537	2033.88
183.613	2043.92
183.69	2033.74
183.766	2023.37
183.842	2029.55
183.918	2033.64
183.995	2048.62
184.071	2053.38
184.147	2049
184.223	2037.83
184.299	2050.82
184.375	2042.73
184.452	2050.49
184.528	2105.64
184.604	2117.95
184.68	2126.75
184.756	2135.03
184.832	2139.4
184.908	2144.4
184.985	2145.16
185.061	2128.42
185.137	2135.84
185.213	2127.04
185.289	2133.46
185.365	2127.89
185.441	2127.37
185.517	2139.55
185.593	2136.13
185.669	2130.04
185.745	2141.64
185.822	2159.24
185.898	2146.96
185.974	2155.47
186.05	2146.01
186.126	2104.41
186.202	2100.47
186.278	2098.18
186.354	2089.48
186.43	2098.23
186.506	2098
186.582	2095.52
186.658	2101.47
186.734	2083.39
186.81	2085.01
186.886	2084.54
186.962	2095.24
187.038	2094.19
187.114	2087.96
187.19	2094.95
187.266	2086.1
187.341	2083.73
187.417	2075.45
187.493	2076.88
187.569	2080.3
187.645	2075.36
187.721	2065.56
187.797	2069.6
187.873	2073.55
187.949	2066.98
188.025	2058.56
188.101	2057.42
188.176	2061.94
188.252	2058.23
188.328	2063.93
188.404	2065.22
188.48	2059.61
188.556	2053.99
188.632	2055.66
188.707	2056.8
188.783	2051.71
188.859	2049
188.935	2040.77
189.011	2049.19
189.086	2043.53
189.162	2032.92
189.238	2031.45
189.314	2027.84
189.39	2023.65
189.465	2013.09
189.541	2028.93
189.617	2014.24
189.693	2010.77
189.768	2015.62
189.844	2037.03
189.92	2030.09
189.996	2037.51
190.071	2049.3
190.147	2047.5
190.223	2052.44
190.298	2043.07
190.374	2031.47
190.45	2040.41
190.526	2046.5
190.601	2039.31
190.677	2039.22
190.753	2068.06
190.828	2071.67
190.904	2087.04
190.98	2102.02
191.055	2115.48
191.131	2106.82
191.207	2130.51
191.282	2139.64
191.358	2130.84
191.433	2118.18
191.509	2130.4
191.585	2123.79
191.66	2123.31
191.736	2131.64
191.811	2121.46
191.887	2140.16
191.963	2164.28
192.038	2169.27
192.114	2170.17
192.189	2174.45
192.265	2172.84
192.34	2151.28
192.416	2152.09
192.491	2147.09
192.567	2149.33
192.642	2153.42
192.718	2155.7
192.793	2142.05
192.869	2139.62
192.944	2141.14
193.02	2145.9
193.095	2150.99
193.171	2158.41
193.246	2158.22
193.322	2155.7
193.397	2158.51
193.473	2143.09
193.548	2124.77
193.624	2134.62
193.699	2131.67
193.775	2145.8
193.85	2145.42
193.925	2154.65
194.001	2153.03
194.076	2148.13
194.152	2138.24
194.227	2130.39
194.302	2119.31
194.378	2124.44
194.453	2121.12
194.529	2134.82
194.604	2121.74
194.679	2115.98
194.755	2098.91
194.83	2112.57
194.905	2108.19
194.981	2115.76
195.056	2109.38
195.131	2117.14
195.207	2112.81
195.282	2103.48
195.357	2089.49
195.433	2105.95
195.508	2093.77
195.583	2100.24
195.659	2109.28
195.734	2115.66
195.809	2113.8
195.884	2124.6
195.96	2122.93
196.035	2137.3
196.11	2130.54
196.185	2145.29
196.261	2148.14
196.336	2180.63
196.411	2165.64
196.486	2172.78
196.561	2166.26
196.637	2174.68
196.712	2188.05
196.787	2191.81
196.862	2210.46
196.937	2216.59
197.013	2221.73
197.088	2232.39
197.163	2254.81
197.238	2275.1
197.313	2276.76
197.388	2291.75
197.464	2319.46
197.539	2328.88
197.614	2322.46
197.689	2336.97
197.764	2350.63
197.839	2369.34
197.914	2361.72
197.989	2385.43
198.065	2400.71
198.14	2449.53
198.215	2476.14
198.29	2489.33
198.365	2503.85
198.44	2515.57
198.515	2545.76
198.59	2560.09
198.665	2585.28
198.74	2592
198.815	2593.48
198.89	2613.91
198.965	2644.45
199.04	2644.69
199.115	2660.4
199.19	2702.22
199.265	2705.17
199.34	2716.98
199.415	2751.3
199.49	2773.3
199.565	2781.16
199.64	2802.32
199.715	2802.03
199.79	2809.85
199.865	2816.38
199.94	2811.28
200.015	2839.83
200.09	2843.02
200.165	2849.12
200.24	2856.18
200.315	2897.25
200.39	2910.98
200.464	2918.27
200.539	2916.88
200.614	2926.13
200.689	2949.82
200.764	2959.98
200.839	2979.61
200.914	2986.52
200.989	2976.65
201.063	2991.76
201.138	2977.61
201.213	2979.76
201.288	2961.93
201.363	2965.41
201.438	2966.51
201.512	2982.04
201.587	2967.5
201.662	2971.02
201.737	2985.23
201.812	2994.72
201.886	2958.41
201.961	2967.43
202.036	2957.23
202.111	2956.99
202.186	2930.79
202.26	2917.44
202.335	2896.56
202.41	2886.88
202.485	2869.83
202.559	2851.72
202.634	2825.31
202.709	2833.74
202.784	2813.87
202.858	2812.3
202.933	2796.1
203.008	2791.14
203.082	2772.99
203.157	2768.22
203.232	2726.84
203.306	2705.39
203.381	2671.89
203.456	2652.69
203.53	2631.28
203.605	2608.48
203.68	2583.75
203.754	2577.99
203.829	2559.89
203.904	2538.6
203.978	2527.36
204.053	2528.98
204.127	2513.12
204.202	2510.5
204.277	2493.03
204.351	2487.65
204.426	2479.88
204.5	2471.36
204.575	2433.75
204.65	2445.42
204.724	2437.7
204.799	2443.6
204.873	2440.79
204.948	2440.08
205.022	2430.13
205.097	2422.74
205.171	2437.31
205.246	2443.64
205.32	2445.07
205.395	2444.79
205.469	2433.56
205.544	2439.03
205.618	2422.18
205.693	2436.56
205.767	2421.71
205.842	2443.71
205.916	2438
205.991	2430.66
206.065	2434.28
206.14	2450.46
206.214	2445.65
206.289	2445.12
206.363	2459.36
206.438	2460.36
206.512	2466.5
206.586	2482.4
206.661	2489.69
206.735	2469.7
206.81	2472.42
206.884	2487.41
206.958	2479.99
207.033	2498.69
207.107	2507.46
207.181	2539.99
207.256	2533.75
207.33	2555.55
207.405	2568.57
207.479	2590.57
207.553	2601.62
207.628	2588.05
207.702	2601.53
207.776	2598.19
207.851	2601.53
207.925	2621.25
207.999	2621.16
208.073	2624.49
208.148	2631.11
208.222	2626.16
208.296	2664.3
208.371	2686.8
208.445	2706.19
208.519	2738.68
208.593	2759.31
208.668	2764.17
208.742	2776.72
208.816	2787.86
208.89	2813.94
208.965	2820.85
209.039	2838.87
209.113	2866.9
209.187	2902
209.261	2914.77
209.336	2951.86
209.41	2985.72
209.484	3005.75
209.558	3049.48
209.632	3084.14
209.707	3119
209.781	3167.27
209.855	3208.02
209.929	3250.38
210.003	3279.96
210.077	3310.02
210.151	3388.4
210.226	3454.01
210.3	3517.12
210.374	3578.92
210.448	3620.85
210.522	3671.33
210.596	3726.69
210.67	3780.24
210.744	3875.48
210.818	3951.89
210.892	4016.94
210.966	4064.72
211.041	4135.42
211.115	4185.99
211.189	4269.14
211.263	4344.26
211.337	4408.3
211.411	4480.88
211.485	4541.72
211.559	4621.56
211.633	4689.33
211.707	4722.85
211.781	4800.92
211.855	4831.18
211.929	4892.44
212.003	4945.95
212.077	5031.6
212.151	5110.93
212.225	5192.18
212.299	5258.15
212.373	5325.08
212.447	5398.23
212.52	5505.02
212.594	5588.75
212.668	5677.77
212.742	5741.12
212.816	5820.5
212.89	5895.85
212.964	5982.13
213.038	6064.81
213.112	6162.92
213.186	6265.94
213.26	6339.58
213.333	6384.47
213.407	6481.16
213.481	6577.11
213.555	6677.51
213.629	6758.31
213.703	6840.4
213.777	6934.13
213.85	7001.54
213.924	7131.92
213.998	7231.02
214.072	7318.08
214.146	7399.85
214.219	7494.11
214.293	7589.58
214.367	7685.74
214.441	7791.19
214.515	7871.22
214.588	7948.36
214.662	8008.96
214.736	8078.46
214.81	8170.36
214.883	8272.27
214.957	8356.59
215.031	8437.79
215.105	8509.22
215.178	8586.07
215.252	8673.71
215.326	8735.89
215.4	8814.62
215.473	8854.49
215.547	8919.04
215.621	8998.2
215.694	9087.71
215.768	9155.83
215.842	9224.87
215.915	9293.69
215.989	9355.95
216.063	9430.31
216.136	9511.74
216.21	9592.26
216.284	9686.75
216.357	9775.8
216.431	9853.58
216.504	9941.1
216.578	10042.5
216.652	10133.53
216.725	10212.2
216.799	10297.52
216.873	10384.53
216.946	10470.38
217.02	10540.57
217.093	10621.32
217.167	10669.36
217.24	10729.01
217.314	10804.81
217.387	10873.27
217.461	10945.7
217.535	11030.95
217.608	11097.4
217.682	11171.28
217.755	11256.34
217.829	11319.09
217.902	11388.44
217.976	11459.96
218.049	11523.82
218.123	11582.72
218.196	11664.27
218.27	11731.46
218.343	11789.35
218.417	11859.48
218.49	11920.79
218.563	12013.09
218.637	12083.85
218.71	12188.3
218.784	12267.64
218.857	12345.73
218.931	12424.54
219.004	12496.32
219.077	12575.9
219.151	12647.2
219.224	12709.43
219.298	12779.81
219.371	12862.96
219.444	12923.75
219.518	12996.35
219.591	13072.03
219.665	13160.2
219.738	13229.42
219.811	13286.84
219.885	13359.82
219.958	13432.52
220.031	13501.79
220.105	13569.71
220.178	13634.16
220.251	13685.94
220.325	13750.34
220.398	13820.67
220.471	13890.23
220.544	13969.1
220.618	14015.33
220.691	14087.59
220.764	14152.52
220.838	14220.35
220.911	14274.97
220.984	14359.76
221.057	14424.55
221.131	14492.9
221.204	14531.08
221.277	14600.2
221.35	14695.65
221.424	14747.76
221.497	14812.4
221.57	14872.99
221.643	14932.91
221.716	15007.05
221.79	15059.25
221.863	15122.44
221.936	15168.38
222.009	15222.18
222.082	15275.49
222.155	15329.43
222.229	15403.08
222.302	15460.2
222.375	15505.17
222.448	15567.2
222.521	15610.39
222.594	15666.55
222.667	15710.21
222.74	15780.01
222.814	15826.91
222.887	15866.38
222.96	15933.67
223.033	15988.95
223.106	16044.57
223.179	16096.05
223.252	16137.89
223.325	16185.99
223.398	16230.14
223.471	16289.13
223.544	16348.8
223.617	16391.98
223.69	16436.38
223.763	16458.98
223.837	16517.06
223.91	16570.41
223.983	16596.24
224.056	16639.38
224.129	16682.8
224.202	16724.49
224.275	16747.92
224.348	16779.77
224.42	16810.28
224.493	16828.6
224.566	16862.81
224.639	16902.24
224.712	16943.2
224.785	16984.41
224.858	17025.33
224.931	17055.4
225.004	17081.52
225.077	17106.82
225.15	17117.86
225.223	17164.08
225.296	17228.75
225.369	17239.84
225.442	17269.76
225.514	17310.01
225.587	17344.22
225.66	17376.51
225.733	17419.31
225.806	17461.04
225.879	17494.34
225.952	17524.32
226.025	17571.36
226.097	17612.61
226.17	17643.11
226.243	17651.69
226.316	17681.81
226.389	17714.77
226.461	17756.32
226.534	17791.11
226.607	17822.24
226.68	17875.3
226.753	17907.54
226.825	17908.31
226.898	17958.91
226.971	17983.49
227.044	18025.27
227.117	18055.1
227.189	18095.78
227.262	18132.26
227.335	18164.3
227.407	18191.29
227.48	18218.23
227.553	18247.96
227.626	18266.66
227.698	18298.95
227.771	18335.04
227.844	18360.05
227.916	18384
227.989	18397.4
228.062	18424.58
228.134	18471.28
228.207	18493.11
228.28	18507.47
228.352	18533.97
228.425	18556.33
228.498	18592.57
228.57	18599.7
228.643	18638.01
228.716	18650.93
228.788	18655.84
228.861	18666.16
228.934	18697.38
229.006	18717.53
229.079	18731.7
229.151	18752.22
229.224	18765.33
229.296	18781.19
229.369	18818.58
229.442	18855.35
229.514	18863.59
229.587	18888.89
229.659	18891.88
229.732	18917.95
229.804	18945.61
229.877	18993.99
229.949	19018.91
230.022	19054.86
230.094	19075.43
230.167	19088.78
230.239	19090.52
230.312	19117.45
230.384	19164.73
230.457	19181.26
230.529	19203.95
230.602	19232.72
230.674	19245.4
230.747	19270.65
230.819	19307.13
230.892	19293.97
230.964	19312.43
231.037	19343.22
231.109	19355.7
231.181	19370.88
231.254	19375.41
231.326	19388.76
231.399	19388.81
231.471	19392.38
231.544	19376.19
231.616	19401.34
231.688	19402.88
231.761	19418.16
231.833	19424.81
231.905	19401.58
231.978	19407.85
232.05	19416.23
232.122	19422.54
232.195	19424.66
232.267	19444.57
232.339	19440.71
232.412	19457.48
232.484	19449.1
232.556	19441.34
232.629	19465.87
232.701	19473.09
232.773	19480.18
232.846	19476.9
232.918	19474.64
232.99	19486.44
233.062	19487.41
233.135	19487.99
233.207	19480.56
233.279	19496.85
233.351	19505.29
233.424	19513.77
233.496	19505.96
233.568	19533.48
233.64	19514.2
233.713	19516.37
233.785	19502.2
233.857	19502.92
233.929	19487.74
234.001	19504.71
234.074	19518.06
234.146	19491.7
234.218	19498.78
234.29	19494.88
234.362	19488.32
234.434	19474.4
234.507	19457.82
234.579	19449.92
234.651	19437.29
234.723	19447.02
234.795	19430.59
234.867	19413.87
234.939	19419.27
235.012	19425.82
235.084	19413.58
235.156	19422.5
235.228	19404.38
235.3	19396.47
235.372	19385.44
235.444	19391.51
235.516	19362.5
235.588	19351.08
235.66	19339.42
235.732	19315.47
235.804	19353.39
235.876	19348.81
235.948	19351.03
236.02	19340.04
236.092	19320.96
236.164	19305.01
236.236	19284.14
236.308	19273.98
236.38	19267.42
236.452	19247.13
236.524	19231.57
236.596	19230.7
236.668	19215.57
236.74	19213.16
236.812	19209.64
236.884	19211.76
236.956	19192.53
237.028	19161.69
237.1	19134.22
237.172	19135.19
237.244	19122.56
237.316	19070.57
237.388	19050.33
237.46	19029.46
237.532	19023
237.604	19003.73
237.675	19001.56
237.747	18999.24
237.819	18973.27
237.891	18960.74
237.963	18930.67
238.035	18907.3
238.107	18848.65
238.178	18843.98
238.25	18820.27
238.322	18812.89
238.394	18773.28
238.466	18758.44
238.538	18755.79
238.609	18745.04
238.681	18707.46
238.753	18689.96
238.825	18669.77
238.897	18652.52
238.968	18646.54
239.04	18614.26
239.112	18624.14
239.184	18589.15
239.255	18557.58
239.327	18540.24
239.399	18510.74
239.471	18493.25
239.542	18465.4
239.614	18459.95
239.686	18408.34
239.758	18399.71
239.829	18361.35
239.901	18349.98
239.973	18324.44
240.044	18296.06
240.116	18268.97
240.188	18237.5
240.259	18209.31
240.331	18168.54
240.403	18148.26
240.474	18101.42
240.546	18060.36
240.618	18010.77
240.689	17979.15
240.761	17953.03
240.833	17933.42
240.904	17899.3
240.976	17871.88
241.048	17850.68
241.119	17820.75
241.191	17802.2
241.262	17776.12
241.334	17744.13
241.405	17708.99
241.477	17662.15
241.549	17630.15
241.62	17603.45
241.692	17586.97
241.763	17575.84
241.835	17552.47
241.906	17523.84
241.978	17489.62
242.049	17482.01
242.121	17465.48
242.192	17450.25
242.264	17409.33
242.335	17364.42
242.407	17355.07
242.478	17320.42
242.55	17285.67
242.621	17249.72
242.693	17213.23
242.764	17184.22
242.836	17143.21
242.907	17105.96
242.979	17088.65
243.05	17063.74
243.122	17037.28
243.193	17002.63
243.264	16944.7
243.336	16915.11
243.407	16891.3
243.479	16870.33
243.55	16839.83
243.622	16808.98
243.693	16781.51
243.764	16766.38
243.836	16733.94
243.907	16691.77
243.978	16660.39
244.05	16653.12
244.121	16608.49
244.192	16593.74
244.264	16544.96
244.335	16526.5
244.407	16490.12
244.478	16465.73
244.549	16435.32
244.62	16393.48
244.692	16364.66
244.763	16342.82
244.834	16303.54
244.906	16256.89
244.977	16234.86
245.048	16222.67
245.119	16184.21
245.191	16147.91
245.262	16096.29
245.333	16078.6
245.405	16053.2
245.476	16034.55
245.547	15996.38
245.618	15981.34
245.689	15939.84
245.761	15917.19
245.832	15874.87
245.903	15849.23
245.974	15813.46
246.045	15781.02
246.117	15769.41
246.188	15729.01
246.259	15691.27
246.33	15665.39
246.401	15625.29
246.473	15579.5
246.544	15542.87
246.615	15520.31
246.686	15478.95
246.757	15460.39
246.828	15416.43
246.899	15392.09
246.97	15348.23
247.042	15310
247.113	15286.38
247.184	15281.23
247.255	15241.6
247.326	15220.78
247.397	15195.43
247.468	15172.92
247.539	15142.69
247.61	15102.88
247.681	15083.5
247.752	15065.95
247.823	15032.94
247.894	15019
247.965	14978.71
248.037	14942.12
248.108	14900.23
248.179	14873.24
248.25	14839.69
248.321	14821.47
248.392	14776.83
248.463	14764.63
248.534	14733.59
248.605	14707.99
248.675	14680.86
248.746	14666.88
248.817	14641.18
248.888	14615.15
248.959	14571.38
249.03	14548.53
249.101	14519.18
249.172	14485.53
249.243	14431.83
249.314	14412.06
249.385	14385.84
249.456	14366.17
249.527	14338.94
249.598	14321.15
249.669	14295.17
249.739	14286.25
249.81	14266.29
249.881	14231.49
249.952	14199.48
250.023	14175.09
250.094	14128.52
250.165	14084.17
250.235	14046.28
250.306	14017.6
250.377	13981.78
250.448	13960.23
250.519	13913.71
250.59	13899.3
250.66	13867
250.731	13853.65
250.802	13829.98
250.873	13805.34
250.944	13782.3
251.014	13750.29
251.085	13745.38
251.156	13724.7
251.227	13703.05
251.297	13688.44
251.368	13679.04
251.439	13669.6
251.51	13651.61
251.58	13626.06
251.651	13593.53
251.722	13583.74
251.792	13548.89
251.863	13523.63
251.934	13518.27
252.005	13528.4
252.075	13506.42
252.146	13502.9
252.217	13502.13
252.287	13489.5
252.358	13469.54
252.429	13462.31
252.499	13430.92
252.57	13409.71
252.641	13396.65
252.711	13370.52
252.782	13340.97
252.852	13331.76
252.923	13306.55
252.994	13287.08
253.064	13283.22
253.135	13254.01
253.205	13223.35
253.276	13217.13
253.347	13210.62
253.417	13176.06
253.488	13144.48
253.558	13111.07
253.629	13076.66
253.699	13054.09
253.77	13030.91
253.841	12996.97
253.911	12979.42
253.982	12969.49
254.052	12949.34
254.123	12928.57
254.193	12904.22
254.264	12906.63
254.334	12873.03
254.405	12840.01
254.475	12811.81
254.546	12775.03
254.616	12770.36
254.687	12758.01
254.757	12738.01
254.827	12711.35
254.898	12692.31
254.968	12667.39
255.039	12643.38
255.109	12640.15
255.18	12611.18
255.25	12563.99
255.321	12555.41
255.391	12518.39
255.461	12507.98
255.532	12463.87
255.602	12437.55
255.673	12398.65
255.743	12362.88
255.813	12318.2
255.884	12304.46
255.954	12287.35
256.024	12301.18
256.095	12280.74
256.165	12243.34
256.235	12234.23
256.306	12212.58
256.376	12202.41
256.446	12189.49
256.517	12182.07
256.587	12167.03
256.657	12151.9
256.728	12142.98
256.798	12117.72
256.868	12102.39
256.938	12075.11
257.009	12067.21
257.079	12055.68
257.149	12063.3
257.219	12036.02
257.29	12023.58
257.36	11983.58
257.43	11973.46
257.5	11922.8
257.571	11896.33
257.641	11886.93
257.711	11854.25
257.781	11842.98
257.852	11825.09
257.922	11791.98
257.992	11766.87
258.062	11739.49
258.132	11722.96
258.202	11697.89
258.273	11684.59
258.343	11679
258.413	11656.93
258.483	11635.81
258.553	11603.14
258.623	11574.84
258.693	11557.2
258.764	11558.94
258.834	11565.11
258.904	11546.36
258.974	11523.85
259.044	11503.46
259.114	11481.2
259.184	11463.75
259.254	11437.05
259.324	11406.88
259.394	11394.83
259.464	11393.43
259.535	11366.64
259.605	11339.74
259.675	11319.98
259.745	11305.29
259.815	11273.77
259.885	11243.55
259.955	11251.79
260.025	11233.57
260.095	11218.01
260.165	11201.19
260.235	11195.93
260.305	11165.62
260.375	11134.25
260.445	11136.8
260.515	11135.65
260.585	11132.32
260.655	11112.08
260.725	11109.77
260.795	11094.88
260.865	11093.24
260.934	11066.35
261.004	11062.68
261.074	11050.97
261.144	11051.36
261.214	11047.12
261.284	11030.01
261.354	11024.56
261.424	10995.36
261.494	10995.5
261.564	10971.65
261.634	10962.2
261.703	10929.1
261.773	10911.22
261.843	10907.17
261.913	10885.25
261.983	10852.43
262.053	10849.4
262.123	10828
262.192	10803.62
262.262	10799.28
262.332	10771.29
