Data from 20250702_urea_0.5M_MAYP1162681_17-34-59-495.txt Node
Date: Wed Jul 02 17:34:59 BST 2025
User: adleo
Spectrometer: MAYP116268
Trigger mode: 0
Integration Time (sec): 1.000000E0
Scans to average: 1
Electric dark correction enabled: true
Nonlinearity correction enabled: true
Boxcar width: 10
XAxis mode: Wavelengths
Number of Pixels in Spectrum: 2068
>>>>>Begin Spectral Data<<<<<
179.565	1115.68
179.642	1168.82
179.718	1209.55
179.795	1243.47
179.871	1274.2
179.948	1290.86
180.024	1307.73
180.101	1328.22
180.177	1344.34
180.254	1363.79
180.33	1385.99
180.407	1433.6
180.483	1522.35
180.56	1607.06
180.636	1684.34
180.712	1672.32
180.789	1680.73
180.865	1691.27
180.942	1701.73
181.018	1711.89
181.095	1727.01
181.171	1732.85
181.248	1732.52
181.324	1747.68
181.4	1756.66
181.477	1766.55
181.553	1779.19
181.63	1799.34
181.706	1813.79
181.782	1819.06
181.859	1820.63
181.935	1824.57
182.011	1819.68
182.088	1838.74
182.164	1857.62
182.24	1871.88
182.317	1880.71
182.393	1877.86
182.469	1889.51
182.546	1899.82
182.622	1905.34
182.698	1900.06
182.775	1911.33
182.851	1926.35
182.927	1918.98
183.003	1912.47
183.08	1907.29
183.156	1915.32
183.232	1913.66
183.308	1902.87
183.385	1911.04
183.461	1924.16
183.537	1925.97
183.613	1939.85
183.69	1927.68
183.766	1915.03
183.842	1920.92
183.918	1927.34
183.995	1940.46
184.071	1947.41
184.147	1945.55
184.223	1934.53
184.299	1945.08
184.375	1931.3
184.452	1936.1
184.528	1989.09
184.604	2000.78
184.68	2013.43
184.756	2021.32
184.832	2025.98
184.908	2032.78
184.985	2031.97
185.061	2018.66
185.137	2025.98
185.213	2012.24
185.289	2013.62
185.365	2008.44
185.441	2004.87
185.517	2018.1
185.593	2014.96
185.669	2011.34
185.745	2018.57
185.822	2034.45
185.898	2027.46
185.974	2041.67
186.05	2036.3
186.126	1999.38
186.202	1994.39
186.278	1987.78
186.354	1978.98
186.43	1983.5
186.506	1978.89
186.582	1978.32
186.658	1986.21
186.734	1968.24
186.81	1972.23
186.886	1975.18
186.962	1985.07
187.038	1985.07
187.114	1976.13
187.19	1983.64
187.266	1974.28
187.341	1975.61
187.417	1969.57
187.493	1969.14
187.569	1971.14
187.645	1962.2
187.721	1946.98
187.797	1952.31
187.873	1957.25
187.949	1946.51
188.025	1942.28
188.101	1948.12
188.176	1953.02
188.252	1949.69
188.328	1957.3
188.404	1960.2
188.48	1955.63
188.556	1952.26
188.632	1951.26
188.707	1952.59
188.783	1951.11
188.859	1945.32
188.935	1935.66
189.011	1940.99
189.086	1935.95
189.162	1926.77
189.238	1925.63
189.314	1925.87
189.39	1920.69
189.465	1913.79
189.541	1935
189.617	1918.31
189.693	1914.56
189.768	1921.5
189.844	1944.24
189.92	1936.73
189.996	1943.05
190.071	1954.08
190.147	1951.18
190.223	1959.98
190.298	1952.28
190.374	1940.25
190.45	1954.89
190.526	1962.64
190.601	1958.69
190.677	1958.83
190.753	1982.72
190.828	1987.14
190.904	2002.26
190.98	2016.24
191.055	2025.99
191.131	2018.24
191.207	2039.77
191.282	2048.57
191.358	2035.35
191.433	2021.84
191.509	2033.2
191.585	2028.92
191.66	2028.73
191.736	2039.86
191.811	2030.06
191.887	2044.8
191.963	2066.54
192.038	2067.49
192.114	2064.4
192.189	2065.92
192.265	2064.02
192.34	2046.84
192.416	2046.23
192.491	2041.42
192.567	2044.04
192.642	2047.65
192.718	2047.51
192.793	2035.95
192.869	2030.96
192.944	2033.76
193.02	2039.24
193.095	2044.13
193.171	2048.7
193.246	2047.03
193.322	2040.66
193.397	2042.71
193.473	2030
193.548	2013.17
193.624	2021.3
193.699	2023.11
193.775	2040.38
193.85	2042.09
193.925	2050.51
194.001	2048.7
194.076	2040.85
194.152	2033.05
194.227	2026.91
194.302	2015.22
194.378	2017.22
194.453	2012.08
194.529	2024.35
194.604	2011.7
194.679	2005.66
194.755	1990.12
194.83	2005.58
194.905	2000.78
194.981	2008.29
195.056	2002.97
195.131	2008.29
195.207	2006.91
195.282	1997.17
195.357	1978.85
195.433	1992.17
195.508	1978.42
195.583	1985.84
195.659	2001.16
195.734	2006.44
195.809	2005.29
195.884	2016.04
195.96	2020.03
196.035	2037.48
196.11	2031.44
196.185	2043.86
196.261	2046.8
196.336	2074.48
196.411	2059.07
196.486	2067.96
196.561	2062.63
196.637	2069.67
196.712	2082.89
196.787	2084.23
196.862	2096.83
196.937	2108.05
197.013	2114.05
197.088	2125.79
197.163	2147.78
197.238	2165.06
197.313	2163.82
197.388	2176.29
197.464	2200.08
197.539	2207.6
197.614	2201.6
197.689	2215.64
197.764	2231.01
197.839	2250.61
197.914	2247.04
197.989	2267.41
198.065	2280.4
198.14	2325.68
198.215	2351.9
198.29	2364.52
198.365	2374.09
198.44	2387.55
198.515	2412.69
198.59	2428.07
198.665	2454.06
198.74	2460.44
198.815	2458.59
198.89	2481.48
198.965	2511.87
199.04	2510.63
199.115	2525.82
199.19	2565.86
199.265	2569.96
199.34	2576
199.415	2609.03
199.49	2628.36
199.565	2639.21
199.64	2663.22
199.715	2662.03
199.79	2668.65
199.865	2675.37
199.94	2675.8
200.015	2705.96
200.09	2707.72
200.165	2711.86
200.24	2714.72
200.315	2753.54
200.39	2769.97
200.464	2774.93
200.539	2775.98
200.614	2792.08
200.689	2815.62
200.764	2820.96
200.839	2835.25
200.914	2841.92
200.989	2829.04
201.063	2843.15
201.138	2824.25
201.213	2820.15
201.288	2802.95
201.363	2805.52
201.438	2804.85
201.512	2822.05
201.587	2806.08
201.662	2812.56
201.737	2824.38
201.812	2835.63
201.886	2805.34
201.961	2812.06
202.036	2800.49
202.111	2797.58
202.186	2770.1
202.26	2751.66
202.335	2731.17
202.41	2726.55
202.485	2710.59
202.559	2691.54
202.634	2665.67
202.709	2677.86
202.784	2664.33
202.858	2664.47
202.933	2651.94
203.008	2646.04
203.082	2627.18
203.157	2625.18
203.232	2587.28
203.306	2570.74
203.381	2538.87
203.456	2516.63
203.53	2494.66
203.605	2476.43
203.68	2454.47
203.754	2449.57
203.829	2435.91
203.904	2417.53
203.978	2404.39
204.053	2409.29
204.127	2398.87
204.202	2400.92
204.277	2382.88
204.351	2374.64
204.426	2367.17
204.5	2355.6
204.575	2324.52
204.65	2333.95
204.724	2328.09
204.799	2335.75
204.873	2330.42
204.948	2329.04
205.022	2317.71
205.097	2311.05
205.171	2325.23
205.246	2331.47
205.32	2330.66
205.395	2331.18
205.469	2322.38
205.544	2329.24
205.618	2311.86
205.693	2324
205.767	2309.25
205.842	2328.72
205.916	2322.06
205.991	2314.87
206.065	2321.58
206.14	2337.04
206.214	2331.37
206.289	2325.13
206.363	2337.94
206.438	2343.08
206.512	2347.51
206.586	2365.02
206.661	2373.5
206.735	2355.18
206.81	2356.7
206.884	2372.5
206.958	2362.03
207.033	2384.06
207.107	2393.92
207.181	2429.12
207.256	2428.73
207.33	2451.2
207.405	2470.31
207.479	2491.35
207.553	2499.83
207.628	2486.74
207.702	2500.73
207.776	2503.35
207.851	2512.54
207.925	2531.98
207.999	2536.17
208.073	2546.17
208.148	2557.18
208.222	2559.18
208.296	2599.31
208.371	2628.05
208.445	2653.97
208.519	2700.41
208.593	2723.57
208.668	2741.16
208.742	2763.29
208.816	2782.44
208.89	2817.96
208.965	2839.38
209.039	2872.13
209.113	2919.85
209.187	2972.54
209.261	3002.9
209.336	3055.45
209.41	3108.35
209.484	3149.19
209.558	3212.03
209.632	3270.71
209.707	3328.69
209.781	3399.56
209.855	3470.81
209.929	3540.85
210.003	3603.31
210.077	3659.24
210.151	3773.02
210.226	3870.39
210.3	3961.06
210.374	4052.21
210.448	4126.12
210.522	4211.25
210.596	4307.23
210.67	4401.08
210.744	4535.31
210.818	4654.76
210.892	4764.9
210.966	4858.61
211.041	4973.2
211.115	5074.93
211.189	5198.03
211.263	5322.88
211.337	5431.75
211.411	5556.22
211.485	5668.97
211.559	5796.69
211.633	5927.24
211.707	6019.97
211.781	6158.06
211.855	6259.09
211.929	6391.48
212.003	6511.68
212.077	6661.09
212.151	6811.97
212.225	6960.98
212.299	7090.28
212.373	7227.55
212.447	7372.61
212.52	7550.18
212.594	7702.89
212.668	7863.87
212.742	8008.24
212.816	8159.04
212.89	8318.35
212.964	8472.86
213.038	8636.3
213.112	8809.21
213.186	8975.83
213.26	9120.51
213.333	9234.76
213.407	9400.6
213.481	9561.45
213.555	9745.46
213.629	9900.85
213.703	10048.24
213.777	10210.72
213.85	10360.74
213.924	10558.66
213.998	10719.72
214.072	10873.05
214.146	11023.49
214.219	11185.98
214.293	11344.09
214.367	11511.99
214.441	11685.4
214.515	11839.63
214.588	11975.88
214.662	12103.51
214.736	12248.3
214.81	12414.35
214.883	12581.51
214.957	12726.5
215.031	12869.46
215.105	12993.59
215.178	13128.56
215.252	13271.29
215.326	13397.98
215.4	13528.57
215.473	13626.52
215.547	13760.44
215.621	13898.3
215.694	14042.48
215.768	14152.59
215.842	14273.97
215.915	14389.32
215.989	14495.8
216.063	14622.48
216.136	14747.72
216.21	14880.08
216.284	15015.87
216.357	15137.78
216.431	15255.15
216.504	15389.82
216.578	15541.32
216.652	15675.75
216.725	15792.3
216.799	15922.15
216.873	16049.83
216.946	16175.1
217.02	16282.49
217.093	16395.22
217.167	16488.72
217.24	16594.94
217.314	16710.28
217.387	16826.67
217.461	16929.67
217.535	17056.81
217.608	17148.38
217.682	17262.26
217.755	17376.48
217.829	17472.77
217.902	17570.21
217.976	17672.77
218.049	17757.97
218.123	17837.29
218.196	17935.37
218.27	18027.7
218.343	18109.58
218.417	18194.54
218.49	18270.92
218.563	18380.94
218.637	18464.69
218.71	18558.76
218.784	18638.57
218.857	18728.59
218.931	18801.55
219.004	18889.88
219.077	18962.16
219.151	19047.22
219.224	19116.51
219.298	19195.55
219.371	19284.07
219.444	19352.36
219.518	19424.21
219.591	19500.83
219.665	19593.31
219.738	19663.76
219.811	19730.56
219.885	19810.89
219.958	19886.79
220.031	19955.08
220.105	20018.11
220.178	20091.84
220.251	20156.37
220.325	20225.34
220.398	20293.67
220.471	20367.7
220.544	20429.72
220.618	20476.03
220.691	20535.55
220.764	20604.28
220.838	20662.3
220.911	20708.09
220.984	20781.68
221.057	20844.77
221.131	20898.16
221.204	20917.97
221.277	20985.11
221.35	21059.43
221.424	21095.72
221.497	21134.42
221.57	21187.87
221.643	21244.94
221.716	21287.35
221.79	21321.24
221.863	21361.63
221.936	21390.11
222.009	21428.86
222.082	21471.42
222.155	21510.9
222.229	21564.25
222.302	21605.8
222.375	21626.48
222.448	21656.12
222.521	21688.37
222.594	21715.8
222.667	21738.21
222.74	21783.91
222.814	21800.1
222.887	21821.84
222.96	21866.19
223.033	21908.51
223.106	21929.53
223.179	21956.67
223.252	21984.82
223.325	22026.85
223.398	22049.8
223.471	22084.99
223.544	22107.06
223.617	22127.55
223.69	22156.67
223.763	22162.21
223.837	22179.18
223.91	22214.42
223.983	22217.17
224.056	22223.38
224.129	22243.53
224.202	22267.3
224.275	22273.47
224.348	22287.55
224.42	22285.91
224.493	22278.63
224.566	22280.27
224.639	22301.09
224.712	22301.67
224.785	22310.93
224.858	22304.61
224.931	22308.32
225.004	22306.44
225.077	22316.23
225.15	22307.65
225.223	22309.82
225.296	22344.24
225.369	22334.74
225.442	22335.66
225.514	22352.82
225.587	22366.61
225.66	22377.36
225.733	22393.22
225.806	22403.1
225.879	22403.73
225.952	22400.16
226.025	22414.24
226.097	22434.49
226.17	22450.06
226.243	22447.02
226.316	22438.83
226.389	22449.87
226.461	22455.51
226.534	22459.46
226.607	22453.68
226.68	22467.9
226.753	22465.29
226.825	22438.44
226.898	22449.53
226.971	22440.27
227.044	22444.18
227.117	22431.74
227.189	22433.96
227.262	22433.76
227.335	22434.87
227.407	22429.91
227.48	22432.36
227.553	22434.92
227.626	22423.4
227.698	22404.64
227.771	22398.71
227.844	22393.07
227.916	22388.73
227.989	22372.73
228.062	22368.2
228.134	22398.23
228.207	22396.21
228.28	22389.7
228.352	22382.13
228.425	22364.39
228.498	22370.61
228.57	22354.41
228.643	22374.28
228.716	22363.24
228.788	22348.15
228.861	22332.14
228.934	22343.66
229.006	22344.43
229.079	22333.39
229.151	22309.34
229.224	22291.07
229.296	22286.49
229.369	22293.38
229.442	22303.31
229.514	22290.54
229.587	22289.82
229.659	22248.69
229.732	22241.66
229.804	22242.81
229.877	22258.19
229.949	22268.56
230.022	22272.27
230.094	22259.83
230.167	22234.96
230.239	22209.45
230.312	22194.41
230.384	22213.99
230.457	22204.88
230.529	22190.99
230.602	22180.44
230.674	22188.05
230.747	22190.9
230.819	22187.96
230.892	22152.04
230.964	22127.12
231.037	22128.76
231.109	22104.66
231.181	22102.05
231.254	22086.39
231.326	22072.26
231.399	22048.06
231.471	22022.85
231.544	21993.59
231.616	21992.53
231.688	21980.38
231.761	21969.92
231.833	21954.4
231.905	21910.97
231.978	21891.93
232.05	21873.56
232.122	21858.81
232.195	21827.57
232.267	21810.95
232.339	21786.17
232.412	21785.06
232.484	21757.3
232.556	21728.09
232.629	21732.04
232.701	21724.42
232.773	21705.14
232.846	21676.46
232.918	21656.41
232.99	21642.24
233.062	21633.66
233.135	21623.73
233.207	21594.62
233.279	21572.01
233.351	21564.2
233.424	21556.01
233.496	21525.21
233.568	21533.45
233.64	21487.9
233.713	21469.88
233.785	21453.3
233.857	21435.7
233.929	21405.15
234.001	21398.88
234.074	21393.24
234.146	21359.98
234.218	21328.51
234.29	21295.54
234.362	21274.34
234.434	21234.28
234.507	21197.32
234.579	21146.61
234.651	21105.26
234.723	21088.1
234.795	21077.5
234.867	21052.05
234.939	21025.3
235.012	20997.97
235.084	20966.26
235.156	20959.18
235.228	20925.2
235.3	20895.32
235.372	20870.5
235.444	20853.34
235.516	20802.73
235.588	20770.83
235.66	20744.47
235.732	20705.67
235.804	20737.09
235.876	20710.25
235.948	20705.29
236.02	20678.73
236.092	20657.86
236.164	20637.09
236.236	20598.44
236.308	20553.43
236.38	20510.68
236.452	20471.6
236.524	20442.73
236.596	20425.77
236.668	20393.09
236.74	20374.63
236.812	20347.98
236.884	20314.25
236.956	20286.44
237.028	20257.67
237.1	20214.93
237.172	20194.2
237.244	20186.01
237.316	20106.44
237.388	20073.77
237.46	20029.09
237.532	20011.07
237.604	19965.15
237.675	19936.52
237.747	19918.93
237.819	19890.4
237.891	19872.72
237.963	19842.07
238.035	19805.49
238.107	19729.69
238.178	19713.16
238.25	19667.23
238.322	19657.69
238.394	19612.97
238.466	19572.78
238.538	19543.53
238.609	19523.05
238.681	19466.23
238.753	19419.77
238.825	19391.87
238.897	19356.16
238.968	19337.22
239.04	19300.46
239.112	19292.55
239.184	19254.24
239.255	19218.58
239.327	19189.62
239.399	19150.49
239.471	19125.38
239.542	19094.06
239.614	19082.59
239.686	19020.95
239.758	18997.34
239.829	18941.63
239.901	18916.82
239.973	18884.24
240.044	18861.64
240.116	18834.36
240.188	18795.81
240.259	18763.77
240.331	18725.84
240.403	18700.44
240.474	18649.94
240.546	18604.16
240.618	18546.67
240.689	18505.95
240.761	18471.4
240.833	18446.87
240.904	18408.85
240.976	18368.41
241.048	18341.96
241.119	18306.92
241.191	18282.64
241.262	18253.43
241.334	18219.41
241.405	18181.92
241.477	18138.64
241.549	18094.55
241.62	18050.36
241.692	18027.61
241.763	17999.71
241.835	17965.11
241.906	17933.06
241.978	17877.3
242.049	17855.81
242.121	17842.8
242.192	17827.71
242.264	17775.67
242.335	17720.1
242.407	17693.5
242.478	17646.03
242.55	17606.85
242.621	17568.1
242.693	17527.67
242.764	17490.03
242.836	17449.12
242.907	17424.1
242.979	17399.67
243.05	17364.15
243.122	17338.99
243.193	17300.1
243.264	17242.7
243.336	17204.34
243.407	17174.66
243.479	17165.79
243.55	17124.97
243.622	17086.9
243.693	17046.08
243.764	17034.6
243.836	16997.98
243.907	16954.79
243.978	16926.79
244.05	16905.15
244.121	16856.72
244.192	16834.21
244.264	16789.87
244.335	16764.95
244.407	16713.96
244.478	16683.02
244.549	16647.98
244.62	16603.98
244.692	16570.63
244.763	16551.73
244.834	16507.44
244.906	16467.78
244.977	16431.48
245.048	16417.03
245.119	16372.2
245.191	16328.25
245.262	16269.2
245.333	16247.47
245.405	16215.08
245.476	16183.32
245.547	16139.74
245.618	16111.55
245.689	16080.32
245.761	16053.52
245.832	16007.87
245.903	15986.91
245.974	15954.37
246.045	15925.69
246.117	15907.86
246.188	15863.66
246.259	15810.16
246.33	15787.41
246.401	15754.92
246.473	15711.06
246.544	15670.52
246.615	15649.85
246.686	15614.08
246.757	15591.67
246.828	15550.36
246.899	15536.29
246.97	15492.86
247.042	15460.8
247.113	15436.36
247.184	15418.24
247.255	15379.97
247.326	15354.08
247.397	15319.62
247.468	15291.47
247.539	15254.69
247.61	15207.26
247.681	15192.99
247.752	15180.03
247.823	15135.53
247.894	15100.2
247.965	15063.62
248.037	15021.82
248.108	14977.43
248.179	14951.35
248.25	14921.08
248.321	14897.65
248.392	14856.63
248.463	14843.9
248.534	14813.54
248.605	14793
248.675	14758.34
248.746	14736.99
248.817	14716.26
248.888	14688.69
248.959	14640.82
249.03	14620.48
249.101	14591.65
249.172	14553.43
249.243	14504.55
249.314	14499.29
249.385	14473.84
249.456	14457.16
249.527	14429.83
249.598	14404.71
249.669	14369.47
249.739	14352.46
249.81	14330.38
249.881	14281.74
249.952	14253.59
250.023	14215.75
250.094	14164.41
250.165	14130.62
250.235	14096.44
250.306	14072.67
250.377	14035.31
250.448	14014.92
250.519	13968.79
250.59	13958.23
250.66	13928.05
250.731	13919.04
250.802	13882.07
250.873	13859.7
250.944	13832.32
251.014	13802.04
251.085	13799.1
251.156	13778.08
251.227	13761.5
251.297	13745.79
251.368	13746.89
251.439	13728.58
251.51	13724.57
251.58	13704.76
251.651	13682.35
251.722	13666.63
251.792	13617.51
251.863	13594.71
251.934	13581.69
252.005	13586.66
252.075	13558.79
252.146	13543.8
252.217	13530.35
252.287	13516.27
252.358	13491.79
252.429	13485.28
252.499	13461.37
252.57	13442.28
252.641	13428.63
252.711	13402.89
252.782	13355.94
252.852	13341.77
252.923	13315.54
252.994	13295.15
253.064	13278.76
253.135	13236.92
253.205	13210.5
253.276	13206.11
253.347	13196.52
253.417	13167.79
253.488	13136.21
253.558	13105.8
253.629	13083.86
253.699	13063.18
253.77	13054.6
253.841	13028.81
253.911	13006.78
253.982	12986.92
254.052	12962.67
254.123	12944.31
254.193	12921.07
254.264	12942.18
254.334	12906.8
254.405	12875.42
254.475	12836.85
254.546	12816.8
254.616	12812.66
254.687	12797.9
254.757	12782.86
254.827	12755
254.898	12733.94
254.968	12713.98
255.039	12694.5
255.109	12686.79
255.18	12660.52
255.25	12606.53
255.321	12594
255.391	12558.47
255.461	12558.42
255.532	12514.46
255.602	12488.09
255.673	12446.11
255.743	12410.48
255.813	12365.32
255.884	12353.6
255.954	12343.87
256.024	12344.35
256.095	12321.93
256.165	12285.39
256.235	12267.85
256.306	12244.81
256.376	12241
256.446	12233.29
256.517	12213.09
256.587	12195.93
256.657	12172.89
256.728	12157.99
256.798	12133.89
256.868	12112.59
256.938	12079.04
257.009	12075.28
257.079	12069.3
257.149	12084.2
257.219	12047.47
257.29	12033.39
257.36	11999.27
257.43	11983.51
257.5	11932.65
257.571	11910.87
257.641	11897.08
257.711	11866.81
257.781	11855.63
257.852	11837.65
257.922	11796.39
257.992	11778.94
258.062	11750.26
258.132	11738.84
258.202	11721.34
258.273	11703.8
258.343	11696.62
258.413	11666.69
258.483	11642.88
258.553	11608.08
258.623	11571.69
258.693	11558.34
258.764	11561.81
258.834	11562.43
258.904	11548.31
258.974	11525.8
259.044	11501.66
259.114	11495.39
259.184	11475.39
259.254	11455.58
259.324	11410.47
259.394	11398.13
259.464	11393.6
259.535	11375.53
259.605	11350.76
259.675	11322.08
259.745	11310.27
259.815	11290.13
259.885	11275.04
259.955	11282.9
260.025	11254.52
260.095	11237.65
260.165	11222.27
260.235	11216.39
260.305	11184.49
260.375	11150.95
260.445	11157.41
260.515	11152.54
260.585	11143.04
260.655	11132.97
260.725	11126.61
260.795	11125.65
260.865	11124.1
260.934	11101.21
261.004	11094.66
261.074	11086.32
261.144	11085.5
261.214	11076.2
261.284	11054.71
261.354	11051.14
261.424	11024.1
261.494	11025.55
261.564	11004.64
261.634	10991.14
261.703	10954.13
261.773	10946.04
261.843	10937.32
261.913	10921.12
261.983	10884.45
262.053	10872.74
262.123	10848.65
