Data from 20250702_urea_0.5M_MAYP1162681_22-15-00-144.txt Node
Date: Wed Jul 02 22:15:00 BST 2025
User: adleo
Spectrometer: MAYP116268
Trigger mode: 0
Integration Time (sec): 1.000000E0
Scans to average: 1
Electric dark correction enabled: true
Nonlinearity correction enabled: true
Boxcar width: 10
XAxis mode: Wavelengths
Number of Pixels in Spectrum: 2068
>>>>>Begin Spectral Data<<<<<
179.565	1230.23
179.642	1288.57
179.718	1332.02
179.795	1372.33
179.871	1405.06
179.948	1422.61
180.024	1443.72
180.101	1469.25
180.177	1484.22
180.254	1507.22
180.33	1531.08
180.407	1585.44
180.483	1683.4
180.56	1777
180.636	1860.75
180.712	1846.43
180.789	1855.47
180.865	1868.16
180.942	1877.14
181.018	1888.07
181.095	1903.57
181.171	1909.14
181.248	1909.8
181.324	1926.73
181.4	1933.06
181.477	1944.56
181.553	1958.87
181.63	1978.22
181.706	1992.06
181.782	1999.33
181.859	1999.05
181.935	2004.19
182.011	2003.47
182.088	2019.83
182.164	2038.58
182.24	2056.22
182.317	2066.58
182.393	2065.16
182.469	2080.57
182.546	2095.64
182.622	2100.59
182.698	2096.26
182.775	2108.58
182.851	2120.61
182.927	2111.38
183.003	2106.91
183.08	2100.68
183.156	2109.77
183.232	2108.1
183.308	2095.36
183.385	2102.82
183.461	2121.61
183.537	2120.04
183.613	2131.22
183.69	2120.81
183.766	2108.77
183.842	2114.33
183.918	2119.52
183.995	2132.65
184.071	2132.12
184.147	2123.04
184.223	2111.77
184.299	2123.95
184.375	2111.63
184.452	2120.29
184.528	2179.26
184.604	2189.72
184.68	2200.8
184.756	2208.61
184.832	2211.51
184.908	2216.74
184.985	2218.36
185.061	2199.38
185.137	2209.37
185.213	2199.9
185.289	2203.04
185.365	2196.43
185.441	2193.34
185.517	2207.52
185.593	2206.81
185.669	2207.47
185.745	2218.13
185.822	2234.68
185.898	2226.73
185.974	2237.1
186.05	2229.3
186.126	2185.93
186.202	2179.46
186.278	2176.32
186.354	2165.9
186.43	2177.47
186.506	2177.47
186.582	2175.95
186.658	2182.94
186.734	2164.67
186.81	2166.38
186.886	2169.71
186.962	2184.22
187.038	2181.61
187.114	2171.9
187.19	2177.89
187.266	2168.09
187.341	2171.66
187.417	2165.05
187.493	2164.95
187.569	2167.33
187.645	2161.43
187.721	2152.3
187.797	2160.34
187.873	2167.62
187.949	2162.48
188.025	2150.39
188.101	2150.3
188.176	2154.67
188.252	2149.92
188.328	2158.14
188.404	2156.24
188.48	2149.25
188.556	2139.35
188.632	2141.06
188.707	2141.16
188.783	2136.64
188.859	2129.74
188.935	2116.09
189.011	2123.32
189.086	2116
189.162	2107.15
189.238	2104.25
189.314	2101.49
189.39	2097.78
189.465	2085.6
189.541	2101.39
189.617	2087.98
189.693	2087.08
189.768	2090.17
189.844	2117.63
189.92	2108.74
189.996	2118.44
190.071	2131.09
190.147	2130.52
190.223	2140.18
190.298	2135.23
190.374	2120.44
190.45	2134.61
190.526	2143.22
190.601	2137.56
190.677	2138.85
190.753	2166.74
190.828	2169.5
190.904	2183.3
190.98	2196.19
191.055	2209.56
191.131	2203.85
191.207	2223.97
191.282	2234.1
191.358	2228.44
191.433	2211.02
191.509	2225.86
191.585	2223.77
191.66	2221.81
191.736	2230.24
191.811	2220.72
191.887	2238.04
191.963	2265.78
192.038	2270.16
192.114	2271.26
192.189	2276.25
192.265	2272.21
192.34	2251.12
192.416	2251.98
192.491	2247.83
192.567	2250.5
192.642	2252.55
192.718	2249.98
192.793	2239.13
192.869	2233.9
192.944	2233.18
193.02	2242.22
193.095	2242.03
193.171	2247.17
193.246	2249.41
193.322	2249.79
193.397	2246.51
193.473	2229.14
193.548	2206.77
193.624	2209.67
193.699	2210.24
193.775	2225.47
193.85	2226.71
193.925	2234.75
194.001	2233.37
194.076	2228.19
194.152	2219.95
194.227	2211.91
194.302	2202.25
194.378	2204.73
194.453	2200.12
194.529	2215.29
194.604	2202.35
194.679	2197.07
194.755	2175.43
194.83	2189.47
194.905	2186.05
194.981	2196.71
195.056	2192
195.131	2201.8
195.207	2204.03
195.282	2193.38
195.357	2172.39
195.433	2189.04
195.508	2175
195.583	2183.9
195.659	2196.42
195.734	2203.56
195.809	2203.51
195.884	2212.83
195.96	2215.02
196.035	2231.62
196.11	2226.86
196.185	2239.28
196.261	2243.38
196.336	2277.68
196.411	2260.4
196.486	2264.4
196.561	2259.21
196.637	2268.2
196.712	2283.96
196.787	2285.67
196.862	2301.14
196.937	2312.79
197.013	2317.98
197.088	2329.97
197.163	2349.83
197.238	2368.79
197.313	2368.88
197.388	2384.64
197.464	2416.83
197.539	2427.58
197.614	2422.44
197.689	2435.06
197.764	2451.39
197.839	2471.1
197.914	2463.48
197.989	2487.96
198.065	2501.76
198.14	2555.13
198.215	2581.51
198.29	2590.28
198.365	2604.28
198.44	2616.04
198.515	2642.43
198.59	2659.34
198.665	2686.2
198.74	2695.07
198.815	2696.35
198.89	2716.88
198.965	2747.19
199.04	2738.95
199.115	2755.86
199.19	2800.41
199.265	2803.89
199.34	2813.85
199.415	2850.22
199.49	2873.85
199.565	2884.72
199.64	2912.6
199.715	2906.73
199.79	2912.78
199.865	2920.41
199.94	2920.89
200.015	2954.59
200.09	2960.36
200.165	2966.75
200.24	2974.14
200.315	3017.75
200.39	3030.91
200.464	3040.83
200.539	3041.64
200.614	3062.42
200.689	3087.98
200.764	3092.18
200.839	3107.71
200.914	3109.53
200.989	3102.27
201.063	3117.49
201.138	3098.81
201.213	3093.9
201.288	3077.21
201.363	3086.89
201.438	3087.94
201.512	3101.52
201.587	3081.92
201.662	3088.88
201.737	3100.47
201.812	3110.01
201.886	3072.3
201.961	3081.42
202.036	3065.31
202.111	3058.96
202.186	3029.7
202.26	3008.53
202.335	2983.83
202.41	2976.3
202.485	2963.14
202.559	2937.45
202.634	2909.61
202.709	2917.85
202.784	2901.31
202.858	2899.21
202.933	2874.09
203.008	2865.13
203.082	2847.03
203.157	2847.07
203.232	2802.05
203.306	2780.79
203.381	2748.19
203.456	2727.17
203.53	2704.09
203.605	2684.33
203.68	2664.88
203.754	2657.93
203.829	2643.88
203.904	2627.49
203.978	2616.77
204.053	2620.58
204.127	2606.68
204.202	2602.49
204.277	2587.15
204.351	2581.82
204.426	2574.53
204.5	2567.34
204.575	2534.44
204.65	2543.11
204.724	2533.86
204.799	2542.34
204.873	2537.24
204.948	2533.29
205.022	2520
205.097	2511.19
205.171	2523.38
205.246	2529.19
205.32	2527.19
205.395	2526.95
205.469	2516.15
205.544	2521.77
205.618	2503.15
205.693	2520.24
205.767	2510.96
205.842	2532.49
205.916	2524.54
205.991	2515.2
206.065	2523.44
206.14	2536.34
206.214	2533.14
206.289	2528.19
206.363	2542.81
206.438	2547.91
206.512	2553.67
206.586	2571.86
206.661	2580.77
206.735	2562.77
206.81	2567.21
206.884	2583.06
206.958	2570.64
207.033	2590.58
207.107	2601.54
207.181	2634.51
207.256	2624.75
207.33	2645.85
207.405	2659.87
207.479	2681.78
207.553	2690.4
207.628	2676.3
207.702	2697.5
207.776	2696.35
207.851	2701.36
207.925	2718.23
207.999	2722.04
208.073	2728.76
208.148	2741.77
208.222	2736.53
208.296	2776.15
208.371	2799.95
208.445	2825.07
208.519	2868.24
208.593	2891.79
208.668	2901.85
208.742	2917.21
208.816	2936.03
208.89	2963.45
208.965	2979.92
209.039	3006.82
209.113	3046.64
209.187	3091.34
209.261	3107.78
209.336	3149.71
209.41	3198.23
209.484	3226.81
209.558	3275.96
209.632	3322.28
209.707	3364.71
209.781	3421.88
209.855	3473.54
209.929	3528.63
210.003	3573.38
210.077	3614.68
210.151	3705.64
210.226	3783.54
210.3	3862.62
210.374	3940.43
210.448	3997.54
210.522	4060.41
210.596	4128.58
210.67	4197.43
210.744	4308.89
210.818	4404.55
210.892	4494.02
210.966	4552.75
211.041	4639.55
211.115	4711.95
211.189	4814.78
211.263	4907.02
211.337	4994.16
211.411	5095.05
211.485	5175.22
211.559	5271.59
211.633	5360.91
211.707	5422.58
211.781	5523.82
211.855	5581.31
211.929	5667.01
212.003	5744.36
212.077	5860.61
212.151	5978.31
212.225	6088.85
212.299	6174.21
212.373	6269.99
212.447	6370.72
212.52	6516.28
212.594	6637.16
212.668	6760.71
212.742	6859.72
212.816	6970.87
212.89	7081.46
212.964	7192.05
213.038	7316.12
213.112	7446.87
213.186	7582.51
213.26	7684.21
213.333	7760.81
213.407	7893.79
213.481	8019.96
213.555	8163.62
213.629	8270.29
213.703	8376.82
213.777	8503.14
213.85	8615.51
213.924	8776.94
213.998	8910.08
214.072	9031.42
214.146	9145.23
214.219	9265.88
214.293	9380.71
214.367	9510
214.441	9646.8
214.515	9763.55
214.588	9855.93
214.662	9948.26
214.736	10051.91
214.81	10180.17
214.883	10308.82
214.957	10418.26
215.031	10526.55
215.105	10623.19
215.178	10728.23
215.252	10837.17
215.326	10930.51
215.4	11028.28
215.473	11095.89
215.547	11186.45
215.621	11277.25
215.694	11387.38
215.768	11475.82
215.842	11579.24
215.915	11678.15
215.989	11766.06
216.063	11858.03
216.136	11967.54
216.21	12075.17
216.284	12195.14
216.357	12301.38
216.431	12401.64
216.504	12511.49
216.578	12647.09
216.652	12759.5
216.725	12859.28
216.799	12970.01
216.873	13075.58
216.946	13184.72
217.02	13277.9
217.093	13369.92
217.167	13450.86
217.24	13529.77
217.314	13630.14
217.387	13719.66
217.461	13802.52
217.535	13908.53
217.608	14000.12
217.682	14088.29
217.755	14189.62
217.829	14263.8
217.902	14354.48
217.976	14451.8
218.049	14534.38
218.123	14598.73
218.196	14691.33
218.27	14773.13
218.343	14841.49
218.417	14917.12
218.49	14988.03
218.563	15082.26
218.637	15174.62
218.71	15279.75
218.784	15366.32
218.857	15446.57
218.931	15537.92
219.004	15617.3
219.077	15701.03
219.151	15772.89
219.224	15849.72
219.298	15918.36
219.371	16002.47
219.444	16056.69
219.518	16130.1
219.591	16201.05
219.665	16300.96
219.738	16374.65
219.811	16431.86
219.885	16516.35
219.958	16603.1
220.031	16679.21
220.105	16755.07
220.178	16815.79
220.251	16875.07
220.325	16948.14
220.398	17021.39
220.471	17085.49
220.544	17156.14
220.618	17202.36
220.691	17275.13
220.764	17341.54
220.838	17412.73
220.911	17473.06
220.984	17557.5
221.057	17615.23
221.131	17667.23
221.204	17692
221.277	17763.76
221.35	17860.82
221.424	17910.55
221.497	17968.19
221.57	18024.57
221.643	18085
221.716	18153.96
221.79	18200.71
221.863	18254.97
221.936	18301.77
222.009	18346.87
222.082	18408.65
222.155	18455.2
222.229	18515.01
222.302	18570.96
222.375	18602.23
222.448	18656.83
222.521	18700.59
222.594	18744.2
222.667	18788.44
222.74	18846.7
222.814	18880.14
222.887	18917.64
222.96	18970.64
223.033	19024.09
223.106	19063.8
223.179	19109.96
223.252	19143.21
223.325	19182.68
223.398	19222.68
223.471	19271.44
223.544	19312.41
223.617	19345.37
223.69	19394.38
223.763	19424.59
223.837	19464.35
223.91	19517.31
223.983	19532.54
224.056	19556.63
224.129	19602.9
224.202	19636.29
224.275	19654.99
224.348	19682.89
224.42	19694.94
224.493	19699.32
224.566	19704.38
224.639	19744
224.712	19756.72
224.785	19784.04
224.858	19812.14
224.931	19824.76
225.004	19825.39
225.077	19847.8
225.15	19853.2
225.223	19862.35
225.296	19906.54
225.369	19907.65
225.442	19912.81
225.514	19938.35
225.587	19964.61
225.66	19974.88
225.733	20007.22
225.806	20038.59
225.879	20060.52
225.952	20073.48
226.025	20106.34
226.097	20143.07
226.17	20156.71
226.243	20159.65
226.316	20171.45
226.389	20180.71
226.461	20209.38
226.534	20248.56
226.607	20264.8
226.68	20308.32
226.753	20324.75
226.825	20312.51
226.898	20350.34
226.971	20375.21
227.044	20400.75
227.117	20420.65
227.189	20443.11
227.262	20466.73
227.335	20484.36
227.407	20494.82
227.48	20518.15
227.553	20538.73
227.626	20550.29
227.698	20569.81
227.771	20596.8
227.844	20610.44
227.916	20632.99
227.989	20630.1
228.062	20637.33
228.134	20665.19
228.207	20665.52
228.28	20670.15
228.352	20677.96
228.425	20676.37
228.498	20694.2
228.57	20688.03
228.643	20710.25
228.716	20714.58
228.788	20716.32
228.861	20714.05
228.934	20724.71
229.006	20737.48
229.079	20740.37
229.151	20728.08
229.224	20711.84
229.296	20719.79
229.369	20753.29
229.442	20778.73
229.514	20776.61
229.587	20789.63
229.659	20777
229.732	20786.4
229.804	20808.23
229.877	20850.74
229.949	20874.98
230.022	20898.79
230.094	20908.28
230.167	20908.72
230.239	20905.25
230.312	20900.67
230.384	20938.6
230.457	20944.05
230.529	20944.62
230.602	20959.95
230.674	20980
230.747	20998.12
230.819	21020.92
230.892	20992.96
230.964	20993.01
231.037	21003.52
231.109	20997.45
231.181	21014.99
231.254	21008.14
231.326	21009.01
231.399	20987.85
231.471	20979.9
231.544	20946.79
231.616	20960.09
231.688	20960.86
231.761	20959.51
231.833	20961.73
231.905	20932.14
231.978	20930.21
232.05	20925.39
232.122	20914.93
232.195	20904.04
232.267	20912.09
232.339	20890.88
232.412	20904.52
232.484	20885.1
232.556	20877.48
232.629	20899.56
232.701	20898.69
232.773	20891.7
232.846	20880.23
232.918	20882.69
232.99	20874.83
233.062	20881.24
233.135	20867.94
233.207	20847.17
233.279	20842.25
233.351	20836.47
233.424	20823.26
233.496	20801.43
233.568	20810.3
233.64	20778.97
233.713	20764.32
233.785	20747.5
233.857	20738.06
233.929	20699.84
234.001	20708.13
234.074	20715.12
234.146	20679.07
234.218	20667.74
234.29	20657.57
234.362	20628.95
234.434	20589.23
234.507	20564.51
234.579	20537.43
234.651	20515.84
234.723	20505.67
234.795	20491.06
234.867	20470.49
234.939	20469.47
235.012	20463.69
235.084	20439.79
235.156	20437.91
235.228	20420.7
235.3	20398.2
235.372	20381.09
235.444	20381.47
235.516	20341.14
235.588	20319.21
235.66	20299.83
235.732	20260.46
235.804	20292.32
235.876	20289.04
235.948	20293.19
236.02	20271.74
236.092	20259.69
236.164	20247.74
236.236	20224.75
236.308	20206.34
236.38	20188.95
236.452	20153.62
236.524	20131.74
236.596	20127.17
236.668	20118.35
236.74	20089.96
236.812	20071.46
236.884	20047.7
236.956	20021.77
237.028	19984.38
237.1	19954.21
237.172	19949.29
237.244	19944.96
237.316	19885.29
237.388	19862.02
237.46	19828.47
237.532	19813.92
237.604	19776.62
237.675	19759.56
237.747	19740.19
237.819	19712.87
237.891	19685.45
237.963	19648.34
238.035	19616.92
238.107	19551.09
238.178	19529.36
238.25	19511.05
238.322	19518.13
238.394	19477.84
238.466	19446.42
238.538	19436.93
238.609	19412.11
238.681	19362.48
238.753	19323.54
238.825	19296.21
238.897	19259.2
238.968	19247.35
239.04	19215.54
239.112	19209.62
239.184	19170.34
239.255	19144.46
239.327	19113.67
239.399	19091.55
239.471	19085.91
239.542	19060.95
239.614	19058.98
239.686	19003.56
239.758	18976.48
239.829	18928.29
239.901	18927.37
239.973	18900.53
240.044	18874.17
240.116	18842.31
240.188	18814.51
240.259	18792.87
240.331	18751.04
240.403	18726.9
240.474	18670.66
240.546	18628.93
240.618	18577.32
240.689	18536.45
240.761	18501.95
240.833	18485.66
240.904	18453.47
240.976	18406.1
241.048	18375.59
241.119	18343.16
241.191	18314.01
241.262	18300.56
241.334	18260.61
241.405	18214.64
241.477	18172.33
241.549	18125.39
241.62	18096.28
241.692	18070.6
241.763	18045.44
241.835	18011.42
241.906	17994.7
241.978	17953.78
242.049	17937.83
242.121	17924.67
242.192	17911.42
242.264	17855.04
242.335	17796.15
242.407	17775.13
242.478	17743.76
242.55	17716.73
242.621	17680.53
242.693	17651.28
242.764	17611.28
242.836	17569.21
242.907	17544.1
242.979	17522.13
243.05	17500.68
243.122	17472.97
243.193	17429.84
243.264	17371.86
243.336	17340.63
243.407	17306.13
243.479	17301.45
243.55	17271.72
243.622	17237.74
243.693	17202.99
243.764	17196.1
243.836	17156.05
243.907	17114.41
243.978	17078.99
244.05	17048.05
244.121	17003.28
244.192	16979.85
244.264	16923.27
244.335	16896.33
244.407	16847.7
244.478	16815.27
244.549	16783.36
244.62	16737.96
244.692	16710.78
244.763	16688.18
244.834	16647.98
244.906	16608.8
244.977	16585.04
245.048	16572.41
245.119	16532.22
245.191	16492.79
245.262	16437.75
245.333	16434.76
245.405	16398.37
245.476	16370.8
245.547	16344.97
245.618	16320.25
245.689	16289.5
245.761	16273.83
245.832	16240.14
245.903	16213.44
245.974	16187.51
246.045	16148.03
246.117	16132.85
246.188	16084.89
246.259	16041.85
246.33	16005.03
246.401	15966.08
246.473	15905.35
246.544	15854.36
246.615	15830.31
246.686	15791.02
246.757	15775.55
246.828	15723.88
246.899	15711.69
246.97	15667.53
247.042	15622.42
247.113	15591.47
247.184	15586.75
247.255	15547.37
247.326	15527.13
247.397	15500.13
247.468	15469.86
247.539	15442.87
247.61	15401.18
247.681	15387.44
247.752	15372.83
247.823	15340.54
247.894	15317.5
247.965	15283.85
248.037	15247.41
248.108	15200.13
248.179	15168.94
248.25	15137.46
248.321	15119.38
248.392	15074.85
248.463	15059.61
248.534	15033.15
248.605	15014.54
248.675	14975.6
248.746	14957.76
248.817	14927.54
248.888	14902.96
248.959	14858.13
249.03	14837.64
249.101	14807.61
249.172	14772.85
249.243	14720.21
249.314	14711.34
249.385	14683.48
249.456	14657.11
249.527	14633.88
249.598	14620
249.669	14590.35
249.739	14566.1
249.81	14541.42
249.881	14492.83
249.952	14473.21
250.023	14448.05
250.094	14407.41
250.165	14360.75
250.235	14324.4
250.306	14300.06
250.377	14254.46
250.448	14234.21
250.519	14184.27
250.59	14178.97
250.66	14146.04
250.731	14138.47
250.802	14107.86
250.873	14087.42
250.944	14069.25
251.014	14035.17
251.085	14028.85
251.156	14020.13
251.227	14010.44
251.297	14006.1
251.368	14008.41
251.439	13993.66
251.51	13980.65
251.58	13942.03
251.651	13913.21
251.722	13904.92
251.792	13861.14
251.863	13839.84
251.934	13829.76
252.005	13836.99
252.075	13800.31
252.146	13791.68
252.217	13778.9
252.287	13761.69
252.358	13729.78
252.429	13722.79
252.499	13692.85
252.57	13668.27
252.641	13646.67
252.711	13623.29
252.782	13574.46
252.852	13559.37
252.923	13532.33
252.994	13502.39
253.064	13491.88
253.135	13462.14
253.205	13430.32
253.276	13421.89
253.347	13411.04
253.417	13378.89
253.488	13345.91
253.558	13327.02
253.629	13299.39
253.699	13280.5
253.77	13265.02
253.841	13243.67
253.911	13223.27
253.982	13205.97
254.052	13193.1
254.123	13171.55
254.193	13150.82
254.264	13170.49
254.334	13140.79
254.405	13106.86
254.475	13071.14
254.546	13049.3
254.616	13043.66
254.687	13022.59
254.757	13007.46
254.827	12991.4
254.898	12972.51
254.968	12954.81
255.039	12920.44
255.109	12913.07
255.18	12882.7
255.25	12842.78
255.321	12832.52
255.391	12797.37
255.461	12797.76
255.532	12745.75
255.602	12717.31
255.673	12670.31
255.743	12634.63
255.813	12589.47
255.884	12587.49
255.954	12576.79
256.024	12573.65
256.095	12552.11
256.165	12516.63
256.235	12500.29
256.306	12473.2
256.376	12463.89
256.446	12453.34
256.517	12439.84
256.587	12428.41
256.657	12411.06
256.728	12392.36
256.798	12369.36
256.868	12349.75
256.938	12320.58
257.009	12314.46
257.079	12305.16
257.149	12315.28
257.219	12269.78
257.29	12256.47
257.36	12212.46
257.43	12200.8
257.5	12163.92
257.571	12139.1
257.641	12136.98
257.711	12106.18
257.781	12089.31
257.852	12073.16
257.922	12027.8
257.992	12009.77
258.062	11980.9
258.132	11968.46
258.202	11950.44
258.273	11933.42
258.343	11927.4
258.413	11896.45
258.483	11873.36
258.553	11845.65
258.623	11811.18
258.693	11802.12
258.764	11801.5
258.834	11799.04
258.904	11784.82
258.974	11760.34
259.044	11743.13
259.114	11727.08
259.184	11707.85
259.254	11687.36
259.324	11652.37
259.394	11645.33
259.464	11645.14
259.535	11621.14
259.605	11598.92
259.675	11568.7
259.745	11555.83
259.815	11526
259.885	11508.36
259.955	11517.71
260.025	11490.14
260.095	11476.07
260.165	11465.51
260.235	11464.74
260.305	11432.4
260.375	11402.13
260.445	11408.35
260.515	11406.38
260.585	11396.83
260.655	11377.41
260.725	11370.28
260.795	11358.47
260.865	11363.96
260.934	11333.17
261.004	11332.44
261.074	11316.54
261.144	11322.27
261.214	11309.7
261.284	11293.41
261.354	11288.11
261.424	11262.13
261.494	11262.22
261.564	11241.6
261.634	11235.04
261.703	11190.03
261.773	11183.86
261.843	11179.04
261.913	11150.18
261.983	11117.89
262.053	11108.2
262.123	11099.19
