Data from 20250702_urea_0.5M_MAYP1162681_01-15-00-286.txt Node
Date: Thu Jul 03 01:15:00 BST 2025
User: adleo
Spectrometer: MAYP116268
Trigger mode: 0
Integration Time (sec): 1.000000E0
Scans to average: 1
Electric dark correction enabled: true
Nonlinearity correction enabled: true
Boxcar width: 10
XAxis mode: Wavelengths
Number of Pixels in Spectrum: 2068
>>>>>Begin Spectral Data<<<<<
179.565	1215.63
179.642	1274.34
179.718	1313.8
179.795	1350.12
179.871	1382.14
179.948	1396.74
180.024	1416.02
180.101	1439.31
180.177	1454.06
180.254	1476.96
180.33	1500.58
180.407	1555.09
180.483	1650.77
180.56	1743.51
180.636	1831.02
180.712	1818.32
180.789	1828.68
180.865	1837.66
180.942	1846.12
181.018	1856.06
181.095	1872.27
181.171	1878.03
181.248	1877.17
181.324	1894.29
181.4	1903.84
181.477	1915.97
181.553	1932.89
181.63	1955.28
181.706	1974.21
181.782	1982.38
181.859	1981.95
181.935	1984
182.011	1982.05
182.088	1998.69
182.164	2015.25
182.24	2027.37
182.317	2035.93
182.393	2033.36
182.469	2048.06
182.546	2061.66
182.622	2065.84
182.698	2059.71
182.775	2071.31
182.851	2083.2
182.927	2076.21
183.003	2069.98
183.08	2065.13
183.156	2072.88
183.232	2068.74
183.308	2054.05
183.385	2059.8
183.461	2077.92
183.537	2080.49
183.613	2090.43
183.69	2082.11
183.766	2070.78
183.842	2076.97
183.918	2084.24
183.995	2101.51
184.071	2106.08
184.147	2102.32
184.223	2089.48
184.299	2102.76
184.375	2088.96
184.452	2096.48
184.528	2153.78
184.604	2165.43
184.68	2177.85
184.756	2185.84
184.832	2191.31
184.908	2195.21
184.985	2197.21
185.061	2181.08
185.137	2192.5
185.213	2182.94
185.289	2182.42
185.365	2174.38
185.441	2172.76
185.517	2185.99
185.593	2176.48
185.669	2171.91
185.745	2182.33
185.822	2198.4
185.898	2190.79
185.974	2200.49
186.05	2195.35
186.126	2154.89
186.202	2149.9
186.278	2143.29
186.354	2131.92
186.43	2138.34
186.506	2135.53
186.582	2136.15
186.658	2142.24
186.734	2121.83
186.81	2122.88
186.886	2128.64
186.962	2142.57
187.038	2136.96
187.114	2128.82
187.19	2140.71
187.266	2130.16
187.341	2128.35
187.417	2123.5
187.493	2119.22
187.569	2120.26
187.645	2114.84
187.721	2104.37
187.797	2111.74
187.873	2115.88
187.949	2112.65
188.025	2106.18
188.101	2112.55
188.176	2115.69
188.252	2111.79
188.328	2119.2
188.404	2118.87
188.48	2112.55
188.556	2104.51
188.632	2105.6
188.707	2105.32
188.783	2098.94
188.859	2096.47
188.935	2087.86
189.011	2094.8
189.086	2090.23
189.162	2082.01
189.238	2078.15
189.314	2072.54
189.39	2065.55
189.465	2059.27
189.541	2072.97
189.617	2056.99
189.693	2051.43
189.768	2055.61
189.844	2081.07
189.92	2073.32
189.996	2084.31
190.071	2094.2
190.147	2093.49
190.223	2102.44
190.298	2093.54
190.374	2083.69
190.45	2095.49
190.526	2101.19
190.601	2095.87
190.677	2098.82
190.753	2128.42
190.828	2131.13
190.904	2149.35
190.98	2162.77
191.055	2174.23
191.131	2166.71
191.207	2188.98
191.282	2197.58
191.358	2188.55
191.433	2171.6
191.509	2182.44
191.585	2175.45
191.66	2176.21
191.736	2185.58
191.811	2178.59
191.887	2195.58
191.963	2214.7
192.038	2220.79
192.114	2222.65
192.189	2227.36
192.265	2224.41
192.34	2203.8
192.416	2203.85
192.491	2196.94
192.567	2200.37
192.642	2201.66
192.718	2202.65
192.793	2189.24
192.869	2186.05
192.944	2187.95
193.02	2197.99
193.095	2202.89
193.171	2212.41
193.246	2213.93
193.322	2211.74
193.397	2209.27
193.473	2197.18
193.548	2180.77
193.624	2182.15
193.699	2182.57
193.775	2197.85
193.85	2198.85
193.925	2208.46
194.001	2205.04
194.076	2196.19
194.152	2188
194.227	2181.48
194.302	2171.26
194.378	2173.45
194.453	2172.02
194.529	2182.92
194.604	2165.31
194.679	2159.13
194.755	2138.63
194.83	2148.15
194.905	2148.01
194.981	2159.09
195.056	2151.39
195.131	2158.66
195.207	2159.38
195.282	2146.39
195.357	2128.07
195.433	2144.72
195.508	2130.92
195.583	2142.48
195.659	2158.42
195.734	2165.51
195.809	2163.89
195.884	2172.74
195.96	2176.21
196.035	2190.25
196.11	2186.3
196.185	2199.71
196.261	2204.8
196.336	2235.92
196.411	2221.97
196.486	2225.16
196.561	2217.07
196.637	2228.54
196.712	2245.15
196.787	2248.2
196.862	2264.42
196.937	2276.08
197.013	2282.6
197.088	2291.68
197.163	2310.87
197.238	2328.35
197.313	2326.78
197.388	2340.72
197.464	2369.81
197.539	2380.09
197.614	2372.86
197.689	2387.62
197.764	2402.57
197.839	2422.37
197.914	2418.18
197.989	2442.5
198.065	2457.36
198.14	2509.76
198.215	2535.62
198.29	2544.57
198.365	2558.38
198.44	2568.48
198.515	2593.2
198.59	2604.86
198.665	2633.92
198.74	2642.4
198.815	2641.59
198.89	2665.21
198.965	2697.52
199.04	2694.23
199.115	2709.81
199.19	2755.49
199.265	2754.54
199.34	2767.69
199.415	2802.06
199.49	2825.12
199.565	2836.89
199.64	2858.86
199.715	2854.57
199.79	2861.48
199.865	2868.39
199.94	2864.86
200.015	2897.13
200.09	2905.43
200.165	2910.24
200.24	2917.67
200.315	2958.9
200.39	2974.96
200.464	2981.3
200.539	2982.49
200.614	2999.94
200.689	3023.44
200.764	3028.5
200.839	3049.27
200.914	3052.65
200.989	3040.06
201.063	3052.08
201.138	3034.88
201.213	3034.02
201.288	3014.04
201.363	3017.33
201.438	3018.38
201.512	3035.11
201.587	3018.7
201.662	3021.23
201.737	3035.96
201.812	3043.74
201.886	3010.76
201.961	3018.44
202.036	3003.72
202.111	2999.04
202.186	2969.12
202.26	2953.24
202.335	2929.98
202.41	2922.92
202.485	2904.77
202.559	2888.13
202.634	2858.92
202.709	2868.06
202.784	2851.24
202.858	2850.86
202.933	2831.32
203.008	2825.22
203.082	2808.02
203.157	2808.92
203.232	2765.96
203.306	2745.41
203.381	2712.48
203.456	2686.32
203.53	2666.25
203.605	2646.68
203.68	2621.57
203.754	2615.19
203.829	2599.42
203.904	2579.37
203.978	2568.12
204.053	2572.79
204.127	2559.46
204.202	2560.12
204.277	2538.36
204.351	2531.46
204.426	2525.12
204.5	2517.03
204.575	2482.32
204.65	2490.9
204.724	2482.13
204.799	2488.27
204.873	2483.93
204.948	2483.03
205.022	2473.03
205.097	2463.41
205.171	2476.26
205.246	2483.88
205.32	2484.4
205.395	2483.93
205.469	2474.27
205.544	2481.56
205.618	2464.6
205.693	2476.51
205.767	2464.51
205.842	2489.32
205.916	2482.52
205.991	2474.99
206.065	2483.04
206.14	2496.12
206.214	2491.5
206.289	2485.98
206.363	2502.31
206.438	2507.6
206.512	2513.98
206.586	2536.64
206.661	2545.6
206.735	2528.37
206.81	2531.94
206.884	2547.46
206.958	2536.47
207.033	2554.17
207.107	2563.27
207.181	2599.86
207.256	2594.67
207.33	2616.81
207.405	2631.55
207.479	2652.22
207.553	2661.36
207.628	2645.46
207.702	2662.65
207.776	2660.74
207.851	2664.89
207.925	2680.76
207.999	2679.9
208.073	2680.76
208.148	2685.33
208.222	2680.38
208.296	2717.43
208.371	2741.31
208.445	2761.38
208.519	2799.16
208.593	2824.56
208.668	2831.04
208.742	2840.68
208.816	2854.11
208.89	2879.86
208.965	2892.27
209.039	2915.01
209.113	2945.57
209.187	2984.97
209.261	2998.41
209.336	3038.46
209.41	3078.52
209.484	3102.33
209.558	3148.59
209.632	3189.7
209.707	3229.82
209.781	3278.1
209.855	3325.3
209.929	3372.59
210.003	3409.44
210.077	3443.61
210.151	3528.82
210.226	3599.18
210.3	3669.05
210.374	3734.74
210.448	3782.09
210.522	3838
210.596	3899.26
210.67	3962.23
210.744	4059.7
210.818	4146.28
210.892	4218.81
210.966	4274.79
211.041	4351.64
211.115	4409.41
211.189	4495.75
211.263	4578.76
211.337	4655.26
211.411	4740.38
211.485	4809
211.559	4891.8
211.633	4967.17
211.707	5010.39
211.781	5098.68
211.855	5142.42
211.929	5215.84
212.003	5279.58
212.077	5371.52
212.151	5465.09
212.225	5559.82
212.299	5636.62
212.373	5716.98
212.447	5806.73
212.52	5924.92
212.594	6022.03
212.668	6127.38
212.742	6209.73
212.816	6300.64
212.89	6392.07
212.964	6485.33
213.038	6583.49
213.112	6700.15
213.186	6816.16
213.26	6895.44
213.333	6948.47
213.407	7052.21
213.481	7156.59
213.555	7278.17
213.629	7372.15
213.703	7465.79
213.777	7570.7
213.85	7658.84
213.924	7798.31
213.998	7904.21
214.072	8007.12
214.146	8098.13
214.219	8206.9
214.293	8315.66
214.367	8420.17
214.441	8536.42
214.515	8633.54
214.588	8716.13
214.662	8785.63
214.736	8870.62
214.81	8982.03
214.883	9101
214.957	9199.19
215.031	9294.07
215.105	9371.77
215.178	9463.65
215.252	9559.67
215.326	9633.35
215.4	9715.6
215.473	9761.99
215.547	9839.68
215.621	9921.82
215.694	10023.26
215.768	10095.76
215.842	10173.61
215.915	10254.94
215.989	10324.8
216.063	10411.52
216.136	10505.86
216.21	10595.33
216.284	10702.01
216.357	10801.32
216.431	10886.32
216.504	10988.82
216.578	11102.5
216.652	11200.07
216.725	11282.34
216.799	11375.98
216.873	11473.29
216.946	11567.22
217.02	11653.1
217.093	11740.24
217.167	11800.29
217.24	11868.16
217.314	11947.88
217.387	12027.16
217.461	12106.21
217.535	12199
217.608	12267.16
217.682	12352.43
217.755	12448.35
217.829	12512.27
217.902	12582.84
217.976	12652.5
218.049	12719.36
218.123	12775.37
218.196	12866.77
218.27	12942.74
218.343	13006.28
218.417	13080.08
218.49	13154.03
218.563	13246.92
218.637	13321.84
218.71	13424.71
218.784	13507.81
218.857	13591.93
218.931	13660.19
219.004	13740.89
219.077	13820.82
219.151	13893.7
219.224	13960.86
219.298	14032.01
219.371	14125.14
219.444	14196.53
219.518	14281.13
219.591	14349.78
219.665	14453.08
219.738	14522.06
219.811	14583.14
219.885	14658.05
219.958	14732.43
220.031	14804.01
220.105	14876.56
220.178	14949.78
220.251	15004.87
220.325	15076.41
220.398	15145.24
220.471	15222.08
220.544	15288.55
220.618	15343.31
220.691	15415.95
220.764	15482.99
220.838	15558.19
220.911	15597.57
220.984	15678.01
221.057	15739.52
221.131	15809.79
221.204	15834.62
221.277	15904.22
221.35	15996.81
221.424	16057.87
221.497	16115.47
221.57	16174.56
221.643	16239.68
221.716	16302.96
221.79	16354.87
221.863	16404.47
221.936	16457.48
222.009	16521.49
222.082	16579.9
222.155	16628.2
222.229	16695.91
222.302	16747.05
222.375	16787.87
222.448	16851.58
222.521	16886.43
222.594	16936.98
222.667	16969.08
222.74	17028.8
222.814	17062.1
222.887	17098.73
222.96	17156.94
223.033	17216.37
223.106	17265.96
223.179	17315.35
223.252	17359.21
223.325	17414.78
223.398	17462.29
223.471	17511.35
223.544	17547.93
223.617	17596.27
223.69	17645.33
223.763	17672.27
223.837	17717.81
223.91	17761.42
223.983	17783.74
224.056	17817.13
224.129	17856.03
224.202	17914.92
224.275	17947.16
224.348	17977.66
224.42	18002.34
224.493	18018.58
224.566	18041.66
224.639	18075.87
224.712	18093.03
224.785	18127.1
224.858	18149.08
224.931	18182.18
225.004	18201.36
225.077	18238.28
225.15	18240.98
225.223	18269.46
225.296	18319.24
225.369	18335.62
225.442	18360.29
225.514	18402.61
225.587	18439.42
225.66	18466.94
225.733	18492.34
225.806	18527.08
225.879	18559.18
225.952	18587.13
226.025	18632.42
226.097	18680.52
226.17	18708.61
226.243	18724.47
226.316	18745.57
226.389	18780.85
226.461	18808.36
226.534	18831.83
226.607	18847.16
226.68	18895.97
226.753	18924.5
226.825	18921.27
226.898	18967.63
226.971	18995
227.044	19023
227.117	19047.24
227.189	19084.59
227.262	19117.89
227.335	19147.72
227.407	19162.42
227.48	19186.27
227.553	19207.09
227.626	19224.05
227.698	19242.6
227.771	19274.75
227.844	19288.58
227.916	19310.74
227.989	19312.57
228.062	19334.84
228.134	19384.18
228.207	19404.86
228.28	19423.22
228.352	19447.12
228.425	19455.17
228.498	19482.25
228.57	19484.61
228.643	19518.49
228.716	19530.63
228.788	19539.98
228.861	19548.85
228.934	19588.56
229.006	19600.65
229.079	19622.68
229.151	19619.02
229.224	19623.74
229.296	19652.56
229.369	19696.75
229.442	19718.67
229.514	19724.89
229.587	19749.32
229.659	19738.14
229.732	19760.21
229.804	19779.54
229.877	19823.58
229.949	19846.23
230.022	19871.63
230.094	19894.42
230.167	19905.32
230.239	19900.02
230.312	19915.1
230.384	19950.62
230.457	19961.31
230.529	19977.41
230.602	19985.12
230.674	20009.12
230.747	20031.72
230.819	20048.2
230.892	20019.1
230.964	20040.44
231.037	20068.25
231.109	20079.82
231.181	20102.56
231.254	20084.83
231.326	20086.61
231.399	20086.66
231.471	20095.14
231.544	20085.65
231.616	20107.04
231.688	20112.1
231.761	20120.68
231.833	20117.89
231.905	20097.31
231.978	20103.57
232.05	20113.12
232.122	20108.97
232.195	20101.45
232.267	20118.85
232.339	20103.14
232.412	20125.64
232.484	20111.24
232.556	20109.4
232.629	20134.56
232.701	20140.83
232.773	20153.69
232.846	20150.42
232.918	20151.14
232.99	20146.22
233.062	20148.73
233.135	20138.42
233.207	20128.1
233.279	20139.09
233.351	20147.52
233.424	20135.43
233.496	20126.95
233.568	20136.58
233.64	20116.2
233.713	20108.54
233.785	20094.27
233.857	20100.49
233.929	20083.82
234.001	20106.37
234.074	20117.65
234.146	20080.68
234.218	20065.02
234.29	20047.86
234.362	20033.21
234.434	20001.5
234.507	19975.14
234.579	19958.76
234.651	19948.21
234.723	19939.29
234.795	19926.81
234.867	19902.81
234.939	19908.11
235.012	19901.27
235.084	19896.35
235.156	19895.24
235.228	19883.87
235.3	19869.08
235.372	19853.61
235.444	19856.88
235.516	19810.72
235.588	19793.7
235.66	19786.81
235.732	19762.38
235.804	19811.63
235.876	19812.5
235.948	19816.64
236.02	19810.09
236.092	19784.65
236.164	19762.19
236.236	19741.32
236.308	19720.41
236.38	19711.49
236.452	19691.25
236.524	19671.35
236.596	19655.16
236.668	19641.91
236.74	19618.63
236.812	19605.57
236.884	19586.49
236.956	19557.43
237.028	19529.38
237.1	19501.24
237.172	19493.48
237.244	19497.19
237.316	19435.56
237.388	19402.35
237.46	19378.06
237.532	19368.81
237.604	19347.37
237.675	19349.3
237.747	19345.34
237.819	19316.09
237.891	19288.77
237.963	19259.13
238.035	19235.9
238.107	19178.99
238.178	19173.11
238.25	19151.33
238.322	19149.74
238.394	19110.27
238.466	19091.48
238.538	19075.1
238.609	19061.7
238.681	19016.74
238.753	18977.17
238.825	18955.92
238.897	18940.74
238.968	18928.07
239.04	18896.94
239.112	18901.08
239.184	18854.48
239.255	18819.74
239.327	18801.76
239.399	18785.19
239.471	18770.63
239.542	18736.9
239.614	18728.56
239.686	18667.36
239.758	18652.47
239.829	18611.12
239.901	18605.63
239.973	18577.2
240.044	18552.96
240.116	18519.66
240.188	18493.25
240.259	18469.78
240.331	18426.75
240.403	18401.55
240.474	18356.78
240.546	18325.74
240.618	18270.18
240.689	18242.85
240.761	18212.3
240.833	18189.8
240.904	18152.79
240.976	18115.92
241.048	18091.54
241.119	18066.09
241.191	18057.61
241.262	18047.1
241.334	18015.49
241.405	17971.93
241.477	17924.99
241.549	17887.69
241.62	17850.68
241.692	17829.38
241.763	17808.56
241.835	17781.67
241.906	17750.25
241.978	17704.51
242.049	17679.4
242.121	17657.62
242.192	17639.26
242.264	17595.21
242.335	17562.15
242.407	17535.84
242.478	17505.67
242.55	17481.28
242.621	17451.84
242.693	17412.27
242.764	17368.51
242.836	17336.23
242.907	17311.55
242.979	17299.21
243.05	17278.54
243.122	17269.24
243.193	17235.55
243.264	17180.13
243.336	17143.79
243.407	17122.2
243.479	17110.1
243.55	17087.4
243.622	17059.02
243.693	17030.05
243.764	17017.28
243.836	16971.11
243.907	16935.78
243.978	16900.94
244.05	16869.75
244.121	16814.57
244.192	16794.23
244.264	16747.14
244.335	16713.21
244.407	16674.9
244.478	16641.11
244.549	16611.23
244.62	16561.49
244.692	16526.21
244.763	16505.49
244.834	16472.09
244.906	16433.53
244.977	16417.05
245.048	16397.96
245.119	16350.39
245.191	16310.92
245.262	16261.18
245.333	16246.72
245.405	16229.56
245.476	16201.99
245.547	16173.27
245.618	16152.35
245.689	16118.18
245.761	16096.58
245.832	16055.52
245.903	16024.86
245.974	16000.04
246.045	15961.1
246.117	15948.47
246.188	15905.47
246.259	15869.13
246.33	15843.44
246.401	15807.29
246.473	15750.46
246.544	15710.46
246.615	15703.9
246.686	15665.68
246.757	15647.17
246.828	15604.71
246.899	15580.99
246.97	15539.59
247.042	15499.44
247.113	15476.78
247.184	15467
247.255	15428.97
247.326	15411.42
247.397	15383.37
247.468	15349.05
247.539	15319.79
247.61	15269.9
247.681	15255
247.752	15236.3
247.823	15195.81
247.894	15172.53
247.965	15137
248.037	15094.2
248.108	15046.72
248.179	15017.89
248.25	14986.76
248.321	14958.75
248.392	14916.76
248.463	14917.87
248.534	14886.93
248.605	14868.9
248.675	14833.08
248.746	14814.91
248.817	14793.12
248.888	14767.77
248.959	14722.36
249.03	14703.51
249.101	14678.16
249.172	14645.33
249.243	14594.13
249.314	14580.93
249.385	14555.33
249.456	14536.53
249.527	14507.7
249.598	14485.96
249.669	14460.03
249.739	14435.49
249.81	14423.54
249.881	14374.85
249.952	14336.48
250.023	14310.45
250.094	14264.07
250.165	14222.81
250.235	14190.32
250.306	14162.5
250.377	14126.4
250.448	14113.58
250.519	14060.21
250.59	14051.82
250.66	14026.71
250.731	14022.61
250.802	13993.35
250.873	13971.27
250.944	13948.13
251.014	13924.51
251.085	13918.97
251.156	13890.33
251.227	13879.49
251.297	13863.24
251.368	13861.12
251.439	13850.18
251.51	13837.64
251.58	13809.83
251.651	13787.7
251.722	13772.37
251.792	13725.76
251.863	13700.98
251.934	13691.19
252.005	13697.84
252.075	13672.78
252.146	13657.06
252.217	13644.19
252.287	13629.54
252.358	13599.5
252.429	13596.51
252.499	13560.84
252.57	13547.39
252.641	13538.57
252.711	13512.2
252.782	13472.09
252.852	13464.67
252.923	13433.87
252.994	13413.52
253.064	13400.31
253.135	13370.38
253.205	13344.88
253.276	13347.29
253.347	13340.97
253.417	13302.12
253.488	13279.65
253.558	13247.74
253.629	13224.46
253.699	13201.46
253.77	13186.28
253.841	13160.2
253.911	13136.09
253.982	13120.47
254.052	13098.54
254.123	13078.1
254.193	13051.06
254.264	13061.52
254.334	13030.23
254.405	12994.95
254.475	12959.37
254.546	12937.15
254.616	12929.87
254.687	12910.83
254.757	12890.68
254.827	12867.88
254.898	12855.05
254.968	12822.47
255.039	12793.35
255.109	12777.1
255.18	12744.13
255.25	12697.04
255.321	12684.74
255.391	12644.3
255.461	12645.07
255.532	12597.64
255.602	12569.92
255.673	12528.13
255.743	12494.86
255.813	12446.13
255.884	12437.07
255.954	12425.69
256.024	12420.92
256.095	12395.03
256.165	12359.94
256.235	12337.38
256.306	12305.66
256.376	12296.79
256.446	12292.65
256.517	12279.44
256.587	12272.02
256.657	12250.09
256.728	12231.14
256.798	12204
256.868	12185.01
256.938	12152.38
257.009	12138.45
257.079	12130.98
257.149	12138.83
257.219	12102.68
257.29	12094.34
257.36	12054.82
257.43	12042.24
257.5	11999.43
257.571	11977.31
257.641	11969.02
257.711	11939.28
257.781	11929.21
257.852	11917.15
257.922	11875.61
257.992	11854.16
258.062	11828.56
258.132	11823.26
258.202	11811.93
258.273	11802.15
258.343	11803.74
258.413	11779.5
258.483	11763.83
258.553	11731.2
258.623	11701.65
258.693	11688.54
258.764	11682.76
258.834	11679.77
258.904	11663.24
258.974	11637.31
259.044	11623.43
259.114	11606.75
259.184	11597.35
259.254	11577.06
259.324	11530.84
259.394	11517.49
259.464	11518.41
259.535	11497.54
259.605	11471.32
259.675	11437.78
259.745	11421.44
259.815	11382.16
259.885	11352.47
259.955	11357.24
260.025	11329.34
260.095	11315.99
260.165	11304.08
260.235	11300.28
260.305	11272.66
260.375	11239.36
260.445	11243.12
260.515	11236.76
260.585	11231.17
260.655	11205.05
260.725	11195.45
260.795	11187.84
260.865	11200.47
260.934	11169.96
261.004	11157.57
261.074	11140.61
261.144	11146.35
261.214	11135.6
261.284	11120.56
261.354	11124.23
261.424	11098.39
261.494	11109.23
261.564	11088.99
261.634	11081.04
261.703	11045.96
261.773	11041.04
261.843	11029.05
261.913	11012.85
261.983	10976.18
262.053	10964.33
262.123	10950.26
262.192	10923.08
