Data from 20250702_urea_0.5M_MAYP1162681_02-24-59-945.txt Node
Date: Thu Jul 03 02:24:59 BST 2025
User: adleo
Spectrometer: MAYP116268
Trigger mode: 0
Integration Time (sec): 1.000000E0
Scans to average: 1
Electric dark correction enabled: true
Nonlinearity correction enabled: true
Boxcar width: 10
XAxis mode: Wavelengths
Number of Pixels in Spectrum: 2068
>>>>>Begin Spectral Data<<<<<
179.565	1181.12
179.642	1240.58
179.718	1284.83
179.795	1321.76
179.871	1354.56
179.948	1374.72
180.024	1394.98
180.101	1416.19
180.177	1430.5
180.254	1453.71
180.33	1475.71
180.407	1529.74
180.483	1627.03
180.56	1717.25
180.636	1801.29
180.712	1790.88
180.789	1798.05
180.865	1810.36
180.942	1820.24
181.018	1831.36
181.095	1846.39
181.171	1852.76
181.248	1851.85
181.324	1866.88
181.4	1875.58
181.477	1887.18
181.553	1898.16
181.63	1918.65
181.706	1937.86
181.782	1949.31
181.859	1947.7
181.935	1953.78
182.011	1948.98
182.088	1964.01
182.164	1983.61
182.24	1995.97
182.317	2004.62
182.393	2005.19
182.469	2021.31
182.546	2036.05
182.622	2042.14
182.698	2038.62
182.775	2048.89
182.851	2064.15
182.927	2054.21
183.003	2050.84
183.08	2042.42
183.156	2054.6
183.232	2053.74
183.308	2039.62
183.385	2042.8
183.461	2059.26
183.537	2057.07
183.613	2070.01
183.69	2061.35
183.766	2047.46
183.842	2054.54
183.918	2058.01
183.995	2069.52
184.071	2072.9
184.147	2068.38
184.223	2058.21
184.299	2070.01
184.375	2059.12
184.452	2064.07
184.528	2119.92
184.604	2130
184.68	2143.41
184.756	2148.17
184.832	2152.83
184.908	2157.4
184.985	2158.68
185.061	2143.94
185.137	2158.02
185.213	2148.08
185.289	2149.6
185.365	2142.94
185.441	2140.57
185.517	2156.7
185.593	2154.08
185.669	2149.51
185.745	2157.22
185.822	2173.25
185.898	2164.54
185.974	2173.72
186.05	2165.39
186.126	2127.89
186.202	2120.62
186.278	2116.24
186.354	2107.49
186.43	2110.77
186.506	2111.44
186.582	2110.49
186.658	2116.95
186.734	2095.65
186.81	2095.74
186.886	2099.88
186.962	2115.24
187.038	2113.48
187.114	2102.92
187.19	2111.34
187.266	2103.16
187.341	2104.35
187.417	2095.88
187.493	2092.98
187.569	2096.93
187.645	2089.51
187.721	2075.14
187.797	2081.99
187.873	2086.94
187.949	2080.09
188.025	2074.24
188.101	2076.33
188.176	2082.94
188.252	2080.85
188.328	2088.26
188.404	2090.07
188.48	2082.51
188.556	2073.71
188.632	2074.04
188.707	2074.52
188.783	2067.38
188.859	2062.25
188.935	2050.88
189.011	2059.58
189.086	2056.39
189.162	2047.93
189.238	2046.12
189.314	2044.12
189.39	2039.99
189.465	2031.47
189.541	2048.41
189.617	2032.81
189.693	2028.91
189.768	2028.39
189.844	2050.27
189.92	2041.38
189.996	2049.04
190.071	2058.51
190.147	2061.55
190.223	2069.73
190.298	2062.93
190.374	2051.71
190.45	2062.02
190.526	2070.82
190.601	2065.59
190.677	2067.02
190.753	2094
190.828	2099.23
190.904	2114.45
190.98	2129.77
191.055	2141.95
191.131	2133.24
191.207	2156.22
191.282	2166.63
191.358	2161.21
191.433	2146.55
191.509	2159.53
191.585	2157.3
191.66	2157.16
191.736	2160.49
191.811	2152.68
191.887	2170.29
191.963	2193.12
192.038	2202.07
192.114	2205.3
192.189	2206.97
192.265	2204.02
192.34	2184.03
192.416	2185.41
192.491	2183.36
192.567	2183.93
192.642	2188.5
192.718	2188.31
192.793	2173.9
192.869	2166.76
192.944	2169.71
193.02	2177.27
193.095	2181.75
193.171	2188.55
193.246	2190.74
193.322	2188.46
193.397	2189.88
193.473	2173.89
193.548	2157.81
193.624	2161.19
193.699	2156.62
193.775	2173.47
193.85	2172.14
193.925	2181.18
194.001	2180.32
194.076	2172.42
194.152	2165
194.227	2153.15
194.302	2145.83
194.378	2152.2
194.453	2150.87
194.529	2163.53
194.604	2153.11
194.679	2147.4
194.755	2127.52
194.83	2140.66
194.905	2139.66
194.981	2142.51
195.056	2135.9
195.131	2144.23
195.207	2143.32
195.282	2133.14
195.357	2113.3
195.433	2129.9
195.508	2116.96
195.583	2124.67
195.659	2141.18
195.734	2146.03
195.809	2148.89
195.884	2158.78
195.96	2158.49
196.035	2172.1
196.11	2166.53
196.185	2175.19
196.261	2178.71
196.336	2211.44
196.411	2194.21
196.486	2197.97
196.561	2195.4
196.637	2204.06
196.712	2216.29
196.787	2218.24
196.862	2232.42
196.937	2246.02
197.013	2251.78
197.088	2262.35
197.163	2281.77
197.238	2296.68
197.313	2296.34
197.388	2310.19
197.464	2336.71
197.539	2344.75
197.614	2338.52
197.689	2350.51
197.764	2368.46
197.839	2389.93
197.914	2382.69
197.989	2406.45
198.065	2422.49
198.14	2473.32
198.215	2502.83
198.29	2514.31
198.365	2527.41
198.44	2540.55
198.515	2568.03
198.59	2582.46
198.665	2607.75
198.74	2615.32
198.815	2616.18
198.89	2639.08
198.965	2668.72
199.04	2665.58
199.115	2684.1
199.19	2726.59
199.265	2732.68
199.34	2738.78
199.415	2769.38
199.49	2791.2
199.565	2799.87
199.64	2822.12
199.715	2819.12
199.79	2825.27
199.865	2834.46
199.94	2832.75
200.015	2865.35
200.09	2869.26
200.165	2875.36
200.24	2883.37
200.315	2925.59
200.39	2940.22
200.464	2945.65
200.539	2945.8
200.614	2963.81
200.689	2987.27
200.764	2996.04
200.839	3009.81
200.914	3016.63
200.989	3008.14
201.063	3020.3
201.138	3004.58
201.213	3004.48
201.288	2984.65
201.363	2985.37
201.438	2983.27
201.512	3000.95
201.587	2982.69
201.662	2986.5
201.737	2999.47
201.812	3006.19
201.886	2971.41
201.961	2982.52
202.036	2973.61
202.111	2969.56
202.186	2938.97
202.26	2921.81
202.335	2900.3
202.41	2894.3
202.485	2877.14
202.559	2858.84
202.634	2835.11
202.709	2845.73
202.784	2827.71
202.858	2826
202.933	2813.04
203.008	2808.18
203.082	2787.55
203.157	2786.16
203.232	2742.82
203.306	2724.23
203.381	2694.59
203.456	2672.72
203.53	2649.55
203.605	2626.98
203.68	2606.92
203.754	2600.87
203.829	2584.82
203.904	2560.77
203.978	2550.67
204.053	2557.19
204.127	2546.48
204.202	2543.57
204.277	2525.29
204.351	2518
204.426	2513.43
204.5	2505.38
204.575	2471.87
204.65	2481.63
204.724	2474.06
204.799	2483.86
204.873	2478.19
204.948	2476
205.022	2462.86
205.097	2452.05
205.171	2465.66
205.246	2472.52
205.32	2470.81
205.395	2474.09
205.469	2468.34
205.544	2473.62
205.618	2453.06
205.693	2460.87
205.767	2449.63
205.842	2471.01
205.916	2464.44
205.991	2455.87
206.065	2461.35
206.14	2475.43
206.214	2471.1
206.289	2467.81
206.363	2479
206.438	2481.95
206.512	2489.38
206.586	2509.38
206.661	2519.43
206.735	2500.2
206.81	2500.29
206.884	2517.53
206.958	2502.29
207.033	2519.62
207.107	2526.58
207.181	2560.39
207.256	2556.06
207.33	2575.34
207.405	2588.02
207.479	2610.26
207.553	2617.17
207.628	2604.17
207.702	2618.74
207.776	2616.88
207.851	2619.08
207.925	2639.47
207.999	2643.04
208.073	2644.19
208.148	2651.29
208.222	2643.85
208.296	2682.85
208.371	2708.79
208.445	2726.8
208.519	2764.67
208.593	2785.93
208.668	2792.98
208.742	2804.95
208.816	2818.67
208.89	2843.6
208.965	2858.1
209.039	2880.13
209.113	2916.22
209.187	2952.47
209.261	2965.96
209.336	3003.01
209.41	3046.02
209.484	3065.67
209.558	3105.41
209.632	3143.6
209.707	3182.05
209.781	3231.6
209.855	3274.6
209.929	3318.93
210.003	3355.86
210.077	3386.69
210.151	3469.86
210.226	3537.06
210.3	3601.42
210.374	3666.38
210.448	3714.91
210.522	3763.4
210.596	3822.89
210.67	3875.2
210.744	3968.5
210.818	4049.47
210.892	4123.96
210.966	4170.94
211.041	4243.51
211.115	4299.5
211.189	4384.1
211.263	4461.88
211.337	4532.91
211.411	4606.89
211.485	4667.94
211.559	4744.01
211.633	4819.79
211.707	4857.88
211.781	4939.32
211.855	4981.85
211.929	5042.8
212.003	5096.75
212.077	5186.26
212.151	5274.2
212.225	5363.29
212.299	5435.37
212.373	5506.63
212.447	5588.26
212.52	5708.1
212.594	5797.98
212.668	5899.66
212.742	5970.32
212.816	6055.25
212.89	6142.33
212.964	6235.64
213.038	6331.33
213.112	6447.8
213.186	6551.87
213.26	6624.87
213.333	6677.94
213.407	6775.06
213.481	6878.96
213.555	6983.57
213.629	7066.98
213.703	7147.76
213.777	7244.99
213.85	7323.14
213.924	7460.3
213.998	7558.82
214.072	7646.83
214.146	7732.9
214.219	7827.45
214.293	7926.26
214.367	8025.88
214.441	8137.19
214.515	8226.05
214.588	8303.37
214.662	8362.21
214.736	8443.96
214.81	8548.68
214.883	8653.75
214.957	8742.53
215.031	8828.09
215.105	8908.3
215.178	8997.59
215.252	9087.9
215.326	9160.98
215.4	9232.76
215.473	9272.92
215.547	9345.54
215.621	9418.79
215.694	9511.11
215.768	9580.36
215.842	9659.73
215.915	9739.45
215.989	9803.03
216.063	9883.19
216.136	9965.99
216.21	10053.65
216.284	10150.1
216.357	10237.82
216.431	10315.24
216.504	10410.39
216.578	10521.78
216.652	10624.98
216.725	10707.71
216.799	10796.37
216.873	10892.07
216.946	10989.36
217.02	11070.6
217.093	11150.21
217.167	11211.79
217.24	11278.16
217.314	11356.61
217.387	11426.06
217.461	11496.81
217.535	11575.27
217.608	11644.96
217.682	11727.48
217.755	11812.55
217.829	11873.33
217.902	11955.85
217.976	12038.46
218.049	12104.4
218.123	12164.85
218.196	12237.44
218.27	12301.17
218.343	12366
218.417	12432.43
218.49	12506.37
218.563	12597.62
218.637	12673.78
218.71	12778.92
218.784	12862.03
218.857	12946
218.931	13028.14
219.004	13103.29
219.077	13189.29
219.151	13255.77
219.224	13324.41
219.298	13392
219.371	13477.61
219.444	13530.5
219.518	13600.2
219.591	13672.75
219.665	13771.19
219.738	13846.39
219.811	13916.05
219.885	13986.77
219.958	14062.64
220.031	14122.8
220.105	14189.38
220.178	14252.57
220.251	14299.14
220.325	14371.54
220.398	14436.23
220.471	14511.72
220.544	14586.3
220.618	14642.31
220.691	14712.79
220.764	14775.26
220.838	14843.23
220.911	14897.84
220.984	14978.77
221.057	15048.53
221.131	15114.27
221.204	15135
221.277	15210.2
221.35	15305.92
221.424	15367.77
221.497	15422.24
221.57	15481.24
221.643	15546.55
221.716	15621.84
221.79	15679.82
221.863	15734.87
221.936	15794.06
222.009	15840.81
222.082	15898.75
222.155	15944.82
222.229	16012.79
222.302	16069.76
222.375	16122.97
222.448	16192.95
222.521	16248.52
222.594	16304.82
222.667	16344.92
222.74	16409.12
222.814	16449.41
222.887	16482.71
222.96	16536.41
223.033	16599.45
223.106	16655.93
223.179	16701.04
223.252	16743.6
223.325	16791.8
223.398	16836.14
223.471	16885.15
223.544	16941.2
223.617	16982.99
223.69	17033.78
223.763	17066.27
223.837	17121.06
223.91	17172.05
223.983	17193.45
224.056	17217.26
224.129	17251.33
224.202	17302.56
224.275	17337.89
224.348	17366.18
224.42	17385.45
224.493	17406.32
224.566	17430.32
224.639	17476.35
224.712	17509.12
224.785	17546.61
224.858	17586.37
224.931	17617.07
225.004	17639.14
225.077	17670.8
225.15	17680.2
225.223	17709.69
225.296	17770.27
225.369	17774.12
225.442	17799.04
225.514	17834.51
225.587	17876.72
225.66	17919.18
225.733	17956.14
225.806	17989.83
225.879	18021.01
225.952	18046.12
226.025	18097.1
226.097	18147.99
226.17	18175.46
226.243	18189.34
226.316	18213.39
226.389	18240.9
226.461	18282.49
226.534	18311.36
226.607	18340.42
226.68	18393.76
226.753	18427.78
226.825	18421.91
226.898	18468.79
226.971	18498.91
227.044	18535.1
227.117	18564.31
227.189	18588.4
227.262	18613.12
227.335	18645.75
227.407	18673.51
227.48	18704.78
227.553	18726.76
227.626	18739.96
227.698	18766.42
227.771	18802.03
227.844	18815.04
227.916	18842.27
227.989	18846.51
228.062	18873.01
228.134	18912.33
228.207	18933.25
228.28	18953.78
228.352	18978.07
228.425	19006.59
228.498	19021.63
228.57	19022.98
228.643	19054.88
228.716	19069.53
228.788	19087.89
228.861	19103.84
228.934	19133.67
229.006	19157.14
229.079	19177.81
229.151	19186.87
229.224	19185.28
229.296	19200.46
229.369	19251.98
229.442	19285.23
229.514	19299.83
229.587	19327.59
229.659	19315.25
229.732	19331.01
229.804	19350.57
229.877	19394.09
229.949	19419.05
230.022	19464.93
230.094	19490.42
230.167	19509.31
230.239	19516.64
230.312	19535.57
230.384	19566.51
230.457	19581.16
230.529	19596.68
230.602	19609.5
230.674	19625.35
230.747	19650.17
230.819	19675.42
230.892	19639.95
230.964	19650.41
231.037	19660.29
231.109	19662.12
231.181	19676.67
231.254	19669.64
231.326	19685.35
231.399	19688.34
231.471	19684.72
231.544	19667.18
231.616	19682.41
231.688	19694.75
231.761	19700.53
231.833	19699.57
231.905	19687.37
231.978	19697.01
232.05	19699.42
232.122	19711.03
232.195	19708.53
232.267	19728.24
232.339	19722.94
232.412	19753.1
232.484	19745.01
232.556	19753.44
232.629	19780.38
232.701	19798.93
232.773	19813.92
232.846	19807.99
232.918	19816.72
232.99	19818.16
233.062	19826.02
233.135	19834.26
233.207	19815.66
233.279	19822.55
233.351	19833.1
233.424	19823.61
233.496	19804.91
233.568	19830.21
233.64	19809.54
233.713	19812.43
233.785	19800.28
233.857	19803.42
233.929	19784.28
234.001	19801.54
234.074	19802.4
234.146	19778.36
234.218	19771.75
234.29	19760.38
234.362	19743.47
234.434	19715.95
234.507	19696.29
234.579	19675.28
234.651	19655.09
234.723	19656.58
234.795	19655.33
234.867	19644
234.939	19657.83
235.012	19657.78
235.084	19648.15
235.156	19649.06
235.228	19639.91
235.3	19623.33
235.372	19618.46
235.444	19620.24
235.516	19585.79
235.588	19580.15
235.66	19568.68
235.732	19547.62
235.804	19594.51
235.876	19588.73
235.948	19595.38
236.02	19596.73
236.092	19585.4
236.164	19572.73
236.236	19557.16
236.308	19530.9
236.38	19503.19
236.452	19474.23
236.524	19447.53
236.596	19450.47
236.668	19443.97
236.74	19422.52
236.812	19413.32
236.884	19401.27
236.956	19390.33
237.028	19368.02
237.1	19335.35
237.172	19331.44
237.244	19331.25
237.316	19268.75
237.388	19248.51
237.46	19227.69
237.532	19217.57
237.604	19189.62
237.675	19186.53
237.747	19165.67
237.819	19141.77
237.891	19141.57
237.963	19118.2
238.035	19098.06
238.107	19036.62
238.178	19024.28
238.25	19006.59
238.322	19011.17
238.394	18957.97
238.466	18929.3
238.538	18910.5
238.609	18904.24
238.681	18861.98
238.753	18832.58
238.825	18811.28
238.897	18790.75
238.968	18776.68
239.04	18740.83
239.112	18746.13
239.184	18710.13
239.255	18684.73
239.327	18661.89
239.399	18631.29
239.471	18616.4
239.542	18596.79
239.614	18586.96
239.686	18527.01
239.758	18510.33
239.829	18473.04
239.901	18475.11
239.973	18446.48
240.044	18426.97
240.116	18392.94
240.188	18365.81
240.259	18330.3
240.331	18294.92
240.403	18266.39
240.474	18219.84
240.546	18180.76
240.618	18128.38
240.689	18088.14
240.761	18055.95
240.833	18052.43
240.904	18023.27
240.976	17985.64
241.048	17972.29
241.119	17952.63
241.191	17929.11
241.262	17912.96
241.334	17875.52
241.405	17844.87
241.477	17813.79
241.549	17777.93
241.62	17752.82
241.692	17729.21
241.763	17711.72
241.835	17680.39
241.906	17669.98
241.978	17631.04
242.049	17618.32
242.121	17604.3
242.192	17599.33
242.264	17563.04
242.335	17504.73
242.407	17482.42
242.478	17456.73
242.55	17416.15
242.621	17371.91
242.693	17346.51
242.764	17310.8
242.836	17270.18
242.907	17247.38
242.979	17220.15
243.05	17196.78
243.122	17174.13
243.193	17148.53
243.264	17103.67
243.336	17078.51
243.407	17048.44
243.479	17038.03
243.55	17011.95
243.622	16976.19
243.693	16928.82
243.764	16912.24
243.836	16872.48
243.907	16835.22
243.978	16804.47
244.05	16775.6
244.121	16728.9
244.192	16706.83
244.264	16657.96
244.335	16636.9
244.407	16582.43
244.478	16554.14
244.549	16515.06
244.62	16469.66
244.692	16436.35
244.763	16413.46
244.834	16369.89
244.906	16325.79
244.977	16295.23
245.048	16271.08
245.119	16234.79
245.191	16213.25
245.262	16163.65
245.333	16159.22
245.405	16132.42
245.476	16101.91
245.547	16087.26
245.618	16065.13
245.689	16039.49
245.761	16013.42
245.832	15977.32
245.903	15956.69
245.974	15924.83
246.045	15888.53
246.117	15875.71
246.188	15825.05
246.259	15775.94
246.33	15750.25
246.401	15719.88
246.473	15672.6
246.544	15641.03
246.615	15627
246.686	15580.44
246.757	15562.12
246.828	15525.34
246.899	15504.81
246.97	15460.9
247.042	15419.78
247.113	15394.24
247.184	15391.54
247.255	15360.54
247.326	15334.37
247.397	15297.59
247.468	15276
247.539	15255.99
247.61	15207.21
247.681	15194.78
247.752	15180.94
247.823	15147.3
247.894	15118.9
247.965	15080.53
248.037	15042.16
248.108	14988.03
248.179	14965.52
248.25	14933.47
248.321	14904.35
248.392	14864.39
248.463	14854.36
248.534	14822.89
248.605	14806.16
248.675	14761.48
248.746	14729.18
248.817	14705.03
248.888	14684.54
248.959	14637.69
249.03	14610.98
249.101	14591.46
249.172	14552.32
249.243	14499.97
249.314	14489.22
249.385	14464.54
249.456	14446.7
249.527	14412.38
249.598	14400.66
249.669	14369.67
249.739	14345.85
249.81	14321.85
249.881	14276.92
249.952	14244.96
250.023	14212.23
250.094	14170.24
250.165	14129.99
250.235	14107.53
250.306	14083.81
250.377	14044.47
250.448	14029.58
250.519	13989.66
250.59	13967.58
250.66	13946.61
250.731	13949.89
250.802	13920.63
250.873	13894.41
250.944	13870.21
251.014	13844.46
251.085	13838.63
251.156	13815.25
251.227	13802.81
251.297	13791.15
251.368	13783.44
251.439	13772.3
251.51	13757.11
251.58	13720.62
251.651	13690.69
251.722	13681.57
251.792	13636.79
251.863	13612.45
251.934	13596.73
252.005	13596.88
252.075	13571.13
252.146	13549.73
252.217	13527.8
252.287	13509.67
252.358	13479.01
252.429	13474.72
252.499	13446.23
252.57	13417.45
252.641	13410.56
252.711	13385.83
252.782	13348.61
252.852	13337.09
252.923	13311.16
252.994	13293.13
253.064	13282.38
253.135	13251.23
253.205	13217.06
253.276	13209.25
253.347	13206.93
253.417	13175.79
253.488	13144.51
253.558	13117.46
253.629	13100.06
253.699	13085.84
253.77	13067.38
253.841	13050.84
253.911	13024.23
253.982	13005.09
254.052	12991.84
254.123	12971.69
254.193	12951.05
254.264	12968.7
254.334	12929.75
254.405	12893.3
254.475	12854.4
254.546	12826.15
254.616	12815.98
254.687	12796.36
254.757	12776.07
254.827	12749.36
254.898	12735.67
254.968	12719.19
255.039	12696.05
255.109	12684.14
255.18	12646.25
255.25	12607.45
255.321	12591.01
255.391	12560.35
255.461	12556.35
255.532	12505.64
255.602	12477.34
255.673	12439.74
255.743	12403.01
255.813	12366.95
255.884	12357.8
255.954	12353.79
256.024	12361.8
256.095	12346.23
256.165	12317.35
256.235	12303.47
256.306	12275.95
256.376	12261.49
256.446	12239.07
256.517	12223.69
256.587	12209.96
256.657	12194.82
256.728	12172.99
256.798	12150.72
256.868	12120.98
256.938	12091.72
257.009	12085.45
257.079	12074.17
257.149	12075.09
257.219	12032.96
257.29	12024.76
257.36	11980.42
257.43	11966.15
257.5	11922.67
257.571	11894.33
257.641	11887.58
257.711	11858.95
257.781	11849.94
257.852	11832.2
257.922	11801.31
257.992	11778.22
258.062	11754.99
258.132	11757.78
258.202	11737.63
258.273	11722.21
258.343	11726.4
258.413	11702.26
258.483	11678.25
258.553	11645.09
258.623	11618.82
258.693	11603.3
258.764	11601.52
258.834	11607.45
258.904	11588.51
258.974	11558.39
259.044	11547.93
259.114	11527.49
259.184	11518.77
259.254	11499.2
259.324	11462.86
259.394	11451.68
259.464	11455.05
259.535	11437.36
259.605	11400.69
259.675	11379.19
259.745	11368.69
259.815	11332.1
259.885	11306.42
259.955	11323.29
260.025	11302.52
260.095	11285.26
260.165	11286.32
260.235	11279.38
260.305	11250.13
260.375	11217.6
260.445	11230.13
260.515	11223.38
260.585	11220.88
260.655	11196.97
260.725	11189.31
260.795	11183.67
260.865	11186.08
260.934	11159.96
261.004	11147.53
261.074	11131.48
261.144	11134.61
261.214	11122.61
261.284	11113.07
261.354	11109.41
261.424	11079.62
261.494	11085.11
261.564	11067.96
261.634	11041.98
261.703	11006.95
261.773	10997.36
261.843	10987.67
261.913	10963.24
261.983	10922.57
262.053	10913.27
262.123	10893.18
262.192	10863.35
262.262	10858.05
