Data from 20250702_urea_0.5M_MAYP1162681_16-14-59-886.txt Node
Date: Wed Jul 02 16:14:59 BST 2025
User: adleo
Spectrometer: MAYP116268
Trigger mode: 0
Integration Time (sec): 1.000000E0
Scans to average: 1
Electric dark correction enabled: true
Nonlinearity correction enabled: true
Boxcar width: 10
XAxis mode: Wavelengths
Number of Pixels in Spectrum: 2068
>>>>>Begin Spectral Data<<<<<
179.565	1116.44
179.642	1172.89
179.718	1212.06
179.795	1244.28
179.871	1271.74
179.948	1289.72
180.024	1310.1
180.101	1331.65
180.177	1345.69
180.254	1367.15
180.33	1388.13
180.407	1434.32
180.483	1521.16
180.56	1602.73
180.636	1680.73
180.712	1668.23
180.789	1679.44
180.865	1691.13
180.942	1699.35
181.018	1709.61
181.095	1723.25
181.171	1730.29
181.248	1730.29
181.324	1744.21
181.4	1754.05
181.477	1765.93
181.553	1779.09
181.63	1796.53
181.706	1813.55
181.782	1820.34
181.859	1820.58
181.935	1823.34
182.011	1819.77
182.088	1837.65
182.164	1858.8
182.24	1872.21
182.317	1883.14
182.393	1878.86
182.469	1891.98
182.546	1905.15
182.622	1906.71
182.698	1901.01
182.775	1910.56
182.851	1921.4
182.927	1917.12
183.003	1912.13
183.08	1905.72
183.156	1915.56
183.232	1914.32
183.308	1901.49
183.385	1911.23
183.461	1928.3
183.537	1929.49
183.613	1942.75
183.69	1933.48
183.766	1920.97
183.842	1928.2
183.918	1932.19
183.995	1946.41
184.071	1949.78
184.147	1945.84
184.223	1938.85
184.299	1951.98
184.375	1942.8
184.452	1949.89
184.528	2002.59
184.604	2013.29
184.68	2028.26
184.756	2031.64
184.832	2034.21
184.908	2040.48
184.985	2039.53
185.061	2023.7
185.137	2037.58
185.213	2023.85
185.289	2024.94
185.365	2019.09
185.441	2015.05
185.517	2028.89
185.593	2023.76
185.669	2020.71
185.745	2028.75
185.822	2044.1
185.898	2034.45
185.974	2044.48
186.05	2037.63
186.126	1997.96
186.202	1994.2
186.278	1988.11
186.354	1979.94
186.43	1986.69
186.506	1984.74
186.582	1981.32
186.658	1987.12
186.734	1966.05
186.81	1971.23
186.886	1972.85
186.962	1984.69
187.038	1984.93
187.114	1977.31
187.19	1985.45
187.266	1975.51
187.341	1977.65
187.417	1970.19
187.493	1970.71
187.569	1970.52
187.645	1963.67
187.721	1953.73
187.797	1957.39
187.873	1963.43
187.949	1957.49
188.025	1951.31
188.101	1951.64
188.176	1959.25
188.252	1955.59
188.328	1963.48
188.404	1963.43
188.48	1961.1
188.556	1953.63
188.632	1950.07
188.707	1949.78
188.783	1946.83
188.859	1943.6
188.935	1930.33
189.011	1937.18
189.086	1932.28
189.162	1925.11
189.238	1924.44
189.314	1919.26
189.39	1911.98
189.465	1902.86
189.541	1918.31
189.617	1906.23
189.693	1902.62
189.768	1905.14
189.844	1928.69
189.92	1918.85
189.996	1927.79
190.071	1936.73
190.147	1936.82
190.223	1946.57
190.298	1940.48
190.374	1929.5
190.45	1941.95
190.526	1952.7
190.601	1946.71
190.677	1947.47
190.753	1976.49
190.828	1979.96
190.904	1996.46
190.98	2014.67
191.055	2025.42
191.131	2016.67
191.207	2034.17
191.282	2042.82
191.358	2034.17
191.433	2019.85
191.509	2031.4
191.585	2028.83
191.66	2033.3
191.736	2041.38
191.811	2033.25
191.887	2047.85
191.963	2070.21
192.038	2073.96
192.114	2071.82
192.189	2077.86
192.265	2074.91
192.34	2053.03
192.416	2050.36
192.491	2042.99
192.567	2042.18
192.642	2042.9
192.718	2044.08
192.793	2035.19
192.869	2032.96
192.944	2034.81
193.02	2040.47
193.095	2045.99
193.171	2053.45
193.246	2050.27
193.322	2047.22
193.397	2049.98
193.473	2038.23
193.548	2019.92
193.624	2023.25
193.699	2022.25
193.775	2034.9
193.85	2034.62
193.925	2040.94
194.001	2041.42
194.076	2039.42
194.152	2032.29
194.227	2028.01
194.302	2018.07
194.378	2017.41
194.453	2014.65
194.529	2026.49
194.604	2013.08
194.679	2007.71
194.755	1986.79
194.83	1998.73
194.905	1996.83
194.981	2003.1
195.056	1996.16
195.131	2001.35
195.207	2002.58
195.282	1994.36
195.357	1977.66
195.433	1993.02
195.508	1983.6
195.583	1990.59
195.659	1999.77
195.734	2003.15
195.809	2003.01
195.884	2015.84
195.96	2019.88
196.035	2034.34
196.11	2031.68
196.185	2045.04
196.261	2045.52
196.336	2076.14
196.411	2061.21
196.486	2066.44
196.561	2060.11
196.637	2067.67
196.712	2083.7
196.787	2085.65
196.862	2100.59
196.937	2110.34
197.013	2117.76
197.088	2129.22
197.163	2149.59
197.238	2168.58
197.313	2171.01
197.388	2180.09
197.464	2206.65
197.539	2215.97
197.614	2208.51
197.689	2219.93
197.764	2233.35
197.839	2253.57
197.914	2245.48
197.989	2269.12
198.065	2283.3
198.14	2332.97
198.215	2357.53
198.29	2369.05
198.365	2382.24
198.44	2392.56
198.515	2418.84
198.59	2433.6
198.665	2454.45
198.74	2462.12
198.815	2463.69
198.89	2484.11
198.965	2514.5
199.04	2507.83
199.115	2521.63
199.19	2563.68
199.265	2565.53
199.34	2573.44
199.415	2606.22
199.49	2629.64
199.565	2639.12
199.64	2661.27
199.715	2656.21
199.79	2660.4
199.865	2664.79
199.94	2663.5
200.015	2694.18
200.09	2699.28
200.165	2704.43
200.24	2712.19
200.315	2751.44
200.39	2764.44
200.464	2771.45
200.539	2772.97
200.614	2787.26
200.689	2810.61
200.764	2815.9
200.839	2834.76
200.914	2839.86
200.989	2829.56
201.063	2841.19
201.138	2824.38
201.213	2823.67
201.288	2805.99
201.363	2811.66
201.438	2815.52
201.512	2827.85
201.587	2810.08
201.662	2815.03
201.737	2824.47
201.812	2833.05
201.886	2800.05
201.961	2806.77
202.036	2796.77
202.111	2796.96
202.186	2770.72
202.26	2753.23
202.335	2729.83
202.41	2721.35
202.485	2707.06
202.559	2686.53
202.634	2662.57
202.709	2672.28
202.784	2655.9
202.858	2655.85
202.933	2642.65
203.008	2634.13
203.082	2619.03
203.157	2618.51
203.232	2574.89
203.306	2558.5
203.381	2527.54
203.456	2507.11
203.53	2486.62
203.605	2465.82
203.68	2442.38
203.754	2438.86
203.829	2428.05
203.904	2412.58
203.978	2400.44
204.053	2404.53
204.127	2394.97
204.202	2393.78
204.277	2376.5
204.351	2369.88
204.426	2360.55
204.5	2351.17
204.575	2319.2
204.65	2325.67
204.724	2319.48
204.799	2329.23
204.873	2324.9
204.948	2323.56
205.022	2311.34
205.097	2301.77
205.171	2312.99
205.246	2319.95
205.32	2319.76
205.395	2318.04
205.469	2306.67
205.544	2312.34
205.618	2297.25
205.693	2309.25
205.767	2298.11
205.842	2320.25
205.916	2314.39
205.991	2307.3
206.065	2312.87
206.14	2326.43
206.214	2324.19
206.289	2318.38
206.363	2329.14
206.438	2329.99
206.512	2337.32
206.586	2356.31
206.661	2369.41
206.735	2353.66
206.81	2353.56
206.884	2368.75
206.958	2357.04
207.033	2375.93
207.107	2387.36
207.181	2420.5
207.256	2417.98
207.33	2438.59
207.405	2451.55
207.479	2474.02
207.553	2484.3
207.628	2472.93
207.702	2495.35
207.776	2497.4
207.851	2506.83
207.925	2527.36
207.999	2536.46
208.073	2544.74
208.148	2559.84
208.222	2558.03
208.296	2600.98
208.371	2629.81
208.445	2653.25
208.519	2697.69
208.593	2726.42
208.668	2743.67
208.742	2767.38
208.816	2791.91
208.89	2829.1
208.965	2854.95
209.039	2891.48
209.113	2945.79
209.187	2997.39
209.261	3023.56
209.336	3077.55
209.41	3139.52
209.484	3184.18
209.558	3249.37
209.632	3311.2
209.707	3373.63
209.781	3449.52
209.855	3522.11
209.929	3600.96
210.003	3668.44
210.077	3739.09
210.151	3856.75
210.226	3961.79
210.3	4066.46
210.374	4168.4
210.448	4259.13
210.522	4351.3
210.596	4454.12
210.67	4548.62
210.744	4689.05
210.818	4822.55
210.892	4941.35
210.966	5036.63
211.041	5162.7
211.115	5267.5
211.189	5405.03
211.263	5536.07
211.337	5660.22
211.411	5796.04
211.485	5915.12
211.559	6057.56
211.633	6185.48
211.707	6292.65
211.781	6432.88
211.855	6535.31
211.929	6672.04
212.003	6790.82
212.077	6950.94
212.151	7109.48
212.225	7271.47
212.299	7416.58
212.373	7558.38
212.447	7715.81
212.52	7907.19
212.594	8073.38
212.668	8251.78
212.742	8404.53
212.816	8569.54
212.89	8740.85
212.964	8910.43
213.038	9086.29
213.112	9267.93
213.186	9454.43
213.26	9608.93
213.333	9744.5
213.407	9927.1
213.481	10104.67
213.555	10298.99
213.629	10464.09
213.703	10624.24
213.777	10803.86
213.85	10962.44
213.924	11173.16
213.998	11353.92
214.072	11525.84
214.146	11692.16
214.219	11866.63
214.293	12040.81
214.367	12225.22
214.441	12401.39
214.515	12567.3
214.588	12719.29
214.662	12868.09
214.736	13027.93
214.81	13197.27
214.883	13374.9
214.957	13520.86
215.031	13674.97
215.105	13813.66
215.178	13965.89
215.252	14120.39
215.326	14256.66
215.4	14394
215.473	14503.57
215.547	14635.02
215.621	14775.19
215.694	14922.69
215.768	15052.46
215.842	15191.81
215.915	15315.73
215.989	15433.78
216.063	15556.35
216.136	15695.65
216.21	15825.99
216.284	15972.08
216.357	16117.73
216.431	16250.23
216.504	16390.92
216.578	16545.97
216.652	16685.02
216.725	16817.51
216.799	16955.01
216.873	17080.94
216.946	17216.8
217.02	17349.58
217.093	17470.88
217.167	17571.17
217.24	17666.45
217.314	17780.91
217.387	17869.82
217.461	17967.17
217.535	18087.55
217.608	18195.84
217.682	18299.45
217.755	18412.94
217.829	18499.15
217.902	18595.1
217.976	18691.72
218.049	18793.5
218.123	18877.54
218.196	18980.28
218.27	19058.01
218.343	19138.39
218.417	19234.24
218.49	19324.5
218.563	19408.16
218.637	19502.38
218.71	19606.42
218.784	19712.2
218.857	19793.5
218.931	19895.27
219.004	19985.05
219.077	20079.7
219.151	20158.88
219.224	20239.94
219.298	20323.46
219.371	20407.46
219.444	20477.68
219.518	20554.98
219.591	20625.19
219.665	20713.06
219.738	20791.08
219.811	20858.46
219.885	20923.52
219.958	20994.37
220.031	21058.61
220.105	21132.88
220.178	21196.17
220.251	21247.06
220.325	21313.53
220.398	21385.3
220.471	21442.46
220.544	21504.73
220.618	21541.9
220.691	21604.31
220.764	21654.88
220.838	21708.04
220.911	21766.56
220.984	21834.48
221.057	21887.6
221.131	21939.41
221.204	21958.5
221.277	22012.44
221.35	22081.52
221.424	22126.5
221.497	22161.44
221.57	22190.13
221.643	22227.68
221.716	22268.85
221.79	22295.94
221.863	22320.19
221.936	22344.39
222.009	22371.43
222.082	22410.63
222.155	22444.85
222.229	22484.19
222.302	22512.01
222.375	22537.27
222.448	22565.52
222.521	22594.55
222.594	22620.73
222.667	22642.57
222.74	22687.02
222.814	22713.92
222.887	22732.1
222.96	22768.16
223.033	22809.97
223.106	22842.27
223.179	22870.71
223.252	22888.55
223.325	22920.04
223.398	22942.36
223.471	22974.66
223.544	23005.18
223.617	23021.62
223.69	23039.12
223.763	23047.51
223.837	23073.07
223.91	23101.08
223.983	23094.33
224.056	23098.53
224.129	23109.86
224.202	23119.5
224.275	23118.54
224.348	23114.39
224.42	23106.97
224.493	23097.8
224.566	23091.01
224.639	23104.12
224.712	23100.36
224.785	23105.42
224.858	23111.26
224.931	23120.95
225.004	23111.93
225.077	23108.7
225.15	23084.3
225.223	23095.49
225.296	23111.26
225.369	23099.69
225.442	23077.75
225.514	23091.68
225.587	23081.85
225.66	23078.86
225.733	23094.82
225.806	23088.5
225.879	23089.95
225.952	23085.56
226.025	23098.92
226.097	23116.85
226.17	23119.26
226.243	23096.89
226.316	23086.43
226.389	23090.96
226.461	23085.22
226.534	23086.38
226.607	23091.88
226.68	23116.13
226.753	23103.5
226.825	23078.18
226.898	23087.39
226.971	23081.9
227.044	23062.22
227.117	23062.71
227.189	23058.03
227.262	23049.59
227.335	23060.34
227.407	23044.14
227.48	23040.43
227.553	23036.28
227.626	23020.32
227.698	22996.74
227.771	23002.48
227.844	22992.26
227.916	22966.32
227.989	22952.05
228.062	22933.73
228.134	22937.15
228.207	22920.9
228.28	22901.32
228.352	22889.8
228.425	22880.98
228.498	22888.89
228.57	22886.86
228.643	22885.37
228.716	22878.71
228.788	22866.47
228.861	22839.51
228.934	22839.51
229.006	22829.68
229.079	22811.79
229.151	22792.55
229.224	22767.77
229.296	22763.38
229.369	22771.58
229.442	22788.75
229.514	22756.54
229.587	22758.32
229.659	22720.28
229.732	22707.85
229.804	22711.7
229.877	22720.04
229.949	22712.71
230.022	22717.63
230.094	22702.88
230.167	22689.96
230.239	22666.96
230.312	22641.7
230.384	22651.63
230.457	22643.29
230.529	22626.27
230.602	22600.34
230.674	22585.15
230.747	22591.75
230.819	22574.01
230.892	22529.37
230.964	22499.33
231.037	22498.27
231.109	22475.23
231.181	22476.05
231.254	22451.56
231.326	22426.49
231.399	22401.13
231.471	22366.85
231.544	22322.88
231.616	22315.46
231.688	22291.12
231.761	22261.57
231.833	22239.01
231.905	22199.28
231.978	22172.72
232.05	22162.31
232.122	22145.34
232.195	22115.4
232.267	22100.94
232.339	22078.72
232.412	22076.74
232.484	22051.19
232.556	22024.87
232.629	22021.45
232.701	21999.47
232.773	21983.66
232.846	21965.39
232.918	21944.61
232.99	21929.14
233.062	21908.7
233.135	21881.22
233.207	21851.63
233.279	21832.2
233.351	21821.21
233.424	21797.74
233.496	21757.78
233.568	21749.44
233.64	21713.87
233.713	21692.47
233.785	21668.17
233.857	21648.6
233.929	21613.08
234.001	21604.93
234.074	21589.7
234.146	21551.53
234.218	21525.31
234.29	21496.58
234.362	21460.58
234.434	21424.28
234.507	21389.34
234.579	21350.92
234.651	21318.63
234.723	21303.74
234.795	21291.25
234.867	21260.26
234.939	21241.56
235.012	21225.32
235.084	21193.84
235.156	21173.27
235.228	21129.21
235.3	21092.58
235.372	21065.45
235.444	21047.13
235.516	20992.62
235.588	20958.84
235.66	20925.39
235.732	20883.22
235.804	20894.02
235.876	20869.05
235.948	20853.29
236.02	20820.86
236.092	20788.76
236.164	20751.94
236.236	20701.87
236.308	20660.9
236.38	20633.58
236.452	20595.69
236.524	20568.22
236.596	20544.17
236.668	20519.45
236.74	20502.78
236.812	20477.91
236.884	20448.17
236.956	20411.93
237.028	20372.32
237.1	20331.02
237.172	20313.38
237.244	20298.06
237.316	20237.38
237.388	20203.55
237.46	20160.37
237.532	20134.83
237.604	20096.37
237.675	20084.42
237.747	20072.71
237.819	20035.75
237.891	19991.94
237.963	19948.33
238.035	19907.41
238.107	19842.69
238.178	19820.33
238.25	19770.31
238.322	19753.78
238.394	19697.11
238.466	19662.03
238.538	19637.5
238.609	19616.82
238.681	19559.28
238.753	19517.99
238.825	19484.93
238.897	19453.31
238.968	19432.98
239.04	19396.98
239.112	19378.14
239.184	19323.15
239.255	19273.57
239.327	19242.77
239.399	19219.54
239.471	19194.73
239.542	19160.95
239.614	19141.77
239.686	19080.95
239.758	19066.49
239.829	19018.83
239.901	19004.47
239.973	18964.33
240.044	18924.09
240.116	18882.55
240.188	18853.78
240.259	18814.75
240.331	18773.11
240.403	18741.55
240.474	18677.51
240.546	18634.86
240.618	18585.37
240.689	18556.02
240.761	18526.86
240.833	18502.77
240.904	18459.45
240.976	18412.7
241.048	18379.45
241.119	18356.32
241.191	18327.07
241.262	18308.85
241.334	18269.29
241.405	18226.93
241.477	18184.42
241.549	18154.16
241.62	18130.16
241.692	18094.6
241.763	18064.67
241.835	18022.26
241.906	17988.24
241.978	17949.44
242.049	17926.94
242.121	17903.04
242.192	17870.94
242.264	17817.45
242.335	17767.76
242.407	17741.45
242.478	17706.65
242.55	17674.7
242.621	17626.27
242.693	17595.09
242.764	17552.49
242.836	17516.1
242.907	17491.33
242.979	17466.27
243.05	17432.54
243.122	17401.55
243.193	17364.3
243.264	17312.2
243.336	17275.48
243.407	17243.09
243.479	17227.62
243.55	17190.8
243.622	17158.61
243.693	17123.23
243.764	17106.61
243.836	17065.01
243.907	17022.75
243.978	16987.42
244.05	16952.05
244.121	16899.27
244.192	16867.37
244.264	16801.48
244.335	16762.2
244.407	16710.15
244.478	16670.92
244.549	16634
244.62	16574.48
244.692	16535.93
244.763	16509.56
244.834	16475.25
244.906	16436.26
244.977	16411.39
245.048	16390.85
245.119	16345.98
245.191	16311.57
245.262	16260.24
245.333	16244.77
245.405	16213.63
245.476	16184.23
245.547	16155.31
245.618	16127.41
245.689	16093.33
245.761	16070.19
245.832	16033.61
245.903	15997.94
245.974	15973.36
246.045	15935.62
246.117	15920.54
246.188	15879.52
246.259	15835.17
246.33	15799.75
246.401	15766.05
246.473	15707.54
246.544	15660.16
246.615	15639.1
246.686	15593.55
246.757	15571.91
246.828	15525.92
246.899	15505.1
246.97	15463.69
247.042	15418.63
247.113	15399.97
247.184	15391.01
247.255	15355.82
247.326	15321.93
247.397	15295.76
247.468	15260.14
247.539	15226.25
247.61	15182.87
247.681	15176.8
247.752	15169.23
247.823	15135.68
247.894	15097.6
247.965	15068
248.037	15035.56
248.108	14990.64
248.179	14963.69
248.25	14935.15
248.321	14911.05
248.392	14870.32
248.463	14859.76
248.534	14833.16
248.605	14808.48
248.675	14770.68
248.746	14745.96
248.817	14725.57
248.888	14700.84
248.959	14653.6
249.03	14640.29
249.101	14611.46
249.172	14566.2
249.243	14512.26
249.314	14493.75
249.385	14472.49
249.456	14445.93
249.527	14416.81
249.598	14402.16
249.669	14374.3
249.739	14350
249.81	14328.74
249.881	14291.43
249.952	14265.3
250.023	14236.81
250.094	14195.79
250.165	14160.79
250.235	14130.33
250.306	14108.73
250.377	14076.38
250.448	14063.66
250.519	14015.07
250.59	14008.56
250.66	13972.21
250.731	13962.71
250.802	13936.54
250.873	13909.59
250.944	13887.32
251.014	13861.29
251.085	13853.62
251.156	13839.31
251.227	13820.99
251.297	13805.8
251.368	13790.33
251.439	13769.17
251.51	13761.74
251.58	13733.88
251.651	13703.46
251.722	13694.4
251.792	13648.75
251.863	13620.45
251.934	13612.54
252.005	13624.21
252.075	13590.99
252.146	13589.69
252.217	13580.29
252.287	13562.31
252.358	13541.73
252.429	13533.87
252.499	13503.89
252.57	13478.38
252.641	13454.71
252.711	13439.63
252.782	13399.28
252.852	13393.2
252.923	13366.79
252.994	13337.43
253.064	13321.62
253.135	13289.17
253.205	13257.02
253.276	13255.04
253.347	13244.53
253.417	13204.04
253.488	13169.28
253.558	13141.61
253.629	13110.42
253.699	13081.89
253.77	13062.94
253.841	13040.04
253.911	13022.3
253.982	13003.02
254.052	12989.57
254.123	12968.02
254.193	12937.46
254.264	12947.1
254.334	12912.68
254.405	12883.61
254.475	12846.45
254.546	12821.53
254.616	12818.25
254.687	12807.11
254.757	12785.61
254.827	12757.99
254.898	12746.04
254.968	12713.59
255.039	12690.31
255.109	12672.76
255.18	12643.7
255.25	12602.05
255.321	12587.06
255.391	12542.66
255.461	12542.76
255.532	12496.91
255.602	12477.44
255.673	12431.55
255.743	12402.24
255.813	12361.03
255.884	12347.29
255.954	12338.61
256.024	12331.81
256.095	12303.66
256.165	12270.6
256.235	12255.8
256.306	12233.48
256.376	12227.45
256.446	12218.05
256.517	12201.04
256.587	12196.56
256.657	12186.82
256.728	12173.18
256.798	12147.53
256.868	12128.83
256.938	12098.9
257.009	12086.37
257.079	12068.53
257.149	12078.22
257.219	12036.81
257.29	12019.99
257.36	11984.03
257.43	11970.25
257.5	11930.72
257.571	11909.85
257.641	11895.44
257.711	11866.57
257.781	11852.16
257.852	11826.95
257.922	11794.22
257.992	11771.37
258.062	11748.91
258.132	11730.31
258.202	11713.53
258.273	11696.28
258.343	11697.24
258.413	11669.58
258.483	11648.37
258.553	11618.63
258.623	11594.34
258.693	11584.51
258.764	11582.77
258.834	11580.36
258.904	11565.37
258.974	11545.13
259.044	11521.42
259.114	11502.19
259.184	11482.91
259.254	11461.75
259.324	11432.35
259.394	11420.78
259.464	11423
259.535	11393.94
259.605	11370.08
259.675	11340.2
259.745	11325.84
259.815	11294.46
259.885	11274.46
259.955	11286.51
260.025	11259.09
260.095	11245.12
260.165	11231.86
260.235	11234.56
260.305	11210.47
260.375	11179.67
260.445	11182.51
260.515	11183.53
260.585	11180.83
260.655	11165.5
260.725	11159.62
260.795	11148.97
260.865	11154.37
260.934	11130.56
261.004	11125.55
261.074	11105.74
261.144	11107.58
261.214	11102.13
261.284	11086.32
261.354	11076.88
261.424	11045.94
261.494	11055.53
261.564	11039.81
261.634	11029.02
261.703	10985.31
261.773	10975.29
261.843	10965.94
261.913	10941.65
261.983	10905.42
262.053	10890.38
