Data from 20250702_urea_0.5M_MAYP1162681_05-35-00-021.txt Node
Date: Thu Jul 03 05:35:00 BST 2025
User: adleo
Spectrometer: MAYP116268
Trigger mode: 0
Integration Time (sec): 1.000000E0
Scans to average: 1
Electric dark correction enabled: true
Nonlinearity correction enabled: true
Boxcar width: 10
XAxis mode: Wavelengths
Number of Pixels in Spectrum: 2068
>>>>>Begin Spectral Data<<<<<
179.565	1164.3
179.642	1220.03
179.718	1262.35
179.795	1298.77
179.871	1331.67
179.948	1348.91
180.024	1371.35
180.101	1392.51
180.177	1406.83
180.254	1429.19
180.33	1450.99
180.407	1500.22
180.483	1591.67
180.56	1677.57
180.636	1758.18
180.712	1747.44
180.789	1759.18
180.865	1771.15
180.942	1779.94
181.018	1788.49
181.095	1801.99
181.171	1804.99
181.248	1804.61
181.324	1817.49
181.4	1825.52
181.477	1833.03
181.553	1847.1
181.63	1866.83
181.706	1882.8
181.782	1886.99
181.859	1885.8
181.935	1890.27
182.011	1889.98
182.088	1908.38
182.164	1929.36
182.24	1943.61
182.317	1953.26
182.393	1951.36
182.469	1964.91
182.546	1978.84
182.622	1982.88
182.698	1975.94
182.775	1990.35
182.851	2004.62
182.927	1996.91
183.003	1991.97
183.08	1987.88
183.156	1995.58
183.232	1989.54
183.308	1978.04
183.385	1993.58
183.461	2010.89
183.537	2012.84
183.613	2022.02
183.69	2009.37
183.766	1997.38
183.842	2004.71
183.918	2011.51
183.995	2024.06
184.071	2026.53
184.147	2020.49
184.223	2010.04
184.299	2026.02
184.375	2012.7
184.452	2016.75
184.528	2075.08
184.604	2085.2
184.68	2096.76
184.756	2102.7
184.832	2107.84
184.908	2113.26
184.985	2108.17
185.061	2092.81
185.137	2100.33
185.213	2090.82
185.289	2095.66
185.365	2088.3
185.441	2086.25
185.517	2097.95
185.593	2094.58
185.669	2091.96
185.745	2101.81
185.822	2117.54
185.898	2106.89
185.974	2117.58
186.05	2110.21
186.126	2068.1
186.202	2061.02
186.278	2055.88
186.354	2046.98
186.43	2053.65
186.506	2052.22
186.582	2051.46
186.658	2056.21
186.734	2037.43
186.81	2039.62
186.886	2041.23
186.962	2054.98
187.038	2053.74
187.114	2046.13
187.19	2053.26
187.266	2044.94
187.341	2047.94
187.417	2042.71
187.493	2042.09
187.569	2046.04
187.645	2041.28
187.721	2028.77
187.797	2038.57
187.873	2045.99
187.949	2039.62
188.025	2032.53
188.101	2034
188.176	2038.76
188.252	2035.95
188.328	2044.03
188.404	2044.27
188.48	2037.9
188.556	2029.72
188.632	2026.58
188.707	2026.39
188.783	2024.06
188.859	2018.45
188.935	2002.66
189.011	2010.27
189.086	2002.9
189.162	1992.58
189.238	1992.34
189.314	1991.58
189.39	1984.97
189.465	1977.69
189.541	1994.96
189.617	1984.54
189.693	1979.88
189.768	1981.31
189.844	2005.52
189.92	1997.78
189.996	2007.24
190.071	2020.22
190.147	2019.7
190.223	2029.64
190.298	2027.07
190.374	2013.14
190.45	2025.5
190.526	2037.34
190.601	2031.49
190.677	2034.01
190.753	2063.42
190.828	2066.61
190.904	2081.59
190.98	2096.1
191.055	2105.71
191.131	2097.62
191.207	2113.88
191.282	2124.58
191.358	2118.16
191.433	2103.27
191.509	2115.39
191.585	2113.2
191.66	2112.78
191.736	2121.34
191.811	2113.2
191.887	2126.53
191.963	2148.36
192.038	2152.02
192.114	2152.64
192.189	2156.02
192.265	2155.92
192.34	2128.75
192.416	2128.51
192.491	2125.08
192.567	2127.13
192.642	2129.84
192.718	2129.18
192.793	2116.76
192.869	2113.1
192.944	2116.76
193.02	2122.95
193.095	2127.08
193.171	2132.32
193.246	2132.36
193.322	2129.99
193.397	2131.17
193.473	2116.28
193.548	2100.63
193.624	2109.15
193.699	2107.48
193.775	2121.95
193.85	2120.19
193.925	2131.41
194.001	2128.94
194.076	2121.76
194.152	2111.96
194.227	2102.73
194.302	2094.55
194.378	2098.4
194.453	2095.31
194.529	2105.97
194.604	2093.17
194.679	2087.51
194.755	2069.44
194.83	2083.24
194.905	2079.2
194.981	2086.24
195.056	2076.54
195.131	2081.77
195.207	2076.11
195.282	2068.31
195.357	2051.75
195.433	2068.4
195.508	2055.89
195.583	2062.26
195.659	2077.15
195.734	2085.95
195.809	2088.09
195.884	2096.6
195.96	2098.84
196.035	2112.01
196.11	2109.11
196.185	2120.24
196.261	2123.57
196.336	2149.64
196.411	2138.74
196.486	2143.87
196.561	2138.21
196.637	2150.1
196.712	2168.19
196.787	2175.28
196.862	2187.88
196.937	2197.97
197.013	2202.44
197.088	2213.48
197.163	2236.46
197.238	2252.37
197.313	2251.08
197.388	2260.89
197.464	2293.88
197.539	2303.34
197.614	2298.4
197.689	2310.68
197.764	2330.15
197.839	2349.99
197.914	2346.23
197.989	2366.13
198.065	2380.98
198.14	2430.94
198.215	2456.7
198.29	2465.41
198.365	2474.03
198.44	2486.5
198.515	2513.07
198.59	2528.88
198.665	2554.74
198.74	2561.6
198.815	2561.45
198.89	2583.55
198.965	2616.27
199.04	2607.08
199.115	2623.46
199.19	2667.42
199.265	2667.75
199.34	2673.8
199.415	2706.97
199.49	2729.31
199.565	2737.36
199.64	2761.04
199.715	2756.37
199.79	2765.51
199.865	2774.42
199.94	2778
200.015	2807.35
200.09	2812.36
200.165	2819.89
200.24	2826.13
200.315	2865.62
200.39	2881.68
200.464	2888.26
200.539	2889.69
200.614	2907.22
200.689	2931.2
200.764	2933.54
200.839	2953.26
200.914	2959.22
200.989	2947.1
201.063	2960.26
201.138	2943.44
201.213	2939.97
201.288	2921.33
201.363	2922.33
201.438	2920.52
201.512	2935.53
201.587	2918.94
201.662	2919.56
201.737	2930.76
201.812	2942.49
201.886	2908.48
201.961	2917.35
202.036	2905.34
202.111	2902.34
202.186	2874.28
202.26	2854.78
202.335	2836.24
202.41	2830.47
202.485	2812.71
202.559	2793.84
202.634	2768.72
202.709	2777.68
202.784	2762.38
202.858	2763.86
202.933	2745.66
203.008	2736.23
203.082	2715.79
203.157	2713.6
203.232	2675.17
203.306	2653.34
203.381	2618.61
203.456	2596.17
203.53	2573.29
203.605	2552.53
203.68	2530.9
203.754	2525.48
203.829	2513.19
203.904	2492.71
203.978	2479.71
204.053	2484.71
204.127	2473.76
204.202	2472.38
204.277	2454.1
204.351	2447.05
204.426	2438
204.5	2432.86
204.575	2401.78
204.65	2410.83
204.724	2403.92
204.799	2413.53
204.873	2408.15
204.948	2409.06
205.022	2398.78
205.097	2393.02
205.171	2405.48
205.246	2409.63
205.32	2408.68
205.395	2407.01
205.469	2399.02
205.544	2403.35
205.618	2385.5
205.693	2394.4
205.767	2381.74
205.842	2404.07
205.916	2401.07
205.991	2391.27
206.065	2394.6
206.14	2410.63
206.214	2405.58
206.289	2399.53
206.363	2410.24
206.438	2414.67
206.512	2422.01
206.586	2441.09
206.661	2447.48
206.735	2428.06
206.81	2431.82
206.884	2446.01
206.958	2435.16
207.033	2452.48
207.107	2463.72
207.181	2495.11
207.256	2492.2
207.33	2513.2
207.405	2524.73
207.479	2543.21
207.553	2556.44
207.628	2542.74
207.702	2557.4
207.776	2556.88
207.851	2563.26
207.925	2581.7
207.999	2584.65
208.073	2583.89
208.148	2591.94
208.222	2585.55
208.296	2621.5
208.371	2640.71
208.445	2658.43
208.519	2694.87
208.593	2714.64
208.668	2714.02
208.742	2730.52
208.816	2743.28
208.89	2764.49
208.965	2773.98
209.039	2791.28
209.113	2817.4
209.187	2854.31
209.261	2863.31
209.336	2898.59
209.41	2934.16
209.484	2950.89
209.558	2988.52
209.632	3021.88
209.707	3054.69
209.781	3098.18
209.855	3139.54
209.929	3180.98
210.003	3215.47
210.077	3240.85
210.151	3315.3
210.226	3382.52
210.3	3435.73
210.374	3491.75
210.448	3530.8
210.522	3574.25
210.596	3623.67
210.67	3671.42
210.744	3755.41
210.818	3833.14
210.892	3896.6
210.966	3933.67
211.041	3996.31
211.115	4037.93
211.189	4110.33
211.263	4173.57
211.337	4229.26
211.411	4291.19
211.485	4339.08
211.559	4405.51
211.633	4462.3
211.707	4485.7
211.781	4553.94
211.855	4582.08
211.929	4636.04
212.003	4681
212.077	4757.13
212.151	4831.73
212.225	4909.74
212.299	4966.9
212.373	5022.27
212.447	5083.79
212.52	5186.12
212.594	5255.89
212.668	5342.03
212.742	5406.16
212.816	5476.91
212.89	5550.53
212.964	5629.18
213.038	5708.94
213.112	5801.52
213.186	5896.42
213.26	5960.28
213.333	5992.33
213.407	6075.77
213.481	6163.99
213.555	6260.64
213.629	6332.27
213.703	6407.11
213.777	6486.29
213.85	6549.58
213.924	6665.14
213.998	6753.18
214.072	6830.44
214.146	6910.09
214.219	6995.46
214.293	7075.06
214.367	7161.17
214.441	7248.19
214.515	7315.34
214.588	7381.18
214.662	7426.75
214.736	7490.68
214.81	7583.24
214.883	7684.27
214.957	7754.84
215.031	7812.91
215.105	7870.31
215.178	7939.42
215.252	8007.67
215.326	8064.67
215.4	8131.38
215.473	8165.97
215.547	8223.9
215.621	8288.2
215.694	8369.96
215.768	8426.02
215.842	8488.91
215.915	8553.98
215.989	8609.43
216.063	8683.41
216.136	8759.84
216.21	8838.29
216.284	8928.79
216.357	9003.12
216.431	9068.4
216.504	9156.6
216.578	9264.88
216.652	9352.84
216.725	9426.94
216.799	9516.33
216.873	9594.72
216.946	9668.54
217.02	9736.78
217.093	9807.29
217.167	9861.52
217.24	9918.41
217.314	9989.22
217.387	10057.23
217.461	10122.98
217.535	10211.62
217.608	10266.49
217.682	10332.97
217.755	10407.89
217.829	10461.42
217.902	10531.86
217.976	10599.41
218.049	10667.06
218.123	10715.92
218.196	10788.05
218.27	10850.12
218.343	10897.3
218.417	10971.13
218.49	11042.64
218.563	11129.86
218.637	11207.94
218.71	11299.89
218.784	11372.47
218.857	11451.8
218.931	11523.37
219.004	11587.08
219.077	11650.9
219.151	11732.4
219.224	11793.9
219.298	11862.92
219.371	11942.93
219.444	11993.54
219.518	12063.62
219.591	12125.51
219.665	12226.65
219.738	12293.07
219.811	12352.65
219.885	12436.23
219.958	12505.45
220.031	12571.68
220.105	12635.94
220.178	12692.48
220.251	12747.49
220.325	12812.81
220.398	12876.1
220.471	12943.59
220.544	13029.54
220.618	13092.54
220.691	13153.47
220.764	13218.36
220.838	13280.74
220.911	13338.2
220.984	13419.67
221.057	13484.55
221.131	13553.92
221.204	13583.33
221.277	13658.53
221.35	13755.96
221.424	13807.92
221.497	13873.96
221.57	13934.03
221.643	13997.66
221.716	14067.8
221.79	14118.18
221.863	14177.18
221.936	14229.1
222.009	14285.93
222.082	14332.6
222.155	14381.91
222.229	14452.82
222.302	14513.32
222.375	14579.65
222.448	14638.75
222.521	14699.15
222.594	14751.01
222.667	14793.19
222.74	14853.54
222.814	14903.92
222.887	14942.48
222.96	15001.24
223.033	15061.3
223.106	15113.31
223.179	15166.43
223.252	15219.74
223.325	15277.25
223.398	15333.26
223.471	15392.21
223.544	15447.93
223.617	15502.93
223.69	15557.44
223.763	15587.62
223.837	15641.6
223.91	15683.01
223.983	15718
224.056	15746.87
224.129	15797.87
224.202	15852.91
224.275	15891.86
224.348	15927.09
224.42	15956.06
224.493	15978.57
224.566	16000.89
224.639	16048.99
224.712	16087.45
224.785	16121.86
224.858	16153.43
224.931	16187.46
225.004	16212.04
225.077	16256.24
225.15	16269.78
225.223	16311.76
225.296	16373.74
225.369	16390.37
225.442	16418.57
225.514	16453.51
225.587	16496.5
225.66	16537.56
225.733	16563.69
225.806	16593.38
225.879	16619.45
225.952	16658.15
226.025	16714.59
226.097	16765.48
226.17	16803.94
226.243	16817.53
226.316	16857.15
226.389	16898.55
226.461	16937.54
226.534	16980.72
226.607	17004.67
226.68	17066.03
226.753	17093.45
226.825	17110.32
226.898	17171.57
226.971	17210.32
227.044	17253.16
227.117	17292.63
227.189	17332.34
227.262	17385.11
227.335	17436.25
227.407	17473.6
227.48	17498.08
227.553	17533.6
227.626	17564.68
227.698	17585.69
227.771	17620.2
227.844	17640.87
227.916	17672.15
227.989	17687.28
228.062	17709.98
228.134	17763.57
228.207	17781.26
228.28	17811.91
228.352	17833.06
228.425	17854.22
228.498	17884.82
228.57	17903.71
228.643	17943.42
228.716	17958.5
228.788	17980.38
228.861	17990.17
228.934	18026.31
229.006	18063.61
229.079	18072.67
229.151	18081.34
229.224	18099.61
229.296	18127.37
229.369	18173.24
229.442	18204.95
229.514	18218.98
229.587	18257.48
229.659	18258.69
229.732	18294.59
229.804	18321
229.877	18373.43
229.949	18402.77
230.022	18448.7
230.094	18476.84
230.167	18505.47
230.239	18513.27
230.312	18525.22
230.384	18576.16
230.457	18598.04
230.529	18611.97
230.602	18636.25
230.674	18664.59
230.747	18701.21
230.819	18734.03
230.892	18724.2
230.964	18753.4
231.037	18776.2
231.109	18792.87
231.181	18822.17
231.254	18824.73
231.326	18839.38
231.399	18850.56
231.471	18859.81
231.544	18842.7
231.616	18859.95
231.688	18864.19
231.761	18882.26
231.833	18897.06
231.905	18878.51
231.978	18897.83
232.05	18908.09
232.122	18933.15
232.195	18938.5
232.267	18955.03
232.339	18964.76
232.412	18986.31
232.484	18979.94
232.556	18992.91
232.629	19021.73
232.701	19034.3
232.773	19045
232.846	19047.75
232.918	19050.83
232.99	19057.48
233.062	19082.73
233.135	19094.88
233.207	19093.48
233.279	19106.73
233.351	19117.53
233.424	19129.14
233.496	19121.38
233.568	19148.95
233.64	19126.54
233.713	19129.86
233.785	19119.89
233.857	19121.29
233.929	19113.14
234.001	19134.34
234.074	19143.5
234.146	19118.59
234.218	19112.95
234.29	19109.48
234.362	19103.79
234.434	19080.52
234.507	19070.78
234.579	19049.53
234.651	19037.1
234.723	19040.62
234.795	19037.44
234.867	19028.95
234.939	19034.11
235.012	19026.5
235.084	19020.18
235.156	19033.87
235.228	19028.66
235.3	19029.92
235.372	19026.16
235.444	19029.53
235.516	18995.41
235.588	18990.93
235.66	18990.64
235.732	18970.74
235.804	19015.03
235.876	19015.36
235.948	19027.41
236.02	19021.39
236.092	19009.97
236.164	18999.32
236.236	18984.76
236.308	18973.97
236.38	18968.38
236.452	18939.37
236.524	18936.57
236.596	18947.42
236.668	18939.42
236.74	18927.27
236.812	18917.88
236.884	18906.12
236.956	18892.38
237.028	18880.39
237.1	18857.45
237.172	18860.72
237.244	18869.78
237.316	18818.51
237.388	18797.5
237.46	18773.98
237.532	18777.69
237.604	18754.61
237.675	18760.97
237.747	18753.69
237.819	18730.32
237.891	18712.92
237.963	18695.53
238.035	18665.31
238.107	18601.32
238.178	18597.08
238.25	18569.32
238.322	18569.7
238.394	18536.69
238.466	18518.62
238.538	18503.44
238.609	18494.58
238.681	18447.83
238.753	18408.94
238.825	18391.11
238.897	18374.34
238.968	18368.56
239.04	18330.01
239.112	18339.16
239.184	18300.42
239.255	18265.82
239.327	18254.11
239.399	18229.82
239.471	18220.47
239.542	18211.27
239.614	18209.24
239.686	18159.75
239.758	18152.81
239.829	18119.8
239.901	18109.1
239.973	18086.11
240.044	18062.16
240.116	18035.27
240.188	18008.09
240.259	17990.31
240.331	17965.73
240.403	17939.95
240.474	17902.17
240.546	17863.18
240.618	17818.46
240.689	17791.86
240.761	17772
240.833	17756.63
240.904	17725.59
240.976	17704.25
241.048	17668.73
241.119	17648.87
241.191	17620.39
241.262	17608.2
241.334	17575.91
241.405	17547.38
241.477	17511.62
241.549	17480.68
241.62	17455.09
241.692	17438.42
241.763	17425.41
241.835	17390.08
241.906	17365.6
241.978	17332.2
242.049	17319.19
242.121	17303.67
242.192	17289.02
242.264	17247.72
242.335	17202.27
242.407	17182.17
242.478	17144.58
242.55	17124.97
242.621	17093.45
242.693	17072.29
242.764	17038.94
242.836	17001.88
242.907	16979.66
242.979	16961.35
243.05	16940.67
243.122	16922.36
243.193	16892.53
243.264	16830.21
243.336	16798.93
243.407	16774.5
243.479	16761
243.55	16747.36
243.622	16724.13
243.693	16697.96
243.764	16683.65
243.836	16650.39
243.907	16622.29
243.978	16592.41
244.05	16574.77
244.121	16518.62
244.192	16492.5
244.264	16448.64
244.335	16425.65
244.407	16377.07
244.478	16344.34
244.549	16312.58
244.62	16263.13
244.692	16233.92
244.763	16218.98
244.834	16189.1
244.906	16158.69
244.977	16130.54
245.048	16113.52
245.119	16070.87
245.191	16022.72
245.262	15968.83
245.333	15950.66
245.405	15922.42
245.476	15894.36
245.547	15860.87
245.618	15846.7
245.689	15821.68
245.761	15792.52
245.832	15753.77
245.903	15732.75
245.974	15706.48
246.045	15675.01
246.117	15668.98
246.188	15618.61
246.259	15578.07
246.33	15542.4
246.401	15506.06
246.473	15456.08
246.544	15405.76
246.615	15389.22
246.686	15352.2
246.757	15342.47
246.828	15299.52
246.899	15269.83
246.97	15223.94
247.042	15181.86
247.113	15154.53
247.184	15135.34
247.255	15101.55
247.326	15077.79
247.397	15048.67
247.468	15022.26
247.539	14997
247.61	14944.94
247.681	14933.42
247.752	14916.69
247.823	14876.39
247.894	14848.73
247.965	14807.27
248.037	14777.09
248.108	14728.41
248.179	14703.39
248.25	14669.45
248.321	14645.88
248.392	14610.16
248.463	14610.98
248.534	14581.09
248.605	14565.14
248.675	14531.25
248.746	14508.6
248.817	14486.47
248.888	14463.43
248.959	14414.31
249.03	14391.46
249.101	14375.69
249.172	14337.52
249.243	14292.64
249.314	14286.56
249.385	14262.65
249.456	14256.05
249.527	14224.81
249.598	14203.6
249.669	14177.52
249.739	14155.44
249.81	14134.86
249.881	14108.15
249.952	14075.37
250.023	14049.39
250.094	14005.86
250.165	13977.85
250.235	13942.61
250.306	13918.08
250.377	13879.94
250.448	13864.18
250.519	13816.46
250.59	13800.79
250.66	13772.93
250.731	13768.06
250.802	13740.87
250.873	13720.28
250.944	13693.43
251.014	13667.79
251.085	13665.09
251.156	13647.06
251.227	13642.38
251.297	13633.27
251.368	13615.87
251.439	13600.83
251.51	13594.18
251.58	13558.31
251.651	13531.12
251.722	13528.62
251.792	13483.69
251.863	13458.62
251.934	13452.83
252.005	13455.39
252.075	13433.07
252.146	13426.03
252.217	13411.38
252.287	13399.18
252.358	13373.87
252.429	13369.15
252.499	13335.5
252.57	13312.17
252.641	13302.09
252.711	13267.05
252.782	13232.39
252.852	13226.07
252.923	13200.28
252.994	13176.08
253.064	13167.11
253.135	13131.49
253.205	13096.54
253.276	13095.62
253.347	13090.18
253.417	13057.98
253.488	13028.57
253.558	12999.74
253.629	12976.51
253.699	12953.27
253.77	12938.81
253.841	12910.75
253.911	12883.23
253.982	12871.71
254.052	12858.45
254.123	12835.02
254.193	12813.81
254.264	12821.67
254.334	12790.24
254.405	12759.34
254.475	12725.79
254.546	12701.25
254.616	12690.55
254.687	12674.16
254.757	12656.13
254.827	12628.42
254.898	12608.17
254.968	12587.73
255.039	12553.94
255.109	12543.38
255.18	12511.86
255.25	12463.75
255.321	12452.04
255.391	12420.65
255.461	12417.91
255.532	12369.7
255.602	12344.06
255.673	12306.17
255.743	12275.42
255.813	12231.74
255.884	12218.05
255.954	12206.24
256.024	12204.8
256.095	12182.96
256.165	12153.46
256.235	12135.1
256.306	12115.67
256.376	12110.56
256.446	12103.67
256.517	12091.04
256.587	12079.91
256.657	12066.84
256.728	12046.12
256.798	12023.32
256.868	12002.06
256.938	11973.43
257.009	11961.28
257.079	11947.21
257.149	11952.94
257.219	11911.49
257.29	11897.71
257.36	11862.81
257.43	11852.01
257.5	11812.59
257.571	11795.86
257.641	11783.38
257.711	11756
257.781	11739.66
257.852	11723.42
257.922	11680.13
257.992	11661.34
258.062	11634.39
258.132	11624.95
258.202	11610.63
258.273	11597.28
258.343	11590.05
258.413	11567.3
258.483	11554.53
258.553	11520.98
258.623	11493.13
258.693	11479.73
258.764	11475
258.834	11472.74
258.904	11450.76
258.974	11421.56
259.044	11397.99
259.114	11379.29
259.184	11364.83
259.254	11346.42
259.324	11300.78
259.394	11291.62
259.464	11287.09
259.535	11270.51
259.605	11243.86
259.675	11217.07
259.745	11202.17
259.815	11177.07
259.885	11150.9
259.955	11158.51
260.025	11136.11
260.095	11115.33
260.165	11106.37
260.235	11107.38
260.305	11081.5
260.375	11049.6
260.445	11060.06
260.515	11061.41
260.585	11056.93
260.655	11034.81
260.725	11024.06
260.795	11023.92
260.865	11025.65
260.934	11001.65
261.004	10983.05
261.074	10965.65
261.144	10958.67
261.214	10953.9
261.284	10935.49
261.354	10927.25
261.424	10892.07
261.494	10895.82
261.564	10881.27
261.634	10871.68
261.703	10832.75
261.773	10824.12
261.843	10825.52
261.913	10800.85
261.983	10762.25
262.053	10757.33
262.123	10745.91
262.192	10715.61
262.262	10705.49
262.332	10672.19
