Data from 20250702_urea_0.5M_MAYP1162681_09-34-59-879.txt Node
Date: Thu Jul 03 09:34:59 BST 2025
User: adleo
Spectrometer: MAYP116268
Trigger mode: 0
Integration Time (sec): 1.000000E0
Scans to average: 1
Electric dark correction enabled: true
Nonlinearity correction enabled: true
Boxcar width: 10
XAxis mode: Wavelengths
Number of Pixels in Spectrum: 2068
>>>>>Begin Spectral Data<<<<<
179.565	1173.09
179.642	1229.94
179.718	1273.05
179.795	1310.71
179.871	1341.36
179.948	1358.94
180.024	1377.22
180.101	1399.12
180.177	1410.99
180.254	1434.05
180.33	1455.58
180.407	1506.14
180.483	1601.16
180.56	1689.24
180.636	1770.71
180.712	1756.21
180.789	1765.28
180.865	1775.5
180.942	1780.87
181.018	1790.8
181.095	1806.3
181.171	1810.86
181.248	1813.9
181.324	1827.36
181.4	1835.2
181.477	1846.51
181.553	1859.01
181.63	1878.6
181.706	1893.76
181.782	1903.12
181.859	1901.94
181.935	1907.5
182.011	1905.5
182.088	1918.48
182.164	1938.27
182.24	1950.15
182.317	1962.56
182.393	1963.41
182.469	1977.25
182.546	1994.46
182.622	1999.21
182.698	1995.69
182.775	2007.11
182.851	2018.28
182.927	2012.81
183.003	2006.44
183.08	2000.69
183.156	2008.87
183.232	2009.25
183.308	1997.93
183.385	2007.49
183.461	2024.56
183.537	2025.37
183.613	2035.55
183.69	2029.79
183.766	2018.23
183.842	2027.12
183.918	2030.64
183.995	2042.06
184.071	2048.48
184.147	2043.96
184.223	2032.08
184.299	2043.25
184.375	2031.13
184.452	2036.55
184.528	2085.36
184.604	2095.25
184.68	2105.42
184.756	2112.56
184.832	2113.98
184.908	2120.64
184.985	2117.5
185.061	2103.38
185.137	2113.08
185.213	2104.42
185.289	2102.52
185.365	2096.29
185.441	2094.3
185.517	2105.19
185.593	2103.19
185.669	2098.96
185.745	2107.86
185.822	2122.07
185.898	2112.51
185.974	2125.01
186.05	2117.31
186.126	2082.44
186.202	2078.3
186.278	2076.21
186.354	2068.08
186.43	2076.74
186.506	2076.12
186.582	2076.02
186.658	2082.63
186.734	2061.47
186.81	2063.28
186.886	2065.89
186.962	2074.6
187.038	2069.79
187.114	2064.8
187.19	2071.27
187.266	2062.52
187.341	2061.18
187.417	2057.24
187.493	2059.19
187.569	2060.33
187.645	2053.43
187.721	2041.68
187.797	2046.3
187.873	2050.96
187.949	2044.3
188.025	2036.92
188.101	2039.4
188.176	2044.49
188.252	2039.07
188.328	2047.19
188.404	2048.24
188.48	2047.81
188.556	2042.25
188.632	2044.72
188.707	2045.29
188.783	2039.34
188.859	2037.06
188.935	2030.36
189.011	2040.06
189.086	2032.02
189.162	2022.18
189.238	2021.37
189.314	2021.27
189.39	2018.94
189.465	2011.29
189.541	2027.55
189.617	2012.91
189.693	2004.54
189.768	2007.06
189.844	2031.66
189.92	2023.96
189.996	2032.33
190.071	2038.08
190.147	2038.08
190.223	2047.55
190.298	2039.75
190.374	2029.19
190.45	2038.7
190.526	2041.98
190.601	2036.23
190.677	2039.84
190.753	2071.87
190.828	2073.91
190.904	2089.37
190.98	2103.03
191.055	2112.44
191.131	2107.3
191.207	2127.9
191.282	2138.03
191.358	2127.23
191.433	2111.24
191.509	2123.89
191.585	2118.42
191.66	2122.98
191.736	2131.55
191.811	2121.6
191.887	2136.97
191.963	2158.8
192.038	2161.9
192.114	2164.08
192.189	2166.56
192.265	2160.9
192.34	2135.96
192.416	2136.1
192.491	2129.87
192.567	2130.39
192.642	2134.77
192.718	2131.25
192.793	2116.74
192.869	2113.89
192.944	2118.36
193.02	2124.68
193.095	2130.06
193.171	2135.43
193.246	2133.53
193.322	2131.49
193.397	2130.82
193.473	2118.07
193.548	2103.51
193.624	2110.74
193.699	2110.22
193.775	2124.4
193.85	2128.3
193.925	2138.48
194.001	2137.43
194.076	2129.82
194.152	2119.07
194.227	2110.03
194.302	2101.52
194.378	2109.84
194.453	2109.94
194.529	2124.54
194.604	2111.08
194.679	2104.13
194.755	2084.5
194.83	2094.16
194.905	2092.02
194.981	2102.1
195.056	2093.26
195.131	2099.91
195.207	2099.82
195.282	2089.17
195.357	2069.66
195.433	2082.07
195.508	2067.75
195.583	2074.36
195.659	2087.69
195.734	2096.2
195.809	2097.91
195.884	2107.28
195.96	2107.66
196.035	2120.08
196.11	2114.89
196.185	2127.16
196.261	2132.01
196.336	2164.6
196.411	2154.98
196.486	2160.22
196.561	2155.41
196.637	2165.83
196.712	2180.01
196.787	2179.68
196.862	2196.56
196.937	2207.31
197.013	2213.74
197.088	2225.63
197.163	2249.1
197.238	2267.95
197.313	2271.09
197.388	2283.32
197.464	2310.98
197.539	2320.4
197.614	2314.55
197.689	2326.45
197.764	2342.58
197.839	2361.1
197.914	2353.39
197.989	2373.86
198.065	2388.04
198.14	2438.53
198.215	2463.34
198.29	2470.48
198.365	2486.14
198.44	2494.19
198.515	2522.04
198.59	2537.19
198.665	2564.33
198.74	2571.95
198.815	2571.24
198.89	2590.52
198.965	2620.68
199.04	2618.11
199.115	2635.59
199.19	2675.93
199.265	2678.4
199.34	2687.83
199.415	2720
199.49	2743.72
199.565	2754.54
199.64	2779.26
199.715	2776.78
199.79	2783.22
199.865	2795.7
199.94	2794.46
200.015	2826.34
200.09	2830.01
200.165	2834.78
200.24	2838.64
200.315	2876.32
200.39	2892.86
200.464	2900.05
200.539	2899.72
200.614	2916.21
200.689	2936.18
200.764	2943.67
200.839	2963.3
200.914	2971.4
200.989	2963.05
201.063	2976.73
201.138	2958.49
201.213	2959.73
201.288	2937.38
201.363	2945.19
201.438	2940.81
201.512	2959.34
201.587	2943.94
201.662	2949.04
201.737	2963.06
201.812	2972.17
201.886	2939.44
201.961	2947.45
202.036	2937.07
202.111	2933.44
202.186	2906.91
202.26	2891.03
202.335	2869.15
202.41	2862.67
202.485	2840.95
202.559	2819.36
202.634	2792.43
202.709	2800.91
202.784	2780.37
202.858	2782.18
202.933	2764.17
203.008	2760.59
203.082	2736.44
203.157	2732.34
203.232	2690.1
203.306	2668.42
203.381	2634.68
203.456	2614.15
203.53	2592.46
203.605	2572.46
203.68	2549.21
203.754	2541.36
203.829	2526.21
203.904	2504.45
203.978	2492.36
204.053	2501.12
204.127	2487.98
204.202	2488.55
204.277	2472.84
204.351	2464.93
204.426	2454.31
204.5	2444.79
204.575	2410.38
204.65	2420.33
204.724	2415.85
204.799	2424.46
204.873	2421.32
204.948	2422.75
205.022	2409.57
205.097	2401.61
205.171	2413.32
205.246	2421.51
205.32	2418.46
205.395	2417.94
205.469	2411.04
205.544	2418.38
205.618	2400
205.693	2415.42
205.767	2402.14
205.842	2423
205.916	2415.72
205.991	2406.82
206.065	2412.77
206.14	2430.75
206.214	2429.61
206.289	2421.61
206.363	2435.17
206.438	2439.37
206.512	2447.51
206.586	2466.45
206.661	2470.26
206.735	2448.04
206.81	2450.8
206.884	2466.99
206.958	2456.09
207.033	2472.17
207.107	2479.03
207.181	2509.8
207.256	2503.51
207.33	2524.08
207.405	2540.38
207.479	2563.77
207.553	2574.95
207.628	2559.82
207.702	2571.34
207.776	2565.67
207.851	2571.82
207.925	2587.87
207.999	2586.78
208.073	2586.73
208.148	2596.35
208.222	2589.92
208.296	2628.58
208.371	2645.97
208.445	2659.41
208.519	2693.99
208.593	2714.37
208.668	2715.76
208.742	2726.15
208.816	2735.44
208.89	2757.56
208.965	2758.89
209.039	2775.24
209.113	2798.93
209.187	2829.12
209.261	2834.88
209.336	2867.1
209.41	2898.32
209.484	2912.34
209.558	2946.38
209.632	2973.45
209.707	2998.58
209.781	3040.59
209.855	3072.59
209.929	3111.11
210.003	3140.06
210.077	3156.23
210.151	3222.68
210.226	3278.76
210.3	3330.58
210.374	3378.57
210.448	3410.02
210.522	3450.89
210.596	3490.51
210.67	3532.95
210.744	3612.65
210.818	3676.94
210.892	3729.19
210.966	3756.65
211.041	3813.63
211.115	3850.27
211.189	3911.46
211.263	3968.8
211.337	4010.7
211.411	4066.19
211.485	4102.34
211.559	4158.3
211.633	4209.38
211.707	4226.26
211.781	4282.16
211.855	4295.17
211.929	4334.46
212.003	4363.19
212.077	4424.34
212.151	4485.74
212.225	4549.57
212.299	4593.15
212.373	4639.47
212.447	4691.13
212.52	4781.84
212.594	4842
212.668	4912.47
212.742	4962.75
212.816	5018.02
212.89	5077.88
212.964	5139.36
213.038	5205.01
213.112	5283.17
213.186	5369.08
213.26	5412
213.333	5436.73
213.407	5508.65
213.481	5579.71
213.555	5662.5
213.629	5718.09
213.703	5771.61
213.777	5835.03
213.85	5887.03
213.924	5986.3
213.998	6054.34
214.072	6118.48
214.146	6170.35
214.219	6234.14
214.293	6299.54
214.367	6370.83
214.441	6451.48
214.515	6516.5
214.588	6563.4
214.662	6596.2
214.736	6637.69
214.81	6717.32
214.883	6792.98
214.957	6851.81
215.031	6906.74
215.105	6948.32
215.178	7000.16
215.252	7061.42
215.326	7107.74
215.4	7148.23
215.473	7168.9
215.547	7216.05
215.621	7267.55
215.694	7338.35
215.768	7387.96
215.842	7440.12
215.915	7488.44
215.989	7523.92
216.063	7572.16
216.136	7633.36
216.21	7699.76
216.284	7773.19
216.357	7836.38
216.431	7890.63
216.504	7957.49
216.578	8051.29
216.652	8126.11
216.725	8191.2
216.799	8260.39
216.873	8324.14
216.946	8406.07
217.02	8473.33
217.093	8537.23
217.167	8577.22
217.24	8619.81
217.314	8674.48
217.387	8732.04
217.461	8785.51
217.535	8869.26
217.608	8924.86
217.682	8989.13
217.755	9059.56
217.829	9110.49
217.902	9175.11
217.976	9242.22
218.049	9298.36
218.123	9335.2
218.196	9399.87
218.27	9454.52
218.343	9505.62
218.417	9569.33
218.49	9622.5
218.563	9692.53
218.637	9762.42
218.71	9847.53
218.784	9918.05
218.857	9990.49
218.931	10058.55
219.004	10131.29
219.077	10195.8
219.151	10260.45
219.224	10323.42
219.298	10382.72
219.371	10455.28
219.444	10501.24
219.518	10561.23
219.591	10629.21
219.665	10718.36
219.738	10785.52
219.811	10839.49
219.885	10910.81
219.958	10978.66
220.031	11035.71
220.105	11099.37
220.178	11156.43
220.251	11210.02
220.325	11278.99
220.398	11350.17
220.471	11419.86
220.544	11490.37
220.618	11545.51
220.691	11615.16
220.764	11673.09
220.838	11736.61
220.911	11794.55
220.984	11881.84
221.057	11947.68
221.131	12005.28
221.204	12032.8
221.277	12119.42
221.35	12209.99
221.424	12266.1
221.497	12329.05
221.57	12390.22
221.643	12459.49
221.716	12525.57
221.79	12576.48
221.863	12631.77
221.936	12678.87
222.009	12732.28
222.082	12790.17
222.155	12838.33
222.229	12909.14
222.302	12967.47
222.375	13026.91
222.448	13096.18
222.521	13147.42
222.594	13206.86
222.667	13248.8
222.74	13319.76
222.814	13355.67
222.887	13405.42
222.96	13462.93
223.033	13520.11
223.106	13581.76
223.179	13632.86
223.252	13685.26
223.325	13741.57
223.398	13797.97
223.471	13855.09
223.544	13913.37
223.617	13959.41
223.69	14016.1
223.763	14054.57
223.837	14110.83
223.91	14168.82
223.983	14200.83
224.056	14235.15
224.129	14281.96
224.202	14351.95
224.275	14397.41
224.348	14443.4
224.42	14478.83
224.493	14515.03
224.566	14554.51
224.639	14610.81
224.712	14644.12
224.785	14683.26
224.858	14728.05
224.931	14764.06
225.004	14798.14
225.077	14831.54
225.15	14852.22
225.223	14894.69
225.296	14956.48
225.369	14986.8
225.442	15011.68
225.514	15060.7
225.587	15105.14
225.66	15154.98
225.733	15196.29
225.806	15237.55
225.879	15277.37
225.952	15313.18
226.025	15362.49
226.097	15419.13
226.17	15454.22
226.243	15484.73
226.316	15530.14
226.389	15575.93
226.461	15627.94
226.534	15675.12
226.607	15718.51
226.68	15782.03
226.753	15823.15
226.825	15832.84
226.898	15888.31
226.971	15930.92
227.044	15970.16
227.117	16014.98
227.189	16056.14
227.262	16101.21
227.335	16143.24
227.407	16169.17
227.48	16211.68
227.553	16252.5
227.626	16278.1
227.698	16310.53
227.771	16346.92
227.844	16374.88
227.916	16408.76
227.989	16429.2
228.062	16462.98
228.134	16522.5
228.207	16550.99
228.28	16573.3
228.352	16610.9
228.425	16641.07
228.498	16681.21
228.57	16704.25
228.643	16748.06
228.716	16772.74
228.788	16800.4
228.861	16828.35
228.934	16881.56
229.006	16909.32
229.079	16937.08
229.151	16969.95
229.224	16988.12
229.296	17024.41
229.369	17070.58
229.442	17116.03
229.514	17132.94
229.587	17176.22
229.659	17183.5
229.732	17214.01
229.804	17253.24
229.877	17306.01
229.949	17354.78
230.022	17398.01
230.094	17422.97
230.167	17446.63
230.239	17467.6
230.312	17497.28
230.384	17553.91
230.457	17567.93
230.529	17596.08
230.602	17621.62
230.674	17649.14
230.747	17689.96
230.819	17730.49
230.892	17726.97
230.964	17744.94
231.037	17787.64
231.109	17803.35
231.181	17837.76
231.254	17863.45
231.326	17883.93
231.399	17895.69
231.471	17901.71
231.544	17900.75
231.616	17939.93
231.688	17968.94
231.761	17985.9
231.833	18002.96
231.905	18000.99
231.978	18027.49
232.05	18046.77
232.122	18076.55
232.195	18081.66
232.267	18112.16
232.339	18124.64
232.412	18167.58
232.484	18179.82
232.556	18187.82
232.629	18224.88
232.701	18233.36
232.773	18247
232.846	18260.59
232.918	18274.85
232.99	18286.52
233.062	18313.6
233.135	18323.91
233.207	18320.97
233.279	18341.21
233.351	18352.54
233.424	18346.8
233.496	18351.81
233.568	18387.19
233.64	18381.35
233.713	18391.28
233.785	18394.08
233.857	18398.56
233.929	18394.27
234.001	18418.07
234.074	18437.11
234.146	18422.89
234.218	18438.99
234.29	18439.38
234.362	18435.62
234.434	18431.42
234.507	18442.56
234.579	18429.59
234.651	18432.39
234.723	18442.41
234.795	18440.53
234.867	18439.04
234.939	18460.82
235.012	18467.08
235.084	18472.43
235.156	18475.61
235.228	18472.43
235.3	18465.49
235.372	18469.3
235.444	18473.54
235.516	18446.56
235.588	18449.06
235.66	18445.83
235.732	18429.5
235.804	18485.97
235.876	18498.79
235.948	18503.08
236.02	18480.48
236.092	18472.29
236.164	18462.6
236.236	18458.99
236.308	18450.31
236.38	18445.74
236.452	18427.38
236.524	18413.59
236.596	18408.92
236.668	18407.09
236.74	18406.27
236.812	18406.7
236.884	18404.48
236.956	18403.71
237.028	18393.74
237.1	18375.91
237.172	18386.37
237.244	18400.15
237.316	18348.34
237.388	18323.77
237.46	18309.69
237.532	18325.21
237.604	18313.45
237.675	18319.19
237.747	18306.8
237.819	18290.23
237.891	18278.95
237.963	18260.2
238.035	18242.95
238.107	18193.84
238.178	18194.52
238.25	18176.06
238.322	18187.53
238.394	18159.72
238.466	18132.3
238.538	18127.2
238.609	18115.73
238.681	18077.56
238.753	18040.6
238.825	18025.22
238.897	18015.39
238.968	18015.97
239.04	17986.72
239.112	17996.17
239.184	17964.55
239.255	17943.16
239.327	17940.41
239.399	17925.71
239.471	17916.84
239.542	17908.6
239.614	17909.13
239.686	17862.72
239.758	17851.4
239.829	17812.56
239.901	17806.82
239.973	17788.75
240.044	17767.4
240.116	17743.93
240.188	17712.85
240.259	17701.48
240.331	17671.69
240.403	17651.26
240.474	17608.61
240.546	17572.8
240.618	17533.77
240.689	17505.38
240.761	17484.27
240.833	17468.9
240.904	17442.06
240.976	17408.27
241.048	17388.8
241.119	17376.42
241.191	17360.56
241.262	17355.02
241.334	17324.56
241.405	17291.07
241.477	17266.39
241.549	17239.74
241.62	17220.95
241.692	17214.01
241.763	17191.31
241.835	17175.02
241.906	17158.05
241.978	17126.92
242.049	17115.84
242.121	17099.02
242.192	17088.37
242.264	17051.26
242.335	17007.11
242.407	16991.98
242.478	16974.1
242.55	16951.2
242.621	16905.13
242.693	16872.74
242.764	16837.85
242.836	16804.69
242.907	16785.32
242.979	16764.11
243.05	16745.17
243.122	16719.19
243.193	16688.01
243.264	16637.07
243.336	16606.27
243.407	16584.58
243.479	16567.47
243.55	16543.04
243.622	16517.01
243.693	16486.21
243.764	16475.08
243.836	16437.44
243.907	16399.12
243.978	16369.38
244.05	16344.8
244.121	16307.59
244.192	16291.25
244.264	16243.25
244.335	16218.91
244.407	16175.72
244.478	16144.11
244.549	16113.21
244.62	16068.63
244.692	16033.54
244.763	16020.86
244.834	15984.62
244.906	15946.15
244.977	15921.28
245.048	15901.86
245.119	15863.88
245.191	15830.72
245.262	15780.64
245.333	15774.08
245.405	15749.45
245.476	15727.71
245.547	15693.93
245.618	15678.79
245.689	15650.55
245.761	15634.83
245.832	15601.04
245.903	15579.55
245.974	15558.19
246.045	15527.49
246.117	15521.71
246.188	15486.76
246.259	15447.81
246.33	15423.28
246.401	15395.27
246.473	15350.25
246.544	15309.71
246.615	15300.56
246.686	15265.13
246.757	15252.4
246.828	15207.24
246.899	15194.03
246.97	15149.73
247.042	15109.58
247.113	15081.81
247.184	15075.31
247.255	15045.03
247.326	15032.84
247.397	15003.24
247.468	14974.22
247.539	14941.4
247.61	14893.92
247.681	14878.68
247.752	14867.93
247.823	14825.51
247.894	14807.49
247.965	14774.51
248.037	14751.86
248.108	14691.94
248.179	14662.15
248.25	14629.42
248.321	14608.59
248.392	14567.67
248.463	14562.99
248.534	14534.99
248.605	14511.08
248.675	14479.46
248.746	14446.53
248.817	14417.8
248.888	14393.89
248.959	14350.65
249.03	14330.74
249.101	14302.93
249.172	14274.2
249.243	14226.14
249.314	14211.53
249.385	14179.47
249.456	14164.14
249.527	14134.26
249.598	14123.65
249.669	14098.1
249.739	14081.86
249.81	14065.56
249.881	14019.53
249.952	13982.12
250.023	13957.68
250.094	13924.66
250.165	13876.93
250.235	13853.55
250.306	13819.52
250.377	13786.5
250.448	13765.43
250.519	13717.75
250.59	13709.75
250.66	13671.28
250.731	13658.75
250.802	13632.62
250.873	13614.25
250.944	13593.72
251.014	13556.84
251.085	13548.93
251.156	13530.62
251.227	13510.18
251.297	13500.34
251.368	13488.48
251.439	13476.62
251.51	13466.12
251.58	13426.3
251.651	13410
251.722	13392.84
251.792	13360.59
251.863	13334.56
251.934	13326.32
252.005	13337.31
252.075	13310.26
252.146	13294.93
252.217	13278.69
252.287	13271.41
252.358	13234.92
252.429	13225.13
252.499	13204.02
252.57	13182.61
252.641	13167.33
252.711	13148.87
252.782	13105.96
252.852	13102.59
252.923	13077.28
252.994	13056.46
253.064	13049.56
253.135	13018.42
253.205	12993.11
253.276	12988.92
253.347	12984.29
253.417	12950.89
253.488	12916.03
253.558	12889.57
253.629	12872.12
253.699	12852.06
253.77	12832.97
253.841	12810.37
253.911	12788.72
253.982	12770.11
254.052	12755.07
254.123	12733.91
254.193	12709.71
254.264	12724.8
254.334	12695.49
254.405	12668.06
254.475	12641.26
254.546	12612.34
254.616	12601.54
254.687	12584.48
254.757	12564.52
254.827	12537.38
254.898	12517.57
254.968	12502.67
255.039	12475.15
255.109	12461.31
255.18	12429.5
255.25	12385.68
255.321	12377.87
255.391	12341.91
255.461	12342.2
255.532	12294.19
255.602	12264.21
255.673	12224.73
255.743	12191.33
255.813	12146.06
255.884	12130.06
255.954	12113.58
256.024	12118.4
256.095	12094.78
256.165	12059.35
256.235	12040.74
256.306	12011.73
256.376	12006.62
256.446	11988.2
256.517	11977.6
256.587	11972.44
256.657	11958.27
256.728	11937.74
256.798	11919.85
256.868	11897.1
256.938	11855.02
257.009	11849.63
257.079	11842.4
257.149	11846.93
257.219	11809.28
257.29	11796.9
257.36	11763.98
257.43	11746.09
257.5	11706.04
257.571	11685.65
257.641	11674.33
257.711	11640.73
257.781	11633.6
257.852	11613.88
257.922	11572.44
257.992	11551.42
258.062	11518.69
258.132	11512.43
258.202	11497.44
258.273	11473.05
258.343	11478.35
258.413	11466.3
258.483	11444.62
258.553	11406.2
258.623	11374.54
258.693	11355.41
258.764	11354.59
258.834	11353.33
258.904	11341
258.974	11312.13
259.044	11291.69
259.114	11284.51
259.184	11270.39
259.254	11249.19
259.324	11211.45
259.394	11206.78
259.464	11209.43
259.535	11197.81
259.605	11172.37
259.675	11143.21
259.745	11132.18
259.815	11098.39
259.885	11074.35
259.955	11087.65
260.025	11071.17
260.095	11057.34
260.165	11050.69
260.235	11043.84
260.305	11012.04
260.375	10981.49
260.445	10985.48
260.515	10987.32
260.585	10984.23
260.655	10969.97
260.725	10961.97
260.795	10961.2
260.865	10966.79
260.934	10936.81
261.004	10924.38
261.074	10905.88
261.144	10910.79
261.214	10899.47
261.284	10882.21
261.354	10874.89
261.424	10845.49
261.494	10855.18
261.564	10837.4
261.634	10828.39
261.703	10792.34
261.773	10791.19
261.843	10782.46
261.913	10768.97
261.983	10727.63
262.053	10708.35
262.123	10697.37
262.192	10668.56
262.262	10658.24
262.332	10620.9
262.402	10609.19
