Data from 20250702_urea_0.5M_MAYP1162681_06-24-59-805.txt Node
Date: Thu Jul 03 06:24:59 BST 2025
User: adleo
Spectrometer: MAYP116268
Trigger mode: 0
Integration Time (sec): 1.000000E0
Scans to average: 1
Electric dark correction enabled: true
Nonlinearity correction enabled: true
Boxcar width: 10
XAxis mode: Wavelengths
Number of Pixels in Spectrum: 2068
>>>>>Begin Spectral Data<<<<<
179.565	1178.78
179.642	1234.26
179.718	1277.83
179.795	1313.61
179.871	1343.75
179.948	1361.15
180.024	1382.83
180.101	1405.16
180.177	1419.04
180.254	1442.82
180.33	1465.37
180.407	1517.69
180.483	1610.33
180.56	1698.98
180.636	1784.01
180.712	1771.7
180.789	1780.97
180.865	1792.7
180.942	1800.73
181.018	1810.66
181.095	1820.36
181.171	1828.3
181.248	1827.68
181.324	1840.76
181.4	1851.41
181.477	1863.91
181.553	1874.88
181.63	1895.04
181.706	1909.88
181.782	1920.62
181.859	1920.24
181.935	1924.71
182.011	1920.38
182.088	1937.54
182.164	1957.86
182.24	1969.12
182.317	1976.73
182.393	1976.2
182.469	1991.23
182.546	2006.02
182.622	2010.11
182.698	2008.2
182.775	2018.14
182.851	2033.98
182.927	2027.46
183.003	2019.71
183.08	2014.39
183.156	2025.04
183.232	2021.47
183.308	2009.39
183.385	2012.77
183.461	2028.99
183.537	2028.56
183.613	2042.16
183.69	2034.22
183.766	2022.66
183.842	2030.5
183.918	2037.02
183.995	2051.19
184.071	2056.23
184.147	2048.72
184.223	2037.12
184.299	2049.06
184.375	2038.46
184.452	2045.45
184.528	2103.31
184.604	2114.72
184.68	2123.38
184.756	2131.51
184.832	2134.41
184.908	2140.55
184.985	2143.02
185.061	2126.75
185.137	2138.41
185.213	2127.85
185.289	2129.51
185.365	2121.43
185.441	2117.77
185.517	2129.43
185.593	2124
185.669	2123.81
185.745	2134.94
185.822	2152.34
185.898	2141.97
185.974	2150.2
186.05	2141.3
186.126	2100.9
186.202	2096.09
186.278	2094
186.354	2083.39
186.43	2094.96
186.506	2094.67
186.582	2094.43
186.658	2101.33
186.734	2079.93
186.81	2080.36
186.886	2080.4
186.962	2093.91
187.038	2089.77
187.114	2081.92
187.19	2091.67
187.266	2076.98
187.341	2078.07
187.417	2071.7
187.493	2071.7
187.569	2076.36
187.645	2069.04
187.721	2056.86
187.797	2061.8
187.873	2067.7
187.949	2063.18
188.025	2051.24
188.101	2054.33
188.176	2057.8
188.252	2052.43
188.328	2064.03
188.404	2065.79
188.48	2062.89
188.556	2054.66
188.632	2056.75
188.707	2057.32
188.783	2052.8
188.859	2049.33
188.935	2037.01
189.011	2045.15
189.086	2039.87
189.162	2031.45
189.238	2029.88
189.314	2024.98
189.39	2020.51
189.465	2013.09
189.541	2027.5
189.617	2013.48
189.693	2010.05
189.768	2013.86
189.844	2039.31
189.92	2029.14
189.996	2039.08
190.071	2049.07
190.147	2049.07
190.223	2058.25
190.298	2051.97
190.374	2038.37
190.45	2050.3
190.526	2059.1
190.601	2053.01
190.677	2054.3
190.753	2081.13
190.828	2085.79
190.904	2101.87
190.98	2118.33
191.055	2125.18
191.131	2118.24
191.207	2137.88
191.282	2144.06
191.358	2132.65
191.433	2118.7
191.509	2131.87
191.585	2127.26
191.66	2129.78
191.736	2134.82
191.811	2126.45
191.887	2142.91
191.963	2167.36
192.038	2171.07
192.114	2170.5
192.189	2173.78
192.265	2168.89
192.34	2149.18
192.416	2148.99
192.491	2144.61
192.567	2145.99
192.642	2152.99
192.718	2155.32
192.793	2145.95
192.869	2141.76
192.944	2145.19
193.02	2153.09
193.095	2154.13
193.171	2158.22
193.246	2156.23
193.322	2155.56
193.397	2153.56
193.473	2139.81
193.548	2120.35
193.624	2124.73
193.699	2125.39
193.775	2142.24
193.85	2145.76
193.925	2153.61
194.001	2152.66
194.076	2146.09
194.152	2136.05
194.227	2126.16
194.302	2114.46
194.378	2117.88
194.453	2115.89
194.529	2126.97
194.604	2112.79
194.679	2105.7
194.755	2088.25
194.83	2103.15
194.905	2101.1
194.981	2108.86
195.056	2101.82
195.131	2110.19
195.207	2112.81
195.282	2102.87
195.357	2081.45
195.433	2099.1
195.508	2085.78
195.583	2091.49
195.659	2104.53
195.734	2112.43
195.809	2113.8
195.884	2122.98
195.96	2125.03
196.035	2142.06
196.11	2138.44
196.185	2149.53
196.261	2155.52
196.336	2186.68
196.411	2172.54
196.486	2176.02
196.561	2173.97
196.637	2183.15
196.712	2198.85
196.787	2198.52
196.862	2213.08
196.937	2224.68
197.013	2228.44
197.088	2239.29
197.163	2258.33
197.238	2276.04
197.313	2274.04
197.388	2289.61
197.464	2321.6
197.539	2328.93
197.614	2321.64
197.689	2335.3
197.764	2350.82
197.839	2370.86
197.914	2364.29
197.989	2386.14
198.065	2402.09
198.14	2449.63
198.215	2475.71
198.29	2484.33
198.365	2499.62
198.44	2512.57
198.515	2538.52
198.59	2554.33
198.665	2581.85
198.74	2590.57
198.815	2592.38
198.89	2617.57
198.965	2642.06
199.04	2634.44
199.115	2652.2
199.19	2693.69
199.265	2698.21
199.34	2709.93
199.415	2745.92
199.49	2765.3
199.565	2773.26
199.64	2796.13
199.715	2793.36
199.79	2800.61
199.865	2810.23
199.94	2808.47
200.015	2837.78
200.09	2843.31
200.165	2849.84
200.24	2855.18
200.315	2897.2
200.39	2911.5
200.464	2914.79
200.539	2919.55
200.614	2935.18
200.689	2959.83
200.764	2964.12
200.839	2980.03
200.914	2983.42
200.989	2973.35
201.063	2986.27
201.138	2970.55
201.213	2969.93
201.288	2952.01
201.363	2958.59
201.438	2956.87
201.512	2971.64
201.587	2954.1
201.662	2959.2
201.737	2969.21
201.812	2980.08
201.886	2946.97
201.961	2958.71
202.036	2945.46
202.111	2941.88
202.186	2915.35
202.26	2895.14
202.335	2874.02
202.41	2870.4
202.485	2852.29
202.559	2830.7
202.634	2805.73
202.709	2815.5
202.784	2797.44
202.858	2797.34
202.933	2776.28
203.008	2771.04
203.082	2752.32
203.157	2753.65
203.232	2711.64
203.306	2692.72
203.381	2659.74
203.456	2639.97
203.53	2616.08
203.605	2601.85
203.68	2577.6
203.754	2573.22
203.829	2560.83
203.904	2542.93
203.978	2531.92
204.053	2535.11
204.127	2524.16
204.202	2522.64
204.277	2502.64
204.351	2496.35
204.426	2490.16
204.5	2482.5
204.575	2447.27
204.65	2457.23
204.724	2448.84
204.799	2455.12
204.873	2452.36
204.948	2451.12
205.022	2434.23
205.097	2424.94
205.171	2433.74
205.246	2441.36
205.32	2440.84
205.395	2440.51
205.469	2429.9
205.544	2435.04
205.618	2421.76
205.693	2431.42
205.767	2419.95
205.842	2442.14
205.916	2435.34
205.991	2422
206.065	2426.38
206.14	2441.08
206.214	2435.46
206.289	2430.84
206.363	2444.08
206.438	2444.03
206.512	2449.98
206.586	2471.64
206.661	2481.5
206.735	2460.42
206.81	2461.71
206.884	2474.75
206.958	2460.52
207.033	2479.79
207.107	2485.99
207.181	2518.66
207.256	2513.09
207.33	2535.04
207.405	2548.72
207.479	2569.67
207.553	2581.81
207.628	2570.53
207.702	2585.72
207.776	2583.48
207.851	2587.24
207.925	2604.54
207.999	2605.4
208.073	2608.92
208.148	2616.02
208.222	2607.64
208.296	2645.01
208.371	2667.03
208.445	2686.85
208.519	2722.34
208.593	2741.06
208.668	2743.25
208.742	2749.26
208.816	2759.88
208.89	2780.9
208.965	2791.44
209.039	2809.08
209.113	2836.82
209.187	2868.11
209.261	2879.11
209.336	2911.81
209.41	2946.57
209.484	2963.79
209.558	3003.03
209.632	3033.78
209.707	3064.53
209.781	3109.31
209.855	3147.48
209.929	3188.97
210.003	3214.87
210.077	3239.25
210.151	3317
210.226	3381.69
210.3	3440.77
210.374	3495.26
210.448	3537.18
210.522	3579.88
210.596	3625.14
210.67	3671.08
210.744	3756.2
210.818	3825.96
210.892	3887.73
210.966	3923.46
211.041	3985.87
211.115	4028.82
211.189	4097.02
211.263	4162.6
211.337	4215.85
211.411	4280.13
211.485	4324.77
211.559	4389.79
211.633	4448.3
211.707	4470.89
211.781	4532.75
211.855	4555.91
211.929	4607.81
212.003	4646.22
212.077	4716.17
212.151	4792.68
212.225	4865.55
212.299	4921.76
212.373	4976.77
212.447	5037.42
212.52	5135.14
212.594	5204.05
212.668	5282.33
212.742	5339.16
212.816	5403
212.89	5467.5
212.964	5538.66
213.038	5615.87
213.112	5698.88
213.186	5787.96
213.26	5841.41
213.333	5871.58
213.407	5953.77
213.481	6034.1
213.555	6128.82
213.629	6199.14
213.703	6267.3
213.777	6348.44
213.85	6407.2
213.924	6518.66
213.998	6602.6
214.072	6677.11
214.146	6749.97
214.219	6827.21
214.293	6905.87
214.367	6990.23
214.441	7083.68
214.515	7154.08
214.588	7211.32
214.662	7265.52
214.736	7333.05
214.81	7423.42
214.883	7520.63
214.957	7590.8
215.031	7660.74
215.105	7711.25
215.178	7773.04
215.252	7840.94
215.326	7890
215.4	7948.18
215.473	7981.86
215.547	8034.43
215.621	8099.49
215.694	8174.98
215.768	8231.84
215.842	8291.26
215.915	8351.79
215.989	8407.81
216.063	8471.1
216.136	8546.12
216.21	8619.12
216.284	8699.5
216.357	8771.31
216.431	8833.46
216.504	8913.6
216.578	9007.62
216.652	9094.21
216.725	9168.98
216.799	9246.89
216.873	9323.97
216.946	9414.2
217.02	9476.79
217.093	9547.91
217.167	9594.43
217.24	9648.76
217.314	9716.18
217.387	9784.23
217.461	9847.13
217.535	9923.53
217.608	9979.01
217.682	10048.43
217.755	10127.53
217.829	10185.39
217.902	10254.09
217.976	10324.13
218.049	10384.07
218.123	10434.61
218.196	10508.86
218.27	10567.4
218.343	10613.65
218.417	10682.99
218.49	10742.45
218.563	10829.43
218.637	10899.69
218.71	10991.49
218.784	11063.39
218.857	11134.66
218.931	11209.25
219.004	11274.8
219.077	11347.23
219.151	11423.14
219.224	11479.09
219.298	11540.79
219.371	11615.15
219.444	11660.65
219.518	11724.03
219.591	11787.41
219.665	11884.87
219.738	11949.66
219.811	12005.42
219.885	12086.5
219.958	12152.82
220.031	12206.18
220.105	12265.33
220.178	12332.04
220.251	12388.73
220.325	12464.02
220.398	12532.42
220.471	12598.7
220.544	12670.05
220.618	12721.34
220.691	12784.58
220.764	12854.86
220.838	12921.92
220.911	12978.13
220.984	13073.72
221.057	13146.36
221.131	13221.61
221.204	13251.79
221.277	13327.72
221.35	13425.43
221.424	13485.4
221.497	13549.13
221.57	13614.64
221.643	13689.36
221.716	13752.61
221.79	13801.29
221.863	13856.63
221.936	13917.13
222.009	13975.7
222.082	14037.22
222.155	14096.56
222.229	14167.42
222.302	14224.5
222.375	14277.86
222.448	14339.18
222.521	14390.56
222.594	14437.9
222.667	14467.93
222.74	14524.62
222.814	14565.79
222.887	14608.11
222.96	14664.61
223.033	14726.79
223.106	14784.44
223.179	14835.64
223.252	14887.94
223.325	14944.24
223.398	14994.95
223.471	15050.29
223.544	15095.69
223.617	15151.51
223.69	15196.39
223.763	15233.75
223.837	15286.14
223.91	15339.12
223.983	15368.47
224.056	15399.22
224.129	15452.29
224.202	15512.45
224.275	15554
224.348	15594.34
224.42	15615.75
224.493	15641
224.566	15670.26
224.639	15714.12
224.712	15752.78
224.785	15788.4
224.858	15831.15
224.931	15867.16
225.004	15887.3
225.077	15928.71
225.15	15940.8
225.223	15976.62
225.296	16036.77
225.369	16061.2
225.442	16089.35
225.514	16133.98
225.587	16176.74
225.66	16214.62
225.733	16259.06
225.806	16302.87
225.879	16340.17
225.952	16381.38
226.025	16442.06
226.097	16500.38
226.17	16538.02
226.243	16554.36
226.316	16594.12
226.389	16632.34
226.461	16677.21
226.534	16732.3
226.607	16771.39
226.68	16836.02
226.753	16874.04
226.825	16886.62
226.898	16941.08
226.971	16978.1
227.044	17020.07
227.117	17061.71
227.189	17109.33
227.262	17148.17
227.335	17185.52
227.407	17214.58
227.48	17256.46
227.553	17284.46
227.626	17308.66
227.698	17338.39
227.771	17370.25
227.844	17396.8
227.916	17430.06
227.989	17437.24
228.062	17462.25
228.134	17506.3
228.207	17527.6
228.28	17543.02
228.352	17573.57
228.425	17599.5
228.498	17637.96
228.57	17658.39
228.643	17701.76
228.716	17718.29
228.788	17737.76
228.861	17753.52
228.934	17792.12
229.006	17820.22
229.079	17842.19
229.151	17861.47
229.224	17876.17
229.296	17910.43
229.369	17965.32
229.442	18004.12
229.514	18023.25
229.587	18050.52
229.659	18067.73
229.732	18096.21
229.804	18146.86
229.877	18193.46
229.949	18227.48
230.022	18268.44
230.094	18291.38
230.167	18307.57
230.239	18316.83
230.312	18343.76
230.384	18391.04
230.457	18410.46
230.529	18426.56
230.602	18452.58
230.674	18478.55
230.747	18521.35
230.819	18557.15
230.892	18539.75
230.964	18556.72
231.037	18589.25
231.109	18605.05
231.181	18626.83
231.254	18634.3
231.326	18644.71
231.399	18657.82
231.471	18667.27
231.544	18665.39
231.616	18688.32
231.688	18705.14
231.761	18711.55
231.833	18721.82
231.905	18719.99
231.978	18736.23
232.05	18749.14
232.122	18763.45
232.195	18773.96
232.267	18796.22
232.339	18791.16
232.412	18833.09
232.484	18833.33
232.556	18829.42
232.629	18868.84
232.701	18883.2
232.773	18890.53
232.846	18894.38
232.918	18908.17
232.99	18919.88
233.062	18932.26
233.135	18945.71
233.207	18938.04
233.279	18969.51
233.351	18982.47
233.424	18983.15
233.496	18987.68
233.568	19016.74
233.64	19005.12
233.713	19005.03
233.785	18999.05
233.857	19006.33
233.929	18990.91
234.001	19010.57
234.074	19043.53
234.146	19025.12
234.218	19020.4
234.29	19026.33
234.362	19030.57
234.434	19006.18
234.507	18996.11
234.579	18973.08
234.651	18970.72
234.723	18982.96
234.795	18978.04
234.867	18969.8
234.939	18983.92
235.012	18982.23
235.084	18976.5
235.156	18982.38
235.228	18973.41
235.3	18966.23
235.372	18964.55
235.444	18961.75
235.516	18941.95
235.588	18926.04
235.66	18915.73
235.732	18903.54
235.804	18945.27
235.876	18935.06
235.948	18942.28
236.02	18931.01
236.092	18931.49
236.164	18918
236.236	18903.15
236.308	18894.91
236.38	18889.13
236.452	18867.78
236.524	18849.57
236.596	18848.51
236.668	18848.6
236.74	18830.63
236.812	18822.29
236.884	18816.89
236.956	18810.82
237.028	18783.35
237.1	18767.4
237.172	18771.98
237.244	18777.96
237.316	18735.98
237.388	18722.68
237.46	18706.54
237.532	18704.37
237.604	18680.23
237.675	18681.05
237.747	18667.22
237.819	18642.06
237.891	18627.65
237.963	18608.86
238.035	18590.16
238.107	18541.68
238.178	18530.02
238.25	18513.83
238.322	18518.17
238.394	18486.6
238.466	18457.16
238.538	18444.96
238.609	18433.74
238.681	18399.23
238.753	18362.13
238.825	18330.32
238.897	18317.89
238.968	18309.21
239.04	18275.91
239.112	18287.91
239.184	18256.88
239.255	18233.41
239.327	18214.42
239.399	18198.47
239.471	18183.58
239.542	18179.87
239.614	18169.17
239.686	18127
239.758	18125.46
239.829	18083.1
239.901	18082.81
239.973	18066.04
240.044	18057.56
240.116	18034.72
240.188	18007.01
240.259	17983.35
240.331	17956.6
240.403	17929.95
240.474	17892.99
240.546	17863.25
240.618	17816.85
240.689	17783.26
240.761	17768.85
240.833	17763.98
240.904	17734.34
240.976	17706.82
241.048	17673.48
241.119	17659.16
241.191	17637.72
241.262	17622.2
241.334	17594.92
241.405	17549.14
241.477	17513.09
241.549	17474.44
241.62	17446.44
241.692	17423.98
241.763	17411.12
241.835	17384.27
241.906	17354.2
241.978	17312.61
242.049	17302.92
242.121	17286.87
242.192	17276.37
242.264	17229.96
242.335	17180.51
242.407	17159.21
242.478	17116.56
242.55	17086.97
242.621	17051.21
242.693	17015.35
242.764	16981.57
242.836	16952.12
242.907	16941.04
242.979	16921.13
243.05	16900.89
243.122	16876.02
243.193	16849.8
243.264	16797.7
243.336	16773.27
243.407	16759.53
243.479	16748.11
243.55	16725.7
243.622	16697.31
243.693	16660.68
243.764	16652.25
243.836	16609.11
243.907	16569.69
243.978	16550.12
244.05	16542.75
244.121	16499.13
244.192	16489.2
244.264	16439.41
244.335	16412.37
244.407	16366.3
244.478	16342.97
244.549	16307.3
244.62	16266.19
244.692	16240.02
244.763	16227.44
244.834	16188.93
244.906	16146.9
244.977	16128.92
245.048	16115.43
245.119	16074.89
245.191	16041.49
245.262	15984.38
245.333	15985.63
245.405	15953.53
245.476	15921.23
245.547	15873.76
245.618	15848.69
245.689	15815.53
245.761	15796.74
245.832	15768.01
245.903	15738.9
245.974	15710.94
246.045	15676.62
246.117	15666.88
246.188	15611.69
246.259	15567.64
246.33	15534.28
246.401	15498.42
246.473	15444.1
246.544	15397.54
246.615	15376.18
246.686	15337
246.757	15323.79
246.828	15273.56
246.899	15260.5
246.97	15215.67
247.042	15182.7
247.113	15164.72
247.184	15154.16
247.255	15117.63
247.326	15087.02
247.397	15054.1
247.468	15022.38
247.539	14999.72
247.61	14953.06
247.681	14933.73
247.752	14918.93
247.823	14881.48
247.894	14859.31
247.965	14814.96
248.037	14781.99
248.108	14738.26
248.179	14712.72
248.25	14680.56
248.321	14660.99
248.392	14621.13
248.463	14619.15
248.534	14591.48
248.605	14567.09
248.675	14526.41
248.746	14503.17
248.817	14485
248.888	14471.55
248.959	14429.23
249.03	14403.2
249.101	14380.2
249.172	14354.75
249.243	14303.22
249.314	14298.88
249.385	14275.79
249.456	14267.74
249.527	14238.86
249.598	14221.17
249.669	14195.19
249.739	14172.77
249.81	14148.38
249.881	14113.04
249.952	14090.1
250.023	14058.91
250.094	14016.73
250.165	13983.56
250.235	13953.96
250.306	13923.21
250.377	13885.95
250.448	13859.72
250.519	13814.17
250.59	13799.85
250.66	13776.18
250.731	13773.24
250.802	13745.33
250.873	13726
250.944	13701.7
251.014	13667.76
251.085	13663.38
251.156	13645.73
251.227	13635.71
251.297	13627.22
251.368	13613.72
251.439	13601.96
251.51	13593.33
251.58	13561.85
251.651	13535.87
251.722	13516.39
251.792	13471.03
251.863	13447.56
251.934	13438.83
252.005	13449.87
252.075	13418.97
252.146	13400.55
252.217	13384.79
252.287	13367.15
252.358	13336.73
252.429	13332.29
252.499	13307.61
252.57	13294.84
252.641	13283.12
252.711	13250.58
252.782	13210.33
252.852	13209.56
252.923	13175.24
252.994	13157.74
253.064	13149.21
253.135	13122.16
253.205	13102.11
253.276	13103.27
253.347	13089
253.417	13057.13
253.488	13025.75
253.558	13001.45
253.629	12976.82
253.699	12952.67
253.77	12936.13
253.841	12913.62
253.911	12891.98
253.982	12875.06
254.052	12848.11
254.123	12822.22
254.193	12808.2
254.264	12822.95
254.334	12780.57
254.405	12755.84
254.475	12712.99
254.546	12688.5
254.616	12677.99
254.687	12661.31
254.757	12639.33
254.827	12622.9
254.898	12610.55
254.968	12590.16
255.039	12563.46
255.109	12551.02
255.18	12526.05
255.25	12491.78
255.321	12473.9
255.391	12435.33
255.461	12433.21
255.532	12387.13
255.602	12358.74
255.673	12313.67
255.743	12280.4
255.813	12248.06
255.884	12233.55
255.954	12224.15
256.024	12222.56
256.095	12205.74
256.165	12169.63
256.235	12155.08
256.306	12122.25
256.376	12107.74
256.446	12091.84
256.517	12078.44
256.587	12075.25
256.657	12054.29
256.728	12027.58
256.798	12011
256.868	11991.34
256.938	11962.03
257.009	11955.38
257.079	11949.55
257.149	11955.52
257.219	11918.02
257.29	11900.09
257.36	11864.18
257.43	11860.62
257.5	11817.19
257.571	11789.23
257.641	11783.35
257.711	11752.46
257.781	11742.67
257.852	11731.15
257.922	11690.23
257.992	11670.57
258.062	11637.94
258.132	11636.15
258.202	11625.45
258.273	11607.19
258.343	11606.8
258.413	11578.36
258.483	11558.94
258.553	11523.76
258.623	11498.98
258.693	11483.08
258.764	11481.39
258.834	11474.5
258.904	11447.03
258.974	11417.34
259.044	11395.03
259.114	11375.55
259.184	11358.16
259.254	11336.08
259.324	11294.92
259.394	11292.76
259.464	11286.64
259.535	11271.26
259.605	11237.72
259.675	11211.36
259.745	11194.97
259.815	11161.91
259.885	11136.42
259.955	11147.84
260.025	11122.16
260.095	11099.07
260.165	11088.81
260.235	11078.3
260.305	11059.46
260.375	11033.67
260.445	11054.73
260.515	11054.93
260.585	11056.71
260.655	11036.37
260.725	11034.25
260.795	11034.69
260.865	11040.76
260.934	11015.65
261.004	11001.15
261.074	10989.29
261.144	10986.83
261.214	10988.76
261.284	10973.15
261.354	10974.06
261.424	10940.91
261.494	10946.4
261.564	10930.11
261.634	10915.75
261.703	10889.44
261.773	10876.09
261.843	10869.93
261.913	10842.02
261.983	10809.88
262.053	10795.76
262.123	10785.26
262.192	10751.68
262.262	10738.14
262.332	10703.73
262.402	10701.56
