Data from 20250702_urea_0.5M_MAYP1162681_19-44-59-905.txt Node
Date: Wed Jul 02 19:44:59 BST 2025
User: adleo
Spectrometer: MAYP116268
Trigger mode: 0
Integration Time (sec): 1.000000E0
Scans to average: 1
Electric dark correction enabled: true
Nonlinearity correction enabled: true
Boxcar width: 10
XAxis mode: Wavelengths
Number of Pixels in Spectrum: 2068
>>>>>Begin Spectral Data<<<<<
179.565	1181.14
179.642	1235.59
179.718	1277.52
179.795	1311.61
179.871	1343.22
179.948	1360.15
180.024	1381.25
180.101	1403.5
180.177	1418.52
180.254	1442.12
180.33	1463.94
180.407	1515.26
180.483	1608.52
180.56	1693.7
180.636	1776.31
180.712	1765
180.789	1776.83
180.865	1787.04
180.942	1795.98
181.018	1804.2
181.095	1816.42
181.171	1821.84
181.248	1824.21
181.324	1839.57
181.4	1847.94
181.477	1859.39
181.553	1871.51
181.63	1893.05
181.706	1906.26
181.782	1915.67
181.859	1914.44
181.935	1919.14
182.011	1915.34
182.088	1934.46
182.164	1956.95
182.24	1969.22
182.317	1979.15
182.393	1976.58
182.469	1994.03
182.546	2008.11
182.622	2011.58
182.698	2009.25
182.775	2023.23
182.851	2033.93
182.927	2027.13
183.003	2022.09
183.08	2017.57
183.156	2026.7
183.232	2023.28
183.308	2013.01
183.385	2019.19
183.461	2036.55
183.537	2039.64
183.613	2050.86
183.69	2039.92
183.766	2028.12
183.842	2035.07
183.918	2036.64
183.995	2048
184.071	2050.29
184.147	2043.96
184.223	2034.31
184.299	2044.97
184.375	2029.84
184.452	2036.36
184.528	2089.46
184.604	2100.96
184.68	2110.47
184.756	2121.03
184.832	2124.51
184.908	2131.4
184.985	2129.59
185.061	2115.66
185.137	2124.27
185.213	2114.09
185.289	2113.85
185.365	2109.72
185.441	2107.67
185.517	2120.61
185.593	2117.66
185.669	2114.76
185.745	2123.8
185.822	2139.68
185.898	2132.02
185.974	2144.43
186.05	2138.53
186.126	2099.61
186.202	2096.14
186.278	2092.19
186.354	2080.2
186.43	2087.06
186.506	2084.01
186.582	2083.2
186.658	2089.53
186.734	2069.27
186.81	2073.03
186.886	2076.26
186.962	2086.44
187.038	2086.96
187.114	2080.44
187.19	2092.86
187.266	2081.26
187.341	2082.49
187.417	2075.98
187.493	2075.64
187.569	2075.41
187.645	2070.51
187.721	2059.99
187.797	2066.13
187.873	2069.94
187.949	2063.18
188.025	2056.09
188.101	2059.66
188.176	2067.13
188.252	2060.71
188.328	2068.22
188.404	2067.08
188.48	2062.75
188.556	2055
188.632	2051.86
188.707	2053.71
188.783	2043.39
188.859	2040.16
188.935	2029.41
189.011	2040.15
189.086	2034.45
189.162	2025.79
189.238	2023.42
189.314	2022.08
189.39	2014.86
189.465	2009.39
189.541	2025.32
189.617	2008.91
189.693	2004.82
189.768	2008.53
189.844	2032.66
189.92	2025.43
189.996	2034.56
190.071	2046.21
190.147	2044.36
190.223	2053.06
190.298	2044.98
190.374	2036.27
190.45	2051.11
190.526	2059.62
190.601	2052.01
190.677	2054.25
190.753	2085.32
190.828	2089.08
190.904	2102.11
190.98	2119.34
191.055	2127.75
191.131	2121.09
191.207	2140.64
191.282	2150.1
191.358	2139.21
191.433	2124.03
191.509	2134.54
191.585	2131.97
191.66	2132.92
191.736	2139.86
191.811	2132.11
191.887	2147.62
191.963	2167.74
192.038	2169.88
192.114	2170.55
192.189	2173.17
192.265	2168.13
192.34	2144.33
192.416	2142.19
192.491	2138.14
192.567	2141.09
192.642	2144.33
192.718	2146.42
192.793	2136.39
192.869	2130.16
192.944	2132.44
193.02	2141.86
193.095	2146.14
193.171	2151.13
193.246	2148.28
193.322	2150.33
193.397	2151.66
193.473	2138.71
193.548	2122.54
193.624	2128.63
193.699	2125.68
193.775	2140.95
193.85	2143.52
193.925	2150.61
194.001	2149.9
194.076	2143.57
194.152	2127.63
194.227	2121.02
194.302	2108.84
194.378	2113.27
194.453	2113.31
194.529	2126.92
194.604	2111.32
194.679	2106.27
194.755	2089.39
194.83	2102.57
194.905	2099.34
194.981	2106.48
195.056	2098.39
195.131	2104.95
195.207	2102.77
195.282	2094.16
195.357	2075.32
195.433	2092.06
195.508	2079.88
195.583	2086.87
195.659	2101.67
195.734	2111.28
195.809	2109.47
195.884	2118.18
195.96	2119.94
196.035	2133.06
196.11	2125.4
196.185	2137.87
196.261	2140.43
196.336	2169.45
196.411	2156.98
196.486	2160.89
196.561	2156.13
196.637	2164.78
196.712	2180.06
196.787	2183.77
196.862	2198.99
196.937	2209.79
197.013	2214.5
197.088	2227.11
197.163	2251.15
197.238	2266.25
197.313	2268.39
197.388	2285.42
197.464	2316.94
197.539	2326.12
197.614	2321.98
197.689	2334.69
197.764	2350.68
197.839	2371.24
197.914	2367.77
197.989	2388.23
198.065	2404.51
198.14	2451.72
198.215	2477.28
198.29	2488.47
198.365	2500.28
198.44	2512.7
198.515	2539.08
198.59	2554.42
198.665	2581.71
198.74	2586.47
198.815	2587.66
198.89	2607.47
198.965	2635.11
199.04	2631.44
199.115	2648.01
199.19	2689.02
199.265	2694.87
199.34	2701.97
199.415	2737.96
199.49	2756.06
199.565	2766.16
199.64	2787.36
199.715	2785.17
199.79	2793.65
199.865	2799.89
199.94	2800.51
200.015	2830.39
200.09	2837.16
200.165	2843.31
200.24	2848.55
200.315	2892.58
200.39	2907.36
200.464	2914.93
200.539	2916.32
200.614	2932.38
200.689	2952.49
200.764	2957.83
200.839	2974.18
200.914	2979.85
200.989	2968.78
201.063	2982.08
201.138	2964.17
201.213	2963.74
201.288	2947.96
201.363	2954.78
201.438	2956.26
201.512	2968.26
201.587	2950.53
201.662	2953.39
201.737	2963.45
201.812	2972.84
201.886	2937.53
201.961	2944.93
202.036	2934.35
202.111	2928.82
202.186	2899.61
202.26	2884.45
202.335	2862.95
202.41	2858.81
202.485	2843.71
202.559	2822.21
202.634	2798.53
202.709	2812.1
202.784	2795.09
202.858	2790.9
202.933	2774.98
203.008	2768.88
203.082	2754.21
203.157	2753.49
203.232	2712.2
203.306	2692.33
203.381	2660.45
203.456	2637.39
203.53	2616.46
203.605	2600.37
203.68	2579.59
203.754	2572.6
203.829	2557.5
203.904	2536.55
203.978	2524.35
204.053	2527.78
204.127	2516.26
204.202	2514.5
204.277	2496.54
204.351	2484.88
204.426	2480.74
204.5	2468.31
204.575	2432.13
204.65	2438.8
204.724	2429.23
204.799	2437.5
204.873	2433.74
204.948	2430.98
205.022	2418.13
205.097	2409.32
205.171	2418.6
205.246	2426.41
205.32	2424.13
205.395	2424.79
205.469	2417.52
205.544	2424.18
205.618	2409.8
205.693	2422.09
205.767	2409.14
205.842	2427.67
205.916	2426.62
205.991	2416.1
206.065	2422.19
206.14	2440.98
206.214	2438.7
206.289	2436.13
206.363	2451.93
206.438	2453.93
206.512	2461.65
206.586	2485.93
206.661	2494.26
206.735	2474.27
206.81	2475.42
206.884	2496.51
206.958	2488.13
207.033	2506.69
207.107	2516.6
207.181	2546.51
207.256	2543.23
207.33	2567.03
207.405	2582.72
207.479	2604.15
207.553	2613.05
207.628	2596.53
207.702	2611.49
207.776	2609.06
207.851	2616.77
207.925	2635.07
207.999	2644.22
208.073	2648.08
208.148	2654.56
208.222	2654.37
208.296	2692.99
208.371	2720.26
208.445	2738.22
208.519	2777.72
208.593	2804.98
208.668	2815.04
208.742	2833.88
208.816	2852.41
208.89	2883.65
208.965	2901.54
209.039	2933.39
209.113	2974.15
209.187	3024.99
209.261	3047.97
209.336	3097.61
209.41	3145.84
209.484	3179.34
209.558	3230.44
209.632	3280.1
209.707	3331.59
209.781	3393.44
209.855	3451.58
209.929	3513.13
210.003	3567.98
210.077	3617.89
210.151	3718.28
210.226	3807.31
210.3	3895.01
210.374	3979.61
210.448	4049.31
210.522	4127.78
210.596	4205.87
210.67	4292.19
210.744	4411.16
210.818	4519.72
210.892	4616.53
210.966	4692.45
211.041	4792.11
211.115	4875.59
211.189	4993.86
211.263	5104.54
211.337	5201.43
211.411	5314.28
211.485	5409.43
211.559	5524.01
211.633	5630.82
211.707	5705.31
211.781	5819.04
211.855	5897.48
211.929	6005
212.003	6100.78
212.077	6233.23
212.151	6364.96
212.225	6489.11
212.299	6600.5
212.373	6710.55
212.447	6838.34
212.52	6999.02
212.594	7138.39
212.668	7287.44
212.742	7407.51
212.816	7535.19
212.89	7671.28
212.964	7812.87
213.038	7955.04
213.112	8107.71
213.186	8263.93
213.26	8385.23
213.333	8488.2
213.407	8636.58
213.481	8779.58
213.555	8933.16
213.629	9064.65
213.703	9195.31
213.777	9341.97
213.85	9467.45
213.924	9651.55
213.998	9793.2
214.072	9926.44
214.146	10049.07
214.219	10184.82
214.293	10324.08
214.367	10470.68
214.441	10625.58
214.515	10754.76
214.588	10878.55
214.662	10981.52
214.736	11103.73
214.81	11254.74
214.883	11405.57
214.957	11535.3
215.031	11662.28
215.105	11778.48
215.178	11896.76
215.252	12021.74
215.326	12131.05
215.4	12255.12
215.473	12332.92
215.547	12443.59
215.621	12569.12
215.694	12706.98
215.768	12813.75
215.842	12920.24
215.915	13031.93
215.989	13126.6
216.063	13238.1
216.136	13351.92
216.21	13477.45
216.284	13606.49
216.357	13723.53
216.431	13833.73
216.504	13953.19
216.578	14093.61
216.652	14224.1
216.725	14331.6
216.799	14454.28
216.873	14565.53
216.946	14679.78
217.02	14794.6
217.093	14904.89
217.167	14985.73
217.24	15069.46
217.314	15170.3
217.387	15271.62
217.461	15363.59
217.535	15479.13
217.608	15570.62
217.682	15668.85
217.755	15773.88
217.829	15856.35
217.902	15951.83
217.976	16037.92
218.049	16121.83
218.123	16200.53
218.196	16291.44
218.27	16384.22
218.343	16452.41
218.417	16551.94
218.49	16625.2
218.563	16719.33
218.637	16805.64
218.71	16907.09
218.784	17007.92
218.857	17102.72
218.931	17192.94
219.004	17284.46
219.077	17366.53
219.151	17454.82
219.224	17531.78
219.298	17609.04
219.371	17699.11
219.444	17759.97
219.518	17840.55
219.591	17917.32
219.665	18010.81
219.738	18088.64
219.811	18143.77
219.885	18219.58
219.958	18289.07
220.031	18365.06
220.105	18429.49
220.178	18498.41
220.251	18562.26
220.325	18629.53
220.398	18697.43
220.471	18764.13
220.544	18829.28
220.618	18882.48
220.691	18937.71
220.764	18996.55
220.838	19060.64
220.911	19113.98
220.984	19200.24
221.057	19265.98
221.131	19325.44
221.204	19353.58
221.277	19418.35
221.35	19512.18
221.424	19569.14
221.497	19621.91
221.57	19661.62
221.643	19721.37
221.716	19776.46
221.79	19818.33
221.863	19866.62
221.936	19915.2
222.009	19962.18
222.082	20010.28
222.155	20048.4
222.229	20104.2
222.302	20149.94
222.375	20188.83
222.448	20237.31
222.521	20265.16
222.594	20296.49
222.667	20323.62
222.74	20369.4
222.814	20400.63
222.887	20421.4
222.96	20471.14
223.033	20516.05
223.106	20561.89
223.179	20596.15
223.252	20629.5
223.325	20664.92
223.398	20693.55
223.471	20729.5
223.544	20753.02
223.617	20782.42
223.69	20820.49
223.763	20839.58
223.837	20875.39
223.91	20907.2
223.983	20913.03
224.056	20939.68
224.129	20972.55
224.202	21006.57
224.275	21016.74
224.348	21029.32
224.42	21044.02
224.493	21046.05
224.566	21057.76
224.639	21092.32
224.712	21114.15
224.785	21136.32
224.858	21150.49
224.931	21155.6
225.004	21155.98
225.077	21179.75
225.15	21169.29
225.223	21181.67
225.296	21219.7
225.369	21229
225.442	21235.08
225.514	21255.22
225.587	21281.83
225.66	21303.28
225.733	21320.73
225.806	21349.11
225.879	21362.95
225.952	21357.12
226.025	21378.32
226.097	21393.36
226.17	21402.28
226.243	21389.46
226.316	21389.26
226.389	21405.8
226.461	21427.58
226.534	21438.57
226.607	21435.39
226.68	21464.31
226.753	21476.74
226.825	21458.67
226.898	21468.07
226.971	21479.35
227.044	21491.35
227.117	21482.67
227.189	21484.79
227.262	21495.35
227.335	21507.16
227.407	21506.19
227.48	21520.17
227.553	21533.28
227.626	21537.91
227.698	21538.29
227.771	21559.07
227.844	21553.53
227.916	21557.67
227.989	21543.36
228.062	21548.32
228.134	21577.48
228.207	21578.69
228.28	21572.56
228.352	21580.37
228.425	21592.71
228.498	21601.97
228.57	21593.63
228.643	21612.76
228.716	21609.39
228.788	21609
228.861	21602.59
228.934	21614.69
229.006	21613.87
229.079	21606.79
229.151	21601.24
229.224	21576.28
229.296	21578.06
229.369	21610.65
229.442	21626.94
229.514	21619.03
229.587	21629.35
229.659	21621.3
229.732	21625.68
229.804	21633.93
229.877	21653.01
229.949	21651.28
230.022	21660.34
230.094	21658.08
230.167	21651.67
230.239	21639.95
230.312	21630.99
230.384	21645.98
230.457	21648.15
230.529	21658.41
230.602	21653.98
230.674	21663.23
230.747	21679.62
230.819	21679.72
230.892	21637.01
230.964	21621.2
231.037	21626.99
231.109	21615.27
231.181	21608.14
231.254	21594.55
231.326	21584.91
231.399	21565.29
231.471	21555.6
231.544	21524.27
231.616	21523.5
231.688	21515.79
231.761	21502.72
231.833	21490.82
231.905	21459.92
231.978	21454.91
232.05	21437.12
232.122	21426.28
232.195	21401.6
232.267	21407.48
232.339	21388.73
232.412	21403.82
232.484	21393.17
232.556	21376.39
232.629	21380.78
232.701	21377.79
232.773	21365.6
232.846	21340.92
232.918	21332.1
232.99	21317.93
233.062	21324.82
233.135	21316.68
233.207	21284.33
233.279	21280.82
233.351	21272.09
233.424	21246.26
233.496	21213.34
233.568	21218.5
233.64	21196.13
233.713	21187.75
233.785	21162.2
233.857	21142.64
233.929	21107.93
234.001	21107.11
234.074	21105.48
234.146	21068.85
234.218	21048.46
234.29	21030.67
234.362	21015.25
234.434	20978.14
234.507	20945.13
234.579	20902.81
234.651	20870.57
234.723	20864.59
234.795	20841.94
234.867	20815.63
234.939	20811.96
235.012	20794.37
235.084	20774.37
235.156	20756.54
235.228	20719.04
235.3	20694.08
235.372	20677.55
235.444	20661.98
235.516	20606.27
235.588	20585.98
235.66	20569.5
235.732	20533.11
235.804	20561.79
235.876	20554.99
235.948	20549.55
236.02	20523.96
236.092	20501.55
236.164	20481.89
236.236	20449.45
236.308	20427.48
236.38	20413.79
236.452	20382.66
236.524	20354.66
236.596	20337.21
236.668	20323.62
236.74	20299.28
236.812	20276.25
236.884	20257.16
236.956	20232.3
237.028	20199.77
237.1	20160.35
237.172	20150.81
237.244	20138.32
237.316	20069.12
237.388	20028.54
237.46	19988.88
237.532	19980.16
237.604	19947.43
237.675	19931.39
237.747	19911.73
237.819	19874.23
237.891	19836.64
237.963	19797.32
238.035	19768.41
238.107	19705.04
238.178	19671.59
238.25	19636.03
238.322	19625.28
238.394	19575.74
238.466	19540.51
238.538	19519.99
238.609	19493.29
238.681	19433.48
238.753	19390.26
238.825	19355.37
238.897	19321.83
238.968	19309.06
239.04	19253.49
239.112	19240.96
239.184	19192.58
239.255	19156.92
239.327	19123.53
239.399	19096.25
239.471	19079.63
239.542	19059.92
239.614	19054.95
239.686	19011.63
239.758	18997.32
239.829	18948.65
239.901	18930.82
239.973	18904.84
240.044	18871.49
240.116	18836.94
240.188	18809.18
240.259	18773.04
240.331	18738.25
240.403	18718.39
240.474	18670.59
240.546	18637.34
240.618	18588.81
240.689	18556.09
240.761	18523.95
240.833	18521.54
240.904	18479.76
240.976	18438.17
241.048	18400.29
241.119	18361.74
241.191	18330.95
241.262	18310.13
241.334	18274.71
241.405	18242.9
241.477	18191.72
241.549	18160.16
241.62	18129.65
241.692	18101.22
241.763	18082.33
241.835	18043.44
241.906	18008.84
241.978	17955.35
242.049	17948.12
242.121	17930.34
242.192	17916.89
242.264	17865.18
242.335	17804.41
242.407	17779.16
242.478	17749.33
242.55	17709.04
242.621	17667.21
242.693	17624.66
242.764	17581.04
242.836	17543.93
242.907	17511.84
242.979	17491.5
243.05	17461.09
243.122	17433.28
243.193	17392.75
243.264	17331.79
243.336	17300.9
243.407	17268.22
243.479	17251.31
243.55	17201.62
243.622	17164.66
243.693	17124.37
243.764	17108.37
243.836	17059.74
243.907	17022.92
243.978	16971.2
244.05	16954.24
244.121	16906.77
244.192	16885.32
244.264	16843.78
244.335	16812.26
244.407	16757.8
244.478	16728.93
244.549	16695.58
244.62	16646.27
244.692	16620.44
244.763	16606.41
244.834	16569.25
244.906	16529.54
244.977	16512.05
245.048	16502.12
245.119	16457.92
245.191	16421.68
245.262	16367.26
245.333	16361.38
245.405	16334.01
245.476	16314.87
245.547	16268.75
245.618	16248.55
245.689	16216.89
245.761	16187.15
245.832	16152.73
245.903	16144.06
245.974	16109.16
246.045	16072.29
246.117	16061.4
246.188	16010.98
246.259	15965.53
246.33	15937.62
246.401	15904.46
246.473	15855.06
246.544	15815.05
246.615	15787.29
246.686	15744.73
246.757	15731.09
246.828	15678.21
246.899	15665.54
246.97	15622.25
247.042	15586.97
247.113	15548.17
247.184	15537.56
247.255	15497.75
247.326	15469.69
247.397	15430.94
247.468	15403.13
247.539	15373.82
247.61	15324.56
247.681	15305.38
247.752	15287.64
247.823	15246.62
247.894	15216.15
247.965	15173.3
248.037	15135.46
248.108	15095.69
248.179	15064.94
248.25	15026.47
248.321	15009.12
248.392	14962.27
248.463	14959.76
248.534	14925.59
248.605	14908.57
248.675	14867.21
248.746	14847.98
248.817	14822.82
248.888	14793.17
248.959	14745.02
249.03	14725.64
249.101	14702.4
249.172	14672.47
249.243	14624.89
249.314	14611.05
249.385	14592.16
249.456	14580.16
249.527	14554.7
249.598	14534.17
249.669	14504.81
249.739	14479.02
249.81	14452.6
249.881	14405.75
249.952	14369.4
250.023	14354.6
250.094	14317.97
250.165	14283.84
250.235	14244.07
250.306	14220.4
250.377	14184.05
250.448	14163.81
250.519	14114.68
250.59	14099.74
250.66	14067.68
250.731	14057.22
250.802	14028.97
250.873	13996.77
250.944	13970.89
251.014	13931.89
251.085	13930.73
251.156	13912.07
251.227	13902.72
251.297	13893.37
251.368	13883.29
251.439	13869.99
251.51	13848.59
251.58	13813.4
251.651	13789.2
251.722	13783.03
251.792	13741.18
251.863	13712.4
251.934	13701.17
252.005	13704.55
252.075	13682.85
252.146	13670.51
252.217	13657.21
252.287	13634.93
252.358	13612.9
252.429	13601
252.499	13577.04
252.57	13552.55
252.641	13544.74
252.711	13517.7
252.782	13472.72
252.852	13469.59
252.923	13439.17
252.994	13414.87
253.064	13397.42
253.135	13363.63
253.205	13332.58
253.276	13328.24
253.347	13328.1
253.417	13297.83
253.488	13277.19
253.558	13240.46
253.629	13213.95
253.699	13196.3
253.77	13188.59
253.841	13161.06
253.911	13139.18
253.982	13120.23
254.052	13099.65
254.123	13073.47
254.193	13050.33
254.264	13076.99
254.334	13036.64
254.405	13002.8
254.475	12975.37
254.546	12964.19
254.616	12954.36
254.687	12940.09
254.757	12920.03
254.827	12886.15
254.898	12870.62
254.968	12845.22
255.039	12825.84
255.109	12808.44
255.18	12770.79
255.25	12713.86
255.321	12695.88
255.391	12660.83
255.461	12653.36
255.532	12604
255.602	12579.61
255.673	12541.38
255.743	12499.06
255.813	12454.76
255.884	12447.53
255.954	12438.76
256.024	12430.85
256.095	12407.18
256.165	12368.43
256.235	12345.14
256.306	12316.56
256.376	12311.06
256.446	12297.18
256.517	12275.92
256.587	12266.14
256.657	12252.74
256.728	12246.52
256.798	12232.3
256.868	12208.05
256.938	12187.76
257.009	12183.28
257.079	12172.19
257.149	12181.16
257.219	12144.28
257.29	12132.62
257.36	12099.12
257.43	12077.91
257.5	12035.63
257.571	12015.15
257.641	12005.56
257.711	11981.84
257.781	11974.42
257.852	11952
257.922	11911.27
257.992	11892.91
258.062	11880.38
258.132	11866.01
258.202	11842.16
258.273	11829.62
258.343	11829.14
258.413	11795.93
258.483	11775.01
258.553	11739.3
258.623	11713.32
258.693	11704.21
258.764	11709.75
258.834	11700.35
258.904	11685.07
258.974	11655.34
259.044	11626.61
259.114	11613.55
259.184	11596.01
259.254	11575.86
259.324	11537.98
259.394	11520.48
259.464	11526.22
259.535	11498.94
259.605	11479.56
259.675	11457.54
259.745	11437.58
259.815	11407.84
259.885	11391.07
259.955	11404.47
260.025	11381.05
260.095	11360.62
260.165	11339.75
260.235	11329.05
260.305	11306.49
260.375	11279.07
260.445	11290.44
260.515	11294.88
260.585	11286.68
260.655	11266.25
260.725	11259.89
260.795	11256.42
260.865	11258.01
260.934	11222.78
261.004	11209.14
261.074	11194.3
261.144	11197.43
261.214	11192.46
261.284	11173.57
261.354	11169.09
261.424	11133.28
261.494	11136.56
261.564	11118
261.634	11103.31
261.703	11070.29
261.773	11058.78
261.843	11050.83
261.913	11034.15
261.983	11004.27
262.053	10984.85
