Data from 20250702_urea_0.5M_MAYP1162681_17-24-59-573.txt Node
Date: Wed Jul 02 17:24:59 BST 2025
User: adleo
Spectrometer: MAYP116268
Trigger mode: 0
Integration Time (sec): 1.000000E0
Scans to average: 1
Electric dark correction enabled: true
Nonlinearity correction enabled: true
Boxcar width: 10
XAxis mode: Wavelengths
Number of Pixels in Spectrum: 2068
>>>>>Begin Spectral Data<<<<<
179.565	1128.32
179.642	1177.88
179.718	1216.66
179.795	1251.12
179.871	1280.45
179.948	1296.02
180.024	1315.85
180.101	1335.64
180.177	1350.94
180.254	1371.89
180.33	1392.6
180.407	1440.06
180.483	1530.28
180.56	1614.33
180.636	1692.61
180.712	1676.88
180.789	1684.43
180.865	1696.31
180.942	1701.39
181.018	1710.66
181.095	1723.77
181.171	1728.76
181.248	1730.24
181.324	1746.73
181.4	1754.71
181.477	1763.46
181.553	1775.81
181.63	1794.16
181.706	1810.32
181.782	1815.31
181.859	1816.02
181.935	1820.06
182.011	1815.78
182.088	1826.48
182.164	1843.07
182.24	1856.52
182.317	1867.02
182.393	1865.64
182.469	1880.24
182.546	1893.93
182.622	1901.01
182.698	1896.78
182.775	1908.33
182.851	1920.88
182.927	1912.56
183.003	1907.52
183.08	1906.57
183.156	1916.6
183.232	1911.61
183.308	1900.15
183.385	1908.14
183.461	1921.02
183.537	1922.92
183.613	1935.19
183.69	1931.91
183.766	1921.35
183.842	1924.92
183.918	1930.76
183.995	1945.45
184.071	1945.07
184.147	1940.41
184.223	1929.43
184.299	1943.7
184.375	1930.63
184.452	1937.67
184.528	1991.8
184.604	2000.78
184.68	2007.96
184.756	2012.81
184.832	2019.37
184.908	2026.03
184.985	2024.69
185.061	2010.86
185.137	2019.8
185.213	2007.06
185.289	2007.15
185.365	2000.17
185.441	2001.93
185.517	2015.34
185.593	2011.2
185.669	2010.63
185.745	2019.57
185.822	2035.83
185.898	2026.56
185.974	2036.97
186.05	2029.5
186.126	1988.4
186.202	1981.89
186.278	1982.17
186.354	1974.66
186.43	1982.65
186.506	1980.27
186.582	1983.13
186.658	1991.59
186.734	1970.38
186.81	1974.04
186.886	1975.28
186.962	1988.69
187.038	1985.93
187.114	1975.51
187.19	1981.5
187.266	1972.33
187.341	1974.61
187.417	1969.76
187.493	1968.05
187.569	1968.48
187.645	1963.96
187.721	1953.93
187.797	1960.49
187.873	1963.77
187.949	1957.11
188.025	1950.4
188.101	1953.16
188.176	1958.11
188.252	1951.5
188.328	1961.34
188.404	1962.76
188.48	1959.01
188.556	1952.06
188.632	1950.97
188.707	1952.54
188.783	1950.54
188.859	1945.27
188.935	1935.14
189.011	1940.46
189.086	1935.9
189.162	1927.72
189.238	1923.21
189.314	1921.4
189.39	1918.69
189.465	1910.18
189.541	1926.39
189.617	1912.13
189.693	1904.05
189.768	1907.71
189.844	1934.54
189.92	1926.32
189.996	1937.3
190.071	1951.14
190.147	1949.95
190.223	1959.46
190.298	1951.28
190.374	1938.21
190.45	1949.05
190.526	1955.65
190.601	1948.95
190.677	1950.95
190.753	1977.78
190.828	1985
190.904	1996.89
190.98	2011.44
191.055	2020.24
191.131	2014.63
191.207	2031.46
191.282	2041.3
191.358	2027.79
191.433	2011.19
191.509	2024.59
191.585	2018.13
191.66	2015.6
191.736	2023.5
191.811	2012.99
191.887	2028.59
191.963	2050.32
192.038	2055.88
192.114	2056.36
192.189	2061.78
192.265	2056.65
192.34	2036.62
192.416	2035.43
192.491	2032.76
192.567	2035.24
192.642	2038.57
192.718	2036.95
192.793	2026.92
192.869	2027.87
192.944	2034.81
193.02	2041.42
193.095	2045.08
193.171	2051.64
193.246	2053.26
193.322	2049.22
193.397	2051.26
193.473	2039.89
193.548	2025.2
193.624	2030.95
193.699	2030.43
193.775	2043.47
193.85	2047.32
193.925	2054.88
194.001	2052.83
194.076	2047.27
194.152	2038.28
194.227	2031.24
194.302	2021.73
194.378	2025.3
194.453	2017.98
194.529	2029.01
194.604	2017.74
194.679	2012.75
194.755	1994.16
194.83	2001.1
194.905	2000.68
194.981	2009.62
195.056	2002.44
195.131	2006.57
195.207	2005.29
195.282	1996.4
195.357	1979.89
195.433	1991.02
195.508	1980.08
195.583	1985.93
195.659	1997.3
195.734	2003.96
195.809	2002.25
195.884	2009.47
195.96	2011.61
196.035	2026.02
196.11	2019.03
196.185	2030.01
196.261	2030.15
196.336	2060.21
196.411	2050.08
196.486	2054.5
196.561	2046.03
196.637	2054.12
196.712	2071.39
196.787	2074.86
196.862	2089.13
196.937	2098.31
197.013	2105.63
197.088	2117.28
197.163	2139.27
197.238	2156.26
197.313	2153.98
197.388	2167.68
197.464	2198.9
197.539	2210.12
197.614	2205.6
197.689	2220.35
197.764	2232.54
197.839	2252.42
197.914	2246.52
197.989	2265.41
198.065	2279.07
198.14	2329.07
198.215	2353.91
198.29	2363.14
198.365	2374.33
198.44	2385.47
198.515	2410.74
198.59	2425.26
198.665	2449.69
198.74	2458.12
198.815	2462.21
198.89	2483.44
198.965	2511.68
199.04	2506.97
199.115	2521.58
199.19	2563.39
199.265	2564.82
199.34	2577.63
199.415	2612.17
199.49	2636.22
199.565	2645.31
199.64	2668.56
199.715	2665.98
199.79	2675.89
199.865	2682.99
199.94	2683.61
200.015	2713.29
200.09	2720.34
200.165	2729.11
200.24	2734.3
200.315	2771.21
200.39	2785.17
200.464	2791.12
200.539	2793.13
200.614	2809.61
200.689	2831.01
200.764	2836.2
200.839	2855.16
200.914	2858.16
200.989	2845.29
201.063	2854.25
201.138	2841.82
201.213	2840.49
201.288	2821.9
201.363	2823.47
201.438	2825.09
201.512	2838.24
201.587	2819.99
201.662	2823.56
201.737	2833.57
201.812	2844.72
201.886	2813.58
201.961	2820.21
202.036	2809.97
202.111	2807.35
202.186	2779.25
202.26	2759.61
202.335	2740.12
202.41	2731.21
202.485	2715.59
202.559	2698.2
202.634	2674.34
202.709	2682.67
202.784	2664.9
202.858	2664.85
202.933	2647.18
203.008	2639.23
203.082	2623.37
203.157	2623.51
203.232	2584.09
203.306	2563.45
203.381	2531.39
203.456	2509.82
203.53	2487.75
203.605	2467.76
203.68	2443.47
203.754	2436.43
203.829	2424.24
203.904	2405.06
203.978	2394.25
204.053	2399.58
204.127	2389.97
204.202	2386.11
204.277	2368.07
204.351	2359.31
204.426	2351.31
204.5	2345.27
204.575	2311.58
204.65	2318.82
204.724	2311.15
204.799	2316.86
204.873	2315.1
204.948	2314.57
205.022	2302.53
205.097	2296.25
205.171	2308.14
205.246	2315.9
205.32	2317.81
205.395	2317.71
205.469	2309.96
205.544	2315.72
205.618	2299.72
205.693	2310.29
205.767	2300.4
205.842	2323.01
205.916	2320.87
205.991	2309.68
206.065	2311.73
206.14	2328.99
206.214	2326.52
206.289	2320.76
206.363	2330.94
206.438	2333.13
206.512	2341.13
206.586	2359.45
206.661	2367.17
206.735	2349.52
206.81	2354.52
206.884	2368.03
206.958	2356.94
207.033	2371.65
207.107	2381.93
207.181	2414.46
207.256	2410.22
207.33	2431.59
207.405	2442.7
207.479	2464.45
207.553	2478.07
207.628	2469.69
207.702	2485.02
207.776	2483.54
207.851	2495.4
207.925	2519.6
207.999	2525.55
208.073	2528.79
208.148	2544.27
208.222	2544.56
208.296	2589.64
208.371	2617.34
208.445	2643.64
208.519	2688.22
208.593	2715.85
208.668	2730.29
208.742	2755.61
208.816	2777.43
208.89	2814.52
208.965	2840.71
209.039	2874.27
209.113	2919.42
209.187	2969.97
209.261	3000.23
209.336	3052.59
209.41	3105.53
209.484	3146.67
209.558	3207.65
209.632	3266.41
209.707	3322.01
209.781	3390.87
209.855	3456.19
209.929	3523.8
210.003	3585.73
210.077	3647.68
210.151	3758.96
210.226	3858.71
210.3	3948
210.374	4043.94
210.448	4123.88
210.522	4214.37
210.596	4310.08
210.67	4404.69
210.744	4538.82
210.818	4661.24
210.892	4775.36
210.966	4869.55
211.041	4979.88
211.115	5082.94
211.189	5213.04
211.263	5338.62
211.337	5460.67
211.411	5587.77
211.485	5705.84
211.559	5839.81
211.633	5968.17
211.707	6066.51
211.781	6204.74
211.855	6306.97
211.929	6433.52
212.003	6551.77
212.077	6696.2
212.151	6840.92
212.225	6991.09
212.299	7124.28
212.373	7253.38
212.447	7403.65
212.52	7582.91
212.594	7744.76
212.668	7908.2
212.742	8050.42
212.816	8202.81
212.89	8349.96
212.964	8509.09
213.038	8670.41
213.112	8850.72
213.186	9027.65
213.26	9171.28
213.333	9294.83
213.407	9463.71
213.481	9627.01
213.555	9804.72
213.629	9963.05
213.703	10121.13
213.777	10290.75
213.85	10441.59
213.924	10647.4
213.998	10809.83
214.072	10970.2
214.146	11120.21
214.219	11273.69
214.293	11431.22
214.367	11601.73
214.441	11787.57
214.515	11942.19
214.588	12081.82
214.662	12200.97
214.736	12338.54
214.81	12505.02
214.883	12664.56
214.957	12808.78
215.031	12957.53
215.105	13088.45
215.178	13228.63
215.252	13369.68
215.326	13491.5
215.4	13614.9
215.473	13715.08
215.547	13845.04
215.621	13973.46
215.694	14128.96
215.768	14254.35
215.842	14386.43
215.915	14509.35
215.989	14610.53
216.063	14735.71
216.136	14866.82
216.21	14998.37
216.284	15136.71
216.357	15269.7
216.431	15393.92
216.504	15523.1
216.578	15672.95
216.652	15803.96
216.725	15920.42
216.799	16049.88
216.873	16170.47
216.946	16308.85
217.02	16414.79
217.093	16521.5
217.167	16620.98
217.24	16716.45
217.314	16832.75
217.387	16935.12
217.461	17033.53
217.535	17154.93
217.608	17247.51
217.682	17353.54
217.755	17471.95
217.829	17563.03
217.902	17658.45
217.976	17756.86
218.049	17856.86
218.123	17937.05
218.196	18036.86
218.27	18129.33
218.343	18210.87
218.417	18300.85
218.49	18375.59
218.563	18492.12
218.637	18584.69
218.71	18685.89
218.784	18768.53
218.857	18850.94
218.931	18939.8
219.004	19023.85
219.077	19106.78
219.151	19193.47
219.224	19266.58
219.298	19337.66
219.371	19424.93
219.444	19493.7
219.518	19575.57
219.591	19648.97
219.665	19749.21
219.738	19822.36
219.811	19881.39
219.885	19951.66
219.958	20033.92
220.031	20106.16
220.105	20170.06
220.178	20233.29
220.251	20288.61
220.325	20360.76
220.398	20425.43
220.471	20491.21
220.544	20554.49
220.618	20611.02
220.691	20677.58
220.764	20739.03
220.838	20793.05
220.911	20845.63
220.984	20915.81
221.057	20966.89
221.131	21022.7
221.204	21031.72
221.277	21092.88
221.35	21174.81
221.424	21218.19
221.497	21262.82
221.57	21313.19
221.643	21360.95
221.716	21417.54
221.79	21456.82
221.863	21490.75
221.936	21536.69
222.009	21574.62
222.082	21610.29
222.155	21636.6
222.229	21680.08
222.302	21717.77
222.375	21744.04
222.448	21773.11
222.521	21795.38
222.594	21826.85
222.667	21842.81
222.74	21895.35
222.814	21922.83
222.887	21948.66
222.96	21994.55
223.033	22021.94
223.106	22047
223.179	22071.73
223.252	22097.67
223.325	22129.19
223.398	22153.92
223.471	22178.94
223.544	22207.48
223.617	22243.97
223.69	22273.09
223.763	22282.73
223.837	22309.77
223.91	22350.7
223.983	22360.92
224.056	22363.91
224.129	22380.2
224.202	22414.19
224.275	22423.16
224.348	22422.05
224.42	22419.78
224.493	22413.08
224.566	22422.43
224.639	22432.17
224.712	22438.05
224.785	22440.7
224.858	22440.61
224.931	22447.12
225.004	22442.73
225.077	22448.61
225.15	22420.6
225.223	22429.66
225.296	22467.27
225.369	22458.93
225.442	22450.78
225.514	22456.38
225.587	22480.62
225.66	22490.17
225.733	22490.27
225.806	22498.27
225.879	22504.54
225.952	22497.06
226.025	22505.45
226.097	22523.39
226.17	22529.75
226.243	22501.55
226.316	22496.58
226.389	22499.72
226.461	22497.98
226.534	22503.77
226.607	22497.65
226.68	22527.78
226.753	22512.11
226.825	22471.08
226.898	22473.92
226.971	22468.52
227.044	22481.3
227.117	22474.64
227.189	22474.84
227.262	22478.74
227.335	22477.73
227.407	22471.95
227.48	22478.07
227.553	22486.89
227.626	22481.3
227.698	22475.03
227.771	22487.13
227.844	22479.85
227.916	22480.81
227.989	22470.45
228.062	22461.29
228.134	22470.84
228.207	22448.23
228.28	22434.49
228.352	22428.17
228.425	22429.33
228.498	22436.03
228.57	22408.79
228.643	22409.32
228.716	22394.04
228.788	22377.17
228.861	22359.52
228.934	22377.46
229.006	22359.72
229.079	22337.73
229.151	22316.04
229.224	22288.22
229.296	22285.38
229.369	22300.28
229.442	22298.49
229.514	22278.73
229.587	22277.04
229.659	22250.38
229.732	22257.61
229.804	22264.6
229.877	22288.56
229.949	22288.8
230.022	22296.04
230.094	22294.88
230.167	22289.82
230.239	22266.97
230.312	22259.16
230.384	22271.64
230.457	22254.92
230.529	22253.95
230.602	22247.93
230.674	22234.09
230.747	22242.77
230.819	22243.39
230.892	22209.55
230.964	22205.02
231.037	22200.68
231.109	22189.88
231.181	22181.16
231.254	22151.9
231.326	22143.46
231.399	22116.9
231.471	22099.55
231.544	22054.66
231.616	22048.88
231.688	22028.06
231.761	22009.84
231.833	21978.41
231.905	21937.38
231.978	21915.45
232.05	21904.32
232.122	21892.02
232.195	21872.02
232.267	21867.01
232.339	21836.69
232.412	21828.49
232.484	21789.5
232.556	21769.44
232.629	21764.24
232.701	21758.45
232.773	21746.65
232.846	21711.22
232.918	21684.51
232.99	21654.77
233.062	21641.81
233.135	21623.2
233.207	21594.81
233.279	21593.94
233.351	21591
233.424	21567.77
233.496	21540.01
233.568	21521.84
233.64	21481.54
233.713	21454.79
233.785	21425.2
233.857	21406.35
233.929	21367.36
234.001	21363.6
234.074	21352.37
234.146	21318.48
234.218	21282.72
234.29	21255.39
234.362	21232.45
234.434	21195.82
234.507	21161.79
234.579	21131.62
234.651	21102.13
234.723	21084.82
234.795	21051.86
234.867	21009.73
234.939	20989.73
235.012	20956.48
235.084	20934.6
235.156	20924.86
235.228	20903.99
235.3	20867.27
235.372	20841.92
235.444	20826.54
235.516	20783.7
235.588	20752.85
235.66	20725.67
235.732	20701.04
235.804	20725.86
235.876	20708.47
235.948	20690.06
236.02	20654.25
236.092	20616.56
236.164	20582.83
236.236	20545.24
236.308	20517.19
236.38	20498.06
236.452	20459.36
236.524	20436.47
236.596	20427.12
236.668	20402.73
236.74	20373.14
236.812	20342.54
236.884	20324.75
236.956	20298.06
237.028	20253.14
237.1	20220.81
237.172	20209.67
237.244	20186.59
237.316	20117.77
237.388	20077.67
237.46	20041.05
237.532	20036.13
237.604	19992.47
237.675	19972.37
237.747	19947.75
237.819	19907.94
237.891	19878.16
237.963	19841.73
238.035	19806.89
238.107	19722.51
238.178	19700.19
238.25	19662.56
238.322	19660.1
238.394	19607.04
238.466	19567.48
238.538	19548.88
238.609	19521.79
238.681	19455
238.753	19413.36
238.825	19381.27
238.897	19349.56
238.968	19336.79
239.04	19289.9
239.112	19292.31
239.184	19249.08
239.255	19208.65
239.327	19179.35
239.399	19150.2
239.471	19128.75
239.542	19102.64
239.614	19108.76
239.686	19045.53
239.758	19021.39
239.829	18968.43
239.901	18942.21
239.973	18905.73
240.044	18877.2
240.116	18846.31
240.188	18807.67
240.259	18775.52
240.331	18728.01
240.403	18707.33
240.474	18657.12
240.546	18620.69
240.618	18562.91
240.689	18526.91
240.761	18494.87
240.833	18473.42
240.904	18427.45
240.976	18382.82
241.048	18349.76
241.119	18301.72
241.191	18271.55
241.262	18256.61
241.334	18215.02
241.405	18185.15
241.477	18153.68
241.549	18112.47
241.62	18071.08
241.692	18048.33
241.763	18017.44
241.835	17989.2
241.906	17947.9
241.978	17893.49
242.049	17860.72
242.121	17838.46
242.192	17812.39
242.264	17761.55
242.335	17713.02
242.407	17691.43
242.478	17666.9
242.55	17627.96
242.621	17585.74
242.693	17543.04
242.764	17495.09
242.836	17461.36
242.907	17426.18
242.979	17393.26
243.05	17360.25
243.122	17325.6
243.193	17285.69
243.264	17235.67
243.336	17196.25
243.407	17168.34
243.479	17163.19
243.55	17130.7
243.622	17103.43
243.693	17075.43
243.764	17063.04
243.836	17014.07
243.907	16971.9
243.978	16931.08
244.05	16903.61
244.121	16858.69
244.192	16841.2
244.264	16799.27
244.335	16769.77
244.407	16718.11
244.478	16684.66
244.549	16647.98
244.62	16605.18
244.692	16571.16
244.763	16552.79
244.834	16513.27
244.906	16476.84
244.977	16435.05
245.048	16413.46
245.119	16370.27
245.191	16315.91
245.262	16256.43
245.333	16240.43
245.405	16205.58
245.476	16176.04
245.547	16135.45
245.618	16107.84
245.689	16076.94
245.761	16042.87
245.832	16012.74
245.903	15990.38
245.974	15957.22
246.045	15921.5
246.117	15911.38
246.188	15871.28
246.259	15827.56
246.33	15794.01
246.401	15747.16
246.473	15698.38
246.544	15657.8
246.615	15629.75
246.686	15593.16
246.757	15576.87
246.828	15530.69
246.899	15515.94
246.97	15469.67
247.042	15437.52
247.113	15415.25
247.184	15395.25
247.255	15358.47
247.326	15330.71
247.397	15299.09
247.468	15268.53
247.539	15241.87
247.61	15190
247.681	15170.92
247.752	15147.59
247.823	15112.83
247.894	15092.59
247.965	15064
248.037	15028.28
248.108	14981.86
248.179	14952.02
248.25	14922.19
248.321	14909.17
248.392	14870.18
248.463	14864.54
248.534	14827.61
248.605	14807.08
248.675	14774.01
248.746	14749.23
248.817	14723.3
248.888	14697.75
248.959	14653.84
249.03	14627.85
249.101	14603.13
249.172	14562.05
249.243	14508.31
249.314	14497.75
249.385	14469.07
249.456	14446.36
249.527	14417.34
249.598	14398.64
249.669	14377.77
249.739	14352.55
249.81	14328.74
249.881	14282.75
249.952	14258.89
250.023	14236.52
250.094	14187.69
250.165	14151.25
250.235	14133.36
250.306	14101.93
250.377	14069.35
250.448	14041.34
250.519	14006.1
250.59	13992.46
250.66	13968.84
250.731	13972.31
250.802	13930.71
250.873	13912.15
250.944	13889.92
251.014	13863.31
251.085	13856.32
251.156	13831.01
251.227	13822.14
251.297	13806.53
251.368	13798.48
251.439	13774.18
251.51	13760.78
251.58	13735.28
251.651	13699.65
251.722	13674.3
251.792	13632.5
251.863	13599.24
251.934	13598.37
252.005	13591.19
252.075	13563.85
252.146	13550.69
252.217	13524.71
252.287	13519.36
252.358	13483.69
252.429	13468.69
252.499	13437.26
252.57	13417.11
252.641	13396.29
252.711	13368.14
252.782	13329.09
252.852	13318.87
252.923	13290.76
252.994	13269.55
253.064	13257.6
253.135	13230.99
253.205	13202.5
253.276	13197.44
253.347	13188.33
253.417	13155.45
253.488	13126.04
253.558	13099.24
253.629	13074.32
253.699	13059.37
253.77	13043.22
253.841	13024.81
253.911	13007.12
253.982	12992.9
254.052	12974
254.123	12961.56
254.193	12931.34
254.264	12945.08
254.334	12912.87
254.405	12878.99
254.475	12842.21
254.546	12820.32
254.616	12815.98
254.687	12801.81
254.757	12782.14
254.827	12757.51
254.898	12738.32
254.968	12718.27
255.039	12691.42
255.109	12667.41
255.18	12636.85
255.25	12593.03
255.321	12575.49
255.391	12544.35
255.461	12542.47
255.532	12496.53
255.602	12468.28
255.673	12438.73
255.743	12398.96
255.813	12359.05
255.884	12348.54
255.954	12340.01
256.024	12336.83
256.095	12311.47
256.165	12270.93
256.235	12255.31
256.306	12231.45
256.376	12224.22
256.446	12210.15
256.517	12195.74
256.587	12194.72
256.657	12169.71
256.728	12153.13
256.798	12135.97
256.868	12104.73
256.938	12073.06
257.009	12066.27
257.079	12053.3
257.149	12051.71
257.219	12013.97
257.29	11997.24
257.36	11961.24
257.43	11944.03
257.5	11893.95
257.571	11869.8
257.641	11866.04
257.711	11837.41
257.781	11822.03
257.852	11800.73
257.922	11762.02
257.992	11739.18
258.062	11717.87
258.132	11714.5
258.202	11693.05
258.273	11671.5
258.343	11676.61
258.413	11645.77
258.483	11620.85
258.553	11589.66
258.623	11560.79
258.693	11553.03
258.764	11549.95
258.834	11550.05
258.904	11530.09
258.974	11507.25
259.044	11488.55
259.114	11472.55
259.184	11457.65
259.254	11441.89
259.324	11406.08
259.394	11393.55
259.464	11395.14
259.535	11372.25
259.605	11349.5
259.675	11325.94
259.745	11315.72
259.815	11282.13
259.885	11263.09
259.955	11279.04
260.025	11255.14
260.095	11241.17
260.165	11227.43
260.235	11226.51
260.305	11196.64
260.375	11178.47
260.445	11184.15
260.515	11184.97
260.585	11174.75
260.655	11155.24
260.725	11152.2
260.795	11148.3
260.865	11149.16
260.934	11120.63
261.004	11108.83
261.074	11086.08
261.144	11081.84
261.214	11076.59
261.284	11062.32
261.354	11063.91
261.424	11033.79
261.494	11043.67
261.564	11023.67
261.634	11014.08
261.703	10972.78
261.773	10968.3
261.843	10954.71
261.913	10934.67
261.983	10898.38
262.053	10885.37
