Data from 20250702_urea_0.5M_MAYP1162681_06-34-59-761.txt Node
Date: Thu Jul 03 06:34:59 BST 2025
User: adleo
Spectrometer: MAYP116268
Trigger mode: 0
Integration Time (sec): 1.000000E0
Scans to average: 1
Electric dark correction enabled: true
Nonlinearity correction enabled: true
Boxcar width: 10
XAxis mode: Wavelengths
Number of Pixels in Spectrum: 2068
>>>>>Begin Spectral Data<<<<<
179.565	1187.09
179.642	1239.33
179.718	1280.54
179.795	1319.14
179.871	1348.27
179.948	1365.16
180.024	1384.93
180.101	1404.82
180.177	1420.32
180.254	1444.39
180.33	1467.84
180.407	1522.73
180.483	1615.75
180.56	1703.69
180.636	1785.15
180.712	1770.51
180.789	1780.54
180.865	1790.99
180.942	1797.74
181.018	1806.96
181.095	1823.36
181.171	1829.4
181.248	1829.73
181.324	1844.52
181.4	1851.84
181.477	1864.53
181.553	1877.69
181.63	1897.47
181.706	1918.25
181.782	1925.66
181.859	1925.52
181.935	1930.08
182.011	1924
182.088	1940.12
182.164	1959.52
182.24	1975.02
182.317	1985.67
182.393	1985.67
182.469	1997.36
182.546	2010.91
182.622	2019.19
182.698	2011.48
182.775	2023.09
182.851	2037.92
182.927	2032.55
183.003	2027.32
183.08	2021.9
183.156	2031.98
183.232	2030.31
183.308	2015.52
183.385	2023.84
183.461	2039.35
183.537	2038.49
183.613	2049.53
183.69	2042.01
183.766	2029.88
183.842	2038.06
183.918	2040.44
183.995	2052.66
184.071	2060.99
184.147	2055.8
184.223	2040.64
184.299	2055.29
184.375	2043.02
184.452	2049.3
184.528	2100.82
184.604	2114.99
184.68	2125.69
184.756	2132.97
184.832	2135.68
184.908	2141.48
184.985	2141.58
185.061	2124.65
185.137	2134.59
185.213	2124.22
185.289	2126.65
185.365	2119.94
185.441	2114.43
185.517	2128.89
185.593	2126.99
185.669	2120.09
185.745	2131.08
185.822	2149.43
185.898	2140.15
185.974	2151.42
186.05	2144.24
186.126	2104.13
186.202	2095.09
186.278	2092.48
186.354	2082.68
186.43	2091.01
186.506	2088.72
186.582	2086.2
186.658	2095.62
186.734	2076.17
186.81	2079.31
186.886	2081.54
186.962	2094.52
187.038	2093.24
187.114	2085.91
187.19	2089.76
187.266	2082.82
187.341	2082.34
187.417	2075.26
187.493	2076.73
187.569	2078.59
187.645	2073.36
187.721	2066.13
187.797	2073.4
187.873	2076.92
187.949	2071.26
188.025	2065.13
188.101	2068.26
188.176	2075.54
188.252	2071.21
188.328	2077.49
188.404	2077.63
188.48	2073.54
188.556	2069.64
188.632	2071.64
188.707	2074.54
188.783	2072.35
188.859	2068.03
188.935	2056.66
189.011	2064.03
189.086	2054.28
189.162	2045.15
189.238	2041.68
189.314	2038.35
189.39	2031.79
189.465	2022.61
189.541	2037.64
189.617	2022.56
189.693	2017.95
189.768	2019.38
189.844	2041.79
189.92	2034.85
189.996	2044.69
190.071	2055.35
190.147	2051.12
190.223	2056.44
190.298	2047.4
190.374	2036.23
190.45	2048.78
190.526	2061.34
190.601	2055.44
190.677	2060.2
190.753	2088.41
190.828	2093.31
190.904	2107.63
190.98	2124.38
191.055	2137.79
191.131	2130.75
191.207	2151.44
191.282	2163.66
191.358	2156.96
191.433	2143.87
191.509	2157.99
191.585	2154.8
191.66	2153.18
191.736	2162.36
191.811	2155.47
191.887	2172.17
191.963	2195.53
192.038	2197.29
192.114	2194.91
192.189	2198.52
192.265	2195.38
192.34	2173.82
192.416	2172.92
192.491	2170.97
192.567	2173.4
192.642	2174.35
192.718	2174.82
192.793	2161.22
192.869	2155.18
192.944	2154.75
193.02	2158.46
193.095	2162.36
193.171	2163.5
193.246	2165.17
193.322	2160.98
193.397	2161.31
193.473	2145.99
193.548	2127.2
193.624	2134.95
193.699	2133.81
193.775	2150.28
193.85	2151.18
193.925	2159.74
194.001	2160.27
194.076	2150.18
194.152	2138.95
194.227	2130.25
194.302	2121.45
194.378	2125.06
194.453	2121.64
194.529	2135.67
194.604	2123.4
194.679	2114.51
194.755	2098.77
194.83	2109.95
194.905	2107.81
194.981	2115.47
195.056	2108.38
195.131	2115.14
195.207	2115.14
195.282	2106.67
195.357	2086.54
195.433	2103.05
195.508	2090.63
195.583	2095.68
195.659	2110.52
195.734	2117.23
195.809	2119.56
195.884	2128.88
195.96	2132.11
196.035	2146.91
196.11	2142.1
196.185	2156.04
196.261	2164.32
196.336	2195.43
196.411	2181.91
196.486	2189.95
196.561	2184.67
196.637	2193.56
196.712	2207.7
196.787	2209.13
196.862	2222.21
196.937	2231.01
197.013	2236.2
197.088	2250.61
197.163	2273.41
197.238	2289.51
197.313	2288.8
197.388	2303.41
197.464	2330.73
197.539	2338.39
197.614	2333.3
197.689	2346.63
197.764	2363.44
197.839	2379.52
197.914	2374
197.989	2394.75
198.065	2407.56
198.14	2457.96
198.215	2484.71
198.29	2497.71
198.365	2507.62
198.44	2519.14
198.515	2548.71
198.59	2562.23
198.665	2587.86
198.74	2592.29
198.815	2593.58
198.89	2617.48
198.965	2646.98
199.04	2642.93
199.115	2660.83
199.19	2702.79
199.265	2703.7
199.34	2710.56
199.415	2744.21
199.49	2768.55
199.565	2778.89
199.64	2802
199.715	2800.18
199.79	2807.57
199.865	2813.33
199.94	2814.05
200.015	2845.93
200.09	2848.79
200.165	2857.32
200.24	2864.62
200.315	2908.55
200.39	2926.57
200.464	2931.38
200.539	2930.09
200.614	2947.1
200.689	2973.23
200.764	2977.71
200.839	2998.58
200.914	3003.97
200.989	2996.38
201.063	3003.06
201.138	2987.77
201.213	2987
201.288	2966.12
201.363	2972.13
201.438	2973.8
201.512	2989.57
201.587	2971.88
201.662	2977.41
201.737	2986.95
201.812	2992.43
201.886	2959.41
201.961	2968.19
202.036	2956.42
202.111	2954.37
202.186	2923.65
202.26	2906.29
202.335	2884.5
202.41	2877.07
202.485	2860.87
202.559	2839.76
202.634	2817.74
202.709	2827.22
202.784	2809.49
202.858	2807.3
202.933	2786.76
203.008	2775.23
203.082	2753.75
203.157	2753.13
203.232	2711.03
203.306	2694.49
203.381	2661.84
203.456	2636.88
203.53	2613.04
203.605	2595.76
203.68	2574.17
203.754	2570.08
203.829	2552.5
203.904	2536.69
203.978	2524.59
204.053	2528.3
204.127	2513.59
204.202	2512.16
204.277	2493.83
204.351	2487.26
204.426	2482.02
204.5	2473.59
204.575	2444.08
204.65	2456.23
204.724	2449.65
204.799	2457.65
204.873	2450.6
204.948	2448.88
205.022	2439.98
205.097	2431.69
205.171	2441.78
205.246	2449.31
205.32	2447.45
205.395	2446.79
205.469	2435.46
205.544	2440.99
205.618	2424.99
205.693	2437.99
205.767	2424.42
205.842	2445.8
205.916	2441.42
205.991	2431.85
206.065	2437.61
206.14	2454.31
206.214	2448.41
206.289	2441.12
206.363	2455.64
206.438	2458.4
206.512	2469.69
206.586	2488.21
206.661	2498.45
206.735	2478.18
206.81	2476.37
206.884	2494.55
206.958	2481.61
207.033	2499.98
207.107	2509.56
207.181	2537.61
207.256	2531.47
207.33	2552.84
207.405	2566.72
207.479	2589.05
207.553	2595.86
207.628	2582.63
207.702	2594.25
207.776	2589.91
207.851	2594.91
207.925	2611.45
207.999	2609.97
208.073	2605.83
208.148	2607.26
208.222	2596.3
208.296	2634.48
208.371	2659.22
208.445	2673.09
208.519	2711.62
208.593	2727.68
208.668	2729.54
208.742	2741.22
208.816	2755.94
208.89	2777.39
208.965	2783.3
209.039	2798.37
209.113	2829.06
209.187	2860.25
209.261	2869.16
209.336	2904.34
209.41	2936.51
209.484	2954.4
209.558	2994.93
209.632	3027.77
209.707	3062.91
209.781	3108.26
209.855	3143.23
209.929	3181.67
210.003	3215.06
210.077	3239.11
210.151	3315.65
210.226	3377.1
210.3	3434.75
210.374	3485.56
210.448	3522.7
210.522	3566.73
210.596	3607.6
210.67	3654.64
210.744	3742.77
210.818	3810.7
210.892	3869.85
210.966	3906.67
211.041	3962.86
211.115	4003.33
211.189	4071.34
211.263	4136.48
211.337	4189.16
211.411	4257.12
211.485	4305.15
211.559	4364.54
211.633	4417.84
211.707	4441.48
211.781	4504.82
211.855	4530.23
211.929	4582.51
212.003	4623.84
212.077	4694.89
212.151	4770.19
212.225	4840.28
212.299	4891.84
212.373	4946.36
212.447	5009.89
212.52	5101.69
212.594	5174.76
212.668	5258.45
212.742	5320.22
212.816	5381.38
212.89	5450.1
212.964	5519.59
213.038	5595.65
213.112	5690.32
213.186	5780.36
213.26	5835.73
213.333	5868.87
213.407	5947.8
213.481	6024.95
213.555	6112.99
213.629	6175.48
213.703	6242.96
213.777	6321.74
213.85	6383.28
213.924	6497.7
213.998	6576.79
214.072	6656.29
214.146	6724.73
214.219	6796.39
214.293	6867.9
214.367	6951.49
214.441	7037.15
214.515	7105.82
214.588	7161.42
214.662	7203.47
214.736	7260.27
214.81	7343.33
214.883	7427.8
214.957	7497.2
215.031	7567.76
215.105	7624.94
215.178	7693.36
215.252	7762.75
215.326	7815.21
215.4	7870.27
215.473	7901.05
215.547	7958.2
215.621	8018.29
215.694	8095.56
215.768	8153.24
215.842	8215.97
215.915	8278.23
215.989	8326.49
216.063	8391.42
216.136	8463.26
216.21	8535.49
216.284	8623.13
216.357	8703.64
216.431	8770.3
216.504	8844.81
216.578	8940.03
216.652	9026.57
216.725	9101.43
216.799	9180.93
216.873	9253.82
216.946	9334.12
217.02	9398.54
217.093	9469.03
217.167	9516.22
217.24	9571.22
217.314	9630.4
217.387	9698.88
217.461	9755.23
217.535	9843.04
217.608	9894.53
217.682	9966.16
217.755	10043.81
217.829	10101.04
217.902	10166.36
217.976	10238.38
218.049	10302.98
218.123	10345.96
218.196	10414.42
218.27	10468.58
218.343	10524.13
218.417	10590.87
218.49	10656.88
218.563	10739.56
218.637	10804.42
218.71	10899.21
218.784	10970.24
218.857	11055.53
218.931	11126.8
219.004	11192.96
219.077	11255.71
219.151	11332
219.224	11387.23
219.298	11451.38
219.371	11524.01
219.444	11574.48
219.518	11642.05
219.591	11705.09
219.665	11808.77
219.738	11873.64
219.811	11933.89
219.885	12010.05
219.958	12084.38
220.031	12139.37
220.105	12205.12
220.178	12273.38
220.251	12328.23
220.325	12399.62
220.398	12458.38
220.471	12525.87
220.544	12608.2
220.618	12664.21
220.691	12736.14
220.764	12800.97
220.838	12870.82
220.911	12926.55
220.984	13009.89
221.057	13073.52
221.131	13151.18
221.204	13184.01
221.277	13265.87
221.35	13359.68
221.424	13405.52
221.497	13468.57
221.57	13538.57
221.643	13602.83
221.716	13668.87
221.79	13721.22
221.863	13778.88
221.936	13838.46
222.009	13889.85
222.082	13937.81
222.155	13992.34
222.229	14058.72
222.302	14118.73
222.375	14174.46
222.448	14236.88
222.521	14298.25
222.594	14352.96
222.667	14388.06
222.74	14451.25
222.814	14499.51
222.887	14546.84
222.96	14616.93
223.033	14685.48
223.106	14745.88
223.179	14801.65
223.252	14850.43
223.325	14906.88
223.398	14951.42
223.471	15003.87
223.544	15062.58
223.617	15120.13
223.69	15180.1
223.763	15210.95
223.837	15267.3
223.91	15314.29
223.983	15345.09
224.056	15377.87
224.129	15421.45
224.202	15476.97
224.275	15506.72
224.348	15535.49
224.42	15569.28
224.493	15590.3
224.566	15613.48
224.639	15655.17
224.712	15683.85
224.785	15725.69
224.858	15762.76
224.931	15801.75
225.004	15833.71
225.077	15873.13
225.15	15894.15
225.223	15940.13
225.296	16005.44
225.369	16028.38
225.442	16056.09
225.514	16101.55
225.587	16139.24
225.66	16186.42
225.733	16230.33
225.806	16277.42
225.879	16325.86
225.952	16352.42
226.025	16409.48
226.097	16470.79
226.17	16504.67
226.243	16531.61
226.316	16571.81
226.389	16614.32
226.461	16659.04
226.534	16700.25
226.607	16725.65
226.68	16781.89
226.753	16801.36
226.825	16810.04
226.898	16860.11
226.971	16901.03
227.044	16938.29
227.117	16981.18
227.189	17022.68
227.262	17061.04
227.335	17104.32
227.407	17124.41
227.48	17167.74
227.553	17197.04
227.626	17220.41
227.698	17252.9
227.771	17289.67
227.844	17307.45
227.916	17343.02
227.989	17356.51
228.062	17384.75
228.134	17450.68
228.207	17468.13
228.28	17496.13
228.352	17527.45
228.425	17557.33
228.498	17588.08
228.57	17616.99
228.643	17652.7
228.716	17671.21
228.788	17684.95
228.861	17693.91
228.934	17733.33
229.006	17748.94
229.079	17771.45
229.151	17786.15
229.224	17797.14
229.296	17834.82
229.369	17891.49
229.442	17924.94
229.514	17942
229.587	17979.68
229.659	17973.27
229.732	18009.27
229.804	18046.91
229.877	18092.84
229.949	18124.64
230.022	18171.53
230.094	18195.29
230.167	18215.29
230.239	18226.08
230.312	18256.54
230.384	18301.31
230.457	18326.22
230.529	18359.86
230.602	18389.3
230.674	18414.56
230.747	18451.81
230.819	18479.71
230.892	18466.17
230.964	18490.17
231.037	18526.41
231.109	18543.13
231.181	18580.14
231.254	18595.61
231.326	18612.86
231.399	18628.38
231.471	18643.03
231.544	18629.44
231.616	18655.31
231.688	18674.35
231.761	18693.53
231.833	18705.77
231.905	18702.35
231.978	18717.96
232.05	18726.88
232.122	18734.3
232.195	18737.62
232.267	18762.1
232.339	18763.84
232.412	18796.32
232.484	18797.72
232.556	18802.1
232.629	18837.18
232.701	18849.52
232.773	18856.55
232.846	18858.15
232.918	18857.37
232.99	18867.64
233.062	18895.15
233.135	18903.64
233.207	18896.99
233.279	18912.6
233.351	18928.84
233.424	18938.28
233.496	18928.07
233.568	18951.49
233.64	18953.51
233.713	18961.51
233.785	18959.05
233.857	18971.29
233.929	18958.33
234.001	18983.73
234.074	19007.2
234.146	18978.23
234.218	18983.53
234.29	18985.32
234.362	18987.68
234.434	18982.81
234.507	18962.96
234.579	18937.27
234.651	18927.1
234.723	18934.96
234.795	18937.18
234.867	18932.84
234.939	18941.61
235.012	18956.4
235.084	18958.96
235.156	18956.55
235.228	18947.3
235.3	18940.45
235.372	18941.22
235.444	18949.8
235.516	18924.84
235.588	18918.91
235.66	18920.94
235.732	18889.32
235.804	18935.35
235.876	18935.49
235.948	18940.5
236.02	18943.15
236.092	18936.65
236.164	18940.84
236.236	18931.25
236.308	18915.97
236.38	18907.01
236.452	18881.23
236.524	18864.84
236.596	18864.22
236.668	18859.4
236.74	18841.23
236.812	18826.44
236.884	18809.47
236.956	18791.45
237.028	18764.85
237.1	18737.24
237.172	18739.07
237.244	18750.83
237.316	18707.89
237.388	18686.83
237.46	18671.89
237.532	18670.74
237.604	18661.82
237.675	18654.74
237.747	18651.46
237.819	18631.17
237.891	18616.76
237.963	18601.15
238.035	18581.63
238.107	18527.51
238.178	18528.04
238.25	18524.38
238.322	18532.04
238.394	18498.89
238.466	18475.81
238.538	18468.53
238.609	18457.83
238.681	18421.83
238.753	18401.69
238.825	18369.45
238.897	18349.5
238.968	18341.79
239.04	18312.44
239.112	18312.83
239.184	18270.32
239.255	18242.66
239.327	18224.54
239.399	18206.04
239.471	18193.22
239.542	18170.76
239.614	18168.79
239.686	18121.61
239.758	18104.88
239.829	18077.27
239.901	18068.12
239.973	18059.25
240.044	18035.39
240.116	18014.62
240.188	17987.2
240.259	17950.43
240.331	17923.83
240.403	17910.34
240.474	17864.7
240.546	17826.53
240.618	17778.68
240.689	17759.26
240.761	17733.62
240.833	17722.01
240.904	17695.26
240.976	17666.92
241.048	17652.8
241.119	17627.69
241.191	17604.46
241.262	17595.12
241.334	17559.41
241.405	17537.82
241.477	17495.89
241.549	17466.06
241.62	17436.13
241.692	17416.08
241.763	17403.55
241.835	17376.76
241.906	17347.89
241.978	17310.97
242.049	17305.04
242.121	17290.25
242.192	17276.66
242.264	17236.32
242.335	17194.63
242.407	17168.56
242.478	17133.47
242.55	17103.26
242.621	17073.47
242.693	17044.12
242.764	17008.8
242.836	16973.18
242.907	16944.51
242.979	16923.49
243.05	16898.91
243.122	16873.27
243.193	16839.44
243.264	16787.73
243.336	16760.74
243.407	16737.89
243.479	16723.19
243.55	16691.72
243.622	16664.83
243.693	16630.51
243.764	16619.62
243.836	16578.94
243.907	16545.64
243.978	16514.36
244.05	16489.68
244.121	16442.88
244.192	16423.36
244.264	16374.39
244.335	16353.43
244.407	16315.59
244.478	16297.76
244.549	16261.81
244.62	16228.74
244.692	16209.95
244.763	16197.41
244.834	16169.7
244.906	16131.29
244.977	16113.74
245.048	16095.91
245.119	16062.46
245.191	16025.06
245.262	15975.7
245.333	15968.71
245.405	15941.19
245.476	15927.84
245.547	15897.96
245.618	15884.17
245.689	15857.66
245.761	15836.02
245.832	15809.85
245.903	15781.22
245.974	15746.71
246.045	15718.89
246.117	15702.79
246.188	15654.64
246.259	15612.8
246.33	15576.85
246.401	15541.8
246.473	15491.67
246.544	15461.41
246.615	15441.45
246.686	15406.02
246.757	15393.44
246.828	15348.56
246.899	15336.71
246.97	15288.41
247.042	15257.66
247.113	15235.39
247.184	15234.28
247.255	15202.37
247.326	15168.19
247.397	15136.47
247.468	15106.2
247.539	15072.32
247.61	15023.82
247.681	15012.5
247.752	14994.61
247.823	14955.62
247.894	14932.24
247.965	14897.14
248.037	14860.65
248.108	14813.56
248.179	14781.41
248.25	14749.88
248.321	14733.15
248.392	14686.88
248.463	14682.97
248.534	14648.75
248.605	14625.03
248.675	14579.63
248.746	14548.29
248.817	14529.35
248.888	14518.7
248.959	14471.65
249.03	14459.6
249.101	14430.86
249.172	14393.17
249.243	14347.37
249.314	14341.2
249.385	14313.73
249.456	14295.36
249.527	14268.32
249.598	14253.18
249.669	14231.73
249.739	14204.92
249.81	14186.22
249.881	14152.38
249.952	14120.23
250.023	14091.74
250.094	14050.38
250.165	14010.08
250.235	13987.08
250.306	13964.52
250.377	13918.29
250.448	13897.66
250.519	13848.3
250.59	13840.92
250.66	13815.81
250.731	13800.52
250.802	13762.87
250.873	13747.64
250.944	13718.57
251.014	13682.51
251.085	13680.3
251.156	13663.38
251.227	13648.82
251.297	13629.87
251.368	13610.4
251.439	13599.6
251.51	13589.67
251.58	13554.77
251.651	13529.8
251.722	13519.48
251.792	13466.02
251.863	13438.54
251.934	13437.67
252.005	13449
252.075	13421.62
252.146	13406.48
252.217	13398.96
252.287	13394.38
252.358	13363.39
252.429	13365.22
252.499	13331.23
252.57	13300.24
252.641	13283.85
252.711	13264.18
252.782	13217.76
252.852	13217.51
252.923	13188.06
252.994	13161.74
253.064	13152.63
253.135	13118.45
253.205	13082.2
253.276	13080.17
253.347	13074.34
253.417	13040.65
253.488	13008.78
253.558	12983.52
253.629	12959.76
253.699	12940.23
253.77	12917.53
253.841	12894.48
253.911	12869.08
253.982	12861.42
254.052	12847.97
254.123	12822.85
254.193	12796.53
254.264	12822.9
254.334	12786.74
254.405	12750.74
254.475	12712.94
254.546	12690.91
254.616	12685.51
254.687	12677.27
254.757	12660.35
254.827	12636.59
254.898	12621.45
254.968	12596.19
255.039	12574.74
255.109	12557.87
255.18	12524.46
255.25	12486.48
255.321	12476.74
255.391	12445.07
255.461	12438.37
255.532	12384.53
255.602	12367.22
255.673	12324.37
255.743	12280.74
255.813	12231.82
255.884	12224.83
255.954	12214.46
256.024	12207.91
256.095	12190.75
256.165	12151.61
256.235	12135.6
256.306	12108.8
256.376	12094.87
256.446	12082.92
256.517	12068.6
256.587	12059.93
256.657	12040.12
256.728	12013.75
256.798	11986.42
256.868	11961.21
256.938	11937.59
257.009	11936.63
257.079	11923.42
257.149	11935.09
257.219	11902.84
257.29	11894.55
257.36	11861.53
257.43	11862.45
257.5	11818.3
257.571	11790.82
257.641	11785.86
257.711	11756.65
257.781	11748.99
257.852	11736.94
257.922	11698.96
257.992	11671.92
258.062	11650.23
258.132	11639.67
258.202	11620.68
258.273	11608.01
258.343	11607.14
258.413	11577.74
258.483	11559.62
258.553	11521.15
258.623	11493.68
258.693	11479.85
258.764	11482.11
258.834	11482.4
258.904	11455.12
258.974	11437.24
259.044	11414.83
259.114	11399.89
259.184	11381.63
259.254	11357.43
259.324	11320.71
259.394	11311.07
259.464	11317.72
259.535	11296.61
259.605	11276.46
259.675	11259.65
259.745	11242.68
259.815	11215.26
259.885	11191.98
259.955	11198.01
260.025	11178.25
260.095	11155.94
260.165	11139.36
260.235	11131.55
260.305	11096.85
260.375	11070.88
260.445	11069.14
260.515	11068.9
260.585	11066.2
260.655	11054.59
260.725	11046.01
260.795	11037.91
260.865	11040.81
260.934	11009
261.004	10996.37
261.074	10979.8
261.144	10976.57
261.214	10971.36
261.284	10951.89
261.354	10950.74
261.424	10923.46
261.494	10923.36
261.564	10903.56
261.634	10897.92
261.703	10863.85
261.773	10854.5
261.843	10842.65
261.913	10829.4
261.983	10799.62
262.053	10783.67
262.123	10765.12
262.192	10738.18
262.262	10726.42
