Data from 20250702_urea_0.5M_MAYP1162681_10-04-59-731.txt Node
Date: Thu Jul 03 10:04:59 BST 2025
User: adleo
Spectrometer: MAYP116268
Trigger mode: 0
Integration Time (sec): 1.000000E0
Scans to average: 1
Electric dark correction enabled: true
Nonlinearity correction enabled: true
Boxcar width: 10
XAxis mode: Wavelengths
Number of Pixels in Spectrum: 2068
>>>>>Begin Spectral Data<<<<<
179.565	1168.91
179.642	1221.03
179.718	1266.29
179.795	1304.43
179.871	1332.7
179.948	1350.33
180.024	1369.76
180.101	1391.85
180.177	1406.36
180.254	1429.31
180.33	1450.73
180.407	1499.48
180.483	1590.51
180.56	1678.54
180.636	1760.25
180.712	1746.27
180.789	1758.01
180.865	1771.69
180.942	1781.25
181.018	1792.46
181.095	1803.59
181.171	1806.96
181.248	1806.72
181.324	1818.99
181.4	1827.59
181.477	1839.05
181.553	1851.88
181.63	1872.03
181.706	1884.44
181.782	1893.99
181.859	1892.61
181.935	1898.32
182.011	1893.85
182.088	1912.49
182.164	1929.99
182.24	1943.11
182.317	1954.38
182.393	1953.62
182.469	1965.98
182.546	1976.39
182.622	1981.38
182.698	1977.86
182.775	1990.75
182.851	2008.15
182.927	2001.26
183.003	1995.27
183.08	1991.8
183.156	2000.5
183.232	1997.6
183.308	1988.71
183.385	1995.17
183.461	2013.05
183.537	2012.34
183.613	2028.65
183.69	2019.09
183.766	2007.82
183.842	2012.48
183.918	2017.85
183.995	2031.21
184.071	2034.31
184.147	2029.5
184.223	2016.15
184.299	2030.7
184.375	2019.86
184.452	2024.67
184.528	2074.18
184.604	2084.73
184.68	2094.01
184.756	2100.52
184.832	2108.33
184.908	2113.55
184.985	2111.94
185.061	2096.1
185.137	2106.85
185.213	2095.15
185.289	2097.96
185.365	2090.35
185.441	2092.44
185.517	2105.39
185.593	2097.49
185.669	2094.78
185.745	2105.19
185.822	2124.54
185.898	2115.08
185.974	2124.87
186.05	2118.97
186.126	2085.49
186.202	2078.55
186.278	2077.83
186.354	2067.8
186.43	2069.56
186.506	2067.27
186.582	2068.7
186.658	2074.41
186.734	2054.91
186.81	2058
186.886	2058.19
186.962	2072.46
187.038	2068.84
187.114	2062.89
187.19	2072.21
187.266	2061.99
187.341	2062.56
187.417	2055.1
187.493	2054.81
187.569	2056.62
187.645	2050.15
187.721	2041.82
187.797	2050.1
187.873	2054.09
187.949	2049.96
188.025	2046.34
188.101	2049
188.176	2053.66
188.252	2052.29
188.328	2059.51
188.404	2060.89
188.48	2057.28
188.556	2050.33
188.632	2047.95
188.707	2045.53
188.783	2043.53
188.859	2039.68
188.935	2028.98
189.011	2037.11
189.086	2031.07
189.162	2024.51
189.238	2021.85
189.314	2017.76
189.39	2011.38
189.465	2005.53
189.541	2023.61
189.617	2006.54
189.693	2003.59
189.768	2003.92
189.844	2026.86
189.92	2018.87
189.996	2027.24
190.071	2037.99
190.147	2036.42
190.223	2044.98
190.298	2036.75
190.374	2024.44
190.45	2037.13
190.526	2047.45
190.601	2038.32
190.677	2038.61
190.753	2065.59
190.828	2071.44
190.904	2085.28
190.98	2101.26
191.055	2110.44
191.131	2101.59
191.207	2122.33
191.282	2134.27
191.358	2127.23
191.433	2111.57
191.509	2124.88
191.585	2121.93
191.66	2122.31
191.736	2131.54
191.811	2128.69
191.887	2146.96
191.963	2167.27
192.038	2168.6
192.114	2165.7
192.189	2173.35
192.265	2171.07
192.34	2147.85
192.416	2142.71
192.491	2136.62
192.567	2138.48
192.642	2139.14
192.718	2136.38
192.793	2127.73
192.869	2121.16
192.944	2124.16
193.02	2132.96
193.095	2137.91
193.171	2141.38
193.246	2142.24
193.322	2140.62
193.397	2137.53
193.473	2123.77
193.548	2108.88
193.624	2118.16
193.699	2118.16
193.775	2131.82
193.85	2133.96
193.925	2145.42
194.001	2147.04
194.076	2139.48
194.152	2125.63
194.227	2117.55
194.302	2109.27
194.378	2109.51
194.453	2107.18
194.529	2119.6
194.604	2105.33
194.679	2097.57
194.755	2079.03
194.83	2091.54
194.905	2088.21
194.981	2092.54
195.056	2082.51
195.131	2088.22
195.207	2084.79
195.282	2074.99
195.357	2055.72
195.433	2068.8
195.508	2055.25
195.583	2062.95
195.659	2076.89
195.734	2088.45
195.809	2089.02
195.884	2098.77
195.96	2102
196.035	2116.46
196.11	2111.56
196.185	2121.69
196.261	2124.98
196.336	2155.47
196.411	2141.38
196.486	2147.37
196.561	2143.47
196.637	2156.5
196.712	2172.21
196.787	2177.4
196.862	2195.28
196.937	2206.22
197.013	2211.84
197.088	2219.3
197.163	2241.11
197.238	2259.48
197.313	2256.68
197.388	2268.62
197.464	2296.42
197.539	2304.7
197.614	2296.47
197.689	2309.84
197.764	2326.45
197.839	2347.54
197.914	2341.54
197.989	2361.86
198.065	2376.24
198.14	2425.34
198.215	2446.95
198.29	2456.76
198.365	2469.72
198.44	2479.43
198.515	2506.76
198.59	2524.62
198.665	2553.04
198.74	2560.57
198.815	2562.24
198.89	2587.28
198.965	2616.96
199.04	2614.34
199.115	2630.15
199.19	2670.82
199.265	2672.05
199.34	2682.15
199.415	2719
199.49	2738.81
199.565	2748.86
199.64	2770.97
199.715	2772.4
199.79	2783.17
199.865	2790.94
199.94	2787.36
200.015	2819.44
200.09	2825.01
200.165	2831.59
200.24	2839.6
200.315	2879.57
200.39	2893.44
200.464	2897.4
200.539	2902.59
200.614	2917.98
200.689	2942.39
200.764	2951.93
200.839	2971.84
200.914	2976.51
200.989	2959.39
201.063	2976.26
201.138	2959.5
201.213	2959.45
201.288	2938.05
201.363	2942.77
201.438	2944.29
201.512	2959.2
201.587	2941.09
201.662	2943.47
201.737	2954.86
201.812	2960.63
201.886	2924.95
201.961	2935.92
202.036	2922.91
202.111	2917.71
202.186	2893.13
202.26	2876.78
202.335	2853.99
202.41	2846.75
202.485	2830.12
202.559	2813.68
202.634	2787.47
202.709	2799.52
202.784	2779.65
202.858	2781.56
202.933	2762.55
203.008	2754.07
203.082	2734.53
203.157	2733.82
203.232	2694.15
203.306	2671.18
203.381	2640.02
203.456	2617.82
203.53	2592.17
203.605	2575.08
203.68	2553.88
203.754	2542.98
203.829	2527.5
203.904	2508.98
203.978	2494.93
204.053	2498.45
204.127	2486.55
204.202	2486.64
204.277	2465.84
204.351	2458.5
204.426	2450.74
204.5	2441.64
204.575	2411.04
204.65	2422.9
204.724	2413.23
204.799	2419.17
204.873	2415.41
204.948	2415.32
205.022	2406.46
205.097	2399.94
205.171	2413.12
205.246	2418.98
205.32	2420.31
205.395	2420.5
205.469	2412.56
205.544	2418.75
205.618	2401.85
205.693	2415.13
205.767	2399.95
205.842	2420.56
205.916	2415.47
205.991	2404.9
206.065	2409.19
206.14	2424.36
206.214	2416.51
206.289	2412.6
206.363	2426.64
206.438	2429.74
206.512	2437.69
206.586	2457.83
206.661	2466.12
206.735	2445.84
206.81	2449.8
206.884	2463.89
206.958	2453.61
207.033	2468.79
207.107	2480.41
207.181	2515.13
207.256	2506.47
207.33	2528.23
207.405	2543.72
207.479	2564.38
207.553	2573.05
207.628	2560.1
207.702	2570.91
207.776	2570
207.851	2573.05
207.925	2589.68
207.999	2590.77
208.073	2591.16
208.148	2592.39
208.222	2585.92
208.296	2619.57
208.371	2638.4
208.445	2652.93
208.519	2682.7
208.593	2701.8
208.668	2705.33
208.742	2709.95
208.816	2721.91
208.89	2741.83
208.965	2747.36
209.039	2764.66
209.113	2791.64
209.187	2822.73
209.261	2832.74
209.336	2861.47
209.41	2894.89
209.484	2905.66
209.558	2942.38
209.632	2971.55
209.707	3002.25
209.781	3039.34
209.855	3074.11
209.929	3108.86
210.003	3133.47
210.077	3157.46
210.151	3229.08
210.226	3282.54
210.3	3333.97
210.374	3380.62
210.448	3410.21
210.522	3451.94
210.596	3489.94
210.67	3531.52
210.744	3607.44
210.818	3669.11
210.892	3725.94
210.966	3754.73
211.041	3807.46
211.115	3840.56
211.189	3900.56
211.263	3950.48
211.337	3997.88
211.411	4052.47
211.485	4087.37
211.559	4145.19
211.633	4191.35
211.707	4201.35
211.781	4256.43
211.855	4272.59
211.929	4312.46
212.003	4345.2
212.077	4401.14
212.151	4463.63
212.225	4524.25
212.299	4565.14
212.373	4609.83
212.447	4655.79
212.52	4740.8
212.594	4801.23
212.668	4870.83
212.742	4916.61
212.816	4971.06
212.89	5027.13
212.964	5087.03
213.038	5152.67
213.112	5225.75
213.186	5300.91
213.26	5344.25
213.333	5362.42
213.407	5428.29
213.481	5498.48
213.555	5574.85
213.629	5627.16
213.703	5675.12
213.777	5739.63
213.85	5793.59
213.924	5893.05
213.998	5964.2
214.072	6022.47
214.146	6075.15
214.219	6137.24
214.293	6199.62
214.367	6275.74
214.441	6345.09
214.515	6398.82
214.588	6443.22
214.662	6480.24
214.736	6528.15
214.81	6606.62
214.883	6681.41
214.957	6738.49
215.031	6788.86
215.105	6833.03
215.178	6884.52
215.252	6940.86
215.326	6979.05
215.4	7026.71
215.473	7042.52
215.547	7087.74
215.621	7137.11
215.694	7212.19
215.768	7254.82
215.842	7301.82
215.915	7349.66
215.989	7391.82
216.063	7446.72
216.136	7509.32
216.21	7567.44
216.284	7633.93
216.357	7695.39
216.431	7759.92
216.504	7830.86
216.578	7921.42
216.652	7994.65
216.725	8062.67
216.799	8138.39
216.873	8210.26
216.946	8278.04
217.02	8342.45
217.093	8406.93
217.167	8447.15
217.24	8483.63
217.314	8544.69
217.387	8607.43
217.461	8656.04
217.535	8732.18
217.608	8782.86
217.682	8847.41
217.755	8921.82
217.829	8975.5
217.902	9036.3
217.976	9087.14
218.049	9135.28
218.123	9181.36
218.196	9247.27
218.27	9300.19
218.343	9346.13
218.417	9403.01
218.49	9459.49
218.563	9528.21
218.637	9591.59
218.71	9683.63
218.784	9755.44
218.857	9828.89
218.931	9898.92
219.004	9966.06
219.077	10029.03
219.151	10093.91
219.224	10147.77
219.298	10207.22
219.371	10284.59
219.444	10327.89
219.518	10398.43
219.591	10463.22
219.665	10548.75
219.738	10611.39
219.811	10660.19
219.885	10729.87
219.958	10799.74
220.031	10865.22
220.105	10933.75
220.178	10990.9
220.251	11038.03
220.325	11108.01
220.398	11164.49
220.471	11219.47
220.544	11296
220.618	11354.95
220.691	11424.2
220.764	11489.17
220.838	11555.1
220.911	11615.74
220.984	11705.81
221.057	11764.66
221.131	11829.1
221.204	11857.59
221.277	11940.88
221.35	12037.33
221.424	12094.01
221.497	12152.82
221.57	12209.46
221.643	12271.5
221.716	12344.47
221.79	12396.77
221.863	12449.27
221.936	12508.95
222.009	12577.39
222.082	12631.96
222.155	12679.44
222.229	12753
222.302	12813.02
222.375	12868.31
222.448	12926.4
222.521	12978.37
222.594	13032.65
222.667	13081.14
222.74	13146.7
222.814	13185.84
222.887	13237.76
222.96	13306.6
223.033	13366.76
223.106	13421.43
223.179	13476.09
223.252	13532.35
223.325	13596.03
223.398	13650.55
223.471	13706.42
223.544	13758.39
223.617	13812.43
223.69	13874.71
223.763	13911.59
223.837	13970.26
223.91	14026.37
223.983	14055.49
224.056	14091.11
224.129	14149.05
224.202	14203.14
224.275	14252.79
224.348	14290.78
224.42	14314.69
224.493	14329.83
224.566	14366.46
224.639	14423.78
224.712	14462.68
224.785	14490.64
224.858	14529.64
224.931	14560.87
225.004	14589.27
225.077	14635.35
225.15	14650.97
225.223	14695.8
225.296	14762.46
225.369	14776.01
225.442	14810.91
225.514	14865.67
225.587	14915.12
225.66	14956.67
225.733	15008.88
225.806	15047.92
225.879	15093.04
225.952	15132.76
226.025	15199.67
226.097	15258.23
226.17	15294.48
226.243	15322.97
226.316	15367.02
226.389	15412.33
226.461	15473.21
226.534	15527.34
226.607	15560.94
226.68	15626.68
226.753	15662.83
226.825	15679.46
226.898	15746.13
226.971	15782.71
227.044	15824.55
227.117	15860.36
227.189	15905.67
227.262	15954.88
227.335	16001.68
227.407	16038.89
227.48	16085.26
227.553	16121.84
227.626	16153.31
227.698	16195.82
227.771	16242.96
227.844	16273.28
227.916	16304.51
227.989	16316.08
228.062	16345.77
228.134	16400.47
228.207	16425.73
228.28	16453.15
228.352	16479.27
228.425	16512.87
228.498	16551.95
228.57	16577.4
228.643	16625.02
228.716	16656.3
228.788	16677.17
228.861	16704.93
228.934	16750.23
229.006	16782.33
229.079	16815.44
229.151	16840.64
229.224	16847.34
229.296	16875.83
229.369	16931.35
229.442	16979.25
229.514	17009.71
229.587	17060.46
229.659	17072.03
229.732	17119.5
229.804	17164.03
229.877	17229.81
229.949	17267.98
230.022	17319.31
230.094	17350.2
230.167	17383.55
230.239	17392.95
230.312	17426.1
230.384	17471.11
230.457	17498.78
230.529	17529.43
230.602	17560.46
230.674	17593.86
230.747	17645.91
230.819	17684.85
230.892	17680.7
230.964	17706.63
231.037	17752.03
231.109	17766.39
231.181	17802.77
231.254	17819.01
231.326	17835.88
231.399	17846.92
231.471	17860.22
231.544	17859.01
231.616	17892.6
231.688	17916.51
231.761	17946.82
231.833	17960.02
231.905	17957.66
231.978	17971.4
232.05	17988.17
232.122	18006.53
232.195	18014.67
232.267	18035.88
232.339	18051.39
232.412	18093.61
232.484	18106.62
232.556	18103.73
232.629	18141.08
232.701	18164.59
232.773	18172.69
232.846	18182.91
232.918	18192.98
232.99	18215.1
233.062	18240.4
233.135	18254.61
233.207	18254.52
233.279	18280.49
233.351	18296.78
233.424	18302.42
233.496	18307.62
233.568	18332.39
233.64	18328.49
233.713	18343.72
233.785	18348.83
233.857	18361.79
233.929	18342.22
234.001	18365.35
234.074	18397.11
234.146	18382.22
234.218	18377.45
234.29	18381.55
234.362	18379.14
234.434	18366.46
234.507	18353.98
234.579	18335.52
234.651	18328.01
234.723	18329.98
234.795	18327.96
234.867	18326.8
234.939	18359.09
235.012	18370.9
235.084	18380.25
235.156	18392.24
235.228	18382.94
235.3	18385.4
235.372	18383.28
235.444	18401.3
235.516	18374.56
235.588	18366.22
235.66	18368.49
235.732	18354.75
235.804	18412.1
235.876	18422.56
235.948	18426.27
236.02	18428
236.092	18425.59
236.164	18417.98
236.236	18419.71
236.308	18406.8
236.38	18408.53
236.452	18387.67
236.524	18379.76
236.596	18389.84
236.668	18383.76
236.74	18375.86
236.812	18361.74
236.884	18354.08
236.956	18348.54
237.028	18336.15
237.1	18318.61
237.172	18328.01
237.244	18340.15
237.316	18282.08
237.388	18263.34
237.46	18254.42
237.532	18255.67
237.604	18249.84
237.675	18256.44
237.747	18252.2
237.819	18240.49
237.891	18231.92
237.963	18205.55
238.035	18190.28
238.107	18127.92
238.178	18136.98
238.25	18127.34
238.322	18144.79
238.394	18109.22
238.466	18088.35
238.538	18074.48
238.609	18065.37
238.681	18023.97
238.753	17999.49
238.825	17989.9
238.897	17980.6
238.968	17989.27
239.04	17961.9
239.112	17963.93
239.184	17941.71
239.255	17918.29
239.327	17901.71
239.399	17882.43
239.471	17879.78
239.542	17860.75
239.614	17869.76
239.686	17817.18
239.758	17810.63
239.829	17775.45
239.901	17771.02
239.973	17753.14
240.044	17750.53
240.116	17731.88
240.188	17718.15
240.259	17696.56
240.331	17667.07
240.403	17650.54
240.474	17602.3
240.546	17569.19
240.618	17526.92
240.689	17495.5
240.761	17471.45
240.833	17462.78
240.904	17431.31
240.976	17402.59
241.048	17382.78
241.119	17357.48
241.191	17337.33
241.262	17326.39
241.334	17295.84
241.405	17276.37
241.477	17246.78
241.549	17215.55
241.62	17195.98
241.692	17174.15
241.763	17162.68
241.835	17140.8
241.906	17116.99
241.978	17078.77
242.049	17063.83
242.121	17058.48
242.192	17047.54
242.264	17006.72
242.335	16965.71
242.407	16952.5
242.478	16920.31
242.55	16898.67
242.621	16869.13
242.693	16845.51
242.764	16810.47
242.836	16773.51
242.907	16747.82
242.979	16725.12
243.05	16705.55
243.122	16682.37
243.193	16647.19
243.264	16597.64
243.336	16571.81
243.407	16550.99
243.479	16545.69
243.55	16524.67
243.622	16485.73
243.693	16459.03
243.764	16449.58
243.836	16410.25
243.907	16372.42
243.978	16342.68
244.05	16313.47
244.121	16262.87
244.192	16242.14
244.264	16197.12
244.335	16178.62
244.407	16128.15
244.478	16101.69
244.549	16059.52
244.62	16014.79
244.692	15983.94
244.763	15961.63
244.834	15925.81
244.906	15893.81
244.977	15871.74
245.048	15862.91
245.119	15835.01
245.191	15797.17
245.262	15745.89
245.333	15740.73
245.405	15707.95
245.476	15691.81
245.547	15670.02
245.618	15666.93
245.689	15643.03
245.761	15624.08
245.832	15592.66
245.903	15585.48
245.974	15564.12
246.045	15533.76
246.117	15517.99
246.188	15483.87
246.259	15444.87
246.33	15415.37
246.401	15373
246.473	15326.44
246.544	15279.64
246.615	15255.39
246.686	15214.18
246.757	15200.49
246.828	15156.77
246.899	15149.01
246.97	15097.48
247.042	15055.2
247.113	15019.05
247.184	14996.69
247.255	14953.06
247.326	14927.56
247.397	14891.31
247.468	14865.14
247.539	14834.67
247.61	14789.8
247.681	14766.95
247.752	14755.19
247.823	14719.23
247.894	14700.33
247.965	14668.22
248.037	14640.6
248.108	14595.53
248.179	14568.59
248.25	14534.65
248.321	14514.31
248.392	14479.79
248.463	14474.92
248.534	14457.76
248.605	14441.61
248.675	14417.56
248.746	14407.78
248.817	14385.17
248.888	14366.41
248.959	14319.41
249.03	14305.58
249.101	14284.42
249.172	14259.88
249.243	14212.45
249.314	14196.97
249.385	14173.98
249.456	14152.48
249.527	14122.25
249.598	14107.69
249.669	14081.86
249.739	14066.67
249.81	14043.58
249.881	14001.83
249.952	13978.94
250.023	13944.85
250.094	13902.82
250.165	13861.07
250.235	13825.98
250.306	13798.74
250.377	13764.56
250.448	13743.59
250.519	13695.29
250.59	13687.72
250.66	13657.64
250.731	13651.61
250.802	13628.81
250.873	13606.69
250.944	13581.28
251.014	13549.66
251.085	13547.2
251.156	13534.91
251.227	13524.54
251.297	13517.26
251.368	13503.28
251.439	13484.96
251.51	13464.24
251.58	13436.9
251.651	13409.04
251.722	13397.47
251.792	13361.6
251.863	13330.75
251.934	13329.16
252.005	13333.11
252.075	13308.38
252.146	13300.57
252.217	13294.07
252.287	13279.22
252.358	13251.16
252.429	13249.23
252.499	13229.23
252.57	13202.76
252.641	13187.29
252.711	13161.45
252.782	13112.86
252.852	13107.36
252.923	13080.08
252.994	13070.97
253.064	13057.32
253.135	13028.4
253.205	12993.74
253.276	12985.84
253.347	12980.77
253.417	12945.15
253.488	12919.02
253.558	12887.69
253.629	12857.7
253.699	12828.93
253.77	12811.33
253.841	12785.59
253.911	12760.47
253.982	12740.85
254.052	12728.37
254.123	12707.98
254.193	12679.78
254.264	12704.36
254.334	12672.45
254.405	12642.03
254.475	12598.79
254.546	12574.79
254.616	12572.33
254.687	12564.52
254.757	12547.65
254.827	12526.82
254.898	12506.24
254.968	12480.45
255.039	12453.84
255.109	12439.53
255.18	12412.73
255.25	12366.93
255.321	12350.93
255.391	12315.07
255.461	12310.87
255.532	12263.54
255.602	12233.94
255.673	12199.57
255.743	12152.81
255.813	12109.57
255.884	12104.08
255.954	12094.29
256.024	12085.52
256.095	12059.49
256.165	12023.58
256.235	12001.99
256.306	11970.27
256.376	11960.53
256.446	11950.56
256.517	11941.11
256.587	11930.99
256.657	11910.45
256.728	11903.61
256.798	11886.55
256.868	11870.74
256.938	11841.67
257.009	11827.89
257.079	11815.79
257.149	11814.82
257.219	11783.64
257.29	11769.85
257.36	11727.54
257.43	11710.86
257.5	11677.36
257.571	11656.59
257.641	11646.9
257.711	11623.86
257.781	11618.32
257.852	11609.45
257.922	11580.05
257.992	11560.34
258.062	11541.01
258.132	11528.48
258.202	11506.16
258.273	11494.59
258.343	11488.33
258.413	11464.52
258.483	11452.52
258.553	11425.63
258.623	11406.83
258.693	11397.29
258.764	11395.21
258.834	11392.76
258.904	11381
258.974	11361.19
259.044	11343.84
259.114	11333.72
259.184	11313.19
259.254	11290.54
259.324	11248.32
259.394	11236.17
259.464	11231.74
259.535	11209.09
259.605	11186.44
259.675	11157.28
259.745	11141.04
259.815	11114.29
259.885	11086.35
259.955	11092.61
260.025	11064.13
260.095	11044.71
260.165	11025.34
260.235	11025.58
260.305	11004.18
260.375	10978.88
260.445	10976.71
260.515	10970.55
260.585	10959.61
260.655	10944.19
260.725	10942.69
260.795	10934.74
260.865	10935.56
260.934	10912.48
261.004	10903.13
261.074	10890.79
261.144	10893.25
261.214	10885.49
261.284	10866.02
261.354	10865.2
261.424	10839.32
261.494	10849.15
261.564	10827.33
261.634	10823.37
261.703	10784.87
261.773	10771.19
261.843	10760.35
261.913	10743.82
261.983	10707.1
262.053	10696.17
262.123	10681.28
262.192	10643.55
262.262	10636.56
262.332	10602.21
