Data from 20250702_urea_0.5M_MAYP1162681_13-24-59-730.txt Node
Date: Wed Jul 02 13:24:59 BST 2025
User: adleo
Spectrometer: MAYP116268
Trigger mode: 0
Integration Time (sec): 1.000000E0
Scans to average: 1
Electric dark correction enabled: true
Nonlinearity correction enabled: true
Boxcar width: 10
XAxis mode: Wavelengths
Number of Pixels in Spectrum: 2068
>>>>>Begin Spectral Data<<<<<
179.565	1098.98
179.642	1148.53
179.718	1187.31
179.795	1222.12
179.871	1253.41
179.948	1267.02
180.024	1285.37
180.101	1306.66
180.177	1319.57
180.254	1338.81
180.33	1360.74
180.407	1405.84
180.483	1492.59
180.56	1572.83
180.636	1647.22
180.712	1636.14
180.789	1644.65
180.865	1655.19
180.942	1666.16
181.018	1676.85
181.095	1689.07
181.171	1696.01
181.248	1696.81
181.324	1713.69
181.4	1719.58
181.477	1731.22
181.553	1743.62
181.63	1763.72
181.706	1777.22
181.782	1786.15
181.859	1788.1
181.935	1792.42
182.011	1786.01
182.088	1803.55
182.164	1823.18
182.24	1839.91
182.317	1845.66
182.393	1844.56
182.469	1857.83
182.546	1869.33
182.622	1874.37
182.698	1871.66
182.775	1883.21
182.851	1899.09
182.927	1890.53
183.003	1886.35
183.08	1877.98
183.156	1887.15
183.232	1885.54
183.308	1875.46
183.385	1881.83
183.461	1896.57
183.537	1896
183.613	1912.2
183.69	1903.17
183.766	1892
183.842	1895.75
183.918	1902.55
183.995	1913.48
184.071	1916.86
184.147	1909.68
184.223	1897.94
184.299	1908.83
184.375	1897.95
184.452	1903.37
184.528	1953.63
184.604	1965.18
184.68	1977.73
184.756	1985.1
184.832	1988.76
184.908	1993.47
184.985	1991.71
185.061	1977.5
185.137	1987.2
185.213	1975.07
185.289	1976.36
185.365	1966.8
185.441	1969.8
185.517	1982.97
185.593	1982.17
185.669	1980.26
185.745	1992.82
185.822	2010.26
185.898	2002.27
185.974	2011.35
186.05	2000.6
186.126	1967.03
186.202	1963.65
186.278	1959.71
186.354	1952.24
186.43	1957.24
186.506	1956.71
186.582	1956.95
186.658	1962.23
186.734	1944.21
186.81	1947.39
186.886	1950.58
186.962	1967.88
187.038	1961.22
187.114	1952.52
187.19	1960.79
187.266	1949.96
187.341	1950.48
187.417	1942.97
187.493	1941.49
187.569	1942.97
187.645	1940.73
187.721	1929.6
187.797	1932.79
187.873	1938.54
187.949	1929.8
188.025	1923.85
188.101	1925.56
188.176	1929.89
188.252	1927.61
188.328	1935.12
188.404	1934.83
188.48	1928.08
188.556	1921.61
188.632	1922.04
188.707	1923.95
188.783	1919.9
188.859	1916.81
188.935	1905.78
189.011	1914.2
189.086	1910.16
189.162	1902.5
189.238	1899.51
189.314	1895.56
189.39	1889.71
189.465	1880.87
189.541	1901.17
189.617	1887.91
189.693	1880.78
189.768	1885.06
189.844	1908.13
189.92	1901.24
189.996	1907.94
190.071	1919.3
190.147	1917.59
190.223	1924.25
190.298	1917.02
190.374	1904.09
190.45	1915.92
190.526	1922.77
190.601	1914.97
190.677	1915.16
190.753	1942.23
190.828	1946.41
190.904	1959.92
190.98	1976.46
191.055	1985.36
191.131	1974.18
191.207	1992.1
191.282	2002.42
191.358	1994.19
191.433	1978.83
191.509	1989.66
191.585	1989
191.66	1990.47
191.736	1996.75
191.811	1989.76
191.887	2005.84
191.963	2028.76
192.038	2031.89
192.114	2030.9
192.189	2037.46
192.265	2036.27
192.34	2016.05
192.416	2015.1
192.491	2010.87
192.567	2011.91
192.642	2014.48
192.718	2015.86
192.793	2005.06
192.869	2002.12
192.944	2005.21
193.02	2011.82
193.095	2017.1
193.171	2020.85
193.246	2019.09
193.322	2016.14
193.397	2018.76
193.473	2004.2
193.548	1985.18
193.624	1992.7
193.699	1992.55
193.775	2003.02
193.85	2004.92
193.925	2011.72
194.001	2011.2
194.076	2002.83
194.152	1993.46
194.227	1986.47
194.302	1978.1
194.378	1980.38
194.453	1978.1
194.529	1987.04
194.604	1973.78
194.679	1964.27
194.755	1946.39
194.83	1959.05
194.905	1958.71
194.981	1966.42
195.056	1960.48
195.131	1966.75
195.207	1962
195.282	1952.68
195.357	1937.98
195.433	1952.2
195.508	1939.93
195.583	1945.68
195.659	1961.66
195.734	1967.8
195.809	1967.7
195.884	1974.98
195.96	1977.97
196.035	1993.47
196.11	1991.86
196.185	2002.6
196.261	2008.21
196.336	2037.31
196.411	2022.14
196.486	2027.42
196.561	2020.76
196.637	2030.31
196.712	2045.44
196.787	2049.63
196.862	2063.32
196.937	2071.12
197.013	2077.35
197.088	2091.76
197.163	2112.46
197.238	2130.5
197.313	2131.31
197.388	2143.3
197.464	2172.23
197.539	2182.07
197.614	2174.7
197.689	2186.83
197.764	2203.68
197.839	2222.57
197.914	2218.24
197.989	2240.03
198.065	2252.78
198.14	2300.87
198.215	2326.23
198.29	2337.52
198.365	2348.7
198.44	2359.41
198.515	2388.35
198.59	2398.44
198.665	2419.96
198.74	2427
198.815	2425.43
198.89	2448.38
198.965	2478.09
199.04	2474.47
199.115	2492.04
199.19	2533.46
199.265	2534.03
199.34	2543.31
199.415	2577
199.49	2598.99
199.565	2607.85
199.64	2630.14
199.715	2625.75
199.79	2632.28
199.865	2639.52
199.94	2639.43
200.015	2668.96
200.09	2670.39
200.165	2679.15
200.24	2685.73
200.315	2724.01
200.39	2738.21
200.464	2739.73
200.539	2740.16
200.614	2755.4
200.689	2772.08
200.764	2775.42
200.839	2794.09
200.914	2798.99
200.989	2784.55
201.063	2796.03
201.138	2781.94
201.213	2780.46
201.288	2765.93
201.363	2770.46
201.438	2769.41
201.512	2785.08
201.587	2771.11
201.662	2778.5
201.737	2790.08
201.812	2798.47
201.886	2767.57
201.961	2775.19
202.036	2765.57
202.111	2762.05
202.186	2734.76
202.26	2720.04
202.335	2702.27
202.41	2694.17
202.485	2678.26
202.559	2661.21
202.634	2634.87
202.709	2642.96
202.784	2626.29
202.858	2623.48
202.933	2602.38
203.008	2598.76
203.082	2580.62
203.157	2579.71
203.232	2538.01
203.306	2518.57
203.381	2487.42
203.456	2466.71
203.53	2445.93
203.605	2429.94
203.68	2409.94
203.754	2404.13
203.829	2391.23
203.904	2374.09
203.978	2365.28
204.053	2370.14
204.127	2359.48
204.202	2359.38
204.277	2342.15
204.351	2337.54
204.426	2331.92
204.5	2326.87
204.575	2295.37
204.65	2304.08
204.724	2295.46
204.799	2303.5
204.873	2299.03
204.948	2297.46
205.022	2285.37
205.097	2277.18
205.171	2290.27
205.246	2296.6
205.32	2294.84
205.395	2295.65
205.469	2285.76
205.544	2293.8
205.618	2276.48
205.693	2288.71
205.767	2277.1
205.842	2298.28
205.916	2292.48
205.991	2282.91
206.065	2288.67
206.14	2299.8
206.214	2297.08
206.289	2292.18
206.363	2301.46
206.438	2305.41
206.512	2312.22
206.586	2332.06
206.661	2339.92
206.735	2317.8
206.81	2320.13
206.884	2337.5
206.958	2326.41
207.033	2344.39
207.107	2349.35
207.181	2382.06
207.256	2379.91
207.33	2401.86
207.405	2420.49
207.479	2441.1
207.553	2450.81
207.628	2441.01
207.702	2460.62
207.776	2462.52
207.851	2473.62
207.925	2499.39
207.999	2508.2
208.073	2521.25
208.148	2534.96
208.222	2538.92
208.296	2587.57
208.371	2617.6
208.445	2645.95
208.519	2692.63
208.593	2726.27
208.668	2747.86
208.742	2778
208.816	2804.11
208.89	2846.73
208.965	2873.97
209.039	2915.08
209.113	2968.48
209.187	3026.51
209.261	3065.04
209.336	3124.85
209.41	3191.26
209.484	3240.57
209.558	3310.96
209.632	3378.3
209.707	3449.71
209.781	3536.56
209.855	3614.51
209.929	3703.57
210.003	3783.5
210.077	3860.91
210.151	3983.58
210.226	4095.72
210.3	4209.51
210.374	4327.36
210.448	4425.44
210.522	4530.33
210.596	4645.73
210.67	4762.95
210.744	4913.2
210.818	5063.75
210.892	5206.57
210.966	5323.99
211.041	5465.66
211.115	5595.89
211.189	5750.42
211.263	5904.95
211.337	6053.42
211.411	6220.15
211.485	6364.67
211.559	6523.77
211.633	6678.51
211.707	6811.6
211.781	6980.98
211.855	7106.58
211.929	7271.09
212.003	7428.02
212.077	7612.82
212.151	7801.61
212.225	7990.26
212.299	8165.48
212.373	8338.48
212.447	8514.7
212.52	8735.43
212.594	8929.06
212.668	9131.46
212.742	9315.94
212.816	9509.31
212.89	9694.07
212.964	9885.48
213.038	10082.92
213.112	10300.65
213.186	10518.95
213.26	10700.8
213.333	10863.08
213.407	11071.2
213.481	11266.01
213.555	11474.93
213.629	11669.54
213.703	11855.81
213.777	12051.01
213.85	12238.12
213.924	12467.16
213.998	12679.54
214.072	12868.88
214.146	13059.57
214.219	13259.09
214.293	13459.9
214.367	13653.2
214.441	13865.15
214.515	14039.12
214.588	14213.43
214.662	14366.82
214.736	14533.07
214.81	14723.82
214.883	14924.01
214.957	15105.78
215.031	15287.55
215.105	15453.27
215.178	15624.34
215.252	15797.71
215.326	15955.76
215.4	16108.41
215.473	16237
215.547	16393.69
215.621	16550.47
215.694	16717.85
215.768	16862.92
215.842	17007.22
215.915	17163.95
215.989	17301.49
216.063	17455.66
216.136	17619.32
216.21	17773.25
216.284	17940.43
216.357	18097.97
216.431	18243.03
216.504	18393.72
216.578	18567.65
216.652	18715.88
216.725	18851.54
216.799	19005.17
216.873	19143.58
216.946	19283.14
217.02	19412.33
217.093	19533.78
217.167	19642.16
217.24	19753.77
217.314	19875.88
217.387	19994.87
217.461	20108.89
217.535	20237.66
217.608	20341.47
217.682	20447.11
217.755	20559.2
217.829	20658.97
217.902	20759.31
217.976	20863.07
218.049	20957.92
218.123	21039.57
218.196	21153.84
218.27	21240.79
218.343	21315.21
218.417	21412.18
218.49	21506.6
218.563	21605.94
218.637	21693.38
218.71	21806.47
218.784	21906.15
218.857	21986.07
218.931	22067.92
219.004	22142.5
219.077	22219.63
219.151	22306.35
219.224	22376.25
219.298	22453.67
219.371	22535.29
219.444	22599.46
219.518	22672.89
219.591	22748.1
219.665	22832.67
219.738	22891.88
219.811	22953.49
219.885	23025.91
219.958	23096.12
220.031	23161.84
220.105	23231.18
220.178	23295.16
220.251	23336.06
220.325	23396.68
220.398	23468
220.471	23525.43
220.544	23585.18
220.618	23627.37
220.691	23674.49
220.764	23725.66
220.838	23788.5
220.911	23825.49
220.984	23891.61
221.057	23942.97
221.131	23987.15
221.204	24002.92
221.277	24058.44
221.35	24133.06
221.424	24166.97
221.497	24202.71
221.57	24240.81
221.643	24276.17
221.716	24313.8
221.79	24342.01
221.863	24365.17
221.936	24389.34
222.009	24423.58
222.082	24446.69
222.155	24471.05
222.229	24514.8
222.302	24539.89
222.375	24553.83
222.448	24587.21
222.521	24596.43
222.594	24614.13
222.667	24618.23
222.74	24633.82
222.814	24647.32
222.887	24650.22
222.96	24671.11
223.033	24686.89
223.106	24698.85
223.179	24712.41
223.252	24718.1
223.325	24728.38
223.398	24736.43
223.471	24741.5
223.544	24755.44
223.617	24760.22
223.69	24763.69
223.763	24751.2
223.837	24765.81
223.91	24773.53
223.983	24760.65
224.056	24749.99
224.129	24743.09
224.202	24762.58
224.275	24770.06
224.348	24757.61
224.42	24743.04
224.493	24723.17
224.566	24719.88
224.639	24719.79
224.712	24708.26
224.785	24697.69
224.858	24690.84
224.931	24668.07
225.004	24651.67
225.077	24639.6
225.15	24611.14
225.223	24607.91
225.296	24633.24
225.369	24611.82
225.442	24590.59
225.514	24570.09
225.587	24572.99
225.66	24571.97
225.733	24553.06
225.806	24545.49
225.879	24527.54
225.952	24514.9
226.025	24520.69
226.097	24509.98
226.17	24490.64
226.243	24459.09
226.316	24445.77
226.389	24428.89
226.461	24434.05
226.534	24430.39
226.607	24412.25
226.68	24421.61
226.753	24401.44
226.825	24353.01
226.898	24339.45
226.971	24328.69
227.044	24320.25
227.117	24306.84
227.189	24289.48
227.262	24285.57
227.335	24262.17
227.407	24243.12
227.48	24231.01
227.553	24213.65
227.626	24196.91
227.698	24176.79
227.771	24168.31
227.844	24136.91
227.916	24125.28
227.989	24087.47
228.062	24053.22
228.134	24053.03
228.207	24023.61
228.28	24006.68
228.352	23992.35
228.425	23976.24
228.498	23959.89
228.57	23936.12
228.643	23926.52
228.716	23902.64
228.788	23862.47
228.861	23836.47
228.934	23833.53
229.006	23803.53
229.079	23769.82
229.151	23738.28
229.224	23707.61
229.296	23685.18
229.369	23694.01
229.442	23684.7
229.514	23657.89
229.587	23656.68
229.659	23609.47
229.732	23603.49
229.804	23579.76
229.877	23573.06
229.949	23559.26
230.022	23560.81
230.094	23542.77
230.167	23517.69
230.239	23482.73
230.312	23471.35
230.384	23475.4
230.457	23460.64
230.529	23445.7
230.602	23428.34
230.674	23416.96
230.747	23408.71
230.819	23390
230.892	23329.2
230.964	23307.69
231.037	23286.52
231.109	23252.48
231.181	23243.03
231.254	23203.15
231.326	23178.51
231.399	23147.02
231.471	23115.92
231.544	23067.17
231.616	23045.47
231.688	23026.09
231.761	22996.2
231.833	22959.07
231.905	22895.62
231.978	22858.83
232.05	22826.33
232.122	22800.49
232.195	22761
232.267	22740.32
232.339	22714.67
232.412	22702.57
232.484	22673.54
232.556	22646.35
232.629	22628.66
232.701	22603.92
232.773	22580.64
232.846	22547.42
232.918	22518.01
232.99	22485.28
233.062	22460.16
233.135	22428.05
233.207	22374.93
233.279	22353.62
233.351	22335.4
233.424	22310.76
233.496	22265.35
233.568	22252.77
233.64	22207.46
233.713	22178.53
233.785	22140.02
233.857	22128.16
233.929	22091.23
234.001	22070.79
234.074	22050.26
234.146	21999.31
234.218	21955.68
234.29	21923.91
234.362	21889.06
234.434	21848.81
234.507	21811.75
234.579	21755.83
234.651	21727.3
234.723	21703.87
234.795	21673.12
234.867	21633.59
234.939	21611.85
235.012	21577.92
235.084	21546.25
235.156	21523.55
235.228	21481.33
235.3	21448.07
235.372	21395.72
235.444	21372.93
235.516	21312.72
235.588	21283.85
235.66	21257.78
235.732	21214.83
235.804	21228.81
235.876	21205.97
235.948	21175.03
236.02	21139.12
236.092	21112.47
236.164	21071.5
236.236	21031.06
236.308	20987.69
236.38	20953.04
236.452	20911.25
236.524	20881.08
236.596	20849.03
236.668	20808.5
236.74	20780.21
236.812	20744.74
236.884	20706.37
236.956	20664.93
237.028	20623.63
237.1	20577.94
237.172	20562.76
237.244	20540.06
237.316	20464.97
237.388	20413.98
237.46	20370.03
237.532	20351.81
237.604	20309.16
237.675	20298.03
237.747	20270.08
237.819	20229.45
237.891	20190.71
237.963	20142.56
238.035	20101.6
238.107	20043.58
238.178	20033.46
238.25	19984.74
238.322	19961.46
238.394	19906.86
238.466	19871.87
238.538	19842.72
238.609	19814.14
238.681	19758.05
238.753	19719.16
238.825	19693.81
238.897	19665.18
238.968	19647.79
239.04	19594.92
239.112	19576.95
239.184	19522.68
239.255	19483.36
239.327	19451.07
239.399	19423.94
239.471	19403.94
239.542	19375.9
239.614	19348.48
239.686	19282.6
239.758	19260.58
239.829	19222.03
239.901	19196.82
239.973	19156.83
240.044	19105.99
240.116	19064.3
240.188	19023.2
240.259	18988.11
240.331	18924.12
240.403	18892.26
240.474	18841.28
240.546	18800.41
240.618	18751.16
240.689	18703.26
240.761	18668.9
240.833	18647.17
240.904	18601.68
240.976	18557.68
241.048	18515.8
241.119	18485.01
241.191	18461.49
241.262	18433.5
241.334	18385.84
241.405	18354.75
241.477	18315.43
241.549	18290.23
241.62	18250.32
241.692	18221.46
241.763	18188.16
241.835	18160.98
241.906	18128.93
241.978	18076.6
242.049	18039.25
242.121	18018
242.192	17995.59
242.264	17941.76
242.335	17887.83
242.407	17854.39
242.478	17814.68
242.55	17783.21
242.621	17738.49
242.693	17694.97
242.764	17655.5
242.836	17612.37
242.907	17585.96
242.979	17551.93
243.05	17512.22
243.122	17481.57
243.193	17447.94
243.264	17388.66
243.336	17351.21
243.407	17314.92
243.479	17292.42
243.55	17266.2
243.622	17226.15
243.693	17186.97
243.764	17175.31
243.836	17130.63
243.907	17099.06
243.978	17063.88
244.05	17029.13
244.121	16976.55
244.192	16944.89
244.264	16892.16
244.335	16865.08
244.407	16803.15
244.478	16772.69
244.549	16739.05
244.62	16694.03
244.692	16649.36
244.763	16635.67
244.834	16593.16
244.906	16560.14
244.977	16530.17
245.048	16509.92
245.119	16473.63
245.191	16432.67
245.262	16371.99
245.333	16355.31
245.405	16314
245.476	16289.81
245.547	16252.99
245.618	16225.46
245.689	16202.43
245.761	16178.28
245.832	16143.72
245.903	16125.41
245.974	16093.69
246.045	16058.22
246.117	16047.76
246.188	16010.02
246.259	15956.47
246.33	15924.37
246.401	15878.67
246.473	15835.87
246.544	15795.68
246.615	15773.7
246.686	15742.17
246.757	15725.3
246.828	15684.04
246.899	15660.57
246.97	15608.8
247.042	15581.81
247.113	15557.56
247.184	15534.72
247.255	15496.16
247.326	15461.4
247.397	15428.19
247.468	15396.48
247.539	15363.36
247.61	15308.51
247.681	15279.54
247.752	15265.08
247.823	15223.96
247.894	15200.92
247.965	15162.98
248.037	15123.84
248.108	15070.87
248.179	15035.49
248.25	14999.14
248.321	14976.92
248.392	14946.36
248.463	14945.01
248.534	14907.27
248.605	14882.93
248.675	14847.45
248.746	14818.48
248.817	14790.71
248.888	14763.57
248.959	14719.42
249.03	14698.79
249.101	14671.12
249.172	14647.45
249.243	14599.49
249.314	14593.32
249.385	14568.97
249.456	14549.5
249.527	14525.11
249.598	14500.14
249.669	14471.07
249.739	14446.96
249.81	14421.66
249.881	14379.48
249.952	14341.01
250.023	14309.97
250.094	14273.47
250.165	14231.01
250.235	14210.66
250.306	14193.16
250.377	14161.01
250.448	14135.17
250.519	14091.5
250.59	14083.88
250.66	14042.86
250.731	14035.67
250.802	14006.85
250.873	13973.92
250.944	13942.4
251.014	13906.72
251.085	13905.71
251.156	13884.31
251.227	13870.86
251.297	13853.6
251.368	13835.57
251.439	13829.21
251.51	13823.42
251.58	13795.41
251.651	13769.14
251.722	13749.14
251.792	13702.38
251.863	13673.21
251.934	13663.09
252.005	13670.61
252.075	13637.39
252.146	13630.6
252.217	13618.74
252.287	13600.27
252.358	13573.42
252.429	13566.43
252.499	13538.23
252.57	13511.28
252.641	13497.5
252.711	13467.08
252.782	13429.57
252.852	13427.84
252.923	13400.31
252.994	13371.73
253.064	13354.18
253.135	13320.39
253.205	13290.35
253.276	13294.02
253.347	13290.93
253.417	13267.31
253.488	13235.35
253.558	13215.1
253.629	13190.71
253.699	13162.46
253.77	13146.31
253.841	13125.05
253.911	13106.01
253.982	13088.9
254.052	13077.38
254.123	13057.13
254.193	13037.46
254.264	13051.06
254.334	13013.99
254.405	12981.3
254.475	12949.25
254.546	12922.06
254.616	12918.97
254.687	12904.8
254.757	12878.87
254.827	12852.11
254.898	12828.2
254.968	12807.86
255.039	12778.07
255.109	12762.11
255.18	12730.06
255.25	12685.56
255.321	12670.38
255.391	12637.84
255.461	12639.57
255.532	12593.73
255.602	12567.22
255.673	12535.69
255.743	12503.64
255.813	12465.12
255.884	12449.46
255.954	12437.11
256.024	12433.02
256.095	12411.52
256.165	12377.49
256.235	12360.66
256.306	12325.62
256.376	12316.56
256.446	12303.93
256.517	12298.77
256.587	12282.62
256.657	12269.03
256.728	12248.93
256.798	12229.7
256.868	12201.74
256.938	12163.22
257.009	12155.27
257.079	12148.47
257.149	12151.8
257.219	12112.9
257.29	12090.68
257.36	12053.81
257.43	12042.82
257.5	12005.89
257.571	11988.4
257.641	11971.96
257.711	11935.86
257.781	11925.54
257.852	11912
257.922	11864.04
257.992	11833.58
258.062	11816.32
258.132	11800.32
258.202	11782.29
258.273	11765.13
258.343	11766.92
258.413	11740.84
258.483	11710.72
258.553	11676.78
258.623	11644.83
258.693	11632.34
258.764	11641.36
258.834	11634.42
258.904	11617.06
258.974	11588.97
259.044	11561.3
259.114	11553.78
259.184	11543.81
259.254	11521.78
259.324	11477.05
259.394	11471.94
259.464	11468.91
259.535	11446.88
259.605	11428.9
259.675	11400.38
259.745	11380.57
259.815	11346.59
259.885	11327.84
259.955	11341.14
260.025	11313.14
260.095	11294.11
260.165	11276.9
260.235	11262.2
260.305	11241.77
260.375	11209.57
260.445	11217.96
260.515	11214.92
260.585	11202.54
260.655	11184.9
260.725	11181.67
260.795	11174.2
260.865	11177.81
260.934	11148.9
261.004	11136.37
261.074	11114.06
261.144	11121.43
261.214	11117.14
261.284	11107.21
261.354	11101.57
261.424	11076.51
261.494	11082.49
261.564	11066.2
261.634	11054.68
261.703	11020.66
261.773	11007.41
261.843	11000.66
261.913	10977.63
261.983	10943.56
262.053	10939.65
262.123	10925.73
