Data from 20250702_urea_0.5M_MAYP1162681_20-54-59-545.txt Node
Date: Wed Jul 02 20:54:59 BST 2025
User: adleo
Spectrometer: MAYP116268
Trigger mode: 0
Integration Time (sec): 1.000000E0
Scans to average: 1
Electric dark correction enabled: true
Nonlinearity correction enabled: true
Boxcar width: 10
XAxis mode: Wavelengths
Number of Pixels in Spectrum: 2068
>>>>>Begin Spectral Data<<<<<
179.565	1214.31
179.642	1269.1
179.718	1314.01
179.795	1354.79
179.871	1388.26
179.948	1404.83
180.024	1427.78
180.101	1450.73
180.177	1467.12
180.254	1491.3
180.33	1512.85
180.407	1568.68
180.483	1665.12
180.56	1756.25
180.636	1841.33
180.712	1830.73
180.789	1841.52
180.865	1853.97
180.942	1863.95
181.018	1875.5
181.095	1888.15
181.171	1895.61
181.248	1898.32
181.324	1915.01
181.4	1918.63
181.477	1929.09
181.553	1944.2
181.63	1962.84
181.706	1979.44
181.782	1988.32
181.859	1987.37
181.935	1994.08
182.011	1989.47
182.088	2006.06
182.164	2024.85
182.24	2041.11
182.317	2049.44
182.393	2046.15
182.469	2059.33
182.546	2074.78
182.622	2078.11
182.698	2076.16
182.775	2086.91
182.851	2101.7
182.927	2094.57
183.003	2094
183.08	2087.91
183.156	2096.9
183.232	2096.33
183.308	2083.68
183.385	2090.67
183.461	2109.03
183.537	2109.13
183.613	2121.78
183.69	2112.03
183.766	2100.75
183.842	2107.22
183.918	2114.88
183.995	2130.38
184.071	2135.48
184.147	2129.48
184.223	2116.17
184.299	2125.54
184.375	2114.84
184.452	2119.27
184.528	2177.1
184.604	2188.18
184.68	2200.26
184.756	2208.21
184.832	2210.06
184.908	2216.86
184.985	2216.53
185.061	2198.93
185.137	2206.87
185.213	2195.27
185.289	2197.22
185.365	2191.46
185.441	2187.08
185.517	2196.37
185.593	2189.23
185.669	2186.75
185.745	2196.75
185.822	2214.96
185.898	2206.96
185.974	2215.62
186.05	2211.24
186.126	2165.83
186.202	2157.55
186.278	2152.84
186.354	2143.71
186.43	2152.04
186.506	2149.99
186.582	2148.23
186.658	2155.22
186.734	2136.77
186.81	2138.15
186.886	2141.57
186.962	2153.42
187.038	2150.85
187.114	2142.9
187.19	2151.32
187.266	2140.52
187.341	2140.9
187.417	2133.48
187.493	2134.01
187.569	2137.67
187.645	2127.59
187.721	2117.59
187.797	2124.44
187.873	2130.82
187.949	2124.59
188.025	2116.07
188.101	2118.21
188.176	2124.11
188.252	2121.4
188.328	2131.95
188.404	2130.72
188.48	2123.96
188.556	2118.63
188.632	2117.59
188.707	2119.63
188.783	2115.87
188.859	2110.6
188.935	2101.18
189.011	2109.07
189.086	2103.46
189.162	2095.71
189.238	2093.85
189.314	2092.85
189.39	2088.19
189.465	2080.53
189.541	2097.47
189.617	2081.44
189.693	2079.21
189.768	2080.68
189.844	2105.19
189.92	2096.3
189.996	2108.52
190.071	2121.41
190.147	2118.04
190.223	2127.31
190.298	2120.42
190.374	2107.29
190.45	2123.36
190.526	2129.93
190.601	2126.41
190.677	2127.55
190.753	2153.92
190.828	2159.29
190.904	2171.61
190.98	2186.55
191.055	2194.21
191.131	2183.41
191.207	2207.58
191.282	2213.33
191.358	2203.96
191.433	2188.35
191.509	2198.81
191.585	2195.34
191.66	2195
191.736	2202.66
191.811	2192.91
191.887	2207.76
191.963	2233.02
192.038	2235.92
192.114	2236.69
192.189	2238.54
192.265	2233.98
192.34	2211.46
192.416	2210.89
192.491	2206.23
192.567	2206.18
192.642	2209.75
192.718	2211.27
192.793	2197.8
192.869	2195.28
192.944	2198.71
193.02	2204.51
193.095	2209.46
193.171	2215.26
193.246	2216.22
193.322	2214.79
193.397	2216.74
193.473	2201.51
193.548	2182.95
193.624	2189.28
193.699	2190.42
193.775	2206.94
193.85	2208.18
193.925	2217.07
194.001	2214.13
194.076	2208.04
194.152	2201.23
194.227	2195.33
194.302	2187.2
194.378	2192.67
194.453	2189.72
194.529	2205.04
194.604	2192
194.679	2184.3
194.755	2165.89
194.83	2180.12
194.905	2177.41
194.981	2185.74
195.056	2181.79
195.131	2188.78
195.207	2184.21
195.282	2172.18
195.357	2153.71
195.433	2170.5
195.508	2159.23
195.583	2167.84
195.659	2182.78
195.734	2191.44
195.809	2191.2
195.884	2197.67
195.96	2197.44
196.035	2215.56
196.11	2207.76
196.185	2220.51
196.261	2226.98
196.336	2258.67
196.411	2242.77
196.486	2247.67
196.561	2243.01
196.637	2249.57
196.712	2267.23
196.787	2272.8
196.862	2292.69
196.937	2304.68
197.013	2310.35
197.088	2322.81
197.163	2345.91
197.238	2363.81
197.313	2362.24
197.388	2375.86
197.464	2406.95
197.539	2418.65
197.614	2409.56
197.689	2426.18
197.764	2442.23
197.839	2459.65
197.914	2453.46
197.989	2475.74
198.065	2490.31
198.14	2541.57
198.215	2568.38
198.29	2575.48
198.365	2589.24
198.44	2596.1
198.515	2620.53
198.59	2636.73
198.665	2662.83
198.74	2670.27
198.815	2671.84
198.89	2694.85
198.965	2726.06
199.04	2721.72
199.115	2733.49
199.19	2775.03
199.265	2778.36
199.34	2787.51
199.415	2824.89
199.49	2846.8
199.565	2855.57
199.64	2881.44
199.715	2876.82
199.79	2884.49
199.865	2892.88
199.94	2888.16
200.015	2918.67
200.09	2926.39
200.165	2931.16
200.24	2936.21
200.315	2979.82
200.39	2994.17
200.464	3002.47
200.539	3003.04
200.614	3020.01
200.689	3048.62
200.764	3058.87
200.839	3077.22
200.914	3083.61
200.989	3072.54
201.063	3087.66
201.138	3069.84
201.213	3069.55
201.288	3050.1
201.363	3058.45
201.438	3061.55
201.512	3080.32
201.587	3063.68
201.662	3067.78
201.737	3083.33
201.812	3091.58
201.886	3053.73
201.961	3063.99
202.036	3050.5
202.111	3047.26
202.186	3018.53
202.26	2996.78
202.335	2972.65
202.41	2962.88
202.485	2944.25
202.559	2925.37
202.634	2895.1
202.709	2905.82
202.784	2887.37
202.858	2888.37
202.933	2867.16
203.008	2857.49
203.082	2836.52
203.157	2836.14
203.232	2791.83
203.306	2768.33
203.381	2736.68
203.456	2715.53
203.53	2693.06
203.605	2672.49
203.68	2648
203.754	2643.33
203.829	2631.42
203.904	2610.85
203.978	2599.08
204.053	2603.13
204.127	2590.22
204.202	2591.6
204.277	2573.17
204.351	2562.41
204.426	2555.12
204.5	2549.59
204.575	2516.65
204.65	2524.65
204.724	2516.93
204.799	2525.59
204.873	2522.4
204.948	2522.73
205.022	2510.5
205.097	2501.35
205.171	2515.35
205.246	2524.07
205.32	2522.21
205.395	2519.92
205.469	2510.98
205.544	2517.17
205.618	2498.74
205.693	2511.08
205.767	2495.65
205.842	2519.27
205.916	2515.8
205.991	2507.18
206.065	2512.04
206.14	2526.98
206.214	2527.41
206.289	2521.45
206.363	2531.17
206.438	2532.69
206.512	2538.41
206.586	2558.41
206.661	2564.31
206.735	2542.94
206.81	2546.51
206.884	2560.56
206.958	2550.09
207.033	2569.7
207.107	2576.99
207.181	2610.67
207.256	2603.86
207.33	2627.14
207.405	2641.69
207.479	2663.5
207.553	2671.36
207.628	2658.69
207.702	2675.08
207.776	2672.55
207.851	2677.46
207.925	2700.76
207.999	2705.53
208.073	2712.01
208.148	2723.21
208.222	2720.49
208.296	2762.93
208.371	2785.34
208.445	2805.69
208.519	2844.71
208.593	2869.78
208.668	2882.37
208.742	2900.21
208.816	2918.03
208.89	2947.93
208.965	2964.39
209.039	2992.06
209.113	3032.16
209.187	3071.8
209.261	3094.83
209.336	3140.86
209.41	3190.52
209.484	3220.25
209.558	3273.17
209.632	3317.64
209.707	3363.7
209.781	3420.44
209.855	3472.34
209.929	3535.85
210.003	3591
210.077	3637.75
210.151	3732.3
210.226	3816.99
210.3	3899.86
210.374	3979.82
210.448	4045.5
210.522	4115.17
210.596	4191.62
210.67	4264.54
210.744	4381.68
210.818	4481.19
210.892	4573.65
210.966	4642.68
211.041	4738.65
211.115	4816.04
211.189	4923.81
211.263	5024.7
211.337	5118.12
211.411	5225.78
211.485	5311.3
211.559	5414.79
211.633	5518.32
211.707	5589.31
211.781	5696.15
211.855	5765.03
211.929	5863.41
212.003	5947.46
212.077	6071.57
212.151	6190.4
212.225	6314.46
212.299	6425.46
212.373	6536.21
212.447	6651.39
212.52	6805.84
212.594	6932.58
212.668	7072.62
212.742	7183.66
212.816	7304.77
212.89	7425.19
212.964	7549.09
213.038	7677.96
213.112	7824.87
213.186	7966.91
213.26	8078.57
213.333	8164.14
213.407	8300.15
213.481	8435.79
213.555	8591.98
213.629	8711.49
213.703	8839.19
213.777	8977.73
213.85	9091.21
213.924	9255.97
213.998	9389.59
214.072	9509.6
214.146	9629.18
214.219	9752.23
214.293	9881.39
214.367	10018.09
214.441	10165.24
214.515	10295.51
214.588	10408.53
214.662	10511.06
214.736	10621.43
214.81	10761.1
214.883	10907.12
214.957	11030.66
215.031	11148.09
215.105	11246.49
215.178	11356.51
215.252	11474.2
215.326	11570.44
215.4	11670.93
215.473	11745.11
215.547	11848.16
215.621	11964.47
215.694	12082.32
215.768	12186.82
215.842	12297.54
215.915	12397.95
215.989	12484.57
216.063	12585.65
216.136	12698.02
216.21	12807.59
216.284	12931.04
216.357	13037.14
216.431	13144.92
216.504	13255.85
216.578	13390.39
216.652	13505.36
216.725	13613.29
216.799	13725.37
216.873	13834.02
216.946	13946.44
217.02	14046.32
217.093	14146.69
217.167	14227.86
217.24	14325.82
217.314	14414.51
217.387	14505.53
217.461	14598.47
217.535	14715.02
217.608	14802.03
217.682	14902.05
217.755	14999.13
217.829	15077.8
217.902	15170.4
217.976	15255.43
218.049	15342.72
218.123	15416.42
218.196	15516.34
218.27	15605.13
218.343	15676.27
218.417	15763.71
218.49	15850.13
218.563	15953.33
218.637	16043.26
218.71	16144.67
218.784	16221.64
218.857	16316.26
218.931	16400.12
219.004	16483.02
219.077	16571.75
219.151	16658.02
219.224	16733.64
219.298	16806.9
219.371	16897.22
219.444	16964.02
219.518	17036.74
219.591	17108.5
219.665	17203.78
219.738	17267.64
219.811	17323.69
219.885	17399.21
219.958	17475.59
220.031	17541.09
220.105	17609.18
220.178	17680.65
220.251	17740.02
220.325	17819.54
220.398	17889.8
220.471	17965.22
220.544	18038.52
220.618	18084.35
220.691	18143.58
220.764	18201.55
220.838	18269.07
220.911	18328.68
220.984	18408.34
221.057	18479.9
221.131	18547.8
221.204	18572.62
221.277	18650.98
221.35	18744.61
221.424	18788.27
221.497	18840.8
221.57	18901.52
221.643	18961.32
221.716	19012.83
221.79	19059.77
221.863	19107.05
221.936	19156.92
222.009	19192.63
222.082	19243.9
222.155	19291.28
222.229	19347.75
222.302	19398.93
222.375	19437.39
222.448	19485.77
222.521	19528.56
222.594	19566.3
222.667	19585.86
222.74	19637.76
222.814	19672.12
222.887	19704.07
222.96	19765.85
223.033	19812.21
223.106	19850.91
223.179	19894.57
223.252	19931.77
223.325	19968.16
223.398	20003.29
223.471	20032.01
223.544	20075.62
223.617	20097.7
223.69	20132.78
223.763	20156.1
223.837	20191.24
223.91	20229.98
223.983	20226.13
224.056	20249.5
224.129	20285.84
224.202	20336.24
224.275	20365.55
224.348	20390.94
224.42	20402.03
224.493	20411.14
224.566	20426.56
224.639	20453.59
224.712	20461.3
224.785	20481.06
224.858	20501.55
224.931	20520.1
225.004	20536.24
225.077	20545.5
225.15	20556.97
225.223	20573.35
225.296	20612.87
225.369	20616.92
225.442	20626.03
225.514	20665.74
225.587	20683.14
225.66	20695.38
225.733	20715.33
225.806	20733.41
225.879	20745.65
225.952	20757.26
226.025	20785.55
226.097	20827.77
226.17	20840.5
226.243	20839.48
226.316	20852.64
226.389	20871.92
226.461	20884.02
226.534	20898.38
226.607	20916.79
226.68	20953.51
226.753	20970
226.825	20953.51
226.898	20982.04
226.971	21007.93
227.044	21028.41
227.117	21040.07
227.189	21060.12
227.262	21064.17
227.335	21079.59
227.407	21083.45
227.48	21093.09
227.553	21097.76
227.626	21100.9
227.698	21111.6
227.771	21130.49
227.844	21128.99
227.916	21147.55
227.989	21142.68
228.062	21155.74
228.134	21189.1
228.207	21181.77
228.28	21184.9
228.352	21200.18
228.425	21212.76
228.498	21214.69
228.57	21199.03
228.643	21214.83
228.716	21213.1
228.788	21221.53
228.861	21219.75
228.934	21242.69
229.006	21239.9
229.079	21248.77
229.151	21236.91
229.224	21218.59
229.296	21220.28
229.369	21261.44
229.442	21266.79
229.514	21268.48
229.587	21271.18
229.659	21257.78
229.732	21262.65
229.804	21271.56
229.877	21299.42
229.949	21303.67
230.022	21331.57
230.094	21341.41
230.167	21334.56
230.239	21326.17
230.312	21320.05
230.384	21340.35
230.457	21341.55
230.529	21359.38
230.602	21354.61
230.674	21356.49
230.747	21383.82
230.819	21402.47
230.892	21358.61
230.964	21360.78
231.037	21365.12
231.109	21367
231.181	21369.17
231.254	21356.44
231.326	21341.74
231.399	21325.64
231.471	21302.8
231.544	21267.18
231.616	21271.23
231.688	21266.98
231.761	21255.42
231.833	21244.67
231.905	21208.33
231.978	21192.33
232.05	21179.51
232.122	21171.6
232.195	21160.95
232.267	21156.47
232.339	21133.72
232.412	21140.71
232.484	21122
232.556	21108.51
232.629	21119.55
232.701	21116.9
232.773	21114.15
232.846	21116.85
232.918	21106.68
232.99	21102
233.062	21098.87
233.135	21097.38
233.207	21083.88
233.279	21081.86
233.351	21079.25
233.424	21073.28
233.496	21058.48
233.568	21062.39
233.64	21035.4
233.713	21014.19
233.785	21001.9
233.857	20989.61
233.929	20967.49
234.001	20966.53
234.074	20959.78
234.146	20920.93
234.218	20896.79
234.29	20881.36
234.362	20845.46
234.434	20811.63
234.507	20784.59
234.579	20756.44
234.651	20725.5
234.723	20706.27
234.795	20691.33
234.867	20672.15
234.939	20665.26
235.012	20644.2
235.084	20628.92
235.156	20625.79
235.228	20604.58
235.3	20575.28
235.372	20568.34
235.444	20561.11
235.516	20511.91
235.588	20500.2
235.66	20483.38
235.732	20455.81
235.804	20486.27
235.876	20483.47
235.948	20477.35
236.02	20451.72
236.092	20427.28
236.164	20407.76
236.236	20382.61
236.308	20358.03
236.38	20336.25
236.452	20299.67
236.524	20275.91
236.596	20261.55
236.668	20244.39
236.74	20220.15
236.812	20194.95
236.884	20166.9
236.956	20148.54
237.028	20121.75
237.1	20085.89
237.172	20073.79
237.244	20067.39
237.316	20002.47
237.388	19969.17
237.46	19934.33
237.532	19925.99
237.604	19888.74
237.675	19877.8
237.747	19860.84
237.819	19825.66
237.891	19798.48
237.963	19757.76
238.035	19720.36
238.107	19653.66
238.178	19625.86
238.25	19602.39
238.322	19599.26
238.394	19553.09
238.466	19506.49
238.538	19482.45
238.609	19456.95
238.681	19406.4
238.753	19362.89
238.825	19337.3
238.897	19311.85
238.968	19302.65
239.04	19263.61
239.112	19267.52
239.184	19221.88
239.255	19182.03
239.327	19157.74
239.399	19134.27
239.471	19122.76
239.542	19109.7
239.614	19098.9
239.686	19040.64
239.758	19022.23
239.829	18979.29
239.901	18967.68
239.973	18944.55
240.044	18913.47
240.116	18890.87
240.188	18863.54
240.259	18838.48
240.331	18795.59
240.403	18765.91
240.474	18709.48
240.546	18673.63
240.618	18623.07
240.689	18588.04
240.761	18563.03
240.833	18545.97
240.904	18506.07
240.976	18480.24
241.048	18444.92
241.119	18423.09
241.191	18407.04
241.262	18381.16
241.334	18340.97
241.405	18297.21
241.477	18252.35
241.549	18217.17
241.62	18172.83
241.692	18145.27
241.763	18118.38
241.835	18088.07
241.906	18058.09
241.978	18021.61
242.049	18004.36
242.121	17977.76
242.192	17957.76
242.264	17908.79
242.335	17845.76
242.407	17822.77
242.478	17780.22
242.55	17754.34
242.621	17706.58
242.693	17666.29
242.764	17628.8
242.836	17591.36
242.907	17562.97
242.979	17537.14
243.05	17512.03
243.122	17488.13
243.193	17454.1
243.264	17392.22
243.336	17358.34
243.407	17341.04
243.479	17321.96
243.55	17290.25
243.622	17259.84
243.693	17219.31
243.764	17208.22
243.836	17178.53
243.907	17140.46
243.978	17103.98
244.05	17071.93
244.121	17017.37
244.192	17000.46
244.264	16949.71
244.335	16915.59
244.407	16860.06
244.478	16834.09
244.549	16796.5
244.62	16752.01
244.692	16715.19
244.763	16695.24
244.834	16650.46
244.906	16592.53
244.977	16567.66
245.048	16545.59
245.119	16501.68
245.191	16458.74
245.262	16400.85
245.333	16386.35
245.405	16350.97
245.476	16319.69
245.547	16292.41
245.618	16274.43
245.689	16239.06
245.761	16213.32
245.832	16186.47
245.903	16175.39
245.974	16148.4
246.045	16118.22
246.117	16095.96
246.188	16054.84
246.259	16011.46
246.33	15981.43
246.401	15949
246.473	15901.52
246.544	15867.64
246.615	15854.38
246.686	15821.22
246.757	15803.92
246.828	15749.21
246.899	15734.65
246.97	15690.07
247.042	15640.52
247.113	15615.41
247.184	15606.54
247.255	15564.94
247.326	15533.51
247.397	15500.64
247.468	15471.53
247.539	15443.09
247.61	15401.39
247.681	15377.82
247.752	15365.48
247.823	15327.84
247.894	15305.33
247.965	15259.44
248.037	15217.21
248.108	15164
248.179	15136.96
248.25	15104.23
248.321	15092.51
248.392	15042.96
248.463	15042.43
248.534	15012.88
248.605	14996.59
248.675	14956
248.746	14941.54
248.817	14915.66
248.888	14886.78
248.959	14833.28
249.03	14811.78
249.101	14784.06
249.172	14749.16
249.243	14705.29
249.314	14697.44
249.385	14669.67
249.456	14651.64
249.527	14618.24
249.598	14598.81
249.669	14573.84
249.739	14555.72
249.81	14535.85
249.881	14501.87
249.952	14467.6
250.023	14437.9
250.094	14394.86
250.165	14357.35
250.235	14321.05
250.306	14290.54
250.377	14263.21
250.448	14234.77
250.519	14187.28
250.59	14176.87
250.66	14147.17
250.731	14135.7
250.802	14100.32
250.873	14073.56
250.944	14052.93
251.014	14018.42
251.085	14018.56
251.156	13995.9
251.227	13980.53
251.297	13970.98
251.368	13955.65
251.439	13942.25
251.51	13930.73
251.58	13890.38
251.651	13862.18
251.722	13851.04
251.792	13808
251.863	13771.65
251.934	13768.42
252.005	13768.47
252.075	13742.97
252.146	13731.25
252.217	13713.03
252.287	13701.03
252.358	13676.34
252.429	13663.62
252.499	13630.4
252.57	13598.78
252.641	13589.04
252.711	13560.31
252.782	13514.18
252.852	13503.72
252.923	13478.75
252.994	13457.29
253.064	13447.03
253.135	13418.97
253.205	13392.36
253.276	13393.13
253.347	13392.55
253.417	13358.37
253.488	13335.28
253.558	13307.8
253.629	13290.55
253.699	13270.73
253.77	13254.63
253.841	13230.43
253.911	13218.09
253.982	13207.54
254.052	13199.92
254.123	13176.88
254.193	13155.81
254.264	13175.24
254.334	13144.34
254.405	13104.86
254.475	13073.86
254.546	13049.95
254.616	13038.24
254.687	13024.74
254.757	13006.03
254.827	12972.29
254.898	12958.94
254.968	12936.28
255.039	12909.53
255.109	12892.75
255.18	12862.52
255.25	12819.38
255.321	12805.16
255.391	12767.7
255.461	12769.15
255.532	12713.42
255.602	12681.13
255.673	12637.41
255.743	12599.13
255.813	12563.84
255.884	12557.1
255.954	12542.92
256.024	12549.24
256.095	12527.31
256.165	12480.5
256.235	12465.27
256.306	12448.4
256.376	12436.15
256.446	12422.36
256.517	12405.83
256.587	12397.25
256.657	12377.87
256.728	12365.05
256.798	12342.83
256.868	12316.61
256.938	12281.18
257.009	12273.51
257.079	12262.52
257.149	12272.21
257.219	12229.21
257.29	12210.61
257.36	12164.96
257.43	12158.07
257.5	12115.31
257.571	12091.89
257.641	12085.28
257.711	12055.64
257.781	12042.38
257.852	12027.34
257.922	11990.81
257.992	11972.34
258.062	11943.09
258.132	11939.66
258.202	11924.43
258.273	11903.42
258.343	11898.55
258.413	11878.26
258.483	11864.76
258.553	11830.92
258.623	11799.64
258.693	11792.51
258.764	11793.62
258.834	11797.86
258.904	11775.88
258.974	11746.04
259.044	11730.09
259.114	11720.31
259.184	11707.63
259.254	11685.89
259.324	11648.11
259.394	11635.43
259.464	11637.79
259.535	11617.69
259.605	11584.15
259.675	11547.95
259.745	11535.71
259.815	11509.1
259.885	11481.87
259.955	11485.49
260.025	11467.75
260.095	11453.44
260.165	11435.99
260.235	11425.2
260.305	11402.83
260.375	11372.04
260.445	11378.83
260.515	11376.28
260.585	11361.96
260.655	11343.5
260.725	11329.62
260.795	11321.19
260.865	11320.13
260.934	11284.37
261.004	11276.32
261.074	11267.4
261.144	11266.2
261.214	11263.21
261.284	11246.34
261.354	11242.63
261.424	11217.57
261.494	11219.35
261.564	11206.68
261.634	11196.65
261.703	11169.71
261.773	11156.08
261.843	11152.41
261.913	11128.37
261.983	11090.49
262.053	11090.25
262.123	11060.13
