Data from 20250702_urea_0.5M_MAYP1162681_21-25-00-415.txt Node
Date: Wed Jul 02 21:25:00 BST 2025
User: adleo
Spectrometer: MAYP116268
Trigger mode: 0
Integration Time (sec): 1.000000E0
Scans to average: 1
Electric dark correction enabled: true
Nonlinearity correction enabled: true
Boxcar width: 10
XAxis mode: Wavelengths
Number of Pixels in Spectrum: 2068
>>>>>Begin Spectral Data<<<<<
179.565	1229.69
179.642	1290.32
179.718	1334.09
179.795	1371.68
179.871	1406.33
179.948	1423.48
180.024	1444.66
180.101	1466.15
180.177	1480.02
180.254	1504.48
180.33	1527.23
180.407	1584.68
180.483	1682.5
180.56	1775.34
180.636	1860.46
180.712	1848.67
180.789	1857.84
180.865	1867.92
180.942	1873.57
181.018	1885.03
181.095	1900.68
181.171	1905.72
181.248	1904.67
181.324	1920.41
181.4	1927.97
181.477	1938.38
181.553	1949.22
181.63	1968.95
181.706	1987.79
181.782	1995.29
181.859	1992.11
181.935	1996.63
182.011	1990.4
182.088	2005.52
182.164	2022.31
182.24	2036.34
182.317	2045.99
182.393	2047.23
182.469	2064.01
182.546	2079.95
182.622	2084.18
182.698	2075.95
182.775	2089.7
182.851	2100.78
182.927	2094.55
183.003	2091.84
183.08	2087.46
183.156	2100.49
183.232	2095.73
183.308	2081.7
183.385	2090.79
183.461	2109.57
183.537	2113.24
183.613	2126.56
183.69	2116.8
183.766	2105.86
183.842	2114.61
183.918	2120.66
183.995	2135.17
184.071	2138.35
184.147	2130.22
184.223	2117.43
184.299	2131.84
184.375	2119.71
184.452	2128.95
184.528	2181.96
184.604	2190.38
184.68	2201.46
184.756	2209.27
184.832	2216.83
184.908	2223.87
184.985	2223.44
185.061	2205.46
185.137	2214.02
185.213	2203.7
185.289	2207.89
185.365	2200.99
185.441	2199.23
185.517	2211.18
185.593	2205.32
185.669	2202.37
185.745	2213.51
185.822	2231.29
185.898	2223.01
185.974	2231.76
186.05	2223.53
186.126	2184.51
186.202	2177.9
186.278	2172.71
186.354	2163
186.43	2168.38
186.506	2167.81
186.582	2168.62
186.658	2178.51
186.734	2156.58
186.81	2157.91
186.886	2157.91
186.962	2173.33
187.038	2168.81
187.114	2160.81
187.19	2169.99
187.266	2159.43
187.341	2162.48
187.417	2154.68
187.493	2156.87
187.569	2160.05
187.645	2155.63
187.721	2144.92
187.797	2155.96
187.873	2160.29
187.949	2153.82
188.025	2145.59
188.101	2145.73
188.176	2149.68
188.252	2141.59
188.328	2152.05
188.404	2152.77
188.48	2149.44
188.556	2142.83
188.632	2142.11
188.707	2141.45
188.783	2137.69
188.859	2133.45
188.935	2119.75
189.011	2126.08
189.086	2118.04
189.162	2110.24
189.238	2108.05
189.314	2106.48
189.39	2099.44
189.465	2092.3
189.541	2107.29
189.617	2094.54
189.693	2090.12
189.768	2092.55
189.844	2119.24
189.92	2108.11
189.996	2117.82
190.071	2129.62
190.147	2124.43
190.223	2133.23
190.298	2128.24
190.374	2113.63
190.45	2126.81
190.526	2135.8
190.601	2131.99
190.677	2132.66
190.753	2160.89
190.828	2162.79
190.904	2176.64
190.98	2190.48
191.055	2200.62
191.131	2192.05
191.207	2214.08
191.282	2222.83
191.358	2215.55
191.433	2201.75
191.509	2214.97
191.585	2212.02
191.66	2212.02
191.736	2220.96
191.811	2213.44
191.887	2227.72
191.963	2253.99
192.038	2258.84
192.114	2260.6
192.189	2266.64
192.265	2264.55
192.34	2241.32
192.416	2241.56
192.491	2237.41
192.567	2240.46
192.642	2243.89
192.718	2246.84
192.793	2230.99
192.869	2225.62
192.944	2225.86
193.02	2232.95
193.095	2239.42
193.171	2241.7
193.246	2240.84
193.322	2237.85
193.397	2236.37
193.473	2221.71
193.548	2199.68
193.624	2206.82
193.699	2204.11
193.775	2219.34
193.85	2220.91
193.925	2229.71
194.001	2227.81
194.076	2219.82
194.152	2209.06
194.227	2202.16
194.302	2190.32
194.378	2196.55
194.453	2196.12
194.529	2208.3
194.604	2194.88
194.679	2187.41
194.755	2171.95
194.83	2185.23
194.905	2186
194.981	2195.32
195.056	2189.47
195.131	2195.94
195.207	2191.56
195.282	2183.43
195.357	2162.77
195.433	2176.04
195.508	2162.24
195.583	2171.24
195.659	2187.04
195.734	2195.79
195.809	2195.08
195.884	2206.54
195.96	2206.49
196.035	2220.96
196.11	2216.96
196.185	2229.09
196.261	2231.47
196.336	2260.35
196.411	2246.12
196.486	2249.07
196.561	2245.88
196.637	2253.4
196.712	2271.73
196.787	2275.15
196.862	2289.29
196.937	2300.28
197.013	2304.66
197.088	2317.31
197.163	2338.79
197.238	2353.69
197.313	2354.65
197.388	2367.16
197.464	2397.16
197.539	2408.4
197.614	2401.83
197.689	2416.92
197.764	2433.06
197.839	2456.06
197.914	2452.06
197.989	2474.19
198.065	2489
198.14	2536.55
198.215	2564.5
198.29	2575.6
198.365	2587.36
198.44	2598.27
198.515	2624.42
198.59	2644.18
198.665	2671.86
198.74	2679.77
198.815	2681.53
198.89	2703.54
198.965	2735.23
199.04	2729.18
199.115	2748.04
199.19	2791.77
199.265	2793.49
199.34	2800.3
199.415	2834.68
199.49	2855.5
199.565	2865.74
199.64	2891.19
199.715	2891.72
199.79	2899.82
199.865	2907.64
199.94	2905.68
200.015	2937.57
200.09	2943.39
200.165	2946.97
200.24	2952.02
200.315	2996.25
200.39	3011.65
200.464	3016.23
200.539	3019.04
200.614	3037.35
200.689	3059.81
200.764	3065.29
200.839	3087.93
200.914	3094.27
200.989	3082.82
201.063	3097.51
201.138	3083.5
201.213	3083.59
201.288	3060.09
201.363	3064.62
201.438	3064.47
201.512	3083.35
201.587	3066.04
201.662	3071.71
201.737	3084.39
201.812	3093.26
201.886	3056.28
201.961	3065.05
202.036	3055.76
202.111	3049.99
202.186	3019.64
202.26	3001.99
202.335	2982.49
202.41	2971
202.485	2956.03
202.559	2935.3
202.634	2905.65
202.709	2914.56
202.784	2895.64
202.858	2896.3
202.933	2878.24
203.008	2869.33
203.082	2848.88
203.157	2849.45
203.232	2805.58
203.306	2784.17
203.381	2750.38
203.456	2724.65
203.53	2701.62
203.605	2680.47
203.68	2659.55
203.754	2654.51
203.829	2638.45
203.904	2616.2
203.978	2605.34
204.053	2609.39
204.127	2596.39
204.202	2600.25
204.277	2580.43
204.351	2570.48
204.426	2563.48
204.5	2553.38
204.575	2519.2
204.65	2529.39
204.724	2517.1
204.799	2526.24
204.873	2521.66
204.948	2523.09
205.022	2513.52
205.097	2506.28
205.171	2517.85
205.246	2524.52
205.32	2520.95
205.395	2520.67
205.469	2514.53
205.544	2519.34
205.618	2501.62
205.693	2513.96
205.767	2499.96
205.842	2520.91
205.916	2518.34
205.991	2509.2
206.065	2515.2
206.14	2528.14
206.214	2525.38
206.289	2520.04
206.363	2533.09
206.438	2540.19
206.512	2548.62
206.586	2573.24
206.661	2583.01
206.735	2565.4
206.81	2570.21
206.884	2587.87
206.958	2577.02
207.033	2592.97
207.107	2603.78
207.181	2638.85
207.256	2636.47
207.33	2657.24
207.405	2672.63
207.479	2694.55
207.553	2703.83
207.628	2689.84
207.702	2706.74
207.776	2705.07
207.851	2714.36
207.925	2732.95
207.999	2732.81
208.073	2734.33
208.148	2738.86
208.222	2733.71
208.296	2772.72
208.371	2793.47
208.445	2813.68
208.519	2854.75
208.593	2879.87
208.668	2888.21
208.742	2903.05
208.816	2920.35
208.89	2952.31
208.965	2969.06
209.039	2996.01
209.113	3035.34
209.187	3079.13
209.261	3100.92
209.336	3145.52
209.41	3193.75
209.484	3224.39
209.558	3278.79
209.632	3324.06
209.707	3370.83
209.781	3431.49
209.855	3482.67
209.929	3540.58
210.003	3592.06
210.077	3633.22
210.151	3730.64
210.226	3816
210.3	3896.81
210.374	3972.81
210.448	4034.48
210.522	4105.01
210.596	4176.3
210.67	4250.17
210.744	4364.59
210.818	4466
210.892	4557.44
210.966	4627.68
211.041	4716.64
211.115	4789.72
211.189	4895.99
211.263	4992.95
211.337	5082.69
211.411	5190.35
211.485	5276.81
211.559	5377.66
211.633	5473.07
211.707	5534.12
211.781	5637.3
211.855	5702.82
211.929	5797.5
212.003	5882.85
212.077	6000.32
212.151	6122.17
212.225	6242.96
212.299	6346.55
212.373	6449.32
212.447	6557.42
212.52	6703.17
212.594	6827.57
212.668	6957.11
212.742	7061.79
212.816	7176.63
212.89	7295.32
212.964	7412.43
213.038	7539.7
213.112	7682.26
213.186	7825.47
213.26	7932.44
213.333	8018.34
213.407	8154.43
213.481	8282.7
213.555	8423.91
213.629	8541.53
213.703	8651.93
213.777	8781.26
213.85	8892.27
213.924	9052.48
213.998	9178.56
214.072	9305.36
214.146	9420.54
214.219	9551.72
214.293	9672.81
214.367	9808.87
214.441	9949.27
214.515	10069.55
214.588	10175.77
214.662	10269.08
214.736	10378
214.81	10515.53
214.883	10653.21
214.957	10764.07
215.031	10882.93
215.105	10983
215.178	11091.19
215.252	11211.76
215.326	11312.43
215.4	11413.25
215.473	11489.26
215.547	11604.01
215.621	11709.91
215.694	11836.63
215.768	11925.5
215.842	12044.32
215.915	12151.61
215.989	12233.89
216.063	12339.6
216.136	12451.97
216.21	12556.03
216.284	12671.67
216.357	12782.59
216.431	12883.44
216.504	12998.12
216.578	13126.63
216.652	13248.01
216.725	13356.38
216.799	13470.29
216.873	13575.81
216.946	13686.39
217.02	13783
217.093	13874.83
217.167	13951.43
217.24	14040.56
217.314	14141.79
217.387	14229.34
217.461	14311.67
217.535	14426.49
217.608	14507.62
217.682	14592.51
217.755	14690.03
217.829	14775.5
217.902	14865.73
217.976	14952.45
218.049	15031.99
218.123	15107.09
218.196	15199.4
218.27	15281.1
218.343	15348.15
218.417	15435.44
218.49	15514.44
218.563	15614.22
218.637	15697.12
218.71	15804.36
218.784	15886.4
218.857	15977.59
218.931	16049.22
219.004	16128.99
219.077	16214.01
219.151	16299.32
219.224	16381.45
219.298	16471.77
219.371	16567.58
219.444	16634.72
219.518	16720.22
219.591	16794.68
219.665	16894.54
219.738	16967.12
219.811	17022.88
219.885	17099.51
219.958	17167.9
220.031	17242.94
220.105	17306.12
220.178	17374.75
220.251	17422.27
220.325	17489.16
220.398	17556.72
220.471	17637.54
220.544	17710.8
220.618	17763.08
220.691	17823.9
220.764	17887.08
220.838	17950.94
220.911	18002.31
220.984	18074.93
221.057	18131.89
221.131	18201.14
221.204	18227.5
221.277	18306.63
221.35	18404.65
221.424	18470.82
221.497	18530.91
221.57	18585.08
221.643	18648.25
221.716	18708.92
221.79	18758.13
221.863	18807.62
221.936	18857.2
222.009	18905.59
222.082	18957.73
222.155	18990.59
222.229	19053.63
222.302	19105.09
222.375	19139.16
222.448	19185.09
222.521	19237.62
222.594	19276.7
222.667	19305.03
222.74	19362.67
222.814	19395.68
222.887	19423.92
222.96	19463.48
223.033	19515.34
223.106	19555.96
223.179	19604.2
223.252	19637.21
223.325	19677.78
223.398	19713.88
223.471	19753.88
223.544	19795.8
223.617	19836.43
223.69	19888.47
223.763	19911.56
223.837	19949.53
223.91	19999.02
223.983	20023.12
224.056	20029.53
224.129	20066.39
224.202	20108.27
224.275	20119.16
224.348	20132.7
224.42	20143.89
224.493	20150.29
224.566	20159.6
224.639	20187.35
224.712	20200.7
224.785	20226.63
224.858	20243.93
224.931	20267.45
225.004	20272.94
225.077	20291.45
225.15	20286.15
225.223	20306.39
225.296	20350.15
225.369	20353.96
225.442	20364.99
225.514	20388.41
225.587	20418.87
225.66	20443.98
225.733	20467.55
225.806	20492.8
225.879	20514.53
225.952	20527.74
226.025	20561.67
226.097	20595.26
226.17	20619.26
226.243	20623.16
226.316	20641.43
226.389	20659.55
226.461	20667.45
226.534	20688.99
226.607	20707.12
226.68	20745.77
226.753	20758.97
226.825	20745.38
226.898	20770.2
226.971	20774.63
227.044	20787.6
227.117	20803.74
227.189	20813.62
227.262	20829.87
227.335	20857.1
227.407	20860.37
227.48	20880.52
227.553	20891.03
227.626	20896.47
227.698	20901.68
227.771	20918.26
227.844	20917.44
227.916	20933.39
227.989	20934.45
228.062	20935.85
228.134	20951.08
228.207	20949.82
228.28	20944.62
228.352	20955.46
228.425	20966.31
228.498	20984.28
228.57	20976.24
228.643	20991.51
228.716	20996.82
228.788	20995.66
228.861	20988.77
228.934	21008
229.006	21009.97
229.079	21009.78
229.151	21003.08
229.224	20990.98
229.296	21002.5
229.369	21038.46
229.442	21053.59
229.514	21059.81
229.587	21080.05
229.659	21069.69
229.732	21081.4
229.804	21100.97
229.877	21126.46
229.949	21146.8
230.022	21176.06
230.094	21187.92
230.167	21189.94
230.239	21185.56
230.312	21185.22
230.384	21214.19
230.457	21217.42
230.529	21228.79
230.602	21241.56
230.674	21256.31
230.747	21278.14
230.819	21274.43
230.892	21231.1
230.964	21242.77
231.037	21247.2
231.109	21253.47
231.181	21263.11
231.254	21248.26
231.326	21244.16
231.399	21237.13
231.471	21217.03
231.544	21179.1
231.616	21182.86
231.688	21183.29
231.761	21176.73
231.833	21173.7
231.905	21138.37
231.978	21136.39
232.05	21126.13
232.122	21126.03
232.195	21106.22
232.267	21117.5
232.339	21117.4
232.412	21138.47
232.484	21126.95
232.556	21111.04
232.629	21122.75
232.701	21117.16
232.773	21112.54
232.846	21100.44
232.918	21092.44
232.99	21087.62
233.062	21093.31
233.135	21088.34
233.207	21076.63
233.279	21078.08
233.351	21069.93
233.424	21056.48
233.496	21028.43
233.568	21028.72
233.64	20992.24
233.713	20986.94
233.785	20963.18
233.857	20949.15
233.929	20914.69
234.001	20906.55
234.074	20909.1
234.146	20870.3
234.218	20852.37
234.29	20831.17
234.362	20803.46
234.434	20773.19
234.507	20746.15
234.579	20709.19
234.651	20687.65
234.723	20664.95
234.795	20642.54
234.867	20631.16
234.939	20625.19
235.012	20613.43
235.084	20599.16
235.156	20592.94
235.228	20558.25
235.3	20529.14
235.372	20507.55
235.444	20501.18
235.516	20453.76
235.588	20430.87
235.66	20409.28
235.732	20383.69
235.804	20432.99
235.876	20428.85
235.948	20422.63
236.02	20388.85
236.092	20363.07
236.164	20337.28
236.236	20309.72
236.308	20292.66
236.38	20265.67
236.452	20235.74
236.524	20212.71
236.596	20202.88
236.668	20184.13
236.74	20165
236.812	20148.9
236.884	20138.25
236.956	20113.05
237.028	20090.11
237.1	20065.82
237.172	20052.71
237.244	20052.18
237.316	19978.59
237.388	19943.46
237.46	19906.59
237.532	19909.82
237.604	19883.51
237.675	19878.3
237.747	19862.64
237.819	19824.96
237.891	19796.43
237.963	19764.96
238.035	19726.36
238.107	19656.72
238.178	19641.21
238.25	19604.29
238.322	19596.2
238.394	19541.98
238.466	19514.27
238.538	19485.41
238.609	19458.52
238.681	19416.21
238.753	19365.51
238.825	19331.78
238.897	19301.76
238.968	19284.17
239.04	19246.39
239.112	19248.75
239.184	19199.93
239.255	19156.99
239.327	19125.91
239.399	19102.73
239.471	19088.13
239.542	19067.26
239.614	19058.93
239.686	18997.68
239.758	18986.79
239.829	18942.5
239.901	18933.73
239.973	18907.56
240.044	18876.19
240.116	18841.69
240.188	18803.91
240.259	18782.51
240.331	18744.06
240.403	18731.19
240.474	18686.71
240.546	18641.46
240.618	18586.57
240.689	18553.03
240.761	18524.45
240.833	18510.53
240.904	18472.65
240.976	18432.22
241.048	18407.93
241.119	18374.82
241.191	18359.98
241.262	18339.26
241.334	18304.13
241.405	18257.77
241.477	18211.99
241.549	18178.11
241.62	18150.59
241.692	18132.76
241.763	18100.04
241.835	18074.6
241.906	18037.35
241.978	17986.89
242.049	17976.43
242.121	17956.77
242.192	17934.79
242.264	17894.07
242.335	17845.16
242.407	17823.95
242.478	17793.54
242.55	17760.53
242.621	17730.51
242.693	17686.94
242.764	17653.26
242.836	17606.42
242.907	17583.43
242.979	17566.75
243.05	17545.89
243.122	17514.51
243.193	17475.38
243.264	17418.51
243.336	17384.39
243.407	17354.56
243.479	17351.62
243.55	17313.21
243.622	17286.13
243.693	17255.72
243.764	17240.63
243.836	17192.53
243.907	17143.86
243.978	17098.85
244.05	17068.34
244.121	17016.87
244.192	16995.28
244.264	16944.38
244.335	16920.86
244.407	16868.72
244.478	16831.03
244.549	16798.26
244.62	16755.51
244.692	16720.66
244.763	16711.74
244.834	16677
244.906	16633.57
244.977	16605.23
245.048	16590.44
245.119	16549.81
245.191	16501.9
245.262	16438.42
245.333	16429.8
245.405	16402.52
245.476	16376.15
245.547	16338.7
245.618	16320.15
245.689	16291.57
245.761	16262.99
245.832	16224.67
245.903	16211.08
245.974	16185.63
246.045	16148.66
246.117	16130.83
246.188	16090
246.259	16043.68
246.33	16013.32
246.401	15981.8
246.473	15930.03
246.544	15881.06
246.615	15851.37
246.686	15814.55
246.757	15799.99
246.828	15752.95
246.899	15729.81
246.97	15684.6
247.042	15654.14
247.113	15631.14
247.184	15620.49
247.255	15575.71
247.326	15550.99
247.397	15516.09
247.468	15485.14
247.539	15453.67
247.61	15408.7
247.681	15387.01
247.752	15366.37
247.823	15320.44
247.894	15290.55
247.965	15245.63
248.037	15216.9
248.108	15174.67
248.179	15140.84
248.25	15108.49
248.321	15092.25
248.392	15059.23
248.463	15052.91
248.534	15017.15
248.605	14993.43
248.675	14955.16
248.746	14940.26
248.817	14917.9
248.888	14892.11
248.959	14843.28
249.03	14822.21
249.101	14797.58
249.172	14762.73
249.243	14708.5
249.314	14701.17
249.385	14673.21
249.456	14655.28
249.527	14620.72
249.598	14603.85
249.669	14588.37
249.739	14568.08
249.81	14541.57
249.881	14495.14
249.952	14469.21
250.023	14446.36
250.094	14399.41
250.165	14357.62
250.235	14333.8
250.306	14308.16
250.377	14268.49
250.448	14249.68
250.519	14201.48
250.59	14194.97
250.66	14175.93
250.731	14179.35
250.802	14144.84
250.873	14133.85
250.944	14110.9
251.014	14082.41
251.085	14071.47
251.156	14050.11
251.227	14040.81
251.297	14032.71
251.368	14026.68
251.439	14008.03
251.51	13994.58
251.58	13962.14
251.651	13933.12
251.722	13915.71
251.792	13869.58
251.863	13841.33
251.934	13823.88
252.005	13827.83
252.075	13795.29
252.146	13776.4
252.217	13762.03
252.287	13749.06
252.358	13714.93
252.429	13708.28
252.499	13679.55
252.57	13657.23
252.641	13639.68
252.711	13612.93
252.782	13574.07
252.852	13571.42
252.923	13545.87
252.994	13523.12
253.064	13510.73
253.135	13481.13
253.205	13452.5
253.276	13444.4
253.347	13445.65
253.417	13414.85
253.488	13388.09
253.558	13360.23
253.629	13333.19
253.699	13308.94
253.77	13290.62
253.841	13267.24
253.911	13246.9
253.982	13227.32
254.052	13215.32
254.123	13193.77
254.193	13168.03
254.264	13179.31
254.334	13136.74
254.405	13099.29
254.475	13057.4
254.546	13031.66
254.616	13022.79
254.687	13001.29
254.757	12986.15
254.827	12956.5
254.898	12945.56
254.968	12918.18
255.039	12889.4
255.109	12879.28
255.18	12843.17
255.25	12801.76
255.321	12780.36
255.391	12746.23
255.461	12737.65
255.532	12689.78
255.602	12660.86
255.673	12617.28
255.743	12581.99
255.813	12542.8
255.884	12537.74
255.954	12525.11
256.024	12522.61
256.095	12501.78
256.165	12471.12
256.235	12456.04
256.306	12425.33
256.376	12410.68
256.446	12397.66
256.517	12386.24
256.587	12367.19
256.657	12355.29
256.728	12338.03
256.798	12319.47
256.868	12292.05
256.938	12267.7
257.009	12252.52
257.079	12242.44
257.149	12254.01
257.219	12214.68
257.29	12197.47
257.36	12156.4
257.43	12155.92
257.5	12114.66
257.571	12089.84
257.641	12080.73
257.711	12054.17
257.781	12051.32
257.852	12033.83
257.922	11998.78
257.992	11976.61
258.062	11959.06
258.132	11945.57
258.202	11925.37
258.273	11905.71
258.343	11916.07
258.413	11888.79
258.483	11872.79
258.553	11842.28
258.623	11813.69
258.693	11797.88
258.764	11801.69
258.834	11798.99
258.904	11776.05
258.974	11747.37
259.044	11731.18
259.114	11711.85
259.184	11692.62
259.254	11663.17
259.324	11629.24
259.394	11622.39
259.464	11626.01
259.535	11600.9
259.605	11575.78
259.675	11554.1
259.745	11549.04
259.815	11511.83
259.885	11488.5
259.955	11500.65
260.025	11469.47
260.095	11454.62
260.165	11446.33
260.235	11440.11
260.305	11411.25
260.375	11383.2
260.445	11402.23
260.515	11396.5
260.585	11395.53
260.655	11377.27
260.725	11378.23
260.795	11370.23
260.865	11373.46
260.934	11339.24
261.004	11336.78
261.074	11316.69
261.144	11311.87
261.214	11300.4
261.284	11280.35
261.354	11275.67
261.424	11243.38
261.494	11256.68
261.564	11236.73
261.634	11228.63
261.703	11194.42
261.773	11189.6
261.843	11176.49
261.913	11151.91
261.983	11118.08
262.053	11108.01
262.123	11089.79
