Data from 20250702_urea_0.5M_MAYP1162681_13-34-59-672.txt Node
Date: Wed Jul 02 13:34:59 BST 2025
User: adleo
Spectrometer: MAYP116268
Trigger mode: 0
Integration Time (sec): 1.000000E0
Scans to average: 1
Electric dark correction enabled: true
Nonlinearity correction enabled: true
Boxcar width: 10
XAxis mode: Wavelengths
Number of Pixels in Spectrum: 2068
>>>>>Begin Spectral Data<<<<<
179.565	1110.86
179.642	1162.08
179.718	1200.58
179.795	1236.37
179.871	1265.58
179.948	1281.17
180.024	1300.21
180.101	1324.33
180.177	1338.1
180.254	1357.27
180.33	1379.08
180.407	1426.31
180.483	1514.72
180.56	1598.53
180.636	1674.86
180.712	1665.46
180.789	1673.53
180.865	1685.03
180.942	1693.43
181.018	1703.55
181.095	1714.2
181.171	1718.24
181.248	1717.86
181.324	1731.36
181.4	1739.15
181.477	1751.13
181.553	1763.81
181.63	1782.25
181.706	1793.33
181.782	1800.17
181.859	1799.83
181.935	1804.25
182.011	1798.46
182.088	1813.43
182.164	1831.17
182.24	1843.71
182.317	1854.07
182.393	1854.59
182.469	1867.38
182.546	1878.93
182.622	1883.92
182.698	1881.07
182.775	1893.24
182.851	1908.92
182.927	1903.27
183.003	1895.42
183.08	1887.25
183.156	1894.24
183.232	1892.1
183.308	1882.64
183.385	1888.91
183.461	1906.22
183.537	1906.17
183.613	1919.05
183.69	1909.16
183.766	1894.94
183.842	1902.88
183.918	1904.31
183.995	1916
184.071	1916.86
184.147	1912.68
184.223	1899.56
184.299	1909.74
184.375	1898.09
184.452	1905.75
184.528	1958.78
184.604	1969.85
184.68	1980.55
184.756	1989.06
184.832	1989.82
184.908	1995.24
184.985	1997
185.061	1981.69
185.137	1987.77
185.213	1975.98
185.289	1978.08
185.365	1974.37
185.441	1973.42
185.517	1987.11
185.593	1982.64
185.669	1980.65
185.745	1990.21
185.822	2005.6
185.898	1995.47
185.974	2002.56
186.05	1991.95
186.126	1955.8
186.202	1949.67
186.278	1949.81
186.354	1940.06
186.43	1948.96
186.506	1947.96
186.582	1946.06
186.658	1953.09
186.734	1938.45
186.81	1942.4
186.886	1946.77
186.962	1958.99
187.038	1957.99
187.114	1949.76
187.19	1959.03
187.266	1955.66
187.341	1955.75
187.417	1952.47
187.493	1953.42
187.569	1958.42
187.645	1954.95
187.721	1940.63
187.797	1949.43
187.873	1953.09
187.949	1948.57
188.025	1942.2
188.101	1943.53
188.176	1945.86
188.252	1939.49
188.328	1945.76
188.404	1947.24
188.48	1941.91
188.556	1933.88
188.632	1931.83
188.707	1934.16
188.783	1930.07
188.859	1922.8
188.935	1912.48
189.011	1915.53
189.086	1910.44
189.162	1900.55
189.238	1895.61
189.314	1893.61
189.39	1887.76
189.465	1879.54
189.541	1896.13
189.617	1882.49
189.693	1876.74
189.768	1882.87
189.844	1907.89
189.92	1902.47
189.996	1909.41
190.071	1917.02
190.147	1916.07
190.223	1924.2
190.298	1917.4
190.374	1903.56
190.45	1915.54
190.526	1924.43
190.601	1921.2
190.677	1924.67
190.753	1950.12
190.828	1952.78
190.904	1967.19
190.98	1981.74
191.055	1991.34
191.131	1982.12
191.207	2001.18
191.282	2009.22
191.358	2000.8
191.433	1986.86
191.509	1997.51
191.585	1995.18
191.66	1997.03
191.736	2005.59
191.811	1996.94
191.887	2011.63
191.963	2036.51
192.038	2040.79
192.114	2042.16
192.189	2047.39
192.265	2041.55
192.34	2024.8
192.416	2023.19
192.491	2019.43
192.567	2020.76
192.642	2023.85
192.718	2025.94
192.793	2014.06
192.869	2013.58
192.944	2015.34
193.02	2022.57
193.095	2026.61
193.171	2032.37
193.246	2033.03
193.322	2031.75
193.397	2032.37
193.473	2020.28
193.548	2003.25
193.624	2008.58
193.699	2005.73
193.775	2019.67
193.85	2019.67
193.925	2025.94
194.001	2026.37
194.076	2022.43
194.152	2011.58
194.227	2005.78
194.302	1993.47
194.378	1998.84
194.453	1995.13
194.529	2007.02
194.604	1993.85
194.679	1988.28
194.755	1969.88
194.83	1982.73
194.905	1978.02
194.981	1986.16
195.056	1980.97
195.131	1986.06
195.207	1982.06
195.282	1972.46
195.357	1953.72
195.433	1971.31
195.508	1961.23
195.583	1972.02
195.659	1982.54
195.734	1990.14
195.809	1989.38
195.884	1998.8
195.96	1999.79
196.035	2012.82
196.11	2007.31
196.185	2017.91
196.261	2020.05
196.336	2047.01
196.411	2031.65
196.486	2037.97
196.561	2031.55
196.637	2036.78
196.712	2050.58
196.787	2055.95
196.862	2072.69
196.937	2084.39
197.013	2089.81
197.088	2099.27
197.163	2118.4
197.238	2133.16
197.313	2136.49
197.388	2147.96
197.464	2177.12
197.539	2187.35
197.614	2180.08
197.689	2191.59
197.764	2206.72
197.839	2226.46
197.914	2222.33
197.989	2246.97
198.065	2260.1
198.14	2309.29
198.215	2334.99
198.29	2345.7
198.365	2357.12
198.44	2366.12
198.515	2390.82
198.59	2406.77
198.665	2431.95
198.74	2440.24
198.815	2446
198.89	2464.76
198.965	2494
199.04	2488.67
199.115	2503.33
199.19	2544.51
199.265	2548.93
199.34	2559.41
199.415	2588.76
199.49	2609.56
199.565	2615.42
199.64	2638.66
199.715	2633.04
199.79	2640.47
199.865	2647.32
199.94	2646.28
200.015	2674.57
200.09	2679
200.165	2684.05
200.24	2691.63
200.315	2729.11
200.39	2737.35
200.464	2742.73
200.539	2742.64
200.614	2759.12
200.689	2779.75
200.764	2787.62
200.839	2808
200.914	2812.05
200.989	2802.23
201.063	2813.95
201.138	2798.15
201.213	2799.1
201.288	2782.57
201.363	2789.9
201.438	2793.05
201.512	2806.96
201.587	2792.66
201.662	2796.85
201.737	2807.24
201.812	2814.01
201.886	2778.29
201.961	2793.64
202.036	2781.5
202.111	2779.35
202.186	2751.97
202.26	2736.15
202.335	2713.99
202.41	2703.75
202.485	2688.18
202.559	2670.13
202.634	2646.74
202.709	2655.69
202.784	2636.25
202.858	2634.3
202.933	2613.06
203.008	2601.05
203.082	2584.62
203.157	2581.43
203.232	2540.54
203.306	2520.01
203.381	2490.57
203.456	2470.19
203.53	2442.55
203.605	2424.08
203.68	2403.22
203.754	2396.13
203.829	2383.85
203.904	2365.71
203.978	2358.29
204.053	2364.52
204.127	2352.29
204.202	2348.96
204.277	2334.01
204.351	2328.21
204.426	2324.49
204.5	2318.02
204.575	2289.52
204.65	2300.95
204.724	2294.52
204.799	2302.61
204.873	2302.46
204.948	2300.46
205.022	2290.71
205.097	2286.38
205.171	2299.08
205.246	2305.56
205.32	2306.75
205.395	2302.61
205.469	2294.14
205.544	2297.71
205.618	2282.67
205.693	2296.57
205.767	2286.15
205.842	2305.09
205.916	2299.14
205.991	2293.34
206.065	2299.48
206.14	2314.31
206.214	2309.22
206.289	2306.55
206.363	2323.07
206.438	2324.26
206.512	2331.97
206.586	2351.96
206.661	2360.91
206.735	2343.26
206.81	2346.36
206.884	2359.77
206.958	2354.68
207.033	2372.09
207.107	2380.57
207.181	2410.14
207.256	2406.67
207.33	2429.75
207.405	2444.52
207.479	2467.47
207.553	2478.04
207.628	2465.81
207.702	2482.37
207.776	2483.04
207.851	2493.47
207.925	2511.76
207.999	2520.29
208.073	2527.48
208.148	2544.48
208.222	2545.77
208.296	2592
208.371	2620.79
208.445	2649.71
208.519	2692.86
208.593	2728.17
208.668	2746.95
208.742	2775.66
208.816	2805.87
208.89	2850.12
208.965	2882.27
209.039	2924.86
209.113	2977.93
209.187	3039.17
209.261	3077.59
209.336	3140.98
209.41	3203.15
209.484	3250.73
209.558	3322.18
209.632	3391.61
209.707	3460.88
209.781	3545.58
209.855	3627.98
209.929	3713.3
210.003	3794.76
210.077	3874.13
210.151	4000.5
210.226	4119.24
210.3	4229.63
210.374	4344.62
210.448	4438.44
210.522	4548.52
210.596	4658.79
210.67	4770.72
210.744	4926.41
210.818	5070.13
210.892	5208.69
210.966	5328.02
211.041	5472.36
211.115	5599.57
211.189	5754.58
211.263	5900.27
211.337	6048.21
211.411	6198.41
211.485	6342
211.559	6506.25
211.633	6657.34
211.707	6784.47
211.781	6953.25
211.855	7080.04
211.929	7236.71
212.003	7395.22
212.077	7571.09
212.151	7759.67
212.225	7942.31
212.299	8110.27
212.373	8283.34
212.447	8461.87
212.52	8674.4
212.594	8864.03
212.668	9057.51
212.742	9231.82
212.816	9423.68
212.89	9606.17
212.964	9801.51
213.038	9995.22
213.112	10200.81
213.186	10416.55
213.26	10594.84
213.333	10752.44
213.407	10964.32
213.481	11168.23
213.555	11381.68
213.629	11577.01
213.703	11763.38
213.777	11966.62
213.85	12151.56
213.924	12381.04
213.998	12580.78
214.072	12775.66
214.146	12974.36
214.219	13180.47
214.293	13381.43
214.367	13580.66
214.441	13787.55
214.515	13977.57
214.588	14154.29
214.662	14310.85
214.736	14483.43
214.81	14682.84
214.883	14870.79
214.957	15043.5
215.031	15214.29
215.105	15373.36
215.178	15544.08
215.252	15713.12
215.326	15864.04
215.4	16024.74
215.473	16160.32
215.547	16318.16
215.621	16467.33
215.694	16630.96
215.768	16772.36
215.842	16922.44
215.915	17065.58
215.989	17200.77
216.063	17346.84
216.136	17509.83
216.21	17666.56
216.284	17833.74
216.357	17974.7
216.431	18120.67
216.504	18272.38
216.578	18441.63
216.652	18584.37
216.725	18727.4
216.799	18876.31
216.873	19021.32
216.946	19154.71
217.02	19272.97
217.093	19400.91
217.167	19515.32
217.24	19624.23
217.314	19745.24
217.387	19854.92
217.461	19967.83
217.535	20095.3
217.608	20193.71
217.682	20297.66
217.755	20406.38
217.829	20499.88
217.902	20617.28
217.976	20729.71
218.049	20824.85
218.123	20901.24
218.196	21011.95
218.27	21092.15
218.343	21166.61
218.417	21256.55
218.49	21354.1
218.563	21463.95
218.637	21548.25
218.71	21654.97
218.784	21751.42
218.857	21846.29
218.931	21936.86
219.004	22024.73
219.077	22113.58
219.151	22196.15
219.224	22268.17
219.298	22346.12
219.371	22435.16
219.444	22489.78
219.518	22557.95
219.591	22630.7
219.665	22729.01
219.738	22791.59
219.811	22847.56
219.885	22931.74
219.958	23003.92
220.031	23060.43
220.105	23126.83
220.178	23188.6
220.251	23235.08
220.325	23288.22
220.398	23339
220.471	23402.36
220.544	23469.44
220.618	23507.87
220.691	23568.49
220.764	23618.59
220.838	23667.25
220.911	23700.58
220.984	23764.81
221.057	23807.4
221.131	23856.4
221.204	23872.8
221.277	23937.33
221.35	24015.42
221.424	24041.56
221.497	24073.73
221.57	24111.01
221.643	24144.92
221.716	24181.97
221.79	24211.73
221.863	24243.71
221.936	24276.55
222.009	24298.89
222.082	24321.32
222.155	24344.04
222.229	24384.95
222.302	24420.06
222.375	24449.97
222.448	24471.44
222.521	24490.39
222.594	24505.73
222.667	24506.26
222.74	24528.99
222.814	24540.95
222.887	24542.88
222.96	24565.99
223.033	24593.92
223.106	24615.44
223.179	24625.04
223.252	24635.07
223.325	24644.53
223.398	24654.71
223.471	24667.44
223.544	24675.98
223.617	24678.54
223.69	24687.8
223.763	24671.83
223.837	24672.36
223.91	24687.71
223.983	24674.44
224.056	24665.03
224.129	24674.83
224.202	24691.32
224.275	24692.39
224.348	24681.29
224.42	24666.77
224.493	24653.36
224.566	24642.31
224.639	24631.26
224.712	24625.18
224.785	24613.99
224.858	24606.75
224.931	24595.94
225.004	24566.23
225.077	24562.66
225.15	24536.66
225.223	24523.82
225.296	24539.79
225.369	24520.06
225.442	24494.98
225.514	24498.98
225.587	24493.82
225.66	24489.14
225.733	24487.55
225.806	24472.79
225.879	24453.3
225.952	24437.28
226.025	24441.91
226.097	24446.54
226.17	24443.22
226.243	24408.92
226.316	24398.88
226.389	24387.36
226.461	24382.77
226.534	24390.15
226.607	24370.62
226.68	24375.87
226.753	24372.69
226.825	24333.13
226.898	24337.43
226.971	24329.9
227.044	24322.18
227.117	24305.25
227.189	24280.99
227.262	24264.01
227.335	24257.3
227.407	24235.02
227.48	24216.6
227.553	24182.01
227.626	24144.62
227.698	24123.88
227.771	24120.02
227.844	24094.17
227.916	24074.69
227.989	24038.9
228.062	24000.75
228.134	24003.01
228.207	23978.61
228.28	23950.1
228.352	23928.06
228.425	23898.01
228.498	23874.72
228.57	23834.11
228.643	23827.89
228.716	23813.42
228.788	23776.23
228.861	23746.52
228.934	23748.98
229.006	23734.18
229.079	23710.93
229.151	23688.89
229.224	23647.61
229.296	23630.73
229.369	23634.69
229.442	23633.19
229.514	23603.2
229.587	23599.1
229.659	23570.88
229.732	23563.65
229.804	23554.25
229.877	23557.48
229.949	23549.91
230.022	23532.59
230.094	23523.67
230.167	23501.3
230.239	23463.39
230.312	23444.88
230.384	23438.03
230.457	23403.26
230.529	23376.6
230.602	23363.14
230.674	23345.59
230.747	23340.77
230.819	23325.72
230.892	23273.84
230.964	23250.74
231.037	23239.65
231.109	23214.14
231.181	23185.35
231.254	23142.73
231.326	23104.92
231.399	23071.51
231.471	23030.71
231.544	23008.97
231.616	22988.52
231.688	22957.71
231.761	22933.7
231.833	22912.92
231.905	22863.84
231.978	22836.31
232.05	22805.7
232.122	22788.05
232.195	22749.24
232.267	22727.69
232.339	22681.93
232.412	22666.41
232.484	22628.37
232.556	22596.11
232.629	22585.22
232.701	22563.33
232.773	22538.12
232.846	22504.27
232.918	22474.72
232.99	22456.01
233.062	22419.95
233.135	22385.63
233.207	22338.29
233.279	22322.09
233.351	22303.82
233.424	22280.01
233.496	22241.1
233.568	22236.77
233.64	22191.11
233.713	22166.72
233.785	22140.79
233.857	22125.75
233.929	22076.14
234.001	22063.27
234.074	22045.15
234.146	21991.45
234.218	21955.92
234.29	21918.42
234.362	21883.62
234.434	21830.35
234.507	21783.21
234.579	21736.94
234.651	21702.76
234.723	21691.73
234.795	21650.37
234.867	21601.01
234.939	21570.35
235.012	21541.29
235.084	21514.39
235.156	21484.22
235.228	21440.26
235.3	21396.69
235.372	21360.25
235.444	21342.56
235.516	21286.41
235.588	21249.97
235.66	21224.14
235.732	21187.36
235.804	21210.26
235.876	21185.24
235.948	21175.6
236.02	21149.29
236.092	21113.19
236.164	21079.4
236.236	21030.49
236.308	20987.64
236.38	20955.11
236.452	20917.66
236.524	20882.77
236.596	20856.93
236.668	20827.01
236.74	20792.79
236.812	20757.9
236.884	20724.88
236.956	20695.29
237.028	20654.95
237.1	20607.48
237.172	20584.11
237.244	20556.11
237.316	20484.87
237.388	20439.23
237.46	20392.63
237.532	20362.51
237.604	20314.03
237.675	20286.8
237.747	20256.06
237.819	20214.9
237.891	20184.88
237.963	20143.87
238.035	20106.47
238.107	20040.35
238.178	20015.39
238.25	19982.42
238.322	19967.53
238.394	19917.85
238.466	19870.23
238.538	19836.4
238.609	19804.89
238.681	19752.02
238.753	19706.29
238.825	19666.82
238.897	19640.36
238.968	19619.21
239.04	19578.54
239.112	19584.32
239.184	19532.22
239.255	19499.55
239.327	19480.28
239.399	19438.01
239.471	19402.88
239.542	19367.75
239.614	19336
239.686	19274.75
239.758	19243.71
239.829	19183.09
239.901	19161.4
239.973	19132.25
240.044	19098.08
240.116	19062.33
240.188	19014.28
240.259	18976.5
240.331	18937.42
240.403	18905.8
240.474	18850.34
240.546	18793.72
240.618	18728.61
240.689	18696.13
240.761	18655.27
240.833	18623.56
240.904	18581.58
240.976	18545.59
241.048	18515.47
241.119	18486.89
241.191	18455.04
241.262	18431.62
241.334	18397.16
241.405	18352.25
241.477	18306.56
241.549	18268.73
241.62	18233.65
241.692	18217.89
241.763	18188.83
241.835	18144.16
241.906	18107.05
241.978	18059.34
242.049	18043.63
242.121	18024.98
242.192	17999.68
242.264	17956.36
242.335	17907.4
242.407	17874.92
242.478	17832.27
242.55	17786.15
242.621	17738.53
242.693	17697.09
242.764	17651.07
242.836	17611.5
242.907	17585.19
242.979	17546.58
243.05	17508.18
243.122	17475.84
243.193	17434.68
243.264	17380.85
243.336	17343.36
243.407	17318.54
243.479	17304.46
243.55	17268.08
243.622	17222.68
243.693	17186.44
243.764	17170.01
243.836	17129.91
243.907	17096.85
243.978	17063.54
244.05	17045.42
244.121	16999.59
244.192	16977.18
244.264	16932.02
244.335	16898.62
244.407	16841.27
244.478	16815.05
244.549	16779.24
244.62	16724.35
244.692	16680.49
244.763	16656.01
244.834	16617.26
244.906	16571.81
244.977	16535.95
245.048	16520.24
245.119	16487.61
245.191	16444.18
245.262	16381.91
245.333	16367.17
245.405	16334.05
245.476	16302.68
245.547	16267.64
245.618	16243.25
245.689	16213.85
245.761	16186.86
245.832	16154.86
245.903	16128.64
245.974	16101.07
246.045	16064.34
246.117	16057.83
246.188	16015.32
246.259	15960.23
246.33	15929.23
246.401	15887.01
246.473	15851.59
246.544	15799.15
246.615	15772.64
246.686	15738.32
246.757	15727.09
246.828	15674.26
246.899	15653.29
246.97	15602.63
247.042	15554.77
247.113	15526.72
247.184	15507
247.255	15462.8
247.326	15431.95
247.397	15404.96
247.468	15368.42
247.539	15343.55
247.61	15289.52
247.681	15270.09
247.752	15264.5
247.823	15226.32
247.894	15199.19
247.965	15148.04
248.037	15117.34
248.108	15059.73
248.179	15026.72
248.25	14985.55
248.321	14956.68
248.392	14914.06
248.463	14906.11
248.534	14884.8
248.605	14865.19
248.675	14826
248.746	14797.85
248.817	14770.13
248.888	14738.12
248.959	14698.31
249.03	14672.13
249.101	14645.91
249.172	14611.92
249.243	14565.6
249.314	14549.11
249.385	14522.12
249.456	14499.07
249.527	14470.83
249.598	14460.37
249.669	14428.55
249.739	14406.18
249.81	14386.9
249.881	14344.29
249.952	14323.51
250.023	14287.65
250.094	14240.16
250.165	14203.43
250.235	14177.21
250.306	14150.31
250.377	14119.6
250.448	14093.47
250.519	14041.75
250.59	14038.62
250.66	14005.59
250.731	13987.03
250.802	13956.42
250.873	13929.28
250.944	13910.1
251.014	13876.35
251.085	13874.09
251.156	13854.61
251.227	13835.14
251.297	13816.82
251.368	13811.61
251.439	13794.79
251.51	13783.6
251.58	13752.46
251.651	13717.71
251.722	13707.92
251.792	13663.23
251.863	13633.58
251.934	13622.11
252.005	13636.38
252.075	13596.37
252.146	13588.56
252.217	13573.86
252.287	13559.97
252.358	13541.46
252.429	13530.52
252.499	13505.11
252.57	13480.14
252.641	13468.77
252.711	13449.58
252.782	13418.73
252.852	13403.49
252.923	13379.58
252.994	13357.22
253.064	13345.6
253.135	13321.16
253.205	13293.15
253.276	13289.68
253.347	13284.47
253.417	13255.93
253.488	13226.19
253.558	13206.52
253.629	13179.72
253.699	13163.57
253.77	13146.75
253.841	13121.15
253.911	13103.55
253.982	13079.16
254.052	13061.42
254.123	13031.58
254.193	13004.73
254.264	13024.21
254.334	12998.66
254.405	12959.42
254.475	12928.95
254.546	12907.6
254.616	12901.96
254.687	12887.21
254.757	12878.05
254.827	12852.74
254.898	12834.32
254.968	12806.03
255.039	12772.28
255.109	12753.48
255.18	12731.94
255.25	12693.42
255.321	12682.04
255.391	12651.63
255.461	12655.87
255.532	12612.34
255.602	12592.14
255.673	12555.17
255.743	12513.86
255.813	12473.61
255.884	12470.47
255.954	12454.37
256.024	12451.29
256.095	12428.53
256.165	12394.02
256.235	12368.86
256.306	12345.33
256.376	12334.78
256.446	12324.7
256.517	12319.64
256.587	12314.58
256.657	12288.41
256.728	12267.82
256.798	12245.65
256.868	12214.22
256.938	12181.78
257.009	12166.84
257.079	12152.86
257.149	12158.89
257.219	12116.23
257.29	12101.72
257.36	12057.04
257.43	12044.07
257.5	12001.17
257.571	11979.53
257.641	11962.95
257.711	11935.18
257.781	11914.89
257.852	11898.74
257.922	11863.99
257.992	11843.46
258.062	11818.54
258.132	11808.61
258.202	11786.97
258.273	11771.73
258.343	11774.24
258.413	11748.12
258.483	11730.86
258.553	11700.93
258.623	11668.11
258.693	11657.65
258.764	11653.5
258.834	11656.78
258.904	11638.27
258.974	11614.37
259.044	11589.98
259.114	11579.33
259.184	11563.13
259.254	11546.65
259.324	11507.13
259.394	11492.24
259.464	11484.04
259.535	11462.83
259.605	11441.53
259.675	11420.52
259.745	11403.51
259.815	11367.89
259.885	11349.19
259.955	11358.93
260.025	11325.96
260.095	11315.94
260.165	11307.99
260.235	11304.13
260.305	11273.33
260.375	11243.98
260.445	11243.74
260.515	11240.03
260.585	11233.96
260.655	11220.37
260.725	11212.66
260.795	11205.19
260.865	11203.45
260.934	11185.72
261.004	11172.66
261.074	11153.19
261.144	11152.75
261.214	11141.96
261.284	11133.04
261.354	11126.35
261.424	11100.8
261.494	11108.8
261.564	11089.67
261.634	11079.55
261.703	11039.74
261.773	11029.77
261.843	11024.13
261.913	11006.78
261.983	10981.53
