Data from 20250702_urea_0.5M_MAYP1162681_20-44-59-593.txt Node
Date: Wed Jul 02 20:44:59 BST 2025
User: adleo
Spectrometer: MAYP116268
Trigger mode: 0
Integration Time (sec): 1.000000E0
Scans to average: 1
Electric dark correction enabled: true
Nonlinearity correction enabled: true
Boxcar width: 10
XAxis mode: Wavelengths
Number of Pixels in Spectrum: 2068
>>>>>Begin Spectral Data<<<<<
179.565	1218.03
179.642	1274.35
179.718	1317.55
179.795	1360.35
179.871	1393.85
179.948	1408.64
180.024	1427.49
180.101	1452.4
180.177	1465.7
180.254	1486.41
180.33	1509.57
180.407	1563.5
180.483	1659.42
180.56	1750.31
180.636	1835.2
180.712	1822.31
180.789	1832.44
180.865	1844.17
180.942	1851.68
181.018	1861.28
181.095	1874.93
181.171	1879.26
181.248	1880.21
181.324	1895.81
181.4	1901.13
181.477	1910.55
181.553	1926.32
181.63	1950.29
181.706	1963.89
181.782	1973.4
181.859	1977.06
181.935	1980.15
182.011	1976.25
182.088	1990.85
182.164	2009.02
182.24	2021.52
182.317	2030.32
182.393	2028.6
182.469	2041.11
182.546	2054.62
182.622	2062.27
182.698	2061.13
182.775	2071.79
182.851	2085.72
182.927	2079.49
183.003	2075.12
183.08	2068.79
183.156	2076.59
183.232	2071.26
183.308	2059.52
183.385	2068.88
183.461	2082.87
183.537	2086.58
183.613	2098.37
183.69	2093.43
183.766	2083.1
183.842	2091
183.918	2094.47
183.995	2108.69
184.071	2110.59
184.147	2105.93
184.223	2094.38
184.299	2101.85
184.375	2091.76
184.452	2097.81
184.528	2153.34
184.604	2162.1
184.68	2175.51
184.756	2181.41
184.832	2185.64
184.908	2190.54
184.985	2189.11
185.061	2172.94
185.137	2181.41
185.213	2169.71
185.289	2170.52
185.365	2164.29
185.441	2161.96
185.517	2175.71
185.593	2171.86
185.669	2168.24
185.745	2177.61
185.822	2192.92
185.898	2185.55
185.974	2194.63
186.05	2188.26
186.126	2147.04
186.202	2141.24
186.278	2138.48
186.354	2130.63
186.43	2137.62
186.506	2136.67
186.582	2135.72
186.658	2144.76
186.734	2122.59
186.81	2128.54
186.886	2131.72
186.962	2145
187.038	2143.52
187.114	2137.86
187.19	2147.9
187.266	2140.19
187.341	2141.95
187.417	2137.05
187.493	2137.39
187.569	2141.81
187.645	2134.58
187.721	2119.88
187.797	2129.63
187.873	2131.06
187.949	2127.16
188.025	2118.4
188.101	2122.54
188.176	2127.53
188.252	2121.92
188.328	2132.29
188.404	2131.67
188.48	2124.87
188.556	2115.83
188.632	2112.93
188.707	2113.16
188.783	2106.12
188.859	2102.89
188.935	2090.9
189.011	2096.99
189.086	2092.42
189.162	2083.48
189.238	2081.62
189.314	2081.72
189.39	2074.68
189.465	2066.02
189.541	2084.1
189.617	2071.02
189.693	2065.32
189.768	2068.93
189.844	2095.44
189.92	2087.5
189.996	2097.39
190.071	2107.24
190.147	2105.29
190.223	2116.76
190.298	2110.28
190.374	2099.87
190.45	2111.09
190.526	2119.56
190.601	2112.76
190.677	2112.66
190.753	2137.08
190.828	2140.02
190.904	2156.49
190.98	2170.95
191.055	2185.08
191.131	2172.33
191.207	2192.59
191.282	2201.1
191.358	2192.35
191.433	2173.55
191.509	2186.58
191.585	2181.92
191.66	2184.58
191.736	2192.53
191.811	2183.82
191.887	2199.1
191.963	2222.93
192.038	2227.93
192.114	2227.93
192.189	2233.68
192.265	2232.02
192.34	2213.36
192.416	2211.98
192.491	2208.08
192.567	2209.17
192.642	2209.36
192.718	2212.12
192.793	2200.89
192.869	2196.57
192.944	2198.85
193.02	2208.65
193.095	2211.79
193.171	2217.83
193.246	2217.26
193.322	2215.5
193.397	2217.07
193.473	2205.22
193.548	2188.8
193.624	2195.89
193.699	2195.89
193.775	2211.84
193.85	2211.55
193.925	2220.55
194.001	2222.16
194.076	2212.7
194.152	2206.46
194.227	2202.13
194.302	2192.24
194.378	2194.24
194.453	2194.19
194.529	2204.75
194.604	2190.91
194.679	2184.1
194.755	2166.12
194.83	2178.83
194.905	2176.45
194.981	2183.21
195.056	2174.6
195.131	2179.03
195.207	2176.88
195.282	2165.99
195.357	2146.62
195.433	2162.99
195.508	2150.61
195.583	2157.23
195.659	2170.98
195.734	2173.17
195.809	2171.74
195.884	2181.3
195.96	2185.39
196.035	2200.14
196.11	2195.76
196.185	2207.09
196.261	2212.6
196.336	2243.01
196.411	2228.73
196.486	2234.06
196.561	2227.63
196.637	2236.67
196.712	2253.67
196.787	2254.52
196.862	2270.32
196.937	2279.5
197.013	2282.02
197.088	2293.2
197.163	2313.1
197.238	2332.44
197.313	2335.82
197.388	2349.77
197.464	2378.91
197.539	2387.95
197.614	2380.71
197.689	2395.61
197.764	2412.71
197.839	2433.23
197.914	2427.65
197.989	2448.79
198.065	2464.17
198.14	2514.48
198.215	2541.33
198.29	2549.81
198.365	2562.14
198.44	2572.28
198.515	2604.29
198.59	2620.15
198.665	2647.06
198.74	2655.78
198.815	2655.07
198.89	2676.31
198.965	2705.52
199.04	2701.66
199.115	2720.52
199.19	2765.69
199.265	2767.88
199.34	2776.31
199.415	2811.78
199.49	2833.55
199.565	2841.75
199.64	2867.2
199.715	2864.86
199.79	2870.77
199.865	2881.97
199.94	2880.97
200.015	2914.62
200.09	2917.77
200.165	2928.78
200.24	2932.64
200.315	2974.1
200.39	2989.31
200.464	2995.36
200.539	2997.55
200.614	3013.19
200.689	3035.6
200.764	3040.7
200.839	3060.62
200.914	3064.91
200.989	3050.6
201.063	3064.48
201.138	3051.8
201.213	3050.23
201.288	3029.59
201.363	3034.74
201.438	3031.35
201.512	3049.08
201.587	3027.96
201.662	3028.96
201.737	3037.49
201.812	3048.13
201.886	3015.68
201.961	3023.88
202.036	3013.68
202.111	3008.53
202.186	2980.75
202.26	2964.78
202.335	2942.89
202.41	2934.98
202.485	2918.87
202.559	2902.24
202.634	2872.73
202.709	2882.07
202.784	2862.63
202.858	2863.53
202.933	2846.28
203.008	2840.89
203.082	2821.78
203.157	2824.45
203.232	2784.06
203.306	2767.57
203.381	2733.92
203.456	2709.76
203.53	2689.97
203.605	2668.64
203.68	2645.43
203.754	2637.91
203.829	2619.76
203.904	2599.66
203.978	2587.13
204.053	2593.61
204.127	2580.17
204.202	2579.46
204.277	2559.22
204.351	2552.79
204.426	2545.65
204.5	2535.6
204.575	2504.08
204.65	2514.22
204.724	2504.31
204.799	2511.31
204.873	2505.64
204.948	2504.07
205.022	2494.12
205.097	2485.11
205.171	2500.97
205.246	2509.06
205.32	2509.54
205.395	2507.92
205.469	2499.69
205.544	2503.83
205.618	2484.55
205.693	2496.55
205.767	2486.31
205.842	2512.41
205.916	2509.08
205.991	2500.89
206.065	2505.22
206.14	2519.55
206.214	2514.54
206.289	2510.45
206.363	2523.3
206.438	2524.78
206.512	2536.97
206.586	2555.59
206.661	2561.12
206.735	2536.89
206.81	2540.42
206.884	2555.18
206.958	2548.37
207.033	2563.27
207.107	2578.33
207.181	2612.63
207.256	2607.91
207.33	2627.58
207.405	2638.45
207.479	2659.36
207.553	2668.17
207.628	2657.55
207.702	2672.51
207.776	2669.08
207.851	2675.13
207.925	2698.1
207.999	2703.96
208.073	2704.72
208.148	2714.92
208.222	2714.49
208.296	2755.26
208.371	2783.25
208.445	2807.41
208.519	2846.35
208.593	2872.32
208.668	2880.47
208.742	2897.22
208.816	2913.51
208.89	2946.28
208.965	2961.5
209.039	2990.4
209.113	3030.93
209.187	3075.1
209.261	3094.08
209.336	3141.25
209.41	3187.85
209.484	3217.92
209.558	3268.74
209.632	3315.97
209.707	3362.98
209.781	3426.27
209.855	3484.8
209.929	3543.87
210.003	3592.58
210.077	3639.24
210.151	3739.91
210.226	3820.68
210.3	3901.82
210.374	3981.59
210.448	4043.83
210.522	4122.2
210.596	4194.02
210.67	4271.44
210.744	4388.55
210.818	4495.23
210.892	4594.53
210.966	4667.48
211.041	4762.93
211.115	4842.48
211.189	4952.79
211.263	5057.52
211.337	5150.05
211.411	5255.85
211.485	5340.74
211.559	5447.82
211.633	5548.2
211.707	5611.94
211.781	5723
211.855	5798.55
211.929	5899.38
212.003	5992.26
212.077	6110.57
212.151	6240.45
212.225	6362.46
212.299	6466.44
212.373	6571.06
212.447	6686.29
212.52	6837.48
212.594	6960.9
212.668	7094.98
212.742	7206.85
212.816	7324.21
212.89	7446.96
212.964	7572.55
213.038	7710.85
213.112	7859.45
213.186	8005.15
213.26	8118.24
213.333	8207.09
213.407	8336.03
213.481	8475.82
213.555	8624.62
213.629	8748.17
213.703	8865.29
213.777	8999.4
213.85	9114.32
213.924	9285.48
213.998	9416.7
214.072	9546.69
214.146	9672.91
214.219	9810.46
214.293	9940.4
214.367	10075.46
214.441	10219.78
214.515	10339.2
214.588	10447.36
214.662	10543.96
214.736	10654.87
214.81	10793.81
214.883	10937.38
214.957	11063.82
215.031	11179.75
215.105	11282.34
215.178	11398.2
215.252	11517.29
215.326	11622.93
215.4	11736
215.473	11814.52
215.547	11916.89
215.621	12024.62
215.694	12148.74
215.768	12253.39
215.842	12362.66
215.915	12468.76
215.989	12557.46
216.063	12667.46
216.136	12780.79
216.21	12893.92
216.284	13025.86
216.357	13137.5
216.431	13240.52
216.504	13361.51
216.578	13497.07
216.652	13617.29
216.725	13717.56
216.799	13833.3
216.873	13937.57
216.946	14048.15
217.02	14143.07
217.093	14255.29
217.167	14334.45
217.24	14414.27
217.314	14504.13
217.387	14601.21
217.461	14697.09
217.535	14812.06
217.608	14901.86
217.682	15000.82
217.755	15110.24
217.829	15179.61
217.902	15275.62
217.976	15372.85
218.049	15448.48
218.123	15524.05
218.196	15620.5
218.27	15703.55
218.343	15776.82
218.417	15866.37
218.49	15946.19
218.563	16052.42
218.637	16135.13
218.71	16249.7
218.784	16344.84
218.857	16427.88
218.931	16510.78
219.004	16591.99
219.077	16671.37
219.151	16752.78
219.224	16828.25
219.298	16903.77
219.371	17000.26
219.444	17064.98
219.518	17131.78
219.591	17214.43
219.665	17310.67
219.738	17382.68
219.811	17451.06
219.885	17528.6
219.958	17605.95
220.031	17680.07
220.105	17761.23
220.178	17835.2
220.251	17889.95
220.325	17958.23
220.398	18037.22
220.471	18100.74
220.544	18169.79
220.618	18223.67
220.691	18285.84
220.764	18342.99
220.838	18407.42
220.911	18450.84
220.984	18525.68
221.057	18603.99
221.131	18660.33
221.204	18683.55
221.277	18745.57
221.35	18833.86
221.424	18878.05
221.497	18927.01
221.57	18975.15
221.643	19027.44
221.716	19083.19
221.79	19130.37
221.863	19180.49
221.936	19225.88
222.009	19274.75
222.082	19330.69
222.155	19383.75
222.229	19440.95
222.302	19497.91
222.375	19534.63
222.448	19596.03
222.521	19635.74
222.594	19662.92
222.667	19688.36
222.74	19743.25
222.814	19786.38
222.887	19815.25
222.96	19874.67
223.033	19930.86
223.106	19970.52
223.179	20006.81
223.252	20039.19
223.325	20077.21
223.398	20110.13
223.471	20142.47
223.544	20183.81
223.617	20211.96
223.69	20247.09
223.763	20274.9
223.837	20310.8
223.91	20347.62
223.983	20353.26
224.056	20377.4
224.129	20412.53
224.202	20464.92
224.275	20478.32
224.348	20491.86
224.42	20510.89
224.493	20517.11
224.566	20528.29
224.639	20562.22
224.712	20572.05
224.785	20588.29
224.858	20595.81
224.931	20615.09
225.004	20629.16
225.077	20636.15
225.15	20625.11
225.223	20639.81
225.296	20677.31
225.369	20673.12
225.442	20680.34
225.514	20705.41
225.587	20724.49
225.66	20743.24
225.733	20757.12
225.806	20783.87
225.879	20796.73
225.952	20796.11
226.025	20825.7
226.097	20861.08
226.17	20877.56
226.243	20880.84
226.316	20892.45
226.389	20916.45
226.461	20935.15
226.534	20951.35
226.607	20967.73
226.68	21013.52
226.753	21018.29
226.825	21011.54
226.898	21050.39
226.971	21059.16
227.044	21073.04
227.117	21094.49
227.189	21112.51
227.262	21121.81
227.335	21140.37
227.407	21153
227.48	21171.99
227.553	21185.87
227.626	21182.49
227.698	21181.87
227.771	21185.92
227.844	21185.72
227.916	21190.69
227.989	21183.07
228.062	21186.88
228.134	21213.68
228.207	21212.62
228.28	21224.09
228.352	21223.61
228.425	21221.82
228.498	21240.67
228.57	21240.62
228.643	21248.28
228.716	21241.34
228.788	21242.98
228.861	21238.16
228.934	21254.74
229.006	21258.98
229.079	21261.78
229.151	21249.1
229.224	21238.06
229.296	21255.03
229.369	21298.22
229.442	21320.29
229.514	21324.82
229.587	21341.6
229.659	21329.69
229.732	21334.9
229.804	21336.25
229.877	21366.9
229.949	21377.79
230.022	21399.05
230.094	21400.21
230.167	21403.77
230.239	21396.59
230.312	21394.86
230.384	21417.41
230.457	21417.32
230.529	21416.5
230.602	21408.26
230.674	21419.39
230.747	21440.74
230.819	21442.86
230.892	21397.27
230.964	21401.6
231.037	21400.54
231.109	21389.8
231.181	21392.78
231.254	21376.01
231.326	21368.01
231.399	21345.84
231.471	21323.86
231.544	21289.97
231.616	21295.71
231.688	21283.95
231.761	21276.82
231.833	21276.29
231.905	21236.04
231.978	21230.02
232.05	21225.97
232.122	21219.32
232.195	21200.71
232.267	21197.29
232.339	21185.38
232.412	21193.05
232.484	21165.09
232.556	21139.16
232.629	21146.39
232.701	21147.94
232.773	21140.71
232.846	21129.81
232.918	21128.95
232.99	21122.92
233.062	21127.36
233.135	21120.13
233.207	21096.17
233.279	21104.9
233.351	21094.68
233.424	21079.59
233.496	21061.91
233.568	21059.25
233.64	21037.76
233.713	21024.7
233.785	21007.97
233.857	20994.19
233.929	20966.38
234.001	20969.9
234.074	20977.13
234.146	20942.28
234.218	20923.73
234.29	20908.02
234.362	20888.74
234.434	20850.95
234.507	20822.42
234.579	20774.42
234.651	20743.33
234.723	20738.56
234.795	20716.1
234.867	20695.33
234.939	20700.15
235.012	20675.81
235.084	20668.05
235.156	20646.9
235.228	20625.74
235.3	20597.98
235.372	20578.56
235.444	20567.91
235.516	20517.79
235.588	20498.46
235.66	20485.98
235.732	20445.3
235.804	20474.99
235.876	20463.52
235.948	20461.88
236.02	20436.2
236.092	20419.19
236.164	20404.54
236.236	20368.05
236.308	20320.83
236.38	20298.37
236.452	20261.31
236.524	20236.1
236.596	20218.75
236.668	20208.59
236.74	20180.25
236.812	20157.89
236.884	20140.2
236.956	20119.38
237.028	20090.66
237.1	20054.76
237.172	20040.21
237.244	20037.46
237.316	19976.93
237.388	19942.37
237.46	19897.36
237.532	19886.71
237.604	19856.02
237.675	19839.15
237.747	19831.01
237.819	19812.84
237.891	19793.03
237.963	19752.5
238.035	19722.29
238.107	19658.44
238.178	19644.46
238.25	19623.93
238.322	19623.79
238.394	19571.69
238.466	19534.25
238.538	19523.41
238.609	19500.71
238.681	19447.84
238.753	19407.51
238.825	19378.45
238.897	19356.24
238.968	19349.78
239.04	19314.26
239.112	19311.03
239.184	19274.65
239.255	19232.15
239.327	19202.75
239.399	19164.2
239.471	19156.97
239.542	19132.44
239.614	19112.25
239.686	19045.07
239.758	19016.01
239.829	18966.28
239.901	18947.39
239.973	18918
240.044	18876.07
240.116	18846.1
240.188	18826.87
240.259	18793.81
240.331	18755.12
240.403	18721.48
240.474	18681
240.546	18635.03
240.618	18582.55
240.689	18546.79
240.761	18517.39
240.833	18508.48
240.904	18466.89
240.976	18420.72
241.048	18392
241.119	18369.11
241.191	18351.57
241.262	18338.71
241.334	18304.15
241.405	18271.91
241.477	18236.35
241.549	18210.13
241.62	18177.75
241.692	18144.74
241.763	18120.84
241.835	18086.81
241.906	18062.28
241.978	18004.98
242.049	17987.44
242.121	17963.54
242.192	17936.36
242.264	17886.34
242.335	17832.17
242.407	17804.65
242.478	17773.23
242.55	17741.81
242.621	17699.69
242.693	17654.68
242.764	17609.48
242.836	17567.65
242.907	17540.51
242.979	17509.57
243.05	17469.62
243.122	17435.31
243.193	17394.49
243.264	17343.94
243.336	17310.06
243.407	17274.34
243.479	17259.5
243.55	17228.85
243.622	17205.28
243.693	17181.38
243.764	17174.3
243.836	17127.4
243.907	17099.5
243.978	17068.94
244.05	17039.74
244.121	16992.51
244.192	16979.4
244.264	16931.88
244.335	16908.26
244.407	16855.87
244.478	16820.98
244.549	16793.94
244.62	16754.18
244.692	16716.4
244.763	16692.39
244.834	16662.85
244.906	16631.91
244.977	16607.04
245.048	16593.4
245.119	16553.16
245.191	16498.02
245.262	16435.22
245.333	16419.65
245.405	16385.05
245.476	16353.81
245.547	16316.75
245.618	16295.54
245.689	16256.26
245.761	16233.85
245.832	16197.65
245.903	16177.8
245.974	16153.84
246.045	16115.28
246.117	16102.22
246.188	16066.51
246.259	16026.69
246.33	15984.42
246.401	15944.08
246.473	15895.21
246.544	15851.68
246.615	15823.58
246.686	15788.54
246.757	15783.92
246.828	15744.01
246.899	15726.61
246.97	15676.48
247.042	15642.21
247.113	15610.97
247.184	15597.77
247.255	15549.85
247.326	15513.75
247.397	15474.32
247.468	15442.22
247.539	15415.42
247.61	15367.75
247.681	15344.56
247.752	15326.78
247.823	15291.3
247.894	15263.97
247.965	15224.59
248.037	15184
248.108	15140.43
248.179	15113.82
248.25	15079.93
248.321	15059.69
248.392	15009.99
248.463	15009.32
248.534	14974.8
248.605	14961.79
248.675	14925.15
248.746	14907.03
248.817	14889.72
248.888	14877.96
248.959	14837.09
249.03	14818.72
249.101	14791.63
249.172	14758.13
249.243	14703.37
249.314	14694.5
249.385	14666.15
249.456	14648.08
249.527	14623.54
249.598	14594.13
249.669	14564.68
249.739	14533.35
249.81	14506.69
249.881	14472.56
249.952	14441.08
250.023	14412.98
250.094	14360.24
250.165	14329.25
250.235	14304.86
250.306	14275.06
250.377	14227.82
250.448	14202.56
250.519	14152.24
250.59	14142.26
250.66	14110.78
250.731	14103.69
250.802	14073.52
250.873	14050.18
250.944	14024.83
251.014	13991.76
251.085	13998.51
251.156	13980.62
251.227	13971.17
251.297	13962.5
251.368	13952.57
251.439	13934.35
251.51	13920.32
251.58	13895.54
251.651	13864.2
251.722	13849.79
251.792	13811.76
251.863	13791.41
251.934	13783.65
252.005	13783.99
252.075	13756.61
252.146	13743.25
252.217	13722.96
252.287	13709.03
252.358	13679.48
252.429	13675.09
252.499	13647.71
252.57	13618.11
252.641	13600.18
252.711	13571.11
252.782	13530.81
252.852	13524.16
252.923	13496.63
252.994	13474.84
253.064	13459.61
253.135	13425.77
253.205	13398.82
253.276	13384.55
253.347	13378.14
253.417	13341.26
253.488	13316
253.558	13294.79
253.629	13272.08
253.699	13256.13
253.77	13230.96
253.841	13212.07
253.911	13190.76
253.982	13171.19
254.052	13158.75
254.123	13137.54
254.193	13120.33
254.264	13135.13
254.334	13099.89
254.405	13065.37
254.475	13033.27
254.546	13008.93
254.616	13004.2
254.687	12976.15
254.757	12969.59
254.827	12941.87
254.898	12928.37
254.968	12902.82
255.039	12871.25
255.109	12864.84
255.18	12827.48
255.25	12787.61
255.321	12767.37
255.391	12728.22
255.461	12725.04
255.532	12681.13
255.602	12655.96
255.673	12609.01
255.743	12569.44
255.813	12528.56
255.884	12526.44
255.954	12515.74
256.024	12515.59
256.095	12494.53
256.165	12461.7
256.235	12441.02
256.306	12410.89
256.376	12402.94
256.446	12395.56
256.517	12379.8
256.587	12367.32
256.657	12360.18
256.728	12345.19
256.798	12329.62
256.868	12307.83
256.938	12274.19
257.009	12266.67
257.079	12255.53
257.149	12261.12
257.219	12226.47
257.29	12212.49
257.36	12168.43
257.43	12155.71
257.5	12120.18
257.571	12096.32
257.641	12090.1
257.711	12057.61
257.781	12051.06
257.852	12032.6
257.922	11996.44
257.992	11975.24
258.062	11944.1
258.132	11931.81
258.202	11912.24
258.273	11899.95
258.343	11899.56
258.413	11874.4
258.483	11846.54
258.553	11812.22
258.623	11785.13
258.693	11766.53
258.764	11764.46
258.834	11758.09
258.904	11739.25
258.974	11701.22
259.044	11681.03
259.114	11670.04
259.184	11654.47
259.254	11633.84
259.324	11595.86
259.394	11578.8
259.464	11575.13
259.535	11554.02
259.605	11531.56
259.675	11506.84
259.745	11485.15
259.815	11458.69
259.885	11438.64
259.955	11451.37
260.025	11431.12
260.095	11413.92
260.165	11405.97
260.235	11405.53
260.305	11378.54
260.375	11351.51
260.445	11364.9
260.515	11365
260.585	11352.37
260.655	11335.55
260.725	11324.9
260.795	11317.48
260.865	11325
260.934	11299.02
261.004	11297.62
261.074	11279.84
261.144	11279.5
261.214	11271.31
261.284	11252.27
261.354	11246.92
261.424	11215.88
261.494	11219.11
261.564	11204.41
261.634	11189.04
261.703	11149.23
261.773	11143.84
261.843	11137.14
261.913	11113.38
261.983	11071.02
262.053	11064.76
262.123	11045.14
