Data from 20250702_urea_0.5M_MAYP1162681_07-14-59-534.txt Node
Date: Thu Jul 03 07:14:59 BST 2025
User: adleo
Spectrometer: MAYP116268
Trigger mode: 0
Integration Time (sec): 1.000000E0
Scans to average: 1
Electric dark correction enabled: true
Nonlinearity correction enabled: true
Boxcar width: 10
XAxis mode: Wavelengths
Number of Pixels in Spectrum: 2068
>>>>>Begin Spectral Data<<<<<
179.565	1188.6
179.642	1243.57
179.718	1284.63
179.795	1321.18
179.871	1353.72
179.948	1370.54
180.024	1388.83
180.101	1408.92
180.177	1422.17
180.254	1446.42
180.33	1468.79
180.407	1522.72
180.483	1616.08
180.56	1703.45
180.636	1788.29
180.712	1776.4
180.789	1785.05
180.865	1796.88
180.942	1804.3
181.018	1815.23
181.095	1828.54
181.171	1834.2
181.248	1836.15
181.324	1852.17
181.4	1863.82
181.477	1874.75
181.553	1885.97
181.63	1908.12
181.706	1926
181.782	1934.5
181.859	1934.83
181.935	1938.54
182.011	1933.84
182.088	1953.09
182.164	1972.69
182.24	1984.86
182.317	1997.46
182.393	1996.7
182.469	2010.15
182.546	2024.37
182.622	2026.56
182.698	2022.56
182.775	2032.46
182.851	2045.11
182.927	2037.26
183.003	2030.36
183.08	2025.51
183.156	2036.55
183.232	2033.55
183.308	2023.09
183.385	2031.26
183.461	2044.72
183.537	2049.72
183.613	2063.08
183.69	2053.14
183.766	2041.15
183.842	2048.52
183.918	2051.05
183.995	2063.79
184.071	2065.41
184.147	2059.6
184.223	2047.48
184.299	2059.95
184.375	2052.29
184.452	2059.24
184.528	2116.91
184.604	2127.37
184.68	2137.12
184.756	2143.49
184.832	2146.3
184.908	2152.67
184.985	2151.67
185.061	2137.98
185.137	2143.49
185.213	2132.7
185.289	2133.55
185.365	2126.28
185.441	2124.09
185.517	2138.84
185.593	2135.7
185.669	2136.99
185.745	2147.12
185.822	2165.38
185.898	2157.62
185.974	2162.95
186.05	2154.57
186.126	2110.98
186.202	2103.32
186.278	2100.57
186.354	2094.43
186.43	2101.61
186.506	2098.43
186.582	2097.05
186.658	2103.04
186.734	2083.07
186.81	2082.64
186.886	2085.54
186.962	2102
187.038	2097.76
187.114	2089.2
187.19	2096.81
187.266	2082.97
187.341	2082.97
187.417	2077.45
187.493	2079.45
187.569	2083.82
187.645	2079.26
187.721	2069.98
187.797	2077.92
187.873	2080.78
187.949	2072.79
188.025	2065.7
188.101	2069.03
188.176	2076.97
188.252	2070.22
188.328	2080.58
188.404	2082.34
188.48	2075.45
188.556	2065.55
188.632	2065.74
188.707	2064.41
188.783	2061.08
188.859	2055.99
188.935	2043.01
189.011	2048.76
189.086	2039.16
189.162	2029.93
189.238	2026.36
189.314	2022.51
189.39	2015.43
189.465	2007.72
189.541	2023.23
189.617	2009.01
189.693	2000.88
189.768	2006.4
189.844	2028.71
189.92	2018.39
189.996	2027.81
190.071	2038.7
190.147	2038.41
190.223	2048.07
190.298	2044.03
190.374	2031.14
190.45	2045.07
190.526	2053.25
190.601	2048.92
190.677	2051.25
190.753	2079.47
190.828	2084.46
190.904	2100.16
190.98	2119.14
191.055	2131.18
191.131	2124.9
191.207	2147.16
191.282	2157.71
191.358	2144.59
191.433	2134.74
191.509	2149.95
191.585	2147.05
191.66	2149.48
191.736	2157.89
191.811	2146.29
191.887	2160.52
191.963	2184.11
192.038	2187.58
192.114	2191.29
192.189	2193.58
192.265	2190.44
192.34	2167.45
192.416	2162.46
192.491	2158.37
192.567	2156.79
192.642	2158.94
192.718	2158.41
192.793	2145.23
192.869	2141.24
192.944	2146.71
193.02	2154.46
193.095	2155.08
193.171	2157.18
193.246	2156.27
193.322	2152.94
193.397	2155.32
193.473	2140.57
193.548	2122.44
193.624	2129.67
193.699	2128.58
193.775	2146.19
193.85	2148.71
193.925	2158.89
194.001	2160.89
194.076	2152.75
194.152	2142.43
194.227	2134.1
194.302	2123.78
194.378	2127.21
194.453	2124.59
194.529	2133.63
194.604	2118.17
194.679	2113.22
194.755	2097.81
194.83	2111.24
194.905	2109.86
194.981	2120.32
195.056	2113.09
195.131	2118.8
195.207	2119.37
195.282	2110.24
195.357	2089.54
195.433	2106.57
195.508	2093.2
195.583	2100.24
195.659	2114.66
195.734	2123.46
195.809	2122.08
195.884	2131.55
195.96	2135.92
196.035	2152.48
196.11	2150
196.185	2163.13
196.261	2169.79
196.336	2200.19
196.411	2186.34
196.486	2193.62
196.561	2186.43
196.637	2198.23
196.712	2217.74
196.787	2217.41
196.862	2228.64
196.937	2240.29
197.013	2241.05
197.088	2254.14
197.163	2276.46
197.238	2293.79
197.313	2294.03
197.388	2310.69
197.464	2340.44
197.539	2350.1
197.614	2341.97
197.689	2352.63
197.764	2365.05
197.839	2380.57
197.914	2372.28
197.989	2393.42
198.065	2405.08
198.14	2455.29
198.215	2481.38
198.29	2490.34
198.365	2504.29
198.44	2516.14
198.515	2545.1
198.59	2560.38
198.665	2584.43
198.74	2591.91
198.815	2593.77
198.89	2615.01
198.965	2644.07
199.04	2643.88
199.115	2657.12
199.19	2700.75
199.265	2702.18
199.34	2712.75
199.415	2748.93
199.49	2773.12
199.565	2783.75
199.64	2808
199.715	2803.61
199.79	2808.09
199.865	2815.14
199.94	2813.95
200.015	2848.56
200.09	2849.56
200.165	2856.75
200.24	2862.52
200.315	2904.64
200.39	2920.56
200.464	2926.95
200.539	2927.33
200.614	2939.48
200.689	2964.08
200.764	2972.19
200.839	2991.25
200.914	2999.2
200.989	2989.67
201.063	3003.68
201.138	2984.68
201.213	2986.3
201.288	2966.47
201.363	2973.43
201.438	2974.62
201.512	2987.1
201.587	2966.89
201.662	2973.51
201.737	2990.39
201.812	3000.64
201.886	2967.77
201.961	2975.54
202.036	2963.96
202.111	2963.48
202.186	2935.81
202.26	2916.97
202.335	2893.47
202.41	2890.32
202.485	2873.74
202.559	2851.53
202.634	2822.84
202.709	2833.99
202.784	2811.88
202.858	2811.07
202.933	2791.15
203.008	2782.52
203.082	2766.66
203.157	2767.71
203.232	2724.65
203.306	2697.2
203.381	2662.89
203.456	2637.83
203.53	2614.32
203.605	2593
203.68	2569.17
203.754	2559.65
203.829	2543.12
203.904	2523.93
203.978	2512.21
204.053	2514.02
204.127	2503.5
204.202	2502.74
204.277	2485.45
204.351	2481.17
204.426	2475.98
204.5	2465.26
204.575	2432.37
204.65	2440.8
204.724	2431.7
204.799	2439.08
204.873	2439.46
204.948	2441.17
205.022	2430.37
205.097	2424.03
205.171	2438.5
205.246	2445.31
205.32	2447.17
205.395	2450.36
205.469	2440.56
205.544	2446.18
205.618	2429.37
205.693	2441.51
205.767	2430.04
205.842	2450.52
205.916	2443.38
205.991	2433.9
206.065	2442.47
206.14	2455.13
206.214	2450.6
206.289	2443.6
206.363	2454.93
206.438	2458.12
206.512	2464.55
206.586	2484.12
206.661	2491.03
206.735	2470.8
206.81	2471.13
206.884	2487.37
206.958	2474.42
207.033	2495.41
207.107	2500.08
207.181	2531.13
207.256	2526.84
207.33	2549.51
207.405	2562.24
207.479	2583.57
207.553	2591.76
207.628	2575.53
207.702	2589.81
207.776	2585.29
207.851	2593
207.925	2614.06
207.999	2612.21
208.073	2612.21
208.148	2617.21
208.222	2609.87
208.296	2645.2
208.371	2667.65
208.445	2680.8
208.519	2716.43
208.593	2728.82
208.668	2733.2
208.742	2743.83
208.816	2752.64
208.89	2773.1
208.965	2779.92
209.039	2797.32
209.113	2829.54
209.187	2866.87
209.261	2875.97
209.336	2911.24
209.41	2943.81
209.484	2959.93
209.558	2999.46
209.632	3032.16
209.707	3061.49
209.781	3105.26
209.855	3143.76
209.929	3180.04
210.003	3212.86
210.077	3236.53
210.151	3312.3
210.226	3370.83
210.3	3426.13
210.374	3479.62
210.448	3517.34
210.522	3557.87
210.596	3599.08
210.67	3640.38
210.744	3723.41
210.818	3796.55
210.892	3855.08
210.966	3891.86
211.041	3946.28
211.115	3985.65
211.189	4053.41
211.263	4118.32
211.337	4169.8
211.411	4232.59
211.485	4278.65
211.559	4340.42
211.633	4392.38
211.707	4413.05
211.781	4479.16
211.855	4501.94
211.929	4548.67
212.003	4584.49
212.077	4654.66
212.151	4730.59
212.225	4800.43
212.299	4847.91
212.373	4897.84
212.447	4955.13
212.52	5048.62
212.594	5119.77
212.668	5191.23
212.742	5244.75
212.816	5302.54
212.89	5366.22
212.964	5432.29
213.038	5511.27
213.112	5591.39
213.186	5680.55
213.26	5732.16
213.333	5759.64
213.407	5837.6
213.481	5917.53
213.555	6006.71
213.629	6074.51
213.703	6135.13
213.777	6209.33
213.85	6265.83
213.924	6376.92
213.998	6455.61
214.072	6523.62
214.146	6586.96
214.219	6663.89
214.293	6738.89
214.367	6824.05
214.441	6909.36
214.515	6979.94
214.588	7032.7
214.662	7077.96
214.736	7134.56
214.81	7222.27
214.883	7308.11
214.957	7377.31
215.031	7441.32
215.105	7493.74
215.178	7547.97
215.252	7617.15
215.326	7662.1
215.4	7718.06
215.473	7745.48
215.547	7801.03
215.621	7868.33
215.694	7947.6
215.768	8005.37
215.842	8067.95
215.915	8124.14
215.989	8168.07
216.063	8226.19
216.136	8289.61
216.21	8358.98
216.284	8436.16
216.357	8503.87
216.431	8569.22
216.504	8643.14
216.578	8734.21
216.652	8817.46
216.725	8890.52
216.799	8962.74
216.873	9043.56
216.946	9119.9
217.02	9183.25
217.093	9251.38
217.167	9290.96
217.24	9340.03
217.314	9400.07
217.387	9459.29
217.461	9519.54
217.535	9599.29
217.608	9659.82
217.682	9733.85
217.755	9818.24
217.829	9877.72
217.902	9953.3
217.976	10019.43
218.049	10081.09
218.123	10135.29
218.196	10201.48
218.27	10267
218.343	10322.41
218.417	10390.87
218.49	10451.53
218.563	10532.76
218.637	10603.59
218.71	10689.74
218.784	10769.78
218.857	10848.8
218.931	10918.57
219.004	10986.66
219.077	11061.6
219.151	11119.28
219.224	11179.37
219.298	11234.41
219.371	11308.24
219.444	11354.85
219.518	11425.07
219.591	11494.85
219.665	11584.36
219.738	11657.67
219.811	11707.55
219.885	11785.78
219.958	11855.71
220.031	11924.35
220.105	11993.32
220.178	12051.41
220.251	12110.07
220.325	12170.13
220.398	12230.24
220.471	12299.17
220.544	12368.39
220.618	12422.28
220.691	12494.82
220.764	12558.74
220.838	12625.74
220.911	12680.84
220.984	12768.09
221.057	12836.4
221.131	12895.84
221.204	12929.73
221.277	12998.81
221.35	13089.58
221.424	13138.17
221.497	13200.64
221.57	13259.5
221.643	13323.62
221.716	13399.06
221.79	13449.05
221.863	13512.15
221.936	13576.85
222.009	13632.19
222.082	13697.17
222.155	13751.21
222.229	13829.16
222.302	13887.97
222.375	13945.24
222.448	14012.24
222.521	14060.55
222.594	14105.04
222.667	14146.74
222.74	14215.05
222.814	14263.93
222.887	14324.38
222.96	14387.04
223.033	14446.29
223.106	14502.88
223.179	14558.46
223.252	14611.68
223.325	14672.03
223.398	14714.31
223.471	14771.28
223.544	14820.36
223.617	14868.9
223.69	14925.29
223.763	14958.89
223.837	15012.06
223.91	15067.25
223.983	15098.34
224.056	15133.24
224.129	15188.29
224.202	15251.2
224.275	15277.8
224.348	15313.33
224.42	15333.53
224.493	15359.75
224.566	15389.92
224.639	15441.35
224.712	15482.08
224.785	15517.46
224.858	15550.14
224.931	15589.47
225.004	15614.92
225.077	15664.14
225.15	15671.75
225.223	15716.24
225.296	15774.13
225.369	15797.02
225.442	15818.14
225.514	15859.54
225.587	15902.87
225.66	15947.74
225.733	15986.74
225.806	16037.78
225.879	16071.95
225.952	16104.97
226.025	16156.83
226.097	16207.73
226.17	16242.77
226.243	16258.72
226.316	16300.89
226.389	16352.66
226.461	16397.29
226.534	16438.25
226.607	16466.5
226.68	16539.66
226.753	16571.47
226.825	16586.6
226.898	16637.26
226.971	16686.56
227.044	16733.46
227.117	16768.5
227.189	16807.73
227.262	16856.6
227.335	16897.66
227.407	16934.58
227.48	16973.61
227.553	17011.45
227.626	17043.25
227.698	17079.3
227.771	17123.35
227.844	17141.96
227.916	17173.19
227.989	17190.78
228.062	17222.25
228.134	17283.74
228.207	17307.79
228.28	17326.83
228.352	17355.26
228.425	17386.39
228.498	17419.89
228.57	17439.55
228.643	17487.45
228.716	17499.79
228.788	17513.91
228.861	17534.1
228.934	17571.74
229.006	17597.28
229.079	17620.08
229.151	17635.26
229.224	17647.69
229.296	17668.8
229.369	17718.44
229.442	17748.56
229.514	17772.51
229.587	17810
229.659	17810.2
229.732	17836.46
229.804	17876.12
229.877	17925.37
229.949	17966.19
230.022	18007.15
230.094	18029.03
230.167	18059.25
230.239	18077.22
230.312	18107.58
230.384	18160.78
230.457	18182.57
230.529	18215.29
230.602	18243.67
230.674	18278.42
230.747	18316.87
230.819	18354.99
230.892	18354.03
230.964	18378.65
231.037	18411.42
231.109	18430.75
231.181	18459.04
231.254	18474.36
231.326	18485.4
231.399	18503.27
231.471	18509.78
231.544	18506.17
231.616	18539.66
231.688	18555.32
231.761	18571.08
231.833	18580.19
231.905	18550.69
231.978	18576.52
232.05	18587.7
232.122	18603.94
232.195	18612.43
232.267	18627.94
232.339	18633.24
232.412	18664.37
232.484	18675.26
232.556	18677.58
232.629	18702.49
232.701	18717.86
232.773	18729.19
232.846	18742.97
232.918	18738.2
232.99	18754.49
233.062	18773.33
233.135	18779.4
233.207	18765.33
233.279	18783.6
233.351	18785.67
233.424	18809.38
233.496	18806.44
233.568	18835.21
233.64	18827.5
233.713	18830.73
233.785	18833.71
233.857	18837.81
233.929	18823.54
234.001	18839.4
234.074	18857.9
234.146	18840.41
234.218	18844.99
234.29	18840.32
234.362	18831.3
234.434	18827.4
234.507	18805.04
234.579	18793.86
234.651	18783.4
234.723	18796.51
234.795	18806.2
234.867	18818.97
234.939	18827.64
235.012	18828.03
235.084	18832.6
235.156	18842.15
235.228	18836.6
235.3	18824.75
235.372	18830
235.444	18839.01
235.516	18819.93
235.588	18815.35
235.66	18818.87
235.732	18799.98
235.804	18856.51
235.876	18868.8
235.948	18878.29
236.02	18878.67
236.092	18865.9
236.164	18857.37
236.236	18835.26
236.308	18811.93
236.38	18806.92
236.452	18780.27
236.524	18765.52
236.596	18767.31
236.668	18764.61
236.74	18743.6
236.812	18748.61
236.884	18738.2
236.956	18723.6
237.028	18697.34
237.1	18680.32
237.172	18678.3
237.244	18688.08
237.316	18635.75
237.388	18604.57
237.46	18577.25
237.532	18577.49
237.604	18558.4
237.675	18571.13
237.747	18576.52
237.819	18563.85
237.891	18542.4
237.963	18529.68
238.035	18512.82
238.107	18452.05
238.178	18441.49
238.25	18423.66
238.322	18430.65
238.394	18396.15
238.466	18375.57
238.538	18364.97
238.609	18346.61
238.681	18316.39
238.753	18288.92
238.825	18277.79
238.897	18275.77
238.968	18282.66
239.04	18255.29
239.112	18262.32
239.184	18221.65
239.255	18193.75
239.327	18177.36
239.399	18153.99
239.471	18143.2
239.542	18132.88
239.614	18135.97
239.686	18087.44
239.758	18085.56
239.829	18039.06
239.901	18031.49
239.973	18007.92
240.044	17991.83
240.116	17968.21
240.188	17933.32
240.259	17907.54
240.331	17872.31
240.403	17844.6
240.474	17799.35
240.546	17770.63
240.618	17730.97
240.689	17705.38
240.761	17682.1
240.833	17670.97
240.904	17650.01
240.976	17615.98
241.048	17583.93
241.119	17562.39
241.191	17549.43
241.262	17546.68
241.334	17522.83
241.405	17487.21
241.477	17461.24
241.549	17430.68
241.62	17414.25
241.692	17402.39
241.763	17385.09
241.835	17348.66
241.906	17322.78
241.978	17284.85
242.049	17275.45
242.121	17258.3
242.192	17247.64
242.264	17210.97
242.335	17158.29
242.407	17131.26
242.478	17110.29
242.55	17088.51
242.621	17046.53
242.693	17013.76
242.764	16970.67
242.836	16934.58
242.907	16923.97
242.979	16904.12
243.05	16884.98
243.122	16861.56
243.193	16829.8
243.264	16786.81
243.336	16767.49
243.407	16747.39
243.479	16735.82
243.55	16706.66
243.622	16683.48
243.693	16649.84
243.764	16635
243.836	16606.13
243.907	16577.54
243.978	16545.06
244.05	16518.74
244.121	16473.1
244.192	16451.46
244.264	16409
244.335	16382.2
244.407	16330.53
244.478	16300.46
244.549	16269.28
244.62	16218.81
244.692	16187.44
244.763	16159.14
244.834	16116.1
244.906	16070.89
244.977	16043.95
245.048	16021.44
245.119	15977.92
245.191	15936.32
245.262	15883.98
245.333	15870.82
245.405	15840.74
245.476	15814.76
245.547	15797.8
245.618	15782.76
245.689	15753.69
245.761	15719.23
245.832	15694.55
245.903	15673.59
245.974	15644.14
246.045	15606.73
246.117	15599.21
246.188	15550.34
246.259	15512.83
246.33	15488.01
246.401	15464.78
246.473	15424.67
246.544	15386.16
246.615	15369.2
246.686	15341.67
246.757	15329.96
246.828	15291.01
246.899	15279.06
246.97	15229.65
247.042	15180.53
247.113	15155.37
247.184	15142.07
247.255	15115.22
247.326	15081.04
247.397	15049.47
247.468	15014.09
247.539	14988.44
247.61	14944
247.681	14932.19
247.752	14916.33
247.823	14880.03
247.894	14854.44
247.965	14817.71
248.037	14788.88
248.108	14749.79
248.179	14717.68
248.25	14685.82
248.321	14657.96
248.392	14610.62
248.463	14610.62
248.534	14586.28
248.605	14571.19
248.675	14543.57
248.746	14527.42
248.817	14510.45
248.888	14493
248.959	14461.14
249.03	14441.66
249.101	14420.26
249.172	14390.32
249.243	14341.06
249.314	14327.85
249.385	14303.46
249.456	14285.04
249.527	14252.22
249.598	14223.63
249.669	14197.07
249.739	14175.66
249.81	14157.92
249.881	14122.01
249.952	14099.4
250.023	14065.32
250.094	14016.68
250.165	13981.59
250.235	13947.26
250.306	13921.52
250.377	13882.62
250.448	13863.87
250.519	13819.42
250.59	13806.12
250.66	13781.53
250.731	13773.09
250.802	13748.85
250.873	13725.03
250.944	13696.64
251.014	13668.63
251.085	13672.83
251.156	13664.29
251.227	13657.64
251.297	13646.5
251.368	13637.78
251.439	13614.16
251.51	13601.87
251.58	13578.53
251.651	13545.9
251.722	13536.45
251.792	13490.36
251.863	13463.8
251.934	13448.66
252.005	13455.51
252.075	13424.75
252.146	13407.69
252.217	13392.55
252.287	13375.82
252.358	13353.31
252.429	13349.31
252.499	13321.11
252.57	13292.72
252.641	13272.08
252.711	13239.59
252.782	13200.11
252.852	13198.42
252.923	13172.34
252.994	13150.07
253.064	13138.89
253.135	13106.4
253.205	13073.71
253.276	13075.02
253.347	13076.85
253.417	13040.31
253.488	13006.42
253.558	12986.03
253.629	12955.95
253.699	12934.06
253.77	12925.72
253.841	12896.99
253.911	12879.49
253.982	12857.17
254.052	12838.08
254.123	12812.49
254.193	12793.88
254.264	12806.41
254.334	12769.82
254.405	12734.88
254.475	12704.51
254.546	12675.83
254.616	12680.26
254.687	12662.09
254.757	12641.21
254.827	12604.58
254.898	12594.94
254.968	12574.45
255.039	12538.78
255.109	12531.4
255.18	12507.59
255.25	12459.97
255.321	12451.87
255.391	12417.5
255.461	12416.73
255.532	12375.99
255.602	12353.82
255.673	12304.8
255.743	12273.42
255.813	12230.52
255.884	12233.84
255.954	12221.98
256.024	12217.5
256.095	12186.84
256.165	12154.6
256.235	12141.24
256.306	12119.6
256.376	12105.09
256.446	12089.43
256.517	12079.79
256.587	12073.09
256.657	12057.71
256.728	12037.03
256.798	12017.17
256.868	11996.45
256.938	11969.98
257.009	11955.33
257.079	11940.15
257.149	11950.99
257.219	11913.15
257.29	11909.15
257.36	11861.48
257.43	11852.76
257.5	11814.49
257.571	11790.82
257.641	11779.64
257.711	11741.61
257.781	11734.14
257.852	11720.11
257.922	11683.92
257.992	11665.99
258.062	11639.77
258.132	11626.03
258.202	11608.34
258.273	11590.56
258.343	11589.59
258.413	11563.37
258.483	11551.42
258.553	11521.63
258.623	11493.87
258.693	11480.76
258.764	11467.51
258.834	11466.16
258.904	11450.49
258.974	11422.01
259.044	11399.27
259.114	11381.77
259.184	11369.92
259.254	11342.01
259.324	11307.26
259.394	11306.73
259.464	11306.15
259.535	11285.04
259.605	11261.14
259.675	11234.49
259.745	11216.85
259.815	11185.04
259.885	11158.73
259.955	11161.19
260.025	11139.21
260.095	11124.27
260.165	11112.61
260.235	11110.78
260.305	11082.06
260.375	11055.36
260.445	11067.6
260.515	11069.72
260.585	11064.42
260.655	11045.77
260.725	11044.08
260.795	11033.82
260.865	11025.19
260.934	10997.67
261.004	10991.27
261.074	10971.75
261.144	10970.79
261.214	10968.57
261.284	10950.11
261.354	10946.06
261.424	10922.3
261.494	10922.16
261.564	10902.79
261.634	10892.77
261.703	10857.44
261.773	10851.18
261.843	10837.88
261.913	10810.17
261.983	10770.8
262.053	10764.35
262.123	10743.15
262.192	10707.3
262.262	10697.56
262.332	10662.82
