Data from 20250702_urea_0.5M_MAYP1162681_04-55-00-232.txt Node
Date: Thu Jul 03 04:55:00 BST 2025
User: adleo
Spectrometer: MAYP116268
Trigger mode: 0
Integration Time (sec): 1.000000E0
Scans to average: 1
Electric dark correction enabled: true
Nonlinearity correction enabled: true
Boxcar width: 10
XAxis mode: Wavelengths
Number of Pixels in Spectrum: 2068
>>>>>Begin Spectral Data<<<<<
179.565	1165.34
179.642	1217.87
179.718	1258.1
179.795	1295.28
179.871	1329.51
179.948	1346.92
180.024	1368.5
180.101	1388.58
180.177	1403.33
180.254	1425.05
180.33	1448.16
180.407	1498.39
180.483	1591.03
180.56	1679.4
180.636	1761.34
180.712	1749.89
180.789	1759.2
180.865	1772.88
180.942	1780.53
181.018	1790.99
181.095	1806.39
181.171	1809.53
181.248	1812.05
181.324	1828.59
181.4	1835.39
181.477	1845.51
181.553	1857.87
181.63	1876.79
181.706	1893
181.782	1899.65
181.859	1897.89
181.935	1903.36
182.011	1899.8
182.088	1917.39
182.164	1933.7
182.24	1948.68
182.317	1959.85
182.393	1958.33
182.469	1970.4
182.546	1984.05
182.622	1988.71
182.698	1984.81
182.775	2000.74
182.851	2014.96
182.927	2006.64
183.003	2003.45
183.08	1995.51
183.156	2006.92
183.232	2003.36
183.308	1992.28
183.385	2002.98
183.461	2021.52
183.537	2016.81
183.613	2030.46
183.69	2018.48
183.766	2009.96
183.842	2015.86
183.918	2020.62
183.995	2036.69
184.071	2040.68
184.147	2034.79
184.223	2023.76
184.299	2036.79
184.375	2020.81
184.452	2025.33
184.528	2083.05
184.604	2091.03
184.68	2104.02
184.756	2107.68
184.832	2112.1
184.908	2117.47
184.985	2117.81
185.061	2102.16
185.137	2114.91
185.213	2104.16
185.289	2106.35
185.365	2099.69
185.441	2097.98
185.517	2110.63
185.593	2105.31
185.669	2103.36
185.745	2112.11
185.822	2129.56
185.898	2120.42
185.974	2130.98
186.05	2123.22
186.126	2085.06
186.202	2080.11
186.278	2075.07
186.354	2064.61
186.43	2070.94
186.506	2070.46
186.582	2065.9
186.658	2072.41
186.734	2051.54
186.81	2053.01
186.886	2057.72
186.962	2067.51
187.038	2064.47
187.114	2054.71
187.19	2063.37
187.266	2052.24
187.341	2053.62
187.417	2046.68
187.493	2046.49
187.569	2049.3
187.645	2044.78
187.721	2029.46
187.797	2037.97
187.873	2041.44
187.949	2039.45
188.025	2036.02
188.101	2040.21
188.176	2046.34
188.252	2041.21
188.328	2051.52
188.404	2052.85
188.48	2046.91
188.556	2042.82
188.632	2040.63
188.707	2040.73
188.783	2038.11
188.859	2036.3
188.935	2025.65
189.011	2034.11
189.086	2028.93
189.162	2019.94
189.238	2019.04
189.314	2019.09
189.39	2013
189.465	2010.53
189.541	2028.03
189.617	2011.05
189.693	2004.54
189.768	2007.35
189.844	2032.42
189.92	2025.05
189.996	2030.75
190.071	2041.6
190.147	2040.79
190.223	2049.92
190.298	2042.31
190.374	2026.95
190.45	2035.08
190.526	2045.5
190.601	2041.79
190.677	2043.83
190.753	2069.43
190.828	2070.05
190.904	2082.51
190.98	2099.35
191.055	2107.63
191.131	2096.54
191.207	2118.61
191.282	2129.74
191.358	2121.23
191.433	2106.71
191.509	2118.22
191.585	2118.46
191.66	2120.84
191.736	2126.26
191.811	2117.41
191.887	2135.59
191.963	2158.7
192.038	2167.03
192.114	2166.93
192.189	2169.26
192.265	2165.84
192.34	2144.81
192.416	2146.47
192.491	2141.81
192.567	2141.66
192.642	2142.05
192.718	2143.14
192.793	2127.82
192.869	2124.87
192.944	2126.68
193.02	2133.82
193.095	2139.14
193.171	2142.76
193.246	2142.52
193.322	2141.05
193.397	2141.47
193.473	2126.44
193.548	2109.03
193.624	2113.4
193.699	2112.26
193.775	2126.92
193.85	2127.54
193.925	2136.58
194.001	2133.96
194.076	2129.25
194.152	2119.97
194.227	2113.69
194.302	2105.66
194.378	2111.93
194.453	2105.23
194.529	2117.93
194.604	2106.7
194.679	2097.86
194.755	2080.17
194.83	2088.73
194.905	2085.83
194.981	2094.39
195.056	2088.16
195.131	2094.68
195.207	2093.78
195.282	2084.03
195.357	2066.75
195.433	2079.88
195.508	2068.84
195.583	2076.55
195.659	2088.92
195.734	2094.96
195.809	2096.48
195.884	2105.38
195.96	2106.76
196.035	2123.93
196.11	2121.59
196.185	2128.54
196.261	2130.87
196.336	2161.36
196.411	2150.04
196.486	2156.31
196.561	2153.08
196.637	2162.83
196.712	2177.25
196.787	2177.49
196.862	2192.09
196.937	2200.46
197.013	2205.93
197.088	2215.88
197.163	2236.39
197.238	2253.48
197.313	2256.39
197.388	2269.28
197.464	2297.66
197.539	2306.41
197.614	2300.03
197.689	2314.27
197.764	2333.88
197.839	2357.82
197.914	2350.34
197.989	2372.48
198.065	2388.14
198.14	2436.72
198.215	2462.48
198.29	2474
198.365	2487.91
198.44	2497.62
198.515	2525.14
198.59	2542.71
198.665	2566.56
198.74	2579.05
198.815	2579.95
198.89	2602.52
198.965	2632.44
199.04	2628.68
199.115	2646.59
199.19	2687.45
199.265	2689.64
199.34	2699.74
199.415	2728.86
199.49	2752.2
199.565	2760.06
199.64	2776.73
199.715	2772.72
199.79	2777.15
199.865	2784.54
199.94	2782.3
200.015	2813.75
200.09	2820.28
200.165	2824.91
200.24	2833.77
200.315	2870.5
200.39	2885.09
200.464	2888.14
200.539	2888.99
200.614	2902.38
200.689	2925.03
200.764	2929.22
200.839	2942.23
200.914	2946.66
200.989	2938.17
201.063	2949.18
201.138	2933.51
201.213	2936.95
201.288	2919.45
201.363	2928.03
201.438	2927.17
201.512	2945.8
201.587	2928.45
201.662	2932.55
201.737	2943.99
201.812	2950.52
201.886	2916.6
201.961	2924.9
202.036	2913.37
202.111	2909.41
202.186	2882.55
202.26	2866.58
202.335	2847.61
202.41	2842.13
202.485	2824.78
202.559	2806.72
202.634	2782.23
202.709	2792.23
202.784	2775.75
202.858	2774.98
202.933	2757.16
203.008	2754.21
203.082	2732.72
203.157	2733.2
203.232	2690.67
203.306	2672.22
203.381	2644.06
203.456	2620.34
203.53	2599.27
203.605	2580.04
203.68	2560.64
203.754	2555.17
203.829	2535.93
203.904	2517.83
203.978	2505.88
204.053	2510.45
204.127	2497.55
204.202	2498.07
204.277	2481.03
204.351	2470.98
204.426	2462.26
204.5	2452.88
204.575	2416.8
204.65	2426.09
204.724	2416.37
204.799	2421.84
204.873	2418.41
204.948	2415.7
205.022	2407.9
205.097	2397.75
205.171	2411.5
205.246	2418.03
205.32	2416.22
205.395	2418.37
205.469	2409.13
205.544	2416.33
205.618	2396.62
205.693	2407.8
205.767	2393.14
205.842	2412.48
205.916	2407.72
205.991	2399.39
206.065	2403.43
206.14	2418.51
206.214	2414.32
206.289	2412.22
206.363	2426.13
206.438	2427.32
206.512	2434.12
206.586	2453.5
206.661	2464.27
206.735	2443.47
206.81	2443.09
206.884	2458.65
206.958	2446.13
207.033	2460.6
207.107	2471.04
207.181	2504.85
207.256	2500.14
207.33	2521.89
207.405	2536.19
207.479	2560.86
207.553	2569.81
207.628	2554.82
207.702	2568.24
207.776	2566.1
207.851	2567.24
207.925	2583.82
207.999	2584.68
208.073	2589.2
208.148	2590.54
208.222	2583.82
208.296	2621.29
208.371	2643.41
208.445	2664.8
208.519	2701.95
208.593	2725.96
208.668	2726.2
208.742	2739.17
208.816	2754.13
208.89	2779.2
208.965	2787.79
209.039	2804.9
209.113	2835.02
209.187	2873.55
209.261	2884.41
209.336	2919.02
209.41	2958.11
209.484	2978.67
209.558	3021.01
209.632	3052.24
209.707	3089.53
209.781	3130.82
209.855	3170.66
209.929	3212.34
210.003	3240.35
210.077	3269.12
210.151	3343.05
210.226	3409.03
210.3	3467.98
210.374	3524.1
210.448	3562.49
210.522	3612.35
210.596	3662.68
210.67	3710.63
210.744	3797.06
210.818	3871.69
210.892	3937.3
210.966	3978.48
211.041	4041.75
211.115	4089.49
211.189	4161.57
211.263	4228.31
211.337	4289.5
211.411	4356.94
211.485	4408.62
211.559	4478.06
211.633	4534.9
211.707	4566.55
211.781	4632.82
211.855	4658.81
211.929	4714.79
212.003	4763.74
212.077	4840.32
212.151	4918.81
212.225	5002.1
212.299	5060.23
212.373	5126.19
212.447	5196.69
212.52	5296.88
212.594	5373.28
212.668	5459.11
212.742	5531.6
212.816	5603.56
212.89	5672.3
212.964	5747.84
213.038	5828.96
213.112	5926.4
213.186	6020.54
213.26	6079.72
213.333	6122.66
213.407	6209.14
213.481	6296.22
213.555	6393.9
213.629	6461.84
213.703	6533.53
213.777	6618.11
213.85	6689
213.924	6806.22
213.998	6897.03
214.072	6972.14
214.146	7048.58
214.219	7126.52
214.293	7199.51
214.367	7286.25
214.441	7385.39
214.515	7467.65
214.588	7532.16
214.662	7582.88
214.736	7656.49
214.81	7748.87
214.883	7840.44
214.957	7923.38
215.031	7996.28
215.105	8052.73
215.178	8132.67
215.252	8210.61
215.326	8270.7
215.4	8330.2
215.473	8365.53
215.547	8417.6
215.621	8490.56
215.694	8571.18
215.768	8635.52
215.842	8705.45
215.915	8776.88
215.989	8832.57
216.063	8897.47
216.136	8979.84
216.21	9057.1
216.284	9147.91
216.357	9231.01
216.431	9307.8
216.504	9388.7
216.578	9487.32
216.652	9586.75
216.725	9663.57
216.799	9745.07
216.873	9819.67
216.946	9903.95
217.02	9972.1
217.093	10052.3
217.167	10112.23
217.24	10170.95
217.314	10243.88
217.387	10306.31
217.461	10365.42
217.535	10456.14
217.608	10518.68
217.682	10587.39
217.755	10662.02
217.829	10720.47
217.902	10795.79
217.976	10870.38
218.049	10934.86
218.123	10987.58
218.196	11059.82
218.27	11118.37
218.343	11174.61
218.417	11246.27
218.49	11315.91
218.563	11406.66
218.637	11476.21
218.71	11564.31
218.784	11640.85
218.857	11723.41
218.931	11805.97
219.004	11881.74
219.077	11953.71
219.151	12029.09
219.224	12094.35
219.298	12164.73
219.371	12239.15
219.444	12288.13
219.518	12356
219.591	12431.1
219.665	12524.08
219.738	12588.82
219.811	12650.96
219.885	12726.59
219.958	12798.99
220.031	12860.55
220.105	12926.79
220.178	12997.46
220.251	13048.55
220.325	13123.03
220.398	13187.05
220.471	13249.43
220.544	13325.93
220.618	13380.65
220.691	13452.43
220.764	13521.07
220.838	13589.81
220.911	13640.77
220.984	13727.01
221.057	13794.59
221.131	13851.72
221.204	13886.62
221.277	13963.7
221.35	14050.91
221.424	14105.81
221.497	14166.65
221.57	14238.04
221.643	14299.79
221.716	14359.9
221.79	14414.52
221.863	14468.12
221.936	14520.86
222.009	14585.26
222.082	14646.63
222.155	14697.1
222.229	14759.67
222.302	14816.11
222.375	14871.79
222.448	14941.01
222.521	14988.3
222.594	15033.8
222.667	15075.35
222.74	15138.55
222.814	15193.54
222.887	15238.52
222.96	15301.37
223.033	15360.32
223.106	15413.73
223.179	15467.47
223.252	15521.94
223.325	15574.72
223.398	15626.78
223.471	15676.43
223.544	15729.3
223.617	15775.53
223.69	15829.94
223.763	15866.91
223.837	15915.69
223.91	15957.53
223.983	15989.29
224.056	16026.6
224.129	16075.81
224.202	16132.83
224.275	16168.69
224.348	16189.03
224.42	16221.9
224.493	16242.82
224.566	16274.77
224.639	16320.32
224.712	16353.09
224.785	16389.72
224.858	16426.45
224.931	16464.57
225.004	16497.49
225.077	16532.58
225.15	16536.87
225.223	16569.74
225.296	16631.23
225.369	16663.19
225.442	16695.67
225.514	16730.32
225.587	16763.24
225.66	16800.5
225.733	16842.19
225.806	16879.54
225.879	16915.15
225.952	16948.02
226.025	17004.89
226.097	17057.33
226.17	17087.4
226.243	17107.93
226.316	17146.29
226.389	17188.12
226.461	17218.97
226.534	17262.25
226.607	17284.32
226.68	17353.62
226.753	17381.38
226.825	17390.92
226.898	17427.65
226.971	17466.15
227.044	17501.38
227.117	17545.28
227.189	17574.44
227.262	17607.36
227.335	17646.49
227.407	17668.46
227.48	17693.96
227.553	17717.86
227.626	17738.49
227.698	17765.47
227.771	17800.7
227.844	17812.75
227.916	17838.44
227.989	17858.1
228.062	17879.16
228.134	17935.4
228.207	17950.96
228.28	17982.09
228.352	18005.37
228.425	18028.94
228.498	18059.87
228.57	18073.8
228.643	18117.32
228.716	18145.85
228.788	18166.66
228.861	18187
228.934	18233.02
229.006	18260.64
229.079	18279.96
229.151	18293.7
229.224	18299.33
229.296	18332.83
229.369	18385.45
229.442	18417.93
229.514	18428.48
229.587	18462.46
229.659	18458.99
229.732	18481.44
229.804	18505.49
229.877	18548.86
229.949	18583.8
230.022	18627.7
230.094	18659.07
230.167	18663.36
230.239	18670.25
230.312	18688.47
230.384	18729.09
230.457	18748.22
230.529	18772.42
230.602	18807.16
230.674	18828.65
230.747	18869.61
230.819	18889.47
230.892	18870.63
230.964	18891.49
231.037	18921.56
231.109	18930.91
231.181	18961.56
231.254	18975.82
231.326	18993.65
231.399	19001.99
231.471	19007.1
231.544	19000.16
231.616	19023.29
231.688	19048.4
231.761	19063.82
231.833	19077.17
231.905	19064.88
231.978	19083
232.05	19089.65
232.122	19088.73
232.195	19097.84
232.267	19124.68
232.339	19131.24
232.412	19157.98
232.484	19170.22
232.556	19174.41
232.629	19205.5
232.701	19217.54
232.773	19225.06
232.846	19229.16
232.918	19243.42
232.99	19251.47
233.062	19266.17
233.135	19275.85
233.207	19265.3
233.279	19274.55
233.351	19280.67
233.424	19282.89
233.496	19266.89
233.568	19295.9
233.64	19289.78
233.713	19298.6
233.785	19285.68
233.857	19290.7
233.929	19275.13
234.001	19283.37
234.074	19297.01
234.146	19281.59
234.218	19274.5
234.29	19264.19
234.362	19255.9
234.434	19225.06
234.507	19208.97
234.579	19186.12
234.651	19179.86
234.723	19177.26
234.795	19177.93
234.867	19169.31
234.939	19177.88
235.012	19175.86
235.084	19167.28
235.156	19167.81
235.228	19141.69
235.3	19128.39
235.372	19117.31
235.444	19126.27
235.516	19095.58
235.588	19083.29
235.66	19065.89
235.732	19044.64
235.804	19092.78
235.876	19094.28
235.948	19106.95
236.02	19107.67
236.092	19087.29
236.164	19075.53
236.236	19068.16
236.308	19054.81
236.38	19049.22
236.452	19025.75
236.524	19019.68
236.596	19019.92
236.668	19022.18
236.74	19020.3
236.812	19008.26
236.884	19008.16
236.956	18991.92
237.028	18964.93
237.1	18936.84
237.172	18944.26
237.244	18957.27
237.316	18907.59
237.388	18879.88
237.46	18849.47
237.532	18840.7
237.604	18828.41
237.675	18822.34
237.747	18809.71
237.819	18789.19
237.891	18763.11
237.963	18738.97
238.035	18718.83
238.107	18666.25
238.178	18651.8
238.25	18633.92
238.322	18633.15
238.394	18589.68
238.466	18566.69
238.538	18562.84
238.609	18561.49
238.681	18513.68
238.753	18471.81
238.825	18449.01
238.897	18434.89
238.968	18433.5
239.04	18412.05
239.112	18412.2
239.184	18376.73
239.255	18352.83
239.327	18332.78
239.399	18319.62
239.471	18305.84
239.542	18281.7
239.614	18277.36
239.686	18223.87
239.758	18209.07
239.829	18176.59
239.901	18160.55
239.973	18138.52
240.044	18125.22
240.116	18098.62
240.188	18073.51
240.259	18051.78
240.331	18012.45
240.403	17986.72
240.474	17947.16
240.546	17899.64
240.618	17852.99
240.689	17826.63
240.761	17807.35
240.833	17800.32
240.904	17769.71
240.976	17744.94
241.048	17727.79
241.119	17700.9
241.191	17691.84
241.262	17679.89
241.334	17647.98
241.405	17622.78
241.477	17591.4
241.549	17547.45
241.62	17518.3
241.692	17507.55
241.763	17492.56
241.835	17474.49
241.906	17454.59
241.978	17417.28
242.049	17404.61
242.121	17391.41
242.192	17375.12
242.264	17330.01
242.335	17279.6
242.407	17265.57
242.478	17234.1
242.55	17196.41
242.621	17155.02
242.693	17115.59
242.764	17068.8
242.836	17029.33
242.907	17007.64
242.979	16978.19
243.05	16956.99
243.122	16928.7
243.193	16892.84
243.264	16848.84
243.336	16820.93
243.407	16801.56
243.479	16785.27
243.55	16759.24
243.622	16730.23
243.693	16696.4
243.764	16683.72
243.836	16635.23
243.907	16594.85
243.978	16565.74
244.05	16555.09
244.121	16508.38
244.192	16494.84
244.264	16455.51
244.335	16439.89
244.407	16397.82
244.478	16373.57
244.549	16343.45
244.62	16311.93
244.692	16285.76
244.763	16263.25
244.834	16219.58
244.906	16172.98
244.977	16150.52
245.048	16134.76
245.119	16095.72
245.191	16055.28
245.262	15999.41
245.333	15998.84
245.405	15964.9
245.476	15937.91
245.547	15898.39
245.618	15884.94
245.689	15851.01
245.761	15830.72
245.832	15797.32
245.903	15770.61
245.974	15746.99
246.045	15716.68
246.117	15699.85
246.188	15650.74
246.259	15601.57
246.33	15576.07
246.401	15545.37
246.473	15495.14
246.544	15462.85
246.615	15445.55
246.686	15407.76
246.757	15389.15
246.828	15345
246.899	15326.78
246.97	15275.34
247.042	15235.05
247.113	15217.79
247.184	15204.73
247.255	15168.24
247.326	15140.86
247.397	15115.94
247.468	15089.57
247.539	15056.7
247.61	15003.19
247.681	14988.59
247.752	14984.78
247.823	14946.51
247.894	14922.31
247.965	14889.58
248.037	14849.57
248.108	14804.16
248.179	14776.73
248.25	14745.93
248.321	14726.6
248.392	14689.68
248.463	14683.26
248.534	14654.92
248.605	14630.14
248.675	14599.15
248.746	14582.28
248.817	14559.43
248.888	14540.48
248.959	14486.2
249.03	14465.19
249.101	14450.82
249.172	14414.57
249.243	14354.12
249.314	14346.51
249.385	14315.85
249.456	14292.32
249.527	14257.85
249.598	14237.08
249.669	14219.1
249.739	14199.86
249.81	14178.03
249.881	14136.28
249.952	14117.05
250.023	14096.17
250.094	14054.62
250.165	14024.44
250.235	13995.95
250.306	13963.51
250.377	13915.26
250.448	13902.24
250.519	13855.91
250.59	13841.11
250.66	13812.09
250.731	13803.71
250.802	13771.65
250.873	13755.35
250.944	13733.57
251.014	13706.18
251.085	13713.61
251.156	13689.31
251.227	13676.97
251.297	13661.98
251.368	13650.02
251.439	13629.78
251.51	13610.3
251.58	13574.53
251.651	13537.27
251.722	13514.71
251.792	13468.91
251.863	13444.95
251.934	13432.52
252.005	13437.96
252.075	13414.34
252.146	13406.77
252.217	13403.98
252.287	13395.88
252.358	13368.26
252.429	13357.99
252.499	13329.31
252.57	13302.16
252.641	13292.62
252.711	13264.42
252.782	13223.4
252.852	13224.21
252.923	13200.06
252.994	13182.28
253.064	13172.63
253.135	13135.56
253.205	13105.68
253.276	13104.76
253.347	13096.13
253.417	13060.55
253.488	13036.31
253.558	13005.46
253.629	12979.28
253.699	12950.84
253.77	12930.45
253.841	12905.86
253.911	12885.71
253.982	12874.33
254.052	12855.97
254.123	12827.19
254.193	12805.98
254.264	12824.3
254.334	12789.35
254.405	12761.24
254.475	12732.37
254.546	12710.24
254.616	12712.75
254.687	12704.46
254.757	12693.13
254.827	12674.09
254.898	12662.33
254.968	12632.15
255.039	12601.49
255.109	12587.42
255.18	12565.05
255.25	12518.39
255.321	12496.79
255.391	12465.7
255.461	12461.41
255.532	12411.62
255.602	12391.23
255.673	12353.58
255.743	12319.55
255.813	12278.81
255.884	12268.74
255.954	12256.93
256.024	12256.26
256.095	12225.02
256.165	12187.81
256.235	12177.97
256.306	12149.29
256.376	12147.94
256.446	12139.03
256.517	12123.99
256.587	12112.52
256.657	12091.79
256.728	12079.11
256.798	12065.66
256.868	12039.11
256.938	12006.47
257.009	11999.48
257.079	11984.01
257.149	11989.89
257.219	11948.73
257.29	11940.24
257.36	11900.38
257.43	11887.61
257.5	11840.81
257.571	11818.35
257.641	11811.6
257.711	11773.95
257.781	11764.84
257.852	11741.85
257.922	11707.39
257.992	11695.77
258.062	11675.53
258.132	11668.68
258.202	11643.67
258.273	11624.68
258.343	11624.3
258.413	11602.85
258.483	11579.76
258.553	11551.23
258.623	11520.19
258.693	11508.62
258.764	11498.79
258.834	11493.58
258.904	11469
258.974	11449.48
259.044	11437.15
259.114	11417.82
259.184	11402.54
259.254	11371.89
259.324	11334.3
259.394	11324.47
259.464	11316.8
259.535	11293.86
259.605	11271.06
259.675	11246.87
259.745	11241.14
259.815	11216.27
259.885	11190.25
259.955	11207.26
260.025	11177.58
260.095	11157.24
260.165	11139.89
260.235	11138.2
260.305	11107.55
260.375	11077.39
260.445	11082.49
260.515	11075.8
260.585	11069.87
260.655	11050.54
260.725	11049.19
260.795	11043.31
260.865	11043.46
260.934	11025.19
261.004	11016.33
261.074	10996.57
261.144	11001.05
261.214	10993.63
261.284	10971.7
261.354	10966.4
261.424	10935.56
261.494	10946.16
261.564	10930.16
261.634	10926.98
261.703	10889.87
261.773	10886.65
261.843	10874.94
261.913	10858.41
261.983	10826.32
262.053	10813.69
262.123	10793.98
262.192	10769.46
262.262	10763.05
