Data from 20250702_urea_0.5M_MAYP1162681_00-34-59-492.txt Node
Date: Thu Jul 03 00:34:59 BST 2025
User: adleo
Spectrometer: MAYP116268
Trigger mode: 0
Integration Time (sec): 1.000000E0
Scans to average: 1
Electric dark correction enabled: true
Nonlinearity correction enabled: true
Boxcar width: 10
XAxis mode: Wavelengths
Number of Pixels in Spectrum: 2068
>>>>>Begin Spectral Data<<<<<
179.565	1212.15
179.642	1268.61
179.718	1308.94
179.795	1351.42
179.871	1387.1
179.948	1406.6
180.024	1428.38
180.101	1450.35
180.177	1464.85
180.254	1488.04
180.33	1510.21
180.407	1565.52
180.483	1661.35
180.56	1751.62
180.636	1835.65
180.712	1824.09
180.789	1835.5
180.865	1846.34
180.942	1856.03
181.018	1866.87
181.095	1881.28
181.171	1887.7
181.248	1888.93
181.324	1905.1
181.4	1910.42
181.477	1918.13
181.553	1932.1
181.63	1950.5
181.706	1970.09
181.782	1977.13
181.859	1975.75
181.935	1980.51
182.011	1975.8
182.088	1991.73
182.164	2012.94
182.24	2028.49
182.317	2038.57
182.393	2034.96
182.469	2049.7
182.546	2064.11
182.622	2069.72
182.698	2062.16
182.775	2073.34
182.851	2088.17
182.927	2084.08
183.003	2080.09
183.08	2074.19
183.156	2079.52
183.232	2077.9
183.308	2064.35
183.385	2074.52
183.461	2091.74
183.537	2094.45
183.613	2111.24
183.69	2104.77
183.766	2091.97
183.842	2097.3
183.918	2103.06
183.995	2118.56
184.071	2122.56
184.147	2115.66
184.223	2102.68
184.299	2119.62
184.375	2109.11
184.452	2112.73
184.528	2165.21
184.604	2175.3
184.68	2187.19
184.756	2196.08
184.832	2201.13
184.908	2206.02
184.985	2204.26
185.061	2189.52
185.137	2198.22
185.213	2183.76
185.289	2184.52
185.365	2179.1
185.441	2177.06
185.517	2188.38
185.593	2184.48
185.669	2180.77
185.745	2192.57
185.822	2212.07
185.898	2201.22
185.974	2212.2
186.05	2207.25
186.126	2167.8
186.202	2164.09
186.278	2161.67
186.354	2152.15
186.43	2160.96
186.506	2158.06
186.582	2157.58
186.658	2164.05
186.734	2144.26
186.81	2146.64
186.886	2150.21
186.962	2161.81
187.038	2162.29
187.114	2156.05
187.19	2163.52
187.266	2153.25
187.341	2152.2
187.417	2144.16
187.493	2145.83
187.569	2148.16
187.645	2140.31
187.721	2129.27
187.797	2132.27
187.873	2137.55
187.949	2132.89
188.025	2121.71
188.101	2122.47
188.176	2126.84
188.252	2120.71
188.328	2128.13
188.404	2127.98
188.48	2121.04
188.556	2114.38
188.632	2111.57
188.707	2111.05
188.783	2105.72
188.859	2102.15
188.935	2092.26
189.011	2099.3
189.086	2089.78
189.162	2080.03
189.238	2077.85
189.314	2074.23
189.39	2069.38
189.465	2062.96
189.541	2077.66
189.617	2062.72
189.693	2060.68
189.768	2064.01
189.844	2093.08
189.92	2084.48
189.996	2094.42
190.071	2109.55
190.147	2109.07
190.223	2116.59
190.298	2109.93
190.374	2098.04
190.45	2109.78
190.526	2119.78
190.601	2114.5
190.677	2114.59
190.753	2141.82
190.828	2145.95
190.904	2162.51
190.98	2178.16
191.055	2188.06
191.131	2179.73
191.207	2204.8
191.282	2216.41
191.358	2208.84
191.433	2190.85
191.509	2205.97
191.585	2200.45
191.66	2197.84
191.736	2203.45
191.811	2195.41
191.887	2211.3
191.963	2236.14
192.038	2240.85
192.114	2240.9
192.189	2246.04
192.265	2246.42
192.34	2226.09
192.416	2224.19
192.491	2218.33
192.567	2223.57
192.642	2226.9
192.718	2225.57
192.793	2212.06
192.869	2206.87
192.944	2207.25
193.02	2215.58
193.095	2219.1
193.171	2225.81
193.246	2225.86
193.322	2223.76
193.397	2225.19
193.473	2211.67
193.548	2193.35
193.624	2199.59
193.699	2193.92
193.775	2210.68
193.85	2212.96
193.925	2221.57
194.001	2221.91
194.076	2215.01
194.152	2205.06
194.227	2195.16
194.302	2188.22
194.378	2192.45
194.453	2191.93
194.529	2206.63
194.604	2191.69
194.679	2183.84
194.755	2166.43
194.83	2177.95
194.905	2175.72
194.981	2184.09
195.056	2176.15
195.131	2180.52
195.207	2176.76
195.282	2168.16
195.357	2148.17
195.433	2163.77
195.508	2150.97
195.583	2160.11
195.659	2177.71
195.734	2183.9
195.809	2185.42
195.884	2195.55
195.96	2195.03
196.035	2206.45
196.11	2203.88
196.185	2216.06
196.261	2221.39
196.336	2251.93
196.411	2238.13
196.486	2244.36
196.561	2240.37
196.637	2251.35
196.712	2266.97
196.787	2270.54
196.862	2285
196.937	2295.18
197.013	2300.56
197.088	2310.31
197.163	2333.69
197.238	2347.08
197.313	2344.74
197.388	2359.12
197.464	2390.16
197.539	2400.44
197.614	2396.02
197.689	2405.97
197.764	2423.25
197.839	2443.91
197.914	2436.39
197.989	2459.72
198.065	2472.24
198.14	2520.6
198.215	2546.45
198.29	2558.94
198.365	2573.55
198.44	2587.93
198.515	2614.42
198.59	2625.66
198.665	2652.23
198.74	2658.43
198.815	2663.72
198.89	2687.44
198.965	2717.22
199.04	2711.74
199.115	2728.13
199.19	2773.77
199.265	2776.1
199.34	2786.06
199.415	2817.76
199.49	2840.44
199.565	2850.54
199.64	2876.03
199.715	2875.75
199.79	2882.56
199.865	2893.67
199.94	2893.24
200.015	2920.79
200.09	2926.46
200.165	2935.61
200.24	2944.53
200.315	2983.65
200.39	2997.57
200.464	3002.86
200.539	3003.06
200.614	3016.45
200.689	3041.15
200.764	3041.24
200.839	3061.83
200.914	3065.5
200.989	3056.43
201.063	3071.5
201.138	3055.73
201.213	3055.35
201.288	3034.32
201.363	3036.85
201.438	3032.65
201.512	3048.95
201.587	3038.03
201.662	3045.57
201.737	3059.02
201.812	3065.5
201.886	3031.38
201.961	3039.45
202.036	3027.15
202.111	3020.05
202.186	2995.22
202.26	2977.58
202.335	2959.75
202.41	2951.93
202.485	2937.06
202.559	2919.85
202.634	2891.2
202.709	2900.4
202.784	2883.48
202.858	2882.72
202.933	2866.99
203.008	2860.46
203.082	2842.87
203.157	2841.02
203.232	2794.19
203.306	2773.16
203.381	2742.04
203.456	2719.65
203.53	2697.99
203.605	2678.85
203.68	2661.51
203.754	2654.08
203.829	2637.12
203.904	2616.21
203.978	2605.44
204.053	2609.59
204.127	2594.2
204.202	2594.58
204.277	2575.34
204.351	2566.58
204.426	2557.05
204.5	2546.43
204.575	2512.44
204.65	2520.21
204.724	2509.01
204.799	2517.19
204.873	2511.57
204.948	2509.29
205.022	2496.91
205.097	2486.57
205.171	2499.71
205.246	2505.47
205.32	2503.81
205.395	2504.33
205.469	2493.34
205.544	2498.44
205.618	2482.01
205.693	2495.34
205.767	2483.25
205.842	2506.4
205.916	2501.92
205.991	2494.3
206.065	2499.83
206.14	2516.24
206.214	2511.76
206.289	2508.29
206.363	2521.43
206.438	2523.67
206.512	2531.95
206.586	2553.05
206.661	2561.29
206.735	2540.11
206.81	2541.11
206.884	2558.06
206.958	2547.25
207.033	2568.53
207.107	2577.73
207.181	2609.46
207.256	2603.65
207.33	2625.74
207.405	2636.18
207.479	2659.67
207.553	2668.81
207.628	2658.19
207.702	2671.53
207.776	2671
207.851	2676.15
207.925	2694.59
207.999	2698.55
208.073	2701.6
208.148	2710.75
208.222	2704.74
208.296	2743.5
208.371	2769.49
208.445	2788.08
208.519	2825.19
208.593	2848.26
208.668	2853.5
208.742	2867.39
208.816	2880.63
208.89	2907.19
208.965	2924.61
209.039	2943.87
209.113	2981.97
209.187	3015.65
209.261	3033.62
209.336	3068.38
209.41	3109.93
209.484	3134.26
209.558	3178.86
209.632	3214.49
209.707	3251.8
209.781	3306.43
209.855	3355.25
209.929	3402.74
210.003	3444.6
210.077	3480.16
210.151	3563.31
210.226	3638.26
210.3	3710.97
210.374	3779.01
210.448	3829.13
210.522	3885.57
210.596	3949.47
210.67	4007.06
210.744	4113.76
210.818	4195.37
210.892	4276.96
210.966	4331.75
211.041	4410.04
211.115	4471.64
211.189	4568.14
211.263	4653.54
211.337	4730.64
211.411	4818.98
211.485	4886.17
211.559	4973.11
211.633	5054.86
211.707	5100.09
211.781	5187.05
211.855	5230.94
211.929	5308.73
212.003	5374.21
212.077	5470.67
212.151	5571.41
212.225	5678.92
212.299	5759.78
212.373	5844.5
212.447	5928.36
212.52	6052.91
212.594	6157.34
212.668	6271.5
212.742	6354.73
212.816	6449.55
212.89	6542.63
212.964	6639.41
213.038	6744.22
213.112	6863.4
213.186	6976.07
213.26	7066.46
213.333	7128.39
213.407	7241.04
213.481	7346.84
213.555	7465.26
213.629	7554.73
213.703	7645.95
213.777	7748.73
213.85	7834.81
213.924	7981.42
213.998	8096.14
214.072	8201.66
214.146	8293.17
214.219	8400.67
214.293	8503.92
214.367	8615.47
214.441	8738.82
214.515	8845.49
214.588	8931.02
214.662	9004
214.736	9096.91
214.81	9204.86
214.883	9327.28
214.957	9422.7
215.031	9520.63
215.105	9609.65
215.178	9705.24
215.252	9807.34
215.326	9885.66
215.4	9970.23
215.473	10023.8
215.547	10106.71
215.621	10195.79
215.694	10303.28
215.768	10375.31
215.842	10463.47
215.915	10543.89
215.989	10606.96
216.063	10690.91
216.136	10799.13
216.21	10897.77
216.284	11005.42
216.357	11108.01
216.431	11199.15
216.504	11297.36
216.578	11417.03
216.652	11513.6
216.725	11612.07
216.799	11703.64
216.873	11796.52
216.946	11894.07
217.02	11975.28
217.093	12060.69
217.167	12120.8
217.24	12185.15
217.314	12269.31
217.387	12349.23
217.461	12429.97
217.535	12534.18
217.608	12599.45
217.682	12668.58
217.755	12755.1
217.829	12823.65
217.902	12904.06
217.976	12978.01
218.049	13056.92
218.123	13115.63
218.196	13197.68
218.27	13271.15
218.343	13341.05
218.417	13411.52
218.49	13489.67
218.563	13584.92
218.637	13663.54
218.71	13767.28
218.784	13866.11
218.857	13949.36
218.931	14037.82
219.004	14123.04
219.077	14202.87
219.151	14285.59
219.224	14362.05
219.298	14436.86
219.371	14519.92
219.444	14575.93
219.518	14651.03
219.591	14714.62
219.665	14816.18
219.738	14898.85
219.811	14960.17
219.885	15034.11
219.958	15117.21
220.031	15191.49
220.105	15265
220.178	15331.28
220.251	15384.3
220.325	15452.6
220.398	15529.58
220.471	15594.51
220.544	15662.9
220.618	15717.42
220.691	15792.51
220.764	15854.64
220.838	15925.93
220.911	15986.66
220.984	16071.01
221.057	16135.21
221.131	16201.63
221.204	16228.33
221.277	16296.33
221.35	16382.22
221.424	16438.81
221.497	16500.88
221.57	16558.96
221.643	16624.41
221.716	16703.84
221.79	16761.67
221.863	16812.13
221.936	16860.14
222.009	16911.56
222.082	16971.27
222.155	17023.08
222.229	17081.3
222.302	17137.45
222.375	17180.68
222.448	17238.61
222.521	17291.43
222.594	17339.47
222.667	17391.67
222.74	17461.74
222.814	17508.92
222.887	17552.63
222.96	17615.57
223.033	17660.68
223.106	17707.04
223.179	17756.24
223.252	17787.62
223.325	17832.58
223.398	17876.58
223.471	17921.54
223.544	17967.56
223.617	18008.09
223.69	18049.54
223.763	18079.22
223.837	18128.28
223.91	18174.25
223.983	18189.92
224.056	18208.23
224.129	18255.07
224.202	18294.88
224.275	18318.83
224.348	18344.56
224.42	18362.15
224.493	18373.76
224.566	18402.97
224.639	18434.48
224.712	18453.42
224.785	18486.58
224.858	18519.73
224.931	18542.24
225.004	18559.44
225.077	18586.81
225.15	18586.19
225.223	18619.63
225.296	18677.46
225.369	18689.99
225.442	18712.01
225.514	18757.6
225.587	18791.57
225.66	18821.93
225.733	18855.86
225.806	18888.91
225.879	18907.37
225.952	18926.45
226.025	18967.51
226.097	19011.03
226.17	19034.54
226.243	19045.43
226.316	19066.25
226.389	19090.54
226.461	19129
226.534	19157.33
226.607	19180.85
226.68	19230.97
226.753	19247.11
226.825	19241.13
226.898	19272.12
226.971	19294.91
227.044	19309.8
227.117	19334.24
227.189	19352.89
227.262	19377.8
227.335	19397.41
227.407	19412.4
227.48	19447.92
227.553	19464.83
227.626	19485.89
227.698	19506.27
227.771	19530.08
227.844	19544.49
227.916	19560.87
227.989	19563.81
228.062	19592.68
228.134	19634.22
228.207	19644.92
228.28	19662.55
228.352	19676.43
228.425	19698.36
228.498	19722.7
228.57	19732.24
228.643	19761.3
228.716	19779.37
228.788	19788.67
228.861	19797.49
228.934	19840.23
229.006	19847.85
229.079	19863.27
229.151	19862.11
229.224	19866.3
229.296	19885.53
229.369	19932.95
229.442	19963.6
229.514	19960.47
229.587	19972.13
229.659	19959.65
229.732	19984.95
229.804	20000.23
229.877	20039.41
229.949	20062.01
230.022	20093.96
230.094	20110.11
230.167	20124.9
230.239	20125.57
230.312	20127.5
230.384	20167.89
230.457	20174.59
230.529	20196.13
230.602	20199.55
230.674	20209.38
230.747	20232.32
230.819	20251.02
230.892	20218.78
230.964	20224.46
231.037	20232.61
231.109	20230.92
231.181	20256.27
231.254	20242.54
231.326	20247.11
231.399	20241.62
231.471	20236.7
231.544	20209.28
231.616	20224.17
231.688	20226.2
231.761	20216.22
231.833	20223.45
231.905	20192.61
231.978	20189.96
232.05	20181.09
232.122	20196.51
232.195	20191.21
232.267	20207.45
232.339	20203.11
232.412	20225.57
232.484	20221.72
232.556	20237.67
232.629	20269.76
232.701	20267.88
232.773	20275.3
232.846	20270.97
232.918	20271.31
232.99	20268.22
233.062	20274.34
233.135	20276.03
233.207	20254.2
233.279	20269.62
233.351	20274.58
233.424	20269.33
233.496	20256.22
233.568	20281.86
233.64	20251.5
233.713	20245.23
233.785	20229.19
233.857	20228.75
233.929	20209.14
234.001	20219.4
234.074	20212.13
234.146	20178.39
234.218	20158.97
234.29	20151.4
234.362	20136.08
234.434	20111.12
234.507	20091.98
234.579	20073.14
234.651	20057.38
234.723	20062.54
234.795	20055.65
234.867	20032.66
234.939	20046.64
235.012	20051.94
235.084	20037.09
235.156	20044.42
235.228	20032.03
235.3	20014.06
235.372	19992.85
235.444	19983.12
235.516	19947.7
235.588	19936.47
235.66	19924.76
235.732	19910.01
235.804	19945.24
235.876	19939.7
235.948	19941.63
236.02	19925.73
236.092	19905.82
236.164	19887.85
236.236	19860.23
236.308	19836.09
236.38	19827.51
236.452	19782.74
236.524	19756.05
236.596	19742.36
236.668	19721.3
236.74	19704.77
236.812	19689.59
236.884	19677.35
236.956	19659.67
237.028	19624.97
237.1	19601.45
237.172	19591.14
237.244	19592.3
237.316	19540.83
237.388	19510.71
237.46	19475.38
237.532	19467.67
237.604	19443.58
237.675	19429.94
237.747	19426.47
237.819	19396.11
237.891	19369.8
237.963	19336.84
238.035	19305.71
238.107	19249.04
238.178	19240.65
238.25	19217.66
238.322	19213.71
238.394	19177.76
238.466	19141.96
238.538	19128.9
238.609	19100.9
238.681	19059.41
238.753	19017.29
238.825	18990.31
238.897	18977.68
238.968	18982.64
239.04	18949.73
239.112	18945.34
239.184	18914.02
239.255	18879.32
239.327	18857.69
239.399	18841.98
239.471	18836
239.542	18814.8
239.614	18805.98
239.686	18748.63
239.758	18730.95
239.829	18690.32
239.901	18677.12
239.973	18659.24
240.044	18638.33
240.116	18612.88
240.188	18594.04
240.259	18566.33
240.331	18526.48
240.403	18498.67
240.474	18443.88
240.546	18407.21
240.618	18358.2
240.689	18319.02
240.761	18293.24
240.833	18281.82
240.904	18240.13
240.976	18200.9
241.048	18168.13
241.119	18138.98
241.191	18122.26
241.262	18109.68
241.334	18071.85
241.405	18033.68
241.477	17999.66
241.549	17961.69
241.62	17941.3
241.692	17915.23
241.763	17898.7
241.835	17870.46
241.906	17841.11
241.978	17799.04
242.049	17782.17
242.121	17764.73
242.192	17751.18
242.264	17700.44
242.335	17647.96
242.407	17625.89
242.478	17600.34
242.55	17572.73
242.621	17535.14
242.693	17505.21
242.764	17463.62
242.836	17432.06
242.907	17411
242.979	17374.51
243.05	17337.93
243.122	17307.38
243.193	17265.74
243.264	17212.34
243.336	17183.86
243.407	17162.22
243.479	17152.1
243.55	17123.67
243.622	17092.87
243.693	17055.67
243.764	17039.52
243.836	17002.75
243.907	16961.54
243.978	16927.08
244.05	16904
244.121	16857.92
244.192	16824.62
244.264	16778.83
244.335	16751.41
244.407	16695.5
244.478	16674.06
244.549	16653.48
244.62	16603.35
244.692	16578.87
244.763	16564.27
244.834	16516.41
244.906	16475.73
244.977	16443.68
245.048	16414.09
245.119	16371.24
245.191	16328.49
245.262	16278.99
245.333	16258.65
245.405	16239.23
245.476	16219.22
245.547	16190.31
245.618	16172.95
245.689	16142.11
245.761	16113.43
245.832	16076.32
245.903	16062.77
245.974	16028.26
246.045	15992.64
246.117	15975.82
246.188	15930.42
246.259	15876.24
246.33	15846.26
246.401	15806.21
246.473	15756.95
246.544	15730.29
246.615	15717.04
246.686	15686.72
246.757	15671.92
246.828	15626.66
246.899	15603.09
246.97	15550.74
247.042	15509.82
247.113	15484.04
247.184	15482.69
247.255	15442.24
247.326	15419.98
247.397	15389.71
247.468	15366.52
247.539	15333.45
247.61	15293.59
247.681	15271.56
247.752	15264.04
247.823	15228.13
247.894	15205.52
247.965	15170.58
248.037	15129.6
248.108	15079.04
248.179	15047.08
248.25	15018.35
248.321	15000.61
248.392	14957.62
248.463	14955.74
248.534	14929.8
248.605	14908.16
248.675	14866.51
248.746	14850.27
248.817	14818.89
248.888	14793.39
248.959	14747.74
249.03	14739.88
249.101	14721.23
249.172	14685.51
249.243	14623.37
249.314	14610.69
249.385	14582.93
249.456	14562.92
249.527	14541.42
249.598	14529.9
249.669	14505.99
249.739	14481.79
249.81	14459.76
249.881	14422.02
249.952	14391.07
250.023	14361.71
250.094	14324.88
250.165	14293.94
250.235	14261.78
250.306	14240.67
250.377	14196.9
250.448	14179.55
250.519	14122.61
250.59	14112.59
250.66	14089.5
250.731	14086.36
250.802	14058.6
250.873	14036.18
250.944	14010.05
251.014	13976.41
251.085	13968.74
251.156	13949.12
251.227	13929.55
251.297	13926.99
251.368	13914.41
251.439	13897.3
251.51	13881.25
251.58	13838.44
251.651	13808.36
251.722	13799.01
251.792	13756.39
251.863	13735.04
251.934	13724.77
252.005	13728.72
252.075	13686.4
252.146	13678.54
252.217	13665.96
252.287	13649.76
252.358	13626.96
252.429	13626.28
252.499	13597.7
252.57	13568.72
252.641	13558.02
252.711	13534.16
252.782	13482.14
252.852	13478.72
252.923	13451.97
252.994	13429.89
253.064	13419.86
253.135	13386.36
253.205	13353.29
253.276	13348.32
253.347	13340.8
253.417	13307.93
253.488	13277.94
253.558	13256.73
253.629	13227.28
253.699	13211.66
253.77	13195.12
253.841	13166.25
253.911	13142.67
253.982	13117.61
254.052	13111.34
254.123	13085.36
254.193	13068.68
254.264	13090.47
254.334	13053.2
254.405	13018.98
254.475	12987.93
254.546	12965.52
254.616	12961.95
254.687	12938.23
254.757	12920.64
254.827	12896.15
254.898	12876.77
254.968	12857.49
255.039	12827.46
255.109	12814.1
255.18	12779.59
255.25	12741.07
255.321	12731.33
255.391	12696.87
255.461	12706.41
255.532	12649.43
255.602	12626.25
255.673	12582.96
255.743	12543.09
255.813	12501.64
255.884	12497.01
255.954	12488.14
256.024	12484.48
256.095	12452.76
256.165	12429.38
256.235	12412.07
256.306	12380.79
256.376	12371.24
256.446	12349.65
256.517	12340.73
256.587	12329.69
256.657	12308.44
256.728	12289.73
256.798	12265.68
256.868	12238.4
256.938	12195.25
257.009	12188.07
257.079	12172.07
257.149	12180.94
257.219	12146.23
257.29	12138.76
257.36	12093.74
257.43	12072.87
257.5	12029.2
257.571	12018.64
257.641	12001.72
257.711	11970.92
257.781	11961.86
257.852	11947.54
257.922	11914.82
257.992	11895.39
258.062	11872.59
258.132	11866.42
258.202	11843.87
258.273	11829.21
258.343	11831.67
258.413	11815.72
258.483	11794.61
258.553	11765.25
258.623	11732.57
258.693	11719.37
258.764	11710.3
258.834	11712.33
258.904	11697.63
258.974	11675.55
259.044	11646.01
259.114	11631.12
259.184	11620.51
259.254	11598.15
259.324	11554.67
259.394	11541.52
259.464	11540.22
259.535	11522.09
259.605	11503.15
259.675	11481.42
259.745	11464.84
259.815	11434.04
259.885	11408.64
259.955	11418.57
260.025	11387.92
260.095	11369.31
260.165	11348.74
260.235	11343.14
260.305	11316.64
260.375	11280.15
260.445	11287.24
260.515	11287
260.585	11277.89
260.655	11257.6
260.725	11252.92
260.795	11248.73
260.865	11257.7
260.934	11227.67
261.004	11213.65
261.074	11192.54
261.144	11188.2
261.214	11183.38
261.284	11166.8
261.354	11163.72
261.424	11138.66
261.494	11147.18
261.564	11126.94
261.634	11127.52
261.703	11091.81
261.773	11084.34
261.843	11086.03
261.913	11062.08
261.983	11029.26
262.053	11027.29
262.123	11009.84
262.192	10981.27
