Data from 20250702_urea_0.5M_MAYP1162681_08-15-00-268.txt Node
Date: Thu Jul 03 08:15:00 BST 2025
User: adleo
Spectrometer: MAYP116268
Trigger mode: 0
Integration Time (sec): 1.000000E0
Scans to average: 1
Electric dark correction enabled: true
Nonlinearity correction enabled: true
Boxcar width: 10
XAxis mode: Wavelengths
Number of Pixels in Spectrum: 2068
>>>>>Begin Spectral Data<<<<<
179.565	1169.02
179.642	1224.03
179.718	1271.03
179.795	1305.48
179.871	1340.99
179.948	1359.58
180.024	1380.57
180.101	1402.94
180.177	1416.91
180.254	1438.52
180.33	1460.26
180.407	1510.44
180.483	1604.03
180.56	1689.26
180.636	1774.01
180.712	1759.98
180.789	1770.72
180.865	1782.22
180.942	1788.68
181.018	1800.8
181.095	1811.83
181.171	1818.77
181.248	1817.44
181.324	1830.51
181.4	1841.21
181.477	1848.29
181.553	1860.6
181.63	1880.76
181.706	1895.4
181.782	1904.43
181.859	1904.43
181.935	1909.38
182.011	1906.86
182.088	1922.07
182.164	1943.57
182.24	1954.74
182.317	1966.53
182.393	1964.44
182.469	1981.46
182.546	1995.67
182.622	1998.57
182.698	1995.48
182.775	2006.8
182.851	2022.44
182.927	2014.31
183.003	2009.84
183.08	2005.66
183.156	2011.46
183.232	2006.04
183.308	1993.63
183.385	2001.66
183.461	2017.83
183.537	2016.69
183.613	2029.48
183.69	2020.83
183.766	2009.41
183.842	2014.12
183.918	2018.92
183.995	2031.86
184.071	2032.76
184.147	2028.53
184.223	2016.26
184.299	2030.39
184.375	2017.41
184.452	2023.93
184.528	2073.01
184.604	2084.38
184.68	2094.94
184.756	2105.5
184.832	2112.06
184.908	2117
184.985	2116.53
185.061	2099.84
185.137	2110.16
185.213	2099.93
185.289	2101.22
185.365	2094.27
185.441	2093.94
185.517	2105.41
185.593	2102.7
185.669	2100.46
185.745	2110.26
185.822	2129.56
185.898	2117.91
185.974	2128.13
186.05	2119.76
186.126	2086.27
186.202	2077.81
186.278	2075.95
186.354	2065.15
186.43	2072.86
186.506	2073.48
186.582	2071.1
186.658	2079.85
186.734	2060.97
186.81	2063.35
186.886	2067.73
186.962	2081.42
187.038	2077.76
187.114	2072.14
187.19	2081.85
187.266	2072.39
187.341	2071.05
187.417	2063.73
187.493	2065.06
187.569	2066.58
187.645	2061.4
187.721	2047.7
187.797	2055.36
187.873	2059.02
187.949	2053.93
188.025	2045.18
188.101	2046.18
188.176	2053.17
188.252	2047.46
188.328	2053.88
188.404	2053.16
188.48	2045.18
188.556	2038.14
188.632	2039.75
188.707	2038.94
188.783	2032.85
188.859	2028.34
188.935	2016.88
189.011	2022.87
189.086	2015.74
189.162	2009.46
189.238	2007.03
189.314	2007.75
189.39	2003.09
189.465	1996.05
189.541	2011.89
189.617	1996.24
189.693	1991.87
189.768	1994.77
189.844	2020.7
189.92	2015.56
189.996	2023.32
190.071	2035.87
190.147	2037.63
190.223	2045.24
190.298	2039.44
190.374	2029.59
190.45	2042.67
190.526	2052.56
190.601	2046.33
190.677	2049.42
190.753	2077.02
190.828	2079.4
190.904	2090.77
190.98	2104.42
191.055	2116.5
191.131	2109.03
191.207	2131.29
191.282	2141.18
191.358	2131.48
191.433	2117.49
191.509	2128.52
191.585	2125.66
191.66	2127.38
191.736	2132.37
191.811	2123.38
191.887	2136.75
191.963	2154.83
192.038	2160.49
192.114	2162.06
192.189	2168.29
192.265	2166.67
192.34	2143.92
192.416	2145.68
192.491	2143.4
192.567	2141.92
192.642	2141.64
192.718	2144.97
192.793	2131.79
192.869	2127.03
192.944	2126.75
193.02	2130.08
193.095	2134.12
193.171	2137.74
193.246	2134.74
193.322	2130.13
193.397	2130.7
193.473	2117.61
193.548	2102.25
193.624	2105.58
193.699	2102.29
193.775	2117.71
193.85	2119.23
193.925	2126.46
194.001	2124.56
194.076	2118.28
194.152	2110.53
194.227	2101.49
194.302	2088.7
194.378	2091.93
194.453	2089.6
194.529	2102.73
194.604	2091.17
194.679	2085.27
194.755	2067.25
194.83	2082.24
194.905	2080.86
194.981	2090.09
195.056	2083.63
195.131	2088.43
195.207	2087.86
195.282	2081.1
195.357	2062.79
195.433	2076.29
195.508	2065.69
195.583	2073.77
195.659	2088.04
195.734	2096.85
195.809	2099.46
195.884	2110.83
195.96	2113.63
196.035	2130.57
196.11	2126
196.185	2138.94
196.261	2143.7
196.336	2176.37
196.411	2161.19
196.486	2167.52
196.561	2161.95
196.637	2171.85
196.712	2191.83
196.787	2194.07
196.862	2209.29
196.937	2219.76
197.013	2224.9
197.088	2234.98
197.163	2255.83
197.238	2271.69
197.313	2270.36
197.388	2282.63
197.464	2309.86
197.539	2320
197.614	2311.91
197.689	2326.28
197.764	2339.76
197.839	2360.51
197.914	2352.89
197.989	2376.21
198.065	2388.64
198.14	2436.32
198.215	2461.07
198.29	2471.55
198.365	2484.07
198.44	2493.88
198.515	2520.07
198.59	2534.5
198.665	2559.73
198.74	2567.21
198.815	2565.45
198.89	2589.4
198.965	2618.08
199.04	2613.03
199.115	2627.17
199.19	2667.8
199.265	2666.75
199.34	2679.37
199.415	2709.4
199.49	2734.45
199.565	2743.84
199.64	2766.7
199.715	2764.27
199.79	2773.75
199.865	2780.24
199.94	2780.09
200.015	2811.4
200.09	2814.6
200.165	2822.94
200.24	2830.42
200.315	2874.21
200.39	2891.18
200.464	2896.37
200.539	2900.33
200.614	2915.53
200.689	2938.74
200.764	2948.23
200.839	2970.29
200.914	2971.91
200.989	2963.27
201.063	2975.19
201.138	2957.76
201.213	2959.86
201.288	2942.51
201.363	2946.32
201.438	2944.75
201.512	2960.85
201.587	2946.79
201.662	2951.93
201.737	2962.99
201.812	2969.24
201.886	2929.78
201.961	2939.61
202.036	2926.08
202.111	2922.5
202.186	2895.97
202.26	2877.9
202.335	2854.4
202.41	2844.87
202.485	2830.01
202.559	2809.28
202.634	2782.73
202.709	2789.97
202.784	2767.87
202.858	2765.53
202.933	2745.04
203.008	2737.94
203.082	2720.12
203.157	2718.36
203.232	2675.03
203.306	2656.25
203.381	2626.52
203.456	2607.13
203.53	2585.15
203.605	2569.96
203.68	2546.14
203.754	2541.05
203.829	2526.04
203.904	2506.38
203.978	2496.38
204.053	2501.62
204.127	2490.38
204.202	2489.67
204.277	2476.76
204.351	2472.43
204.426	2466.29
204.5	2458.34
204.575	2426.02
204.65	2435.26
204.724	2424.2
204.799	2432.34
204.873	2423.86
204.948	2423.05
205.022	2410.96
205.097	2403.49
205.171	2413.01
205.246	2420.86
205.32	2418.15
205.395	2418.77
205.469	2409.21
205.544	2415.49
205.618	2397.64
205.693	2409.78
205.767	2396.41
205.842	2416.69
205.916	2409.13
205.991	2400.08
206.065	2407.13
206.14	2422.25
206.214	2414.63
206.289	2406.59
206.363	2422.44
206.438	2428.77
206.512	2435.53
206.586	2454.86
206.661	2461.96
206.735	2442.92
206.81	2445.78
206.884	2460.01
206.958	2450.02
207.033	2466.39
207.107	2475.01
207.181	2509.69
207.256	2504.21
207.33	2523.87
207.405	2534.36
207.479	2555.78
207.553	2564.21
207.628	2551.17
207.702	2565.4
207.776	2563.64
207.851	2571.64
207.925	2587.03
207.999	2586.75
208.073	2585.79
208.148	2592.84
208.222	2584.75
208.296	2623.41
208.371	2639.76
208.445	2657.24
208.519	2690.48
208.593	2710.2
208.668	2712.4
208.742	2719.17
208.816	2726.03
208.89	2747.28
208.965	2752.24
209.039	2767.3
209.113	2797.23
209.187	2826.33
209.261	2832.66
209.336	2867.22
209.41	2901.55
209.484	2916.19
209.558	2952.9
209.632	2985.5
209.707	3010.86
209.781	3050.44
209.855	3081.21
209.929	3119.63
210.003	3143.95
210.077	3167.66
210.151	3241.86
210.226	3299.23
210.3	3351.81
210.374	3404.33
210.448	3440.08
210.522	3480.51
210.596	3528.11
210.67	3565.97
210.744	3647.64
210.818	3718.29
210.892	3773.46
210.966	3803.12
211.041	3859.68
211.115	3896.75
211.189	3962.3
211.263	4024.75
211.337	4077.7
211.411	4142.59
211.485	4182.9
211.559	4247.52
211.633	4296.74
211.707	4316.75
211.781	4377.38
211.855	4392.12
211.929	4440.27
212.003	4477.13
212.077	4542.74
212.151	4605.63
212.225	4676.85
212.299	4724.7
212.373	4772.28
212.447	4825.43
212.52	4918.9
212.594	4984.47
212.668	5059.61
212.742	5106.74
212.816	5163.94
212.89	5224.44
212.964	5284.89
213.038	5356.6
213.112	5437.52
213.186	5521.81
213.26	5568.68
213.333	5592.41
213.407	5674.31
213.481	5748.18
213.555	5828.18
213.629	5887.42
213.703	5953.44
213.777	6023.79
213.85	6079.55
213.924	6186.1
213.998	6261.22
214.072	6330.13
214.146	6388.69
214.219	6458.4
214.293	6529.35
214.367	6605.55
214.441	6688.09
214.515	6751.79
214.588	6806.11
214.662	6847.42
214.736	6900.49
214.81	6983.28
214.883	7065.93
214.957	7125.11
215.031	7183.96
215.105	7236.03
215.178	7296
215.252	7354.49
215.326	7399.73
215.4	7445.28
215.473	7464.71
215.547	7517.26
215.621	7567.95
215.694	7640.71
215.768	7685.18
215.842	7742.21
215.915	7802.19
215.989	7842.83
216.063	7902.48
216.136	7973.77
216.21	8041.4
216.284	8120.1
216.357	8184.61
216.431	8247.3
216.504	8327.07
216.578	8420.66
216.652	8501.68
216.725	8574.44
216.799	8654.05
216.873	8723.78
216.946	8803.91
217.02	8870.8
217.093	8935.11
217.167	8984.35
217.24	9036.97
217.314	9106
217.387	9167.62
217.461	9224.29
217.535	9310.18
217.608	9362.04
217.682	9414.67
217.755	9487.05
217.829	9538.68
217.902	9602.73
217.976	9671.74
218.049	9725.39
218.123	9771.49
218.196	9840.85
218.27	9894.65
218.343	9936.85
218.417	10006.6
218.49	10068.64
218.563	10140.18
218.637	10209.5
218.71	10295.84
218.784	10364.4
218.857	10435.22
218.931	10501.89
219.004	10564.57
219.077	10628.08
219.151	10696.17
219.224	10757.74
219.298	10817.88
219.371	10900.86
219.444	10951.26
219.518	11012.75
219.591	11078
219.665	11169.96
219.738	11226.49
219.811	11287.3
219.885	11359.64
219.958	11425.33
220.031	11484.85
220.105	11555.6
220.178	11613.87
220.251	11666.65
220.325	11737.99
220.398	11801.9
220.471	11875.88
220.544	11948.23
220.618	12004.15
220.691	12066.47
220.764	12141.23
220.838	12207.46
220.911	12262.32
220.984	12350.57
221.057	12421.29
221.131	12486.36
221.204	12514.03
221.277	12597.43
221.35	12686.51
221.424	12743
221.497	12803.26
221.57	12869.97
221.643	12933.12
221.716	13010.59
221.79	13071.72
221.863	13123.2
221.936	13184.04
222.009	13238.17
222.082	13296.65
222.155	13348.95
222.229	13424.34
222.302	13480.55
222.375	13535.7
222.448	13592.73
222.521	13649.37
222.594	13701.92
222.667	13742.65
222.74	13812.74
222.814	13860.08
222.887	13911.08
222.96	13981.61
223.033	14041.14
223.106	14099.09
223.179	14158.43
223.252	14209
223.325	14256.77
223.398	14316.4
223.471	14366.77
223.544	14417.34
223.617	14469.74
223.69	14521.56
223.763	14560.61
223.837	14614.89
223.91	14671.72
223.983	14707.29
224.056	14740.8
224.129	14787.51
224.202	14851.09
224.275	14888.35
224.348	14921.85
224.42	14947.64
224.493	14974.92
224.566	15009.34
224.639	15055.57
224.712	15098.08
224.785	15137.61
224.858	15175.35
224.931	15209.33
225.004	15238.54
225.077	15287.23
225.15	15300.44
225.223	15343.62
225.296	15406.57
225.369	15432.22
225.442	15460.66
225.514	15506.88
225.587	15551.03
225.66	15598.56
225.733	15636.16
225.806	15689.13
225.879	15733.62
225.952	15769.19
226.025	15820.81
226.097	15885.93
226.17	15915.33
226.243	15929.16
226.316	15960.59
226.389	16000.64
226.461	16046.24
226.534	16100.75
226.607	16133.33
226.68	16203.75
226.753	16245.78
226.825	16257.3
226.898	16314.56
226.971	16360.63
227.044	16401.55
227.117	16442.81
227.189	16479.58
227.262	16527.88
227.335	16560.99
227.407	16594.63
227.48	16642.87
227.553	16681
227.626	16703.5
227.698	16740.08
227.771	16776.52
227.844	16805.44
227.916	16839.61
227.989	16864.19
228.062	16893.06
228.134	16946.02
228.207	16968.58
228.28	16985.83
228.352	17022.22
228.425	17049.06
228.498	17080.15
228.57	17096.15
228.643	17137.35
228.716	17162.75
228.788	17185.74
228.861	17211.76
228.934	17250.27
229.006	17274.32
229.079	17290.56
229.151	17307.48
229.224	17324.92
229.296	17367.28
229.369	17420.34
229.442	17466.32
229.514	17486.66
229.587	17527.43
229.659	17537.69
229.732	17575.14
229.804	17619.09
229.877	17672.05
229.949	17709.74
230.022	17754.03
230.094	17783.13
230.167	17808.1
230.239	17830.75
230.312	17857.4
230.384	17904.96
230.457	17928.87
230.529	17955.47
230.602	17992.72
230.674	18023.08
230.747	18068.52
230.819	18103.99
230.892	18096.86
230.964	18122.21
231.037	18148.18
231.109	18165.39
231.181	18197
231.254	18207.46
231.326	18221.63
231.399	18239.07
231.471	18243.75
231.544	18241.34
231.616	18276.61
231.688	18295.07
231.761	18310.59
231.833	18318.59
231.905	18305.19
231.978	18322.97
232.05	18328.18
232.122	18345.38
232.195	18360.22
232.267	18387.88
232.339	18393.52
232.412	18420.22
232.484	18435.83
232.556	18439.35
232.629	18470.96
232.701	18488.79
232.773	18499.35
232.846	18504.65
232.918	18509.03
232.99	18519.83
233.062	18547.15
233.135	18559.05
233.207	18557.08
233.279	18573.46
233.351	18594.76
233.424	18610.38
233.496	18609.61
233.568	18649.84
233.64	18641.89
233.713	18646.33
233.785	18652.3
233.857	18668.54
233.929	18663.43
234.001	18675.72
234.074	18704.49
234.146	18688.35
234.218	18692.01
234.29	18691.58
234.362	18694.56
234.434	18672.45
234.507	18673.75
234.579	18654.52
234.651	18648.4
234.723	18662.9
234.795	18662.71
234.867	18672.25
234.939	18676.69
235.012	18681.55
235.084	18672.88
235.156	18674.47
235.228	18671.29
235.3	18653.84
235.372	18645.07
235.444	18659.24
235.516	18635.29
235.588	18638.18
235.66	18631.92
235.732	18613.99
235.804	18664.69
235.876	18670.86
235.948	18693.22
236.02	18687.58
236.092	18679.96
236.164	18677.26
236.236	18651.68
236.308	18646.23
236.38	18630.71
236.452	18619.39
236.524	18613.37
236.596	18621.12
236.668	18631.44
236.74	18618.67
236.812	18619.44
236.884	18616.83
236.956	18605.85
237.028	18583.97
237.1	18548.45
237.172	18557.46
237.244	18559.58
237.316	18518.91
237.388	18499.97
237.46	18472.26
237.532	18473.57
237.604	18455.93
237.675	18462.29
237.747	18465.28
237.819	18438.92
237.891	18418.34
237.963	18392.99
238.035	18368.56
238.107	18324.32
238.178	18304.22
238.25	18287.07
238.322	18283.65
238.394	18258.25
238.466	18233.24
238.538	18228.76
238.609	18228.61
238.681	18188.04
238.753	18166.74
238.825	18146.93
238.897	18129.63
238.968	18137.92
239.04	18111.9
239.112	18116.43
239.184	18072.19
239.255	18042.26
239.327	18033.35
239.399	18021.11
239.471	18018.65
239.542	18008.72
239.614	18009.49
239.686	17973.35
239.758	17961.73
239.829	17925.93
239.901	17900.15
239.973	17885.16
240.044	17863.62
240.116	17838.51
240.188	17814.56
240.259	17784.49
240.331	17761.55
240.403	17746.9
240.474	17704.1
240.546	17671.04
240.618	17626.95
240.689	17601.69
240.761	17588.25
240.833	17574.18
240.904	17546.18
240.976	17510.51
241.048	17485.55
241.119	17454.18
241.191	17435.53
241.262	17429.31
241.334	17403.48
241.405	17383.82
241.477	17350.56
241.549	17326.47
241.62	17306.42
241.692	17294.13
241.763	17285.21
241.835	17253.12
241.906	17222.95
241.978	17171.81
242.049	17154.99
242.121	17143.23
242.192	17135.14
242.264	17092.48
242.335	17049.11
242.407	17028.92
242.478	17002.6
242.55	16976.38
242.621	16941.68
242.693	16907.51
242.764	16869.68
242.836	16845.15
242.907	16826.07
242.979	16803.61
243.05	16781.2
243.122	16764.42
243.193	16725.58
243.264	16677.09
243.336	16646.39
243.407	16627.5
243.479	16637.04
243.55	16613.33
243.622	16596.13
243.693	16561.62
243.764	16555.83
243.836	16519.88
243.907	16487.39
243.978	16454.04
244.05	16435.58
244.121	16393.07
244.192	16378.03
244.264	16338.94
244.335	16306.36
244.407	16252.86
244.478	16232.72
244.549	16197.24
244.62	16142.25
244.692	16115.98
244.763	16094.82
244.834	16064.31
244.906	16028.84
244.977	15987.58
245.048	15978.38
245.119	15932.59
245.191	15896.24
245.262	15841.59
245.333	15832.52
245.405	15798.69
245.476	15777.48
245.547	15750.73
245.618	15732.08
245.689	15704.02
245.761	15680.02
245.832	15648.35
245.903	15632.74
245.974	15600.73
246.045	15570.51
246.117	15560.43
246.188	15519.85
246.259	15475.31
246.33	15442.24
246.401	15407.59
246.473	15371.72
246.544	15322.85
246.615	15299.52
246.686	15270.45
246.757	15251.94
246.828	15205.57
246.899	15199.84
246.97	15155.06
247.042	15117.99
247.113	15096.44
247.184	15086.9
247.255	15048
247.326	15023.85
247.397	14988.56
247.468	14957.14
247.539	14923.25
247.61	14884.69
247.681	14868.68
247.752	14864.97
247.823	14823.71
247.894	14803.36
247.965	14762.54
248.037	14732.17
248.108	14701.36
248.179	14667.04
248.25	14639.95
248.321	14619.56
248.392	14572.51
248.463	14565.77
248.534	14530.05
248.605	14509.46
248.675	14475.77
248.746	14461.11
248.817	14438.99
248.888	14425.97
248.959	14383.55
249.03	14365.57
249.101	14335.92
249.172	14301.89
249.243	14244.48
249.314	14242.02
249.385	14215.46
249.456	14194.54
249.527	14170.53
249.598	14144.84
249.669	14118.23
249.739	14091.28
249.81	14075.66
249.881	14039.36
249.952	14017.19
250.023	13995.16
250.094	13953.51
250.165	13914.03
250.235	13885.87
250.306	13860.47
250.377	13818.82
250.448	13805.61
250.519	13766.42
250.59	13758.17
250.66	13735.81
250.731	13726.46
250.802	13693.72
250.873	13670.54
250.944	13652.8
251.014	13623.68
251.085	13617.27
251.156	13605.22
251.227	13601.02
251.297	13589.64
251.368	13579.67
251.439	13559.66
251.51	13549.73
251.58	13514.44
251.651	13485.52
251.722	13465.71
251.792	13422.99
251.863	13398.99
251.934	13385.25
252.005	13384.96
252.075	13355.55
252.146	13346.01
252.217	13338.05
252.287	13320.12
252.358	13294.43
252.429	13288.93
252.499	13253.93
252.57	13235.66
252.641	13214.12
252.711	13182.44
252.782	13141.61
252.852	13133.61
252.923	13106.52
252.994	13083.86
253.064	13079.52
253.135	13049.15
253.205	13021.77
253.276	13014.88
253.347	13005.77
253.417	12969.9
253.488	12939.68
253.558	12917.36
253.629	12886.99
253.699	12870.5
253.77	12857.68
253.841	12833.67
253.911	12807.06
253.982	12796.89
254.052	12779.01
254.123	12757.85
254.193	12740.93
254.264	12758.71
254.334	12723.86
254.405	12694.99
254.475	12652.18
254.546	12629.81
254.616	12624.66
254.687	12604.02
254.757	12587.59
254.827	12560.98
254.898	12547.96
254.968	12537.26
255.039	12505.49
255.109	12495.18
255.18	12458.98
255.25	12416.32
255.321	12401.04
255.391	12364.11
255.461	12355.72
255.532	12302.12
255.602	12278.74
255.673	12229.91
255.743	12192.89
255.813	12150.43
255.884	12136.16
255.954	12136.98
256.024	12134.91
256.095	12116.25
256.165	12087.72
256.235	12081.74
256.306	12052.58
256.376	12041.92
256.446	12027.08
256.517	12011.22
256.587	12003.46
256.657	11987.07
256.728	11974.2
256.798	11956.22
256.868	11941.23
256.938	11913.47
257.009	11907.49
257.079	11895.54
257.149	11907.59
257.219	11861.03
257.29	11849.65
257.36	11816.78
257.43	11793.5
257.5	11746.65
257.571	11721.49
257.641	11710.6
257.711	11672.81
257.781	11670.3
257.852	11653.62
257.922	11617.76
257.992	11601.04
258.062	11567.97
258.132	11562.29
258.202	11534.77
258.273	11520.89
258.343	11514.81
258.413	11490.62
258.483	11471.63
258.553	11443.29
258.623	11412.59
258.693	11414.28
258.764	11414.28
258.834	11403.72
258.904	11398.03
258.974	11374.47
259.044	11352.11
259.114	11334.03
259.184	11314.9
259.254	11292.01
259.324	11254.71
259.394	11239.24
259.464	11240.73
259.535	11224.54
259.605	11197.07
259.675	11173.98
259.745	11163.53
259.815	11130.51
259.885	11104.11
259.955	11114.9
260.025	11094.95
260.095	11079.48
260.165	11061.84
260.235	11059.34
260.305	11042.13
260.375	11002.23
260.445	11011.87
260.515	11015.72
260.585	11014.23
260.655	11000.06
260.725	10991.77
260.795	10984.45
260.865	10982.47
260.934	10948.07
261.004	10932.26
261.074	10920.36
261.144	10924.5
261.214	10912.02
261.284	10898
261.354	10901.47
261.424	10876.5
261.494	10881.9
261.564	10871.54
261.634	10860.94
261.703	10813.76
261.773	10804.85
261.843	10797.23
261.913	10778.06
261.983	10743.7
262.053	10733
262.123	10712.86
262.192	10688.58
262.262	10682.07
262.332	10653.54
