Data from 20250702_urea_0.5M_MAYP1162681_14-04-59-517.txt Node
Date: Wed Jul 02 14:04:59 BST 2025
User: adleo
Spectrometer: MAYP116268
Trigger mode: 0
Integration Time (sec): 1.000000E0
Scans to average: 1
Electric dark correction enabled: true
Nonlinearity correction enabled: true
Boxcar width: 10
XAxis mode: Wavelengths
Number of Pixels in Spectrum: 2068
>>>>>Begin Spectral Data<<<<<
179.565	1110.32
179.642	1161
179.718	1200.43
179.795	1233.87
179.871	1261.59
179.948	1276.75
180.024	1296.86
180.101	1316.58
180.177	1330.01
180.254	1351.63
180.33	1371.29
180.407	1417.38
180.483	1505.13
180.56	1586.75
180.636	1664.6
180.712	1652.77
180.789	1659.94
180.865	1670.77
180.942	1678.28
181.018	1687.26
181.095	1700.09
181.171	1705.46
181.248	1705.13
181.324	1719.15
181.4	1727.41
181.477	1739.72
181.553	1751.98
181.63	1769.66
181.706	1784.39
181.782	1792.47
181.859	1792.09
181.935	1797.74
182.011	1795.89
182.088	1811.38
182.164	1829.69
182.24	1842.38
182.317	1851.98
182.393	1848.79
182.469	1862.34
182.546	1877.65
182.622	1881.4
182.698	1876.12
182.775	1889.62
182.851	1904.31
182.927	1897.85
183.003	1894.09
183.08	1889.77
183.156	1900.13
183.232	1898.56
183.308	1888.91
183.385	1895.56
183.461	1910.54
183.537	1912.92
183.613	1921.76
183.69	1912.44
183.766	1902.41
183.842	1908.97
183.918	1912.53
183.995	1927.98
184.071	1931.69
184.147	1925.61
184.223	1917.38
184.299	1928.13
184.375	1915.91
184.452	1921.52
184.528	1973.65
184.604	1984.11
184.68	1993
184.756	1997.89
184.832	1999.37
184.908	2005.55
184.985	2005.59
185.061	1991.62
185.137	1997.85
185.213	1988.62
185.289	1992.14
185.365	1984.96
185.441	1984.92
185.517	1997.04
185.593	1991.96
185.669	1990.05
185.745	2001.75
185.822	2016.34
185.898	2009.54
185.974	2018.15
186.05	2008.21
186.126	1969.59
186.202	1961.13
186.278	1956.66
186.354	1950.43
186.43	1960.04
186.506	1958.09
186.582	1956.38
186.658	1962.89
186.734	1945.49
186.81	1948.34
186.886	1951.62
186.962	1964.08
187.038	1959.42
187.114	1955.56
187.19	1964.03
187.266	1953.33
187.341	1950.24
187.417	1944.01
187.493	1943.54
187.569	1945.82
187.645	1943.44
187.721	1933.6
187.797	1941.97
187.873	1948.15
187.949	1938.69
188.025	1930.6
188.101	1930.6
188.176	1935.78
188.252	1932.03
188.328	1938.4
188.404	1935.16
188.48	1929.89
188.556	1923.56
188.632	1922.66
188.707	1919.19
188.783	1915.38
188.859	1911.77
188.935	1901.93
189.011	1910.63
189.086	1907.97
189.162	1900.69
189.238	1897.32
189.314	1894.85
189.39	1890.09
189.465	1883.72
189.541	1902.83
189.617	1888.53
189.693	1885.01
189.768	1890.24
189.844	1911.12
189.92	1904.42
189.996	1916.4
190.071	1926.15
190.147	1925.58
190.223	1935.42
190.298	1930.9
190.374	1918.78
190.45	1931.47
190.526	1941.84
190.601	1934.75
190.677	1934.8
190.753	1959.44
190.828	1965.81
190.904	1976.65
190.98	1990.39
191.055	1999.1
191.131	1989.73
191.207	2009.84
191.282	2018.16
191.358	2006.74
191.433	1993.62
191.509	2005.88
191.585	2003.79
191.66	2001.84
191.736	2007.97
191.811	1997.89
191.887	2013.44
191.963	2034.65
192.038	2037.31
192.114	2035.79
192.189	2037.93
192.265	2034.22
192.34	2014.91
192.416	2011.72
192.491	2011.58
192.567	2011.44
192.642	2015.19
192.718	2017.29
192.793	2005.49
192.869	2002.69
192.944	2005.97
193.02	2014.01
193.095	2017.1
193.171	2021.52
193.246	2022.47
193.322	2020.47
193.397	2021.85
193.473	2009.01
193.548	1993.93
193.624	1999.78
193.699	2000.45
193.775	2016.05
193.85	2017.67
193.925	2026.89
194.001	2026.27
194.076	2018.81
194.152	2010.68
194.227	2000.59
194.302	1990.09
194.378	1993.84
194.453	1994.22
194.529	2006.78
194.604	1991.09
194.679	1986.71
194.755	1969.98
194.83	1980.92
194.905	1978.54
194.981	1987.86
195.056	1981.92
195.131	1988.62
195.207	1986.91
195.282	1974.83
195.357	1955.86
195.433	1969.84
195.508	1958.61
195.583	1967.79
195.659	1979.3
195.734	1987.48
195.809	1988.62
195.884	1997.41
195.96	1997.89
196.035	2009.68
196.11	2006.02
196.185	2018.05
196.261	2021.09
196.336	2048.06
196.411	2037.07
196.486	2044.82
196.561	2036.93
196.637	2044.34
196.712	2058.57
196.787	2063.75
196.862	2079.21
196.937	2090.05
197.013	2095.28
197.088	2105.46
197.163	2124.49
197.238	2144.06
197.313	2142.15
197.388	2159.04
197.464	2187.55
197.539	2197.87
197.614	2189.5
197.689	2201.87
197.764	2218.91
197.839	2237.17
197.914	2231.89
197.989	2252.02
198.065	2261.58
198.14	2310.77
198.215	2334.23
198.29	2346.13
198.365	2356.84
198.44	2365.6
198.515	2394.97
198.59	2408.01
198.665	2432.19
198.74	2438.24
198.815	2437.24
198.89	2459.14
198.965	2487.34
199.04	2485.86
199.115	2501.33
199.19	2544.51
199.265	2544.51
199.34	2553.18
199.415	2587.53
199.49	2608.24
199.565	2616.91
199.64	2639.48
199.715	2636.14
199.79	2643.71
199.865	2648.95
199.94	2645.05
200.015	2675.63
200.09	2679.11
200.165	2688.78
200.24	2696.69
200.315	2733.73
200.39	2748.12
200.464	2752.74
200.539	2749.26
200.614	2761.74
200.689	2785.62
200.764	2789.43
200.839	2805.43
200.914	2812.62
200.989	2800.18
201.063	2811.09
201.138	2794.29
201.213	2797.19
201.288	2779.04
201.363	2783.76
201.438	2782.47
201.512	2798.8
201.587	2782.27
201.662	2785.84
201.737	2793.99
201.812	2798.95
201.886	2771.05
201.961	2780.54
202.036	2771.54
202.111	2770.92
202.186	2744.16
202.26	2724.47
202.335	2707.08
202.41	2705.08
202.485	2689.08
202.559	2668.64
202.634	2645.63
202.709	2656.82
202.784	2637.44
202.858	2635.29
202.933	2617.43
203.008	2613.38
203.082	2596.67
203.157	2597.43
203.232	2556.39
203.306	2538.38
203.381	2508.42
203.456	2484.85
203.53	2463.45
203.605	2443.18
203.68	2420.36
203.754	2412.9
203.829	2402.52
203.904	2381.57
203.978	2369.67
204.053	2371.24
204.127	2363.67
204.202	2361.1
204.277	2346.72
204.351	2342.44
204.426	2333.16
204.5	2326.02
204.575	2292.66
204.65	2299.38
204.724	2290.57
204.799	2298.84
204.873	2294.18
204.948	2294.84
205.022	2283.81
205.097	2274.19
205.171	2288.84
205.246	2294.46
205.32	2294.98
205.395	2289.22
205.469	2283.23
205.544	2287.66
205.618	2270.86
205.693	2281.42
205.767	2272.67
205.842	2289
205.916	2281.48
205.991	2275.48
206.065	2280.62
206.14	2295.32
206.214	2291.56
206.289	2286.61
206.363	2298.03
206.438	2303.41
206.512	2309.02
206.586	2328.68
206.661	2337.82
206.735	2317.98
206.81	2321.93
206.884	2338.16
206.958	2333.69
207.033	2350.2
207.107	2359.82
207.181	2395.15
207.256	2391.77
207.33	2411.47
207.405	2426.05
207.479	2448.43
207.553	2462.99
207.628	2454
207.702	2471.9
207.776	2475.56
207.851	2486.23
207.925	2509.52
207.999	2515.52
208.073	2524.48
208.148	2537.67
208.222	2541.62
208.296	2587.66
208.371	2618.98
208.445	2646.66
208.519	2691.25
208.593	2722.07
208.668	2739.75
208.742	2765.56
208.816	2793.43
208.89	2836.34
208.965	2866.96
209.039	2910.36
209.113	2961.52
209.187	3019.66
209.261	3056.6
209.336	3118.61
209.41	3183.73
209.484	3230.65
209.558	3302.62
209.632	3372.19
209.707	3439.25
209.781	3523.42
209.855	3598.31
209.929	3683.02
210.003	3763.09
210.077	3841.79
210.151	3967.23
210.226	4083.52
210.3	4192.66
210.374	4303.62
210.448	4400.49
210.522	4509.07
210.596	4618.63
210.67	4737.78
210.744	4890.53
210.818	5032.52
210.892	5167.42
210.966	5279.22
211.041	5420.58
211.115	5542.08
211.189	5692.13
211.263	5844.57
211.337	5989.77
211.411	6149.31
211.485	6285.54
211.559	6437.81
211.633	6581.31
211.707	6703.85
211.781	6865.54
211.855	6992.32
211.929	7149.64
212.003	7297.08
212.077	7471.1
212.151	7648.56
212.225	7819.98
212.299	7980.08
212.373	8148.13
212.447	8320.81
212.52	8536.12
212.594	8722.37
212.668	8923.92
212.742	9099.09
212.816	9283.24
212.89	9459.36
212.964	9642.74
213.038	9842.62
213.112	10050.3
213.186	10262.75
213.26	10442.56
213.333	10602.17
213.407	10810.97
213.481	11004.74
213.555	11213.65
213.629	11408.24
213.703	11597.49
213.777	11800.88
213.85	11982
213.924	12210.98
213.998	12407.83
214.072	12600.54
214.146	12777.88
214.219	12958.78
214.293	13142.19
214.367	13336.89
214.441	13541.99
214.515	13728.93
214.588	13885.93
214.662	14041.54
214.736	14213.82
214.81	14404.62
214.883	14591.12
214.957	14753.28
215.031	14929.65
215.105	15091.14
215.178	15250.39
215.252	15414.09
215.326	15555.9
215.4	15710.62
215.473	15837
215.547	15985.79
215.621	16130.28
215.694	16300.47
215.768	16450.37
215.842	16607.49
215.915	16758.92
215.989	16890.44
216.063	17039.89
216.136	17195.8
216.21	17336.87
216.284	17482.27
216.357	17631.57
216.431	17777.4
216.504	17931.33
216.578	18089.64
216.652	18241.59
216.725	18375.8
216.799	18515.75
216.873	18647.93
216.946	18785.28
217.02	18900.94
217.093	19028.93
217.167	19147.86
217.24	19261.69
217.314	19383.42
217.387	19496.04
217.461	19594.78
217.535	19722.44
217.608	19823.98
217.682	19936.27
217.755	20067.35
217.829	20178.33
217.902	20286.67
217.976	20393.37
218.049	20490.05
218.123	20584.51
218.196	20680.12
218.27	20781.57
218.343	20864.04
218.417	20966.6
218.49	21059.47
218.563	21170.13
218.637	21256.93
218.71	21349.09
218.784	21433.53
218.857	21532.73
218.931	21628.6
219.004	21717.19
219.077	21809.26
219.151	21882.04
219.224	21960.37
219.298	22026.8
219.371	22115.59
219.444	22171.03
219.518	22233.21
219.591	22305.48
219.665	22391.2
219.738	22462.93
219.811	22513.11
219.885	22597.72
219.958	22677.18
220.031	22734.36
220.105	22805.62
220.178	22872.87
220.251	22935.41
220.325	23009.81
220.398	23057.35
220.471	23110.97
220.544	23170.66
220.618	23200.17
220.691	23257.89
220.764	23296.75
220.838	23353.84
220.911	23396.81
220.984	23461.62
221.057	23511.04
221.131	23569.01
221.204	23586.47
221.277	23635.8
221.35	23700.71
221.424	23728.3
221.497	23759.55
221.57	23793.26
221.643	23823.94
221.716	23872.5
221.79	23895.85
221.863	23920.11
221.936	23944.66
222.009	23967.57
222.082	24008.42
222.155	24038.66
222.229	24070.97
222.302	24107.39
222.375	24127.69
222.448	24150.99
222.521	24167.1
222.594	24186.54
222.667	24177.62
222.74	24200.58
222.814	24223.63
222.887	24230.24
222.96	24249.68
223.033	24270.04
223.106	24297.1
223.179	24309.06
223.252	24311.52
223.325	24330.58
223.398	24343.55
223.471	24372.93
223.544	24384.41
223.617	24384.51
223.69	24402.84
223.763	24405.3
223.837	24416.97
223.91	24427.73
223.983	24407.18
224.056	24409.98
224.129	24421.55
224.202	24441.47
224.275	24447.31
224.348	24429.37
224.42	24429.37
224.493	24421.26
224.566	24425.41
224.639	24427.29
224.712	24422.71
224.785	24420.68
224.858	24415.28
224.931	24405.15
225.004	24384.12
225.077	24377.85
225.15	24349.63
225.223	24330.33
225.296	24344.47
225.369	24327.49
225.442	24309.79
225.514	24306.17
225.587	24292.71
225.66	24274.09
225.733	24269.27
225.806	24264.68
225.879	24254.6
225.952	24231.55
226.025	24228.32
226.097	24216.4
226.17	24192.81
226.243	24164.64
226.316	24151.57
226.389	24137.44
226.461	24123.31
226.534	24110.96
226.607	24107.34
226.68	24113.37
226.753	24103.82
226.825	24069.47
226.898	24078.11
226.971	24061.66
227.044	24055.15
227.117	24049.17
227.189	24049.02
227.262	24036.44
227.335	24008.94
227.407	23995.34
227.48	23981.98
227.553	23965.58
227.626	23945.66
227.698	23926.8
227.771	23914.51
227.844	23884.22
227.916	23863.96
227.989	23844.48
228.062	23827.65
228.134	23818.38
228.207	23805.41
228.28	23787.76
228.352	23772.71
228.425	23746.09
228.498	23743.15
228.57	23715.42
228.643	23712.43
228.716	23682.38
228.788	23654.12
228.861	23638.98
228.934	23628.32
229.006	23614.77
229.079	23608.31
229.151	23579.85
229.224	23564.13
229.296	23542.72
229.369	23553.91
229.442	23550.82
229.514	23520.44
229.587	23515.62
229.659	23470
229.732	23445.7
229.804	23434.75
229.877	23434.12
229.949	23423.85
230.022	23422.94
230.094	23400.76
230.167	23377.51
230.239	23347.28
230.312	23333.01
230.384	23336
230.457	23312.61
230.529	23294.86
230.602	23261.49
230.674	23234.97
230.747	23227.65
230.819	23216.85
230.892	23159.85
230.964	23150.06
231.037	23131.5
231.109	23098.27
231.181	23086.9
231.254	23048.9
231.326	23025.37
231.399	22992.49
231.471	22948.51
231.544	22896.63
231.616	22885.88
231.688	22860.32
231.761	22832.55
231.833	22794.85
231.905	22744.85
231.978	22717.18
232.05	22681.4
232.122	22658.31
232.195	22633.58
232.267	22610.1
232.339	22576.93
232.412	22567.91
232.484	22512.71
232.556	22481.71
232.629	22467.63
232.701	22445.22
232.773	22428.87
232.846	22384.81
232.918	22356.46
232.99	22334.38
233.062	22321.22
233.135	22296.97
233.207	22250.02
233.279	22232.04
233.351	22213.82
233.424	22175.69
233.496	22148.02
233.568	22137.41
233.64	22102.99
233.713	22073.3
233.785	22046.74
233.857	22028.85
233.929	21989.37
234.001	21976.6
234.074	21958.96
234.146	21902.12
234.218	21874.17
234.29	21836.04
234.362	21799.6
234.434	21750.24
234.507	21709.27
234.579	21657.79
234.651	21608.38
234.723	21591.22
234.795	21557.68
234.867	21518.59
234.939	21507.26
235.012	21478.58
235.084	21449.18
235.156	21418.91
235.228	21380.45
235.3	21328.68
235.372	21292.34
235.444	21267.85
235.516	21210.55
235.588	21181.92
235.66	21153.43
235.732	21115.16
235.804	21143.46
235.876	21129.87
235.948	21110.68
236.02	21076.46
236.092	21041.43
236.164	21023.79
236.236	20972.89
236.308	20937.32
236.38	20905.81
236.452	20848.84
236.524	20814.04
236.596	20795.39
236.668	20762.71
236.74	20735.87
236.812	20716.93
236.884	20696.35
236.956	20663.87
237.028	20622.52
237.1	20580.98
237.172	20572.98
237.244	20553.94
237.316	20468.34
237.388	20423.86
237.46	20383.43
237.532	20362.22
237.604	20312.63
237.675	20285.07
237.747	20267.28
237.819	20229.98
237.891	20197.5
237.963	20156.93
238.035	20112.88
238.107	20041.27
238.178	20015.63
238.25	19973.6
238.322	19953.56
238.394	19892.31
238.466	19852.6
238.538	19827.54
238.609	19792.12
238.681	19729.42
238.753	19679.98
238.825	19648.32
238.897	19605.67
238.968	19582.39
239.04	19528.08
239.112	19522.25
239.184	19472.28
239.255	19427.12
239.327	19387.46
239.399	19350.89
239.471	19322.02
239.542	19291.13
239.614	19262.65
239.686	19200.63
239.758	19173.21
239.829	19122.32
239.901	19102.76
239.973	19062.57
240.044	19034.23
240.116	19000.3
240.188	18967.01
240.259	18926.19
240.331	18880.31
240.403	18859.35
240.474	18806.87
240.546	18771.45
240.618	18713.33
240.689	18672.37
240.761	18642.01
240.833	18623.8
240.904	18579.13
240.976	18548.52
241.048	18507.27
241.119	18489.64
241.191	18459.42
241.262	18438.31
241.334	18396.68
241.405	18353.74
241.477	18300.73
241.549	18248.88
241.62	18209.36
241.692	18182.23
241.763	18163.2
241.835	18133.27
241.906	18098.19
241.978	18045.61
242.049	18020.98
242.121	17997.76
242.192	17973.47
242.264	17919.35
242.335	17871.45
242.407	17847.64
242.478	17803.88
242.55	17767.35
242.621	17716.75
242.693	17679.16
242.764	17631.45
242.836	17589.14
242.907	17561.38
242.979	17535.55
243.05	17508.8
243.122	17473.77
243.193	17425.19
243.264	17359.26
243.336	17318.39
243.407	17287.55
243.479	17278.44
243.55	17257.96
243.622	17226.97
243.693	17183.74
243.764	17160.08
243.836	17108.08
243.907	17061.52
243.978	17020.07
244.05	16988.31
244.121	16935.2
244.192	16903.73
244.264	16857.41
244.335	16820.64
244.407	16765.36
244.478	16739.34
244.549	16697.65
244.62	16645.69
244.692	16611.95
244.763	16589.78
244.834	16549.44
244.906	16502.69
244.977	16472.81
245.048	16438.3
245.119	16389.67
245.191	16348.75
245.262	16296.03
245.333	16281.28
245.405	16256.99
245.476	16233.18
245.547	16203.34
245.618	16183
245.689	16151.53
245.761	16122.61
245.832	16087.09
245.903	16065.88
245.974	16028.09
246.045	15992.14
246.117	15982.11
246.188	15942.68
246.259	15895.98
246.33	15859.39
246.401	15829.27
246.473	15780.93
246.544	15738.42
246.615	15720
246.686	15688.62
246.757	15672.77
246.828	15632.13
246.899	15600.32
246.97	15552.79
247.042	15518.04
247.113	15489.6
247.184	15481.79
247.255	15445.02
247.326	15420.58
247.397	15385.92
247.468	15362.16
247.539	15337.14
247.61	15287.73
247.681	15265.8
247.752	15255.44
247.823	15219.91
247.894	15184.24
247.965	15143.7
248.037	15107.6
248.108	15059.01
248.179	15025.46
248.25	14985.98
248.321	14960.53
248.392	14929.44
248.463	14926.36
248.534	14889.14
248.605	14864.08
248.675	14823.25
248.746	14802.14
248.817	14780.93
248.888	14763.86
248.959	14714.26
249.03	14692.62
249.101	14673.19
249.172	14631.49
249.243	14581.07
249.314	14571.77
249.385	14546.8
249.456	14525.35
249.527	14502.55
249.598	14482.4
249.669	14460.51
249.739	14441.95
249.81	14418.86
249.881	14372.82
249.952	14340.09
250.023	14313.87
250.094	14275.02
250.165	14237.51
250.235	14212.25
250.306	14178.12
250.377	14127.22
250.448	14104.37
250.519	14056.31
250.59	14041.7
250.66	14018.56
250.731	14002.46
250.802	13968.86
250.873	13945.29
250.944	13922.68
251.014	13883.92
251.085	13879.29
251.156	13855.09
251.227	13842.66
251.297	13832.44
251.368	13826.85
251.439	13814.26
251.51	13805.73
251.58	13774.97
251.651	13745.14
251.722	13720.45
251.792	13679.38
251.863	13658.8
251.934	13650.94
252.005	13656.05
252.075	13625.78
252.146	13616.62
252.217	13602.93
252.287	13593.43
252.358	13560.31
252.429	13552.79
252.499	13524.06
252.57	13501.07
252.641	13486.27
252.711	13451.07
252.782	13407.93
252.852	13396.94
252.923	13365.65
252.994	13336.68
253.064	13322.51
253.135	13293.29
253.205	13274.06
253.276	13263.89
253.347	13259.94
253.417	13235.64
253.488	13203.1
253.558	13177.12
253.629	13146.27
253.699	13129.25
253.77	13104.81
253.841	13085.57
253.911	13056.07
253.982	13035.15
254.052	13018.81
254.123	12994.42
254.193	12980.1
254.264	12993.11
254.334	12959.22
254.405	12928.66
254.475	12896.12
254.546	12876.89
254.616	12866.67
254.687	12837.65
254.757	12826.03
254.827	12793.93
254.898	12765.15
254.968	12745.1
255.039	12709.47
255.109	12697.81
255.18	12660.98
255.25	12616.53
255.321	12599.13
255.391	12567.32
255.461	12568.47
255.532	12517.04
255.602	12498.67
255.673	12458.04
255.743	12430.13
255.813	12384.28
255.884	12372.86
255.954	12356.9
256.024	12346.2
256.095	12329.67
256.165	12298.87
256.235	12284.5
256.306	12259.68
256.376	12253.17
256.446	12248.21
256.517	12244.69
256.587	12235.34
256.657	12216.54
256.728	12204.15
256.798	12184.1
256.868	12160.96
256.938	12126.88
257.009	12118.25
257.079	12100.75
257.149	12101.77
257.219	12058.14
257.29	12049.71
257.36	12012.06
257.43	12008.74
257.5	11968.59
257.571	11941.26
257.641	11927.18
257.711	11894.02
257.781	11886.45
257.852	11865.24
257.922	11817.14
257.992	11792.75
258.062	11769.81
258.132	11766.14
258.202	11747.63
258.273	11732.55
258.343	11730.19
258.413	11708.35
258.483	11691.43
258.553	11663.24
258.623	11637.21
258.693	11623.62
258.764	11623.14
258.834	11618.32
258.904	11589.49
258.974	11568.87
259.044	11551.85
259.114	11540.72
259.184	11522.26
259.254	11495.42
259.324	11460.23
259.394	11456.42
259.464	11454.98
259.535	11432.42
259.605	11410.3
259.675	11385.24
259.745	11375.46
259.815	11346.1
259.885	11324.66
259.955	11338.78
260.025	11307.41
260.095	11286.06
260.165	11274.59
260.235	11268.56
260.305	11239.89
260.375	11220.71
260.445	11221.43
260.515	11211.6
260.585	11202.44
260.655	11191.12
260.725	11188.61
260.795	11182.11
260.865	11173.57
260.934	11151.45
261.004	11133.43
261.074	11111.31
261.144	11107.79
261.214	11096.61
261.284	11085.53
261.354	11079.7
261.424	11046.54
261.494	11056.66
261.564	11039.36
261.634	11026.68
261.703	10986.44
261.773	10983.74
261.843	10974.25
261.913	10952.61
261.983	10921.15
