Data from 20250702_urea_0.5M_MAYP1162681_17-44-59-442.txt Node
Date: Wed Jul 02 17:44:59 BST 2025
User: adleo
Spectrometer: MAYP116268
Trigger mode: 0
Integration Time (sec): 1.000000E0
Scans to average: 1
Electric dark correction enabled: true
Nonlinearity correction enabled: true
Boxcar width: 10
XAxis mode: Wavelengths
Number of Pixels in Spectrum: 2068
>>>>>Begin Spectral Data<<<<<
179.565	1118.28
179.642	1171.73
179.718	1212.05
179.795	1247.18
179.871	1277.76
179.948	1297.16
180.024	1315.22
180.101	1337.14
180.177	1350.04
180.254	1373.37
180.33	1392.48
180.407	1440.04
180.483	1529.22
180.56	1613.45
180.636	1693.06
180.712	1679.57
180.789	1691.44
180.865	1704.08
180.942	1711.16
181.018	1723.51
181.095	1735.3
181.171	1740.57
181.248	1738.62
181.324	1753.55
181.4	1763.29
181.477	1772.27
181.553	1782.77
181.63	1802.93
181.706	1814.33
181.782	1821.32
181.859	1817.13
181.935	1824.79
182.011	1821.27
182.088	1837.34
182.164	1854.45
182.24	1863.29
182.317	1873.84
182.393	1871.04
182.469	1882.16
182.546	1897.8
182.622	1904.31
182.698	1900.41
182.775	1909.69
182.851	1924.14
182.927	1919.52
183.003	1912.25
183.08	1907.17
183.156	1917.39
183.232	1913.77
183.308	1908.59
183.385	1916.77
183.461	1932.31
183.537	1932.31
183.613	1944.24
183.69	1931.74
183.766	1922.75
183.842	1930.5
183.918	1937.06
183.995	1946.57
184.071	1952.8
184.147	1942.77
184.223	1929.27
184.299	1941.78
184.375	1931.51
184.452	1939.36
184.528	1988.68
184.604	1999.76
184.68	2011.02
184.756	2017.35
184.832	2022.06
184.908	2023.24
184.985	2024.15
185.061	2011.22
185.137	2020.97
185.213	2009.27
185.289	2014.4
185.365	2005.28
185.441	2005.13
185.517	2017.5
185.593	2016.93
185.669	2013.37
185.745	2028.2
185.822	2046.83
185.898	2039.56
185.974	2047.12
186.05	2039.5
186.126	2004.02
186.202	1997.32
186.278	1994.32
186.354	1985.48
186.43	1993.04
186.506	1992.33
186.582	1990.09
186.658	1995.8
186.734	1975.07
186.81	1978.35
186.886	1982.39
186.962	1995.7
187.038	1992.09
187.114	1983.9
187.19	1988.9
187.266	1978.68
187.341	1977.87
187.417	1970.12
187.493	1968.79
187.569	1971.73
187.645	1966.31
187.721	1953.43
187.797	1960.7
187.873	1966.07
187.949	1958.28
188.025	1950.76
188.101	1953.18
188.176	1959.51
188.252	1957.23
188.328	1965.45
188.404	1965.26
188.48	1958.46
188.556	1952.04
188.632	1952.47
188.707	1952.71
188.783	1950.61
188.859	1944.58
188.935	1930.69
189.011	1937.45
189.086	1928.37
189.162	1922.19
189.238	1918.29
189.314	1915.91
189.39	1910.92
189.465	1904.59
189.541	1922.52
189.617	1909.45
189.693	1905.64
189.768	1907.45
189.844	1929.95
189.92	1921.2
189.996	1930.62
190.071	1942.74
190.147	1942.17
190.223	1949.73
190.298	1940.89
190.374	1929.81
190.45	1945.97
190.526	1958.38
190.601	1952.44
190.677	1955.2
190.753	1979.7
190.828	1984.54
190.904	1999.57
190.98	2012.98
191.055	2022.68
191.131	2010.65
191.207	2029.39
191.282	2038.42
191.358	2030.86
191.433	2016.16
191.509	2030.04
191.585	2024.81
191.66	2024.28
191.736	2031.18
191.811	2025.9
191.887	2041.6
191.963	2062.62
192.038	2067.7
192.114	2065.8
192.189	2070.79
192.265	2068.7
192.34	2047.72
192.416	2046.11
192.491	2042.3
192.567	2045.82
192.642	2044.82
192.718	2049.77
192.793	2037.12
192.869	2033.03
192.944	2033.69
193.02	2040.78
193.095	2043.82
193.171	2052.1
193.246	2052.34
193.322	2049.1
193.397	2043.87
193.473	2031.17
193.548	2016.62
193.624	2020.09
193.699	2019.19
193.775	2034.7
193.85	2037.45
193.925	2046.39
194.001	2046.68
194.076	2038.74
194.152	2027.99
194.227	2022.8
194.302	2012.2
194.378	2017.57
194.453	2012.96
194.529	2025.33
194.604	2012.63
194.679	2006.3
194.755	1990
194.83	1999.56
194.905	2000.37
194.981	2011.83
195.056	2005.93
195.131	2011.64
195.207	2007.98
195.282	2000.37
195.357	1980.96
195.433	1992.37
195.508	1981.53
195.583	1984.76
195.659	1998.32
195.734	2005.98
195.809	2005.02
195.884	2013.58
195.96	2015.48
196.035	2030.79
196.11	2026.99
196.185	2037.31
196.261	2041.64
196.336	2069.17
196.411	2057.38
196.486	2062.37
196.561	2057.28
196.637	2063.75
196.712	2077.4
196.787	2080.45
196.862	2095.48
196.937	2105.6
197.013	2115.55
197.088	2127.06
197.163	2149.32
197.238	2164.13
197.313	2162.99
197.388	2177.97
197.464	2206
197.539	2213.52
197.614	2206.24
197.689	2219.14
197.764	2236.32
197.839	2256.44
197.914	2249.02
197.989	2270.34
198.065	2284
198.14	2329.94
198.215	2355.74
198.29	2367.88
198.365	2382.3
198.44	2389.92
198.515	2417.24
198.59	2431.19
198.665	2455.52
198.74	2464.9
198.815	2465.57
198.89	2486.18
198.965	2513.57
199.04	2510.14
199.115	2526.66
199.19	2568.22
199.265	2569.93
199.34	2577.41
199.415	2608.14
199.49	2630.42
199.565	2639.38
199.64	2659.19
199.715	2657.43
199.79	2668.43
199.865	2672.81
199.94	2670.34
200.015	2703.45
200.09	2707.17
200.165	2708.64
200.24	2715.46
200.315	2750.5
200.39	2764.79
200.464	2774.7
200.539	2772.42
200.614	2788.14
200.689	2811.35
200.764	2817.26
200.839	2834.88
200.914	2840.31
200.989	2832.68
201.063	2843.5
201.138	2826.17
201.213	2826.93
201.288	2807.63
201.363	2809.11
201.438	2809.92
201.512	2827.73
201.587	2808.81
201.662	2814.39
201.737	2828.78
201.812	2835.64
201.886	2807.7
201.961	2819.9
202.036	2805.14
202.111	2802.99
202.186	2773.28
202.26	2755.12
202.335	2735.06
202.41	2727.39
202.485	2711.43
202.559	2688.33
202.634	2664.98
202.709	2675.55
202.784	2659.88
202.858	2662.31
202.933	2645.83
203.008	2642.25
203.082	2620.87
203.157	2621.77
203.232	2580.92
203.306	2559.43
203.381	2528.71
203.456	2505.23
203.53	2483.92
203.605	2467.46
203.68	2447.45
203.754	2441.84
203.829	2429.84
203.904	2411.85
203.978	2402.8
204.053	2406.75
204.127	2396.37
204.202	2393.76
204.277	2378.38
204.351	2370.67
204.426	2363.29
204.5	2354.58
204.575	2319.36
204.65	2332.93
204.724	2324.07
204.799	2331.97
204.873	2330.78
204.948	2331.3
205.022	2320.08
205.097	2308.84
205.171	2321.16
205.246	2330.21
205.32	2329.78
205.395	2327.78
205.469	2318.6
205.544	2324.65
205.618	2308.99
205.693	2323.79
205.767	2313.42
205.842	2331.79
205.916	2325.23
205.991	2316.56
206.065	2322.47
206.14	2338.5
206.214	2331.02
206.289	2324.97
206.363	2335.97
206.438	2338.06
206.512	2344.3
206.586	2364.14
206.661	2373.33
206.735	2353.02
206.81	2355.68
206.884	2372.91
206.958	2361.92
207.033	2380.28
207.107	2387.43
207.181	2419.09
207.256	2413.43
207.33	2434.51
207.405	2448.14
207.479	2472.42
207.553	2482.13
207.628	2472.57
207.702	2485.75
207.776	2486.42
207.851	2495.89
207.925	2519.14
207.999	2525.29
208.073	2533.43
208.148	2544.96
208.222	2544.77
208.296	2585.23
208.371	2612.73
208.445	2634.51
208.519	2679.33
208.593	2707.62
208.668	2725.26
208.742	2748.91
208.816	2770.4
208.89	2807.92
208.965	2833.2
209.039	2865.05
209.113	2908.24
209.187	2954.88
209.261	2985.62
209.336	3037.78
209.41	3094.3
209.484	3130.19
209.558	3188.77
209.632	3243.39
209.707	3302.9
209.781	3371.8
209.855	3440.6
209.929	3512.71
210.003	3576.55
210.077	3638.16
210.151	3744.95
210.226	3841.55
210.3	3935.57
210.374	4027.29
210.448	4102.54
210.522	4189.1
210.596	4280.45
210.67	4375.29
210.744	4507.97
210.818	4631.67
210.892	4741.86
210.966	4831.46
211.041	4946.89
211.115	5049.51
211.189	5175.91
211.263	5296.49
211.337	5412.21
211.411	5537.42
211.485	5640.63
211.559	5771.8
211.633	5890.45
211.707	5984.75
211.781	6120.42
211.855	6212.76
211.929	6342.94
212.003	6462.24
212.077	6612.27
212.151	6755.97
212.225	6904.73
212.299	7039.55
212.373	7167.55
212.447	7307.65
212.52	7481.16
212.594	7632.42
212.668	7792.13
212.742	7936.94
212.816	8082.28
212.89	8233.55
212.964	8381.12
213.038	8543.72
213.112	8709.89
213.186	8882.56
213.26	9022.55
213.333	9138.87
213.407	9304.88
213.481	9464.09
213.555	9639.82
213.629	9789.13
213.703	9940.41
213.777	10107.76
213.85	10249.25
213.924	10450.43
213.998	10616.26
214.072	10775.08
214.146	10921.46
214.219	11077.39
214.293	11235.31
214.367	11401.9
214.441	11575.4
214.515	11738.78
214.588	11877.34
214.662	12011.43
214.736	12152.37
214.81	12314.55
214.883	12476.64
214.957	12624.86
215.031	12775.64
215.105	12901.4
215.178	13037.67
215.252	13181.27
215.326	13300.58
215.4	13431.17
215.473	13524.2
215.547	13645.39
215.621	13771.64
215.694	13919.1
215.768	14047.81
215.842	14165.63
215.915	14297.42
215.989	14405.93
216.063	14529.71
216.136	14668.11
216.21	14795.61
216.284	14934.43
216.357	15066.07
216.431	15187.21
216.504	15317.93
216.578	15457.67
216.652	15593.26
216.725	15714.14
216.799	15843.27
216.873	15961.07
216.946	16076.7
217.02	16191.51
217.093	16309.02
217.167	16400.84
217.24	16502.53
217.314	16598.3
217.387	16707.95
217.461	16804.49
217.535	16914.56
217.608	16999.77
217.682	17097.46
217.755	17210.38
217.829	17307.83
217.902	17406.72
217.976	17510.77
218.049	17600.12
218.123	17677.27
218.196	17768.45
218.27	17854.28
218.343	17930.18
218.417	18021.89
218.49	18116.35
218.563	18217.16
218.637	18312.73
218.71	18416.72
218.784	18505.92
218.857	18600.95
218.931	18689.62
219.004	18770.15
219.077	18861.85
219.151	18947.49
219.224	19023.53
219.298	19099.38
219.371	19188.49
219.444	19253.35
219.518	19311.81
219.591	19387.08
219.665	19492.71
219.738	19569.48
219.811	19623.74
219.885	19696.75
219.958	19781.18
220.031	19851.44
220.105	19922.91
220.178	19983.1
220.251	20045.07
220.325	20104.69
220.398	20168.49
220.471	20229.31
220.544	20296.83
220.618	20342.56
220.691	20405.79
220.764	20456.68
220.838	20512.88
220.911	20552.97
220.984	20620.25
221.057	20682.18
221.131	20727.14
221.204	20738.71
221.277	20800.06
221.35	20881.56
221.424	20928.84
221.497	20968.07
221.57	21011.78
221.643	21059.26
221.716	21111.07
221.79	21147.41
221.863	21188.33
221.936	21226.41
222.009	21260.05
222.082	21308.87
222.155	21346.37
222.229	21386.18
222.302	21432.74
222.375	21471.3
222.448	21514.06
222.521	21550.21
222.594	21588.43
222.667	21616.67
222.74	21653.69
222.814	21680.58
222.887	21705.55
222.96	21743.63
223.033	21782.15
223.106	21810.92
223.179	21841.92
223.252	21867.23
223.325	21898.32
223.398	21923.24
223.471	21958.91
223.544	21979.01
223.617	21995.35
223.69	22023.79
223.763	22041.05
223.837	22067.85
223.91	22094.8
223.983	22096.43
224.056	22103.13
224.129	22123.28
224.202	22158.86
224.275	22182.48
224.348	22196.75
224.42	22199.98
224.493	22193.13
224.566	22192.07
224.639	22209.86
224.712	22212.27
224.785	22220.42
224.858	22226.97
224.931	22240.18
225.004	22232.23
225.077	22249.92
225.15	22229.38
225.223	22236.42
225.296	22267.9
225.369	22259.27
225.442	22245.97
225.514	22260.24
225.587	22267.13
225.66	22268.53
225.733	22269.88
225.806	22269.35
225.879	22267.32
225.952	22262.31
226.025	22285.98
226.097	22314.52
226.17	22319
226.243	22307.72
226.316	22314.23
226.389	22316.69
226.461	22322.77
226.534	22328.02
226.607	22321.13
226.68	22351.5
226.753	22355.5
226.825	22333.8
226.898	22349.09
226.971	22348.89
227.044	22345.47
227.117	22341.42
227.189	22343.01
227.262	22351.93
227.335	22359.74
227.407	22363.74
227.48	22381.77
227.553	22383.84
227.626	22360.89
227.698	22354.43
227.771	22357.76
227.844	22341.47
227.916	22346.05
227.989	22319
228.062	22315
228.134	22341.37
228.207	22331.25
228.28	22315.58
228.352	22310.23
228.425	22296.3
228.498	22301.02
228.57	22287.52
228.643	22302.9
228.716	22308.59
228.788	22297.94
228.861	22286.51
228.934	22279.23
229.006	22261.54
229.079	22246.45
229.151	22229.82
229.224	22195.59
229.296	22186.63
229.369	22215.26
229.442	22221.68
229.514	22216.57
229.587	22218.88
229.659	22191.69
229.732	22181.76
229.804	22187.11
229.877	22201.43
229.949	22197.57
230.022	22203.12
230.094	22192.32
230.167	22191.98
230.239	22159.15
230.312	22141.46
230.384	22153.66
230.457	22147.34
230.529	22138.33
230.602	22134.96
230.674	22141.66
230.747	22160.31
230.819	22163.4
230.892	22112.87
230.964	22092.39
231.037	22089.98
231.109	22072.82
231.181	22062.11
231.254	22041.24
231.326	22021.57
231.399	22009.57
231.471	22000.89
231.544	21965.9
231.616	21970.81
231.688	21940.11
231.761	21925.45
231.833	21903.38
231.905	21859.9
231.978	21840.28
232.05	21816.8
232.122	21798.05
232.195	21773.9
232.267	21770.48
232.339	21744.07
232.412	21737.03
232.484	21716.01
232.556	21691.29
232.629	21692.59
232.701	21684.2
232.773	21673.21
232.846	21662.12
232.918	21631.66
232.99	21607.7
233.062	21602.98
233.135	21578.93
233.207	21552.66
233.279	21547.26
233.351	21533.67
233.424	21510.63
233.496	21482.96
233.568	21485.57
233.64	21444.6
233.713	21423.34
233.785	21394.52
233.857	21386.66
233.929	21350.46
234.001	21339.57
234.074	21323.96
234.146	21291.04
234.218	21263.66
234.29	21229.01
234.362	21189.53
234.434	21149.38
234.507	21120.71
234.579	21078.15
234.651	21047.06
234.723	21032.02
234.795	21000.17
234.867	20973.42
234.939	20962.57
235.012	20945.61
235.084	20925.03
235.156	20911.39
235.228	20874.09
235.3	20835.68
235.372	20790.85
235.444	20785.22
235.516	20738.13
235.588	20718.56
235.66	20680.68
235.732	20646.13
235.804	20680.68
235.876	20666.32
235.948	20663.24
236.02	20622.56
236.092	20597.6
236.164	20562.42
236.236	20529.36
236.308	20503.62
236.38	20485.31
236.452	20442.71
236.524	20410.66
236.596	20387.91
236.668	20369.02
236.74	20349.45
236.812	20326.85
236.884	20316.68
236.956	20279.38
237.028	20242.8
237.1	20202.9
237.172	20188.78
237.244	20176.3
237.316	20105.98
237.388	20063.82
237.46	20007.53
237.532	20003.53
237.604	19962.33
237.675	19954.52
237.747	19925.75
237.819	19885.75
237.891	19846.38
237.963	19809.9
238.035	19771.83
238.107	19706.87
238.178	19685.52
238.25	19638.53
238.322	19622.29
238.394	19570.39
238.466	19538.15
238.538	19515.02
238.609	19485.53
238.681	19431.75
238.753	19391.17
238.825	19360.23
238.897	19326.65
238.968	19321.83
239.04	19268.72
239.112	19262.36
239.184	19212.2
239.255	19172.97
239.327	19151.81
239.399	19119.86
239.471	19096.88
239.542	19064.06
239.614	19047.19
239.686	18981.56
239.758	18966.62
239.829	18926.77
239.901	18912.12
239.973	18881.52
240.044	18849.37
240.116	18809.09
240.188	18777.62
240.259	18734.68
240.331	18694.16
240.403	18669.14
240.474	18612.42
240.546	18571.17
240.618	18517.73
240.689	18486.07
240.761	18451.23
240.833	18431.23
240.904	18394.41
240.976	18356.29
241.048	18326.51
241.119	18293.55
241.191	18269.17
241.262	18243.67
241.334	18203.48
241.405	18158.52
241.477	18117.66
241.549	18085.61
241.62	18058.38
241.692	18034.43
241.763	18014.09
241.835	17979.01
241.906	17945.08
241.978	17900.55
242.049	17883.25
242.121	17858.39
242.192	17828.07
242.264	17788.27
242.335	17733.52
242.407	17708.51
242.478	17671.74
242.55	17639.26
242.621	17602.3
242.693	17558.63
242.764	17521.62
242.836	17479.12
242.907	17450.63
242.979	17420.56
243.05	17388.61
243.122	17357.43
243.193	17319.98
243.264	17264.08
243.336	17224.95
243.407	17200.13
243.479	17185.91
243.55	17158.78
243.622	17130.92
243.693	17097.81
243.764	17079.02
243.836	17030.92
243.907	16992.55
243.978	16954.43
244.05	16929.42
244.121	16881.8
244.192	16857.7
244.264	16808.98
244.335	16782.76
244.407	16729.22
244.478	16693.26
244.549	16651.57
244.62	16608.1
244.692	16567.81
244.763	16545.83
244.834	16507.51
244.906	16470.74
244.977	16438.88
245.048	16410.83
245.119	16360.71
245.191	16316.32
245.262	16261.18
245.333	16244.26
245.405	16206.43
245.476	16177.94
245.547	16142.52
245.618	16118.13
245.689	16086.9
245.761	16058.12
245.832	16020.67
245.903	15998.6
245.974	15967.41
246.045	15938.25
246.117	15924.13
246.188	15884.6
246.259	15840.21
246.33	15809.41
246.401	15762.37
246.473	15709.25
246.544	15665.05
246.615	15639.22
246.686	15601.86
246.757	15591.84
246.828	15543.88
246.899	15522.62
246.97	15479.38
247.042	15445.35
247.113	15413.35
247.184	15397.68
247.255	15358.3
247.326	15325.28
247.397	15291.4
247.468	15258.33
247.539	15224.54
247.61	15178.7
247.681	15156.62
247.752	15129.34
247.823	15095.65
247.894	15074.97
247.965	15050.05
248.037	15020.84
248.108	14980.83
248.179	14960.53
248.25	14916.67
248.321	14903.46
248.392	14870.92
248.463	14863.55
248.534	14822.72
248.605	14803.58
248.675	14777.55
248.746	14748.97
248.817	14727.61
248.888	14710.41
248.959	14667.6
249.03	14641.71
249.101	14618.24
249.172	14586.95
249.243	14543.37
249.314	14528.09
249.385	14491.6
249.456	14464.51
249.527	14435.59
249.598	14414.23
249.669	14385.7
249.739	14367.14
249.81	14344.96
249.881	14296.52
249.952	14264.27
250.023	14238.14
250.094	14198.03
250.165	14150.55
250.235	14127.27
250.306	14098.05
250.377	14053.61
250.448	14035.14
250.519	13989.35
250.59	13977.2
250.66	13945.19
250.731	13936.18
250.802	13905.33
250.873	13889.9
250.944	13865.02
251.014	13824.58
251.085	13815.37
251.156	13786.35
251.227	13766.49
251.297	13748.22
251.368	13746.68
251.439	13736.84
251.51	13726.86
251.58	13687
251.651	13666.37
251.722	13643.56
251.792	13604.95
251.863	13581.23
251.934	13571.06
252.005	13578.68
252.075	13546.72
252.146	13535.58
252.217	13522.76
252.287	13498.65
252.358	13474.55
252.429	13471.66
252.499	13450.59
252.57	13437.48
252.641	13429
252.711	13409.81
252.782	13370.81
252.852	13359
252.923	13333.98
252.994	13312.34
253.064	13303.03
253.135	13268.18
253.205	13241.76
253.276	13240.89
253.347	13232.8
253.417	13195.97
253.488	13159.43
253.558	13134.94
253.629	13105.05
253.699	13084.56
253.77	13074.49
253.841	13044.07
253.911	13017.12
253.982	13001.02
254.052	12973.2
254.123	12948.72
254.193	12924.28
254.264	12944.91
254.334	12909.33
254.405	12870.62
254.475	12830.85
254.546	12810.03
254.616	12802.32
254.687	12790.99
254.757	12759.89
254.827	12738.35
254.898	12725.43
254.968	12709.13
255.039	12681.85
255.109	12670.09
255.18	12640.49
255.25	12597.35
255.321	12584.81
255.391	12547.84
255.461	12544.71
255.532	12501.95
255.602	12481.66
255.673	12437.74
255.743	12396.62
255.813	12354.83
255.884	12347.02
255.954	12337.48
256.024	12337.48
256.095	12313.42
256.165	12276.74
256.235	12267.1
256.306	12237.5
256.376	12226.8
256.446	12213.35
256.517	12193.74
256.587	12181.06
256.657	12163.9
256.728	12147.56
256.798	12120.9
256.868	12098.34
256.938	12063.88
257.009	12055.25
257.079	12042.57
257.149	12053.32
257.219	12010.91
257.29	11995.53
257.36	11953.45
257.43	11944.97
257.5	11902.98
257.571	11885.83
257.641	11878.07
257.711	11847.55
257.781	11835.02
257.852	11817.43
257.922	11783.06
257.992	11760.7
258.062	11740.94
258.132	11731.49
258.202	11706.23
258.273	11696.98
258.343	11699.82
258.413	11678.71
258.483	11657.7
258.553	11619.96
258.623	11592.05
258.693	11583.18
258.764	11588.87
258.834	11585.74
258.904	11563.85
258.974	11538.07
259.044	11515.22
259.114	11498.45
259.184	11481.01
259.254	11463.12
259.324	11417.77
259.394	11400.42
259.464	11401.05
259.535	11379.12
259.605	11356.13
259.675	11333.09
259.745	11316.42
259.815	11283.36
259.885	11260.51
259.955	11272.66
260.025	11251.36
260.095	11226.11
260.165	11210.01
260.235	11200.03
260.305	11172.42
260.375	11141.86
260.445	11148.51
260.515	11145.67
260.585	11141.96
260.655	11132.13
260.725	11126.44
260.795	11128.9
260.865	11130.49
260.934	11104.95
261.004	11099.31
261.074	11081.62
261.144	11085.67
261.214	11075.26
261.284	11062.15
261.354	11053.91
261.424	11030.35
261.494	11033.57
261.564	11025.67
261.634	11016.66
261.703	10978.78
261.773	10974.3
261.843	10965.72
261.913	10949.72
261.983	10910.89
262.053	10899.99
262.123	10874.65
