Data from 20250702_urea_0.5M_MAYP1162681_08-25-00-218.txt Node
Date: Thu Jul 03 08:25:00 BST 2025
User: adleo
Spectrometer: MAYP116268
Trigger mode: 0
Integration Time (sec): 1.000000E0
Scans to average: 1
Electric dark correction enabled: true
Nonlinearity correction enabled: true
Boxcar width: 10
XAxis mode: Wavelengths
Number of Pixels in Spectrum: 2068
>>>>>Begin Spectral Data<<<<<
179.565	1148.35
179.642	1205.07
179.718	1246.3
179.795	1285.71
179.871	1321.06
179.948	1338.9
180.024	1360.15
180.101	1381.98
180.177	1396.53
180.254	1418.9
180.33	1439.28
180.407	1490.36
180.483	1581.05
180.56	1665.86
180.636	1744.85
180.712	1735.25
180.789	1749.08
180.865	1758.11
180.942	1768.23
181.018	1780.01
181.095	1795.79
181.171	1801.73
181.248	1803.64
181.324	1821.65
181.4	1828.21
181.477	1836.11
181.553	1849.08
181.63	1867.86
181.706	1885.45
181.782	1895
181.859	1895.57
181.935	1903.6
182.011	1900.04
182.088	1918.39
182.164	1941.36
182.24	1956.33
182.317	1965.89
182.393	1961.56
182.469	1977.68
182.546	1991.66
182.622	1997.17
182.698	1993.61
182.775	2007.63
182.851	2020.76
182.927	2011.25
183.003	2007.06
183.08	2003.07
183.156	2013.1
183.232	2010.01
183.308	1995.94
183.385	2001.64
183.461	2018.95
183.537	2018.95
183.613	2030.32
183.69	2019.76
183.766	2008.01
183.842	2016.76
183.918	2019.14
183.995	2034.64
184.071	2035.73
184.147	2030.69
184.223	2016.86
184.299	2028.89
184.375	2016.29
184.452	2022.43
184.528	2071.33
184.604	2081.83
184.68	2094.1
184.756	2100.14
184.832	2105.19
184.908	2110.18
184.985	2109.08
185.061	2092.3
185.137	2100.29
185.213	2089.97
185.289	2093.53
185.365	2085.88
185.441	2083.59
185.517	2099.53
185.593	2095.02
185.669	2094.92
185.745	2105.77
185.822	2122.07
185.898	2112.75
185.974	2124.54
186.05	2117.4
186.126	2084.82
186.202	2079.45
186.278	2073.93
186.354	2066.13
186.43	2073.65
186.506	2072.32
186.582	2075.17
186.658	2080.92
186.734	2060.1
186.81	2061.48
186.886	2064.66
186.962	2076.55
187.038	2071.03
187.114	2060.09
187.19	2066.7
187.266	2054.24
187.341	2052.1
187.417	2046.16
187.493	2046.3
187.569	2045.35
187.645	2038.26
187.721	2026.65
187.797	2032.12
187.873	2036.17
187.949	2029.56
188.025	2022.04
188.101	2026.37
188.176	2028.27
188.252	2025.7
188.328	2036.21
188.404	2036.3
188.48	2029.69
188.556	2023.37
188.632	2024.22
188.707	2027.46
188.783	2024.17
188.859	2021.23
188.935	2012.33
189.011	2022.94
189.086	2017.09
189.162	2011.34
189.238	2008.96
189.314	2005.96
189.39	2000.87
189.465	1994.74
189.541	2012.58
189.617	1997.79
189.693	1993.13
189.768	1996.17
189.844	2019.44
189.92	2010.03
189.996	2021.87
190.071	2033.47
190.147	2031.9
190.223	2042.89
190.298	2034.14
190.374	2022.39
190.45	2034.33
190.526	2043.03
190.601	2034.99
190.677	2036.32
190.753	2061.02
190.828	2063.63
190.904	2078.62
190.98	2091.7
191.055	2102.68
191.131	2090.36
191.207	2111.86
191.282	2121.99
191.358	2113.86
191.433	2099.44
191.509	2113.89
191.585	2107.99
191.66	2110.42
191.736	2119.79
191.811	2110.08
191.887	2126.45
191.963	2147.81
192.038	2152.75
192.114	2151.42
192.189	2157.23
192.265	2154.61
192.34	2136.76
192.416	2136.1
192.491	2129.29
192.567	2133.82
192.642	2132.77
192.718	2133.58
192.793	2121.78
192.869	2118.55
192.944	2120.35
193.02	2126.54
193.095	2128.96
193.171	2135.29
193.246	2134.62
193.322	2133.01
193.397	2131.48
193.473	2116.16
193.548	2099.04
193.624	2102.37
193.699	2103.89
193.775	2117.07
193.85	2117.07
193.925	2125.59
194.001	2126.01
194.076	2124.06
194.152	2114.98
194.227	2109.51
194.302	2099.85
194.378	2102.71
194.453	2097.95
194.529	2109.08
194.604	2095
194.679	2092.29
194.755	2073.46
194.83	2084.84
194.905	2080.7
194.981	2088.55
195.056	2083.36
195.131	2088.02
195.207	2087.98
195.282	2075.99
195.357	2057.44
195.433	2073.46
195.508	2060.52
195.583	2068.04
195.659	2079.12
195.734	2085.4
195.809	2087.26
195.884	2098.05
195.96	2099.58
196.035	2113.84
196.11	2112.37
196.185	2123.83
196.261	2125.73
196.336	2156.65
196.411	2142.85
196.486	2147.23
196.561	2143.99
196.637	2152.17
196.712	2169.16
196.787	2172.97
196.862	2186.33
196.937	2194.99
197.013	2199.56
197.088	2210.93
197.163	2231.73
197.238	2249.25
197.313	2248.3
197.388	2259.91
197.464	2288.85
197.539	2297.13
197.614	2290.95
197.689	2303.32
197.764	2317.79
197.839	2334.97
197.914	2328.92
197.989	2349.01
198.065	2364.67
198.14	2412.3
198.215	2438.05
198.29	2448.05
198.365	2462.86
198.44	2477.23
198.515	2506.61
198.59	2521.95
198.665	2543.75
198.74	2551.71
198.815	2551.9
198.89	2574.56
198.965	2605.24
199.04	2603.1
199.115	2619.86
199.19	2662.25
199.265	2664.63
199.34	2677.44
199.415	2712.09
199.49	2731.23
199.565	2743.28
199.64	2764.91
199.715	2762.34
199.79	2771.06
199.865	2779.92
199.94	2776.16
200.015	2808.23
200.09	2815.24
200.165	2820.24
200.24	2831.11
200.315	2868.26
200.39	2884.37
200.464	2889.66
200.539	2888.42
200.614	2900.67
200.689	2922.78
200.764	2929.46
200.839	2946.13
200.914	2950.09
200.989	2940.03
201.063	2953.85
201.138	2936.32
201.213	2938.32
201.288	2923.07
201.363	2925.31
201.438	2925.93
201.512	2941.84
201.587	2923.15
201.662	2925.06
201.737	2939.31
201.812	2944.99
201.886	2914.6
201.961	2925.43
202.036	2911.66
202.111	2909.47
202.186	2883.79
202.26	2867.96
202.335	2844.27
202.41	2838.32
202.485	2820.22
202.559	2800.68
202.634	2777.95
202.709	2785.38
202.784	2765.65
202.858	2765.98
202.933	2747.5
203.008	2738.25
203.082	2719.58
203.157	2719.2
203.232	2676.2
203.306	2653.99
203.381	2621.16
203.456	2598.82
203.53	2575.31
203.605	2555.99
203.68	2531.55
203.754	2526.65
203.829	2511.31
203.904	2494.31
203.978	2480.98
204.053	2487.88
204.127	2475.55
204.202	2471.55
204.277	2455.94
204.351	2449.41
204.426	2440.12
204.5	2432.7
204.575	2401.33
204.65	2412.48
204.724	2408.05
204.799	2416.47
204.873	2412.9
204.948	2414.09
205.022	2401.14
205.097	2391.61
205.171	2407.13
205.246	2418.27
205.32	2414.9
205.395	2416.9
205.469	2407.76
205.544	2412.86
205.618	2393.96
205.693	2403.29
205.767	2393.2
205.842	2412.57
205.916	2405.77
205.991	2396.72
206.065	2403.39
206.14	2417.9
206.214	2412.47
206.289	2401.42
206.363	2412.32
206.438	2416.94
206.512	2422.27
206.586	2443.74
206.661	2452.31
206.735	2431.09
206.81	2432.9
206.884	2448.37
206.958	2434.47
207.033	2452.89
207.107	2464.94
207.181	2499.9
207.256	2497.66
207.33	2518.18
207.405	2530.76
207.479	2553.57
207.553	2563.14
207.628	2548.05
207.702	2562.72
207.776	2557.43
207.851	2561.76
207.925	2579.96
207.999	2576.63
208.073	2578.2
208.148	2584.49
208.222	2576.87
208.296	2613.47
208.371	2631.54
208.445	2649.41
208.519	2685.65
208.593	2701.13
208.668	2701.8
208.742	2709.67
208.816	2719.67
208.89	2740.16
208.965	2749.8
209.039	2766.67
209.113	2792.31
209.187	2822.26
209.261	2828.69
209.336	2860.43
209.41	2893.85
209.484	2910.39
209.558	2950.96
209.632	2982.56
209.707	3008.79
209.781	3049.89
209.855	3085.09
209.929	3123.42
210.003	3148.37
210.077	3170.6
210.151	3244.51
210.226	3303.5
210.3	3356.99
210.374	3407.98
210.448	3442.3
210.522	3482.08
210.596	3520.5
210.67	3561.66
210.744	3645.04
210.818	3711.09
210.892	3771.57
210.966	3807.91
211.041	3869.11
211.115	3907.76
211.189	3970.06
211.263	4029.26
211.337	4077.19
211.411	4136.52
211.485	4174.3
211.559	4237.25
211.633	4285.85
211.707	4302.5
211.781	4362.04
211.855	4381.46
211.929	4422.53
212.003	4457.1
212.077	4523.77
212.151	4597.53
212.225	4660.12
212.299	4705.04
212.373	4753.47
212.447	4803.04
212.52	4888.65
212.594	4947.23
212.668	5015.9
212.742	5069.79
212.816	5131.68
212.89	5189.92
212.964	5252.09
213.038	5325.66
213.112	5409.08
213.186	5490.78
213.26	5539.22
213.333	5563.14
213.407	5633.64
213.481	5712.05
213.555	5793.43
213.629	5850.76
213.703	5904.54
213.777	5980.3
213.85	6039.56
213.924	6145.91
213.998	6224.96
214.072	6293.96
214.146	6349.44
214.219	6430.25
214.293	6500.33
214.367	6572.59
214.441	6657.44
214.515	6725.88
214.588	6773.57
214.662	6810.03
214.736	6863.1
214.81	6947.81
214.883	7028.05
214.957	7096.07
215.031	7157.94
215.105	7209.04
215.178	7268.92
215.252	7335.1
215.326	7382.69
215.4	7424.79
215.473	7443.54
215.547	7499.51
215.621	7561.16
215.694	7635.07
215.768	7674.26
215.842	7731.72
215.915	7791.02
215.989	7834.02
216.063	7886.4
216.136	7953.35
216.21	8015.3
216.284	8093.56
216.357	8153.06
216.431	8221.19
216.504	8296.34
216.578	8384.78
216.652	8464.25
216.725	8532.97
216.799	8606.09
216.873	8674.08
216.946	8754.54
217.02	8816.66
217.093	8873.61
217.167	8908.75
217.24	8961.99
217.314	9023.99
217.387	9076.36
217.461	9133.99
217.535	9208.81
217.608	9266.15
217.682	9330.96
217.755	9402.37
217.829	9455
217.902	9523.05
217.976	9584.54
218.049	9632.71
218.123	9677.07
218.196	9746.81
218.27	9799.69
218.343	9843.14
218.417	9904.46
218.49	9964.53
218.563	10052.24
218.637	10121.81
218.71	10204.42
218.784	10273.65
218.857	10349.72
218.931	10425.36
219.004	10488.14
219.077	10555.45
219.151	10619.58
219.224	10682.22
219.298	10749.48
219.371	10823.83
219.444	10876.98
219.518	10940.11
219.591	11012.63
219.665	11108.01
219.738	11170.75
219.811	11225.74
219.885	11300.19
219.958	11375.91
220.031	11438.08
220.105	11506.9
220.178	11564.16
220.251	11623.35
220.325	11693.67
220.398	11764.76
220.471	11832.24
220.544	11901.41
220.618	11960.12
220.691	12028.56
220.764	12090.83
220.838	12156.87
220.911	12212.4
220.984	12295.02
221.057	12367.37
221.131	12422.47
221.204	12456.55
221.277	12533.29
221.35	12626.27
221.424	12683.88
221.497	12745.44
221.57	12807.28
221.643	12863.59
221.716	12931.89
221.79	12986.42
221.863	13036.98
221.936	13078.2
222.009	13139.32
222.082	13204.79
222.155	13268.52
222.229	13335.48
222.302	13398.48
222.375	13453.68
222.448	13513.26
222.521	13565.57
222.594	13616.13
222.667	13669.79
222.74	13723.88
222.814	13771.89
222.887	13819.9
222.96	13885.13
223.033	13941.09
223.106	13998.75
223.179	14057.85
223.252	14112.9
223.325	14171.95
223.398	14239.29
223.471	14299.65
223.544	14345.54
223.617	14397.89
223.69	14437.32
223.763	14475.65
223.837	14530.6
223.91	14582.27
223.983	14615.58
224.056	14650.29
224.129	14695.94
224.202	14754.66
224.275	14797.8
224.348	14837.33
224.42	14871.65
224.493	14897.15
224.566	14933.15
224.639	14973.65
224.712	15009.27
224.785	15045.23
224.858	15083.36
224.931	15107.07
225.004	15146.5
225.077	15186.65
225.15	15197.89
225.223	15243.44
225.296	15317.67
225.369	15343.07
225.442	15376.04
225.514	15431.13
225.587	15479.09
225.66	15525.08
225.733	15562.53
225.806	15607.84
225.879	15647.41
225.952	15681.54
226.025	15743.76
226.097	15804.97
226.17	15855.05
226.243	15875.49
226.316	15907.59
226.389	15952.22
226.461	15999.03
226.534	16039.75
226.607	16080.19
226.68	16145.31
226.753	16182.13
226.825	16187.72
226.898	16239.59
226.971	16279.4
227.044	16319.21
227.117	16369
227.189	16413.29
227.262	16457.92
227.335	16503.13
227.407	16531.37
227.48	16570.56
227.553	16605.02
227.626	16622.65
227.698	16658.17
227.771	16697.36
227.844	16734.13
227.916	16759.63
227.989	16775.87
228.062	16798.23
228.134	16847.63
228.207	16871.59
228.28	16897.52
228.352	16927.59
228.425	16951.73
228.498	16994.29
228.57	17019.25
228.643	17051.35
228.716	17075.11
228.788	17104.32
228.861	17118.63
228.934	17171.69
229.006	17201.72
229.079	17215.07
229.151	17244.85
229.224	17257.23
229.296	17295.21
229.369	17350.58
229.442	17403.64
229.514	17432.37
229.587	17471.93
229.659	17480.61
229.732	17512.03
229.804	17558.1
229.877	17607.02
229.949	17653.14
230.022	17696.12
230.094	17713.33
230.167	17743.64
230.239	17756.51
230.312	17775.45
230.384	17831.21
230.457	17851.49
230.529	17882.14
230.602	17918.24
230.674	17945.42
230.747	17978.19
230.819	18019.2
230.892	18010.43
230.964	18027.63
231.037	18054.38
231.109	18076.31
231.181	18110.52
231.254	18124.84
231.326	18139.24
231.399	18156.64
231.471	18166.18
231.544	18163.2
231.616	18194.52
231.688	18215.68
231.761	18227.92
231.833	18242.57
231.905	18237.6
231.978	18251.29
232.05	18258.47
232.122	18275.96
232.195	18290.27
232.267	18320.34
232.339	18327.67
232.412	18357.93
232.484	18367.57
232.556	18377.98
232.629	18410.51
232.701	18428.24
232.773	18439.52
232.846	18449.01
232.918	18459.33
232.99	18470.89
233.062	18489.64
233.135	18515.27
233.207	18508.24
233.279	18534.74
233.351	18555.18
233.424	18556.33
233.496	18555.85
233.568	18591.13
233.64	18582.69
233.713	18586.02
233.785	18587.56
233.857	18592.91
233.929	18580.38
234.001	18607.41
234.074	18631.51
234.146	18621
234.218	18622.98
234.29	18626.11
234.362	18626.16
234.434	18616.14
234.507	18606.98
234.579	18594.98
234.651	18588.28
234.723	18595.51
234.795	18599.8
234.867	18596.86
234.939	18622.74
235.012	18622.45
235.084	18620.76
235.156	18631.89
235.228	18625.53
235.3	18614.55
235.372	18613.82
235.444	18636.33
235.516	18601.82
235.588	18597.25
235.66	18598.84
235.732	18589.15
235.804	18646.78
235.876	18650.06
235.948	18670.93
236.02	18664.71
236.092	18650.45
236.164	18638.4
236.236	18625.34
236.308	18613.77
236.38	18609
236.452	18574.98
236.524	18572.86
236.596	18571.61
236.668	18569.78
236.74	18556.04
236.812	18554.55
236.884	18552.33
236.956	18532.82
237.028	18511.56
237.1	18493.83
237.172	18496.19
237.244	18500.24
237.316	18450.41
237.388	18437.25
237.46	18408.73
237.532	18413.79
237.604	18397.98
237.675	18397.11
237.747	18394.8
237.819	18385.5
237.891	18368.78
237.963	18361.88
238.035	18342.27
238.107	18297.31
238.178	18296.88
238.25	18284.64
238.322	18295.48
238.394	18259.05
238.466	18247.48
238.538	18244.16
238.609	18231.67
238.681	18194.57
238.753	18169.17
238.825	18148.59
238.897	18133.41
238.968	18129.56
239.04	18102.28
239.112	18112.55
239.184	18091.05
239.255	18060.93
239.327	18034.53
239.399	18017.95
239.471	17999.39
239.542	17985.08
239.614	17978.67
239.686	17929.42
239.758	17919.59
239.829	17879.88
239.901	17872.51
239.973	17850.53
240.044	17838.63
240.116	17816.22
240.188	17793.23
240.259	17774.34
240.331	17748.51
240.403	17726.63
240.474	17685.09
240.546	17654.2
240.618	17609.57
240.689	17577.48
240.761	17557.24
240.833	17549.67
240.904	17520.95
240.976	17495.74
241.048	17476.37
241.119	17456.42
241.191	17439.94
241.262	17427.84
241.334	17401.72
241.405	17377.72
241.477	17344.56
241.549	17313.67
241.62	17289.48
241.692	17272.03
241.763	17246.73
241.835	17218.34
241.906	17193.81
241.978	17158.87
242.049	17147.4
242.121	17137.28
242.192	17121.72
242.264	17078
242.335	17027.98
242.407	17011.35
242.478	16979.78
242.55	16956.17
242.621	16925.42
242.693	16895.63
242.764	16862.09
242.836	16838.81
242.907	16808.21
242.979	16786.18
243.05	16760.79
243.122	16737.41
243.193	16702.9
243.264	16665.45
243.336	16640.49
243.407	16616.92
243.479	16611.14
243.55	16589.93
243.622	16565.64
243.693	16541.3
243.764	16538.17
243.836	16511.28
243.907	16481.63
243.978	16453.25
244.05	16427.65
244.121	16385.77
244.192	16365.82
244.264	16323.84
244.335	16292.36
244.407	16255.01
244.478	16230.14
244.549	16200.93
244.62	16163.96
244.692	16132.59
244.763	16109.07
244.834	16073.74
244.906	16037.01
244.977	16000.43
245.048	15978.59
245.119	15937.09
245.191	15892.32
245.262	15838.77
245.333	15821.9
245.405	15785.36
245.476	15768.06
245.547	15733.31
245.618	15710.41
245.689	15678.69
245.761	15655.37
245.832	15624.08
245.903	15608.9
245.974	15577.43
246.045	15544.31
246.117	15522.96
246.188	15488.88
246.259	15442.7
246.33	15416.29
246.401	15380.18
246.473	15340.13
246.544	15304.8
246.615	15283.54
246.686	15252.84
246.757	15237.51
246.828	15199.19
246.899	15182.32
246.97	15137.58
247.042	15104.52
247.113	15076.56
247.184	15065.33
247.255	15027.39
247.326	15004.16
247.397	14962.56
247.468	14943.95
247.539	14917.44
247.61	14879.46
247.681	14863.74
247.752	14849.38
247.823	14809.08
247.894	14786.71
247.965	14759.38
248.037	14722.74
248.108	14681.63
248.179	14654.49
248.25	14626.48
248.321	14608.64
248.392	14572.54
248.463	14568.3
248.534	14533.88
248.605	14519.66
248.675	14489.72
248.746	14474.2
248.817	14446.77
248.888	14430.82
248.959	14370.75
249.03	14347.95
249.101	14319.27
249.172	14285.14
249.243	14240.4
249.314	14228.69
249.385	14201.5
249.456	14177.93
249.527	14143.99
249.598	14122.01
249.669	14091.4
249.739	14073.8
249.81	14045.41
249.881	14008.73
249.952	13974.93
250.023	13953.68
250.094	13909.52
250.165	13873.27
250.235	13840.44
250.306	13813.54
250.377	13775.75
250.448	13765.53
250.519	13728.26
250.59	13727.78
250.66	13700.79
250.731	13695.72
250.802	13671.23
250.873	13655.86
250.944	13631.71
251.014	13607.75
251.085	13601.43
251.156	13581.09
251.227	13560.02
251.297	13549.75
251.368	13539.29
251.439	13524.59
251.51	13517.07
251.58	13489.78
251.651	13462.4
251.722	13452.91
251.792	13404.89
251.863	13373.7
251.934	13363.24
252.005	13359.92
252.075	13334.03
252.146	13321.4
252.217	13312.58
252.287	13288.43
252.358	13256.85
252.429	13254.39
252.499	13225.47
252.57	13208.55
252.641	13201.37
252.711	13182.47
252.782	13142.75
252.852	13133.83
252.923	13114.11
252.994	13084.32
253.064	13073.43
253.135	13040.45
253.205	13009.17
253.276	13016.64
253.347	13016.69
253.417	12979.18
253.488	12952.43
253.558	12913.04
253.629	12888.17
253.699	12860.4
253.77	12855.82
253.841	12831.38
253.911	12801.3
253.982	12782.12
254.052	12767.13
254.123	12745.29
254.193	12723.16
254.264	12744.08
254.334	12709.23
254.405	12671.97
254.475	12640.59
254.546	12617.26
254.616	12610.12
254.687	12593.54
254.757	12574.31
254.827	12544.03
254.898	12534.49
254.968	12516.22
255.039	12492.99
255.109	12482.91
255.18	12457.46
255.25	12407.09
255.321	12388.19
255.391	12354.45
255.461	12359.32
255.532	12311.59
255.602	12282.72
255.673	12241.6
255.743	12206.17
255.813	12164.62
255.884	12153.58
255.954	12135.56
256.024	12134.54
256.095	12113.38
256.165	12080.08
256.235	12060.79
256.306	12035.92
256.376	12025.7
256.446	12006.28
256.517	11996.4
256.587	11979.14
256.657	11954.03
256.728	11942.56
256.798	11926.94
256.868	11911.85
256.938	11876.04
257.009	11873.58
257.079	11857.68
257.149	11867.12
257.219	11830.97
257.29	11815.89
257.36	11776.99
257.43	11778.92
257.5	11742.43
257.571	11720.45
257.641	11712.84
257.711	11682.09
257.781	11669.65
257.852	11660.44
257.922	11628.25
257.992	11606.7
258.062	11585.93
258.132	11579.71
258.202	11554.84
258.273	11538.36
258.343	11535.9
258.413	11511.66
258.483	11481.05
258.553	11454.26
258.623	11426.64
258.693	11406.78
258.764	11409.48
258.834	11410.83
258.904	11387.36
258.974	11352.66
259.044	11334.44
259.114	11317.72
259.184	11295.98
259.254	11276.56
259.324	11232.75
259.394	11223.89
259.464	11225.38
259.535	11200.08
259.605	11178.05
259.675	11158.68
259.745	11149.77
259.815	11122.87
259.885	11097.53
259.955	11110.68
260.025	11094.11
260.095	11072.03
260.165	11060.85
260.235	11058.4
260.305	11027.75
260.375	10993.29
260.445	10999.75
260.515	11000.37
260.585	10998.25
260.655	10987.27
260.725	10982.93
260.795	10976.42
260.865	10977.73
260.934	10948.71
261.004	10945.73
261.074	10929.54
261.144	10927.56
261.214	10917.2
261.284	10899.9
261.354	10896.33
261.424	10867.9
261.494	10863.37
261.564	10847.37
261.634	10842.12
261.703	10806.94
261.773	10799.14
261.843	10796.2
261.913	10777.74
261.983	10743.43
262.053	10730.57
262.123	10706.04
262.192	10673.23
262.262	10666.77
