Data from 20250702_urea_0.5M_MAYP1162681_15-54-59-985.txt Node
Date: Wed Jul 02 15:54:59 BST 2025
User: adleo
Spectrometer: MAYP116268
Trigger mode: 0
Integration Time (sec): 1.000000E0
Scans to average: 1
Electric dark correction enabled: true
Nonlinearity correction enabled: true
Boxcar width: 10
XAxis mode: Wavelengths
Number of Pixels in Spectrum: 2068
>>>>>Begin Spectral Data<<<<<
179.565	1114.89
179.642	1165.17
179.718	1204.86
179.795	1239.11
179.871	1269.91
179.948	1283.65
180.024	1303.76
180.101	1322.57
180.177	1334.25
180.254	1355.65
180.33	1375.47
180.407	1419.95
180.483	1507.98
180.56	1591.21
180.636	1668.55
180.712	1655.43
180.789	1662.7
180.865	1674.1
180.942	1682.36
181.018	1694.24
181.095	1704.89
181.171	1710.45
181.248	1712.02
181.324	1726.89
181.4	1735.88
181.477	1746.05
181.553	1760.53
181.63	1779.21
181.706	1796.51
181.782	1804.16
181.859	1801.98
181.935	1807.2
182.011	1804.69
182.088	1821.42
182.164	1837.53
182.24	1851.74
182.317	1859.54
182.393	1857.4
182.469	1871.51
182.546	1884.2
182.622	1886.06
182.698	1879.88
182.775	1889.15
182.851	1904.41
182.927	1898.47
183.003	1894.28
183.08	1886.63
183.156	1893.67
183.232	1888.72
183.308	1879.02
183.385	1885.01
183.461	1902.12
183.537	1903.6
183.613	1917.67
183.69	1907.59
183.766	1898.41
183.842	1902.41
183.918	1910.54
183.995	1922.37
184.071	1926.7
184.147	1924.75
184.223	1913.82
184.299	1927.75
184.375	1919.39
184.452	1923.86
184.528	1975.94
184.604	1987.25
184.68	2000.47
184.756	2007.41
184.832	2011.26
184.908	2011.78
184.985	2012.07
185.061	1996.38
185.137	2006.46
185.213	1995.05
185.289	1996.95
185.365	1990.63
185.441	1991.01
185.517	1999.72
185.593	1995.53
185.669	1990.11
185.745	1997.39
185.822	2015.16
185.898	2007.36
185.974	2013.02
186.05	2004.36
186.126	1963.7
186.202	1954.38
186.278	1951
186.354	1941.68
186.43	1948.53
186.506	1950.29
186.582	1951.38
186.658	1957.04
186.734	1936.26
186.81	1938.02
186.886	1943.44
186.962	1953.71
187.038	1950.76
187.114	1946.67
187.19	1958.08
187.266	1951.81
187.341	1951.33
187.417	1944.11
187.493	1942.97
187.569	1947.1
187.645	1940.83
187.721	1931.27
187.797	1936.93
187.873	1939.45
187.949	1934.98
188.025	1929.56
188.101	1932.69
188.176	1939.3
188.252	1936.31
188.328	1943.15
188.404	1944.2
188.48	1939.3
188.556	1933.17
188.632	1931.36
188.707	1931.88
188.783	1925.75
188.859	1919.85
188.935	1911.1
189.011	1917.14
189.086	1909.92
189.162	1902.69
189.238	1901.88
189.314	1899.6
189.39	1898.84
189.465	1892.52
189.541	1908.25
189.617	1894.37
189.693	1890.67
189.768	1893.52
189.844	1917.35
189.92	1912.74
189.996	1920.15
190.071	1929.85
190.147	1930.57
190.223	1939.98
190.298	1932.47
190.374	1922.06
190.45	1935.79
190.526	1940.74
190.601	1937.41
190.677	1939.93
190.753	1965.19
190.828	1968.56
190.904	1981.35
190.98	1992.15
191.055	2002.9
191.131	1995.72
191.207	2015.97
191.282	2021.29
191.358	2011.31
191.433	1998.56
191.509	2009.78
191.585	2007.45
191.66	2008.3
191.736	2014.15
191.811	2005.5
191.887	2020.05
191.963	2040.88
192.038	2044.73
192.114	2046.78
192.189	2048.49
192.265	2046.11
192.34	2025.94
192.416	2024.8
192.491	2023.04
192.567	2025.28
192.642	2025.18
192.718	2026.04
192.793	2015.62
192.869	2012.25
192.944	2014.57
193.02	2019.81
193.095	2023.52
193.171	2027.42
193.246	2024.75
193.322	2024.32
193.397	2024.99
193.473	2013.05
193.548	1996.17
193.624	2003.49
193.699	2003.4
193.775	2020.9
193.85	2023.42
193.925	2030.22
194.001	2030.37
194.076	2023.85
194.152	2012.48
194.227	2005.97
194.302	1995.41
194.378	1999.22
194.453	1998.08
194.529	2010.2
194.604	1999.6
194.679	1993.18
194.755	1977.02
194.83	1990.72
194.905	1985.44
194.981	1994.29
195.056	1987.68
195.131	1994
195.207	1987.53
195.282	1977.74
195.357	1958.42
195.433	1974.5
195.508	1965.41
195.583	1971.83
195.659	1983.01
195.734	1994.81
195.809	1997.42
195.884	2006.5
195.96	2004.98
196.035	2019.25
196.11	2013.97
196.185	2022.62
196.261	2027.42
196.336	2051.63
196.411	2036.59
196.486	2043.87
196.561	2038.11
196.637	2046.86
196.712	2063.32
196.787	2067.46
196.862	2084.53
196.937	2094.14
197.013	2098.52
197.088	2108.88
197.163	2128.34
197.238	2144.53
197.313	2141.25
197.388	2153.14
197.464	2182.36
197.539	2193.73
197.614	2184.55
197.689	2200.29
197.764	2213.48
197.839	2231.89
197.914	2227.99
197.989	2250.26
198.065	2263.63
198.14	2308.33
198.215	2333.13
198.29	2341.89
198.365	2355.5
198.44	2364.59
198.515	2388.87
198.59	2402.72
198.665	2425.19
198.74	2433.57
198.815	2434.47
198.89	2457.9
198.965	2487.52
199.04	2484.23
199.115	2496.56
199.19	2538.98
199.265	2538.88
199.34	2551.69
199.415	2580.56
199.49	2604.56
199.565	2610.99
199.64	2631.37
199.715	2631.8
199.79	2637.47
199.865	2642.94
199.94	2638.99
200.015	2666.96
200.09	2673.96
200.165	2679.29
200.24	2685.77
200.315	2723.49
200.39	2737.4
200.464	2741.97
200.539	2740.59
200.614	2755.17
200.689	2778.61
200.764	2788.43
200.839	2806.29
200.914	2810.48
200.989	2801.42
201.063	2814.43
201.138	2801.15
201.213	2801.86
201.288	2783.14
201.363	2788.09
201.438	2790.14
201.512	2808
201.587	2792.28
201.662	2798.23
201.737	2807.48
201.812	2818.44
201.886	2787.54
201.961	2795.45
202.036	2781.73
202.111	2778.02
202.186	2749.25
202.26	2735.43
202.335	2711.84
202.41	2705.32
202.485	2690.55
202.559	2673.21
202.634	2649.63
202.709	2658.49
202.784	2643.77
202.858	2642.44
202.933	2624.53
203.008	2618
203.082	2600.28
203.157	2600.43
203.232	2559.77
203.306	2541.33
203.381	2506.8
203.456	2485.27
203.53	2465.31
203.605	2449.65
203.68	2429.88
203.754	2424.75
203.829	2407.22
203.904	2388.61
203.978	2377.28
204.053	2379.13
204.127	2365.67
204.202	2363.29
204.277	2344.91
204.351	2340.01
204.426	2335.34
204.5	2330.54
204.575	2298.28
204.65	2308.7
204.724	2301.04
204.799	2307.98
204.873	2305.17
204.948	2306.27
205.022	2298.08
205.097	2291.32
205.171	2303.12
205.246	2309.6
205.32	2306.17
205.395	2308.36
205.469	2302.04
205.544	2307.99
205.618	2293.95
205.693	2308.46
205.767	2298.75
205.842	2320.79
205.916	2311.94
205.991	2302.37
206.065	2304.71
206.14	2320.88
206.214	2317.59
206.289	2310.36
206.363	2320.06
206.438	2321.49
206.512	2330.06
206.586	2349.1
206.661	2359.53
206.735	2339.69
206.81	2340.17
206.884	2358.77
206.958	2350.82
207.033	2367.57
207.107	2377.05
207.181	2408.67
207.256	2403.05
207.33	2422.09
207.405	2440.53
207.479	2464.1
207.553	2475.95
207.628	2465.53
207.702	2483.33
207.776	2484.19
207.851	2493.09
207.925	2518.44
207.999	2527.15
208.073	2535.58
208.148	2547.06
208.222	2543.87
208.296	2590
208.371	2620.93
208.445	2647.85
208.519	2688.24
208.593	2716.73
208.668	2733.18
208.742	2756.35
208.816	2785.36
208.89	2823.41
208.965	2844.97
209.039	2880.35
209.113	2929.61
209.187	2985.97
209.261	3018.05
209.336	3071.61
209.41	3132.14
209.484	3174.28
209.558	3240.84
209.632	3303.25
209.707	3362.62
209.781	3441.61
209.855	3513.19
209.929	3590.95
210.003	3659.86
210.077	3731.28
210.151	3849.19
210.226	3961.31
210.3	4067.5
210.374	4167.53
210.448	4254.8
210.522	4354.17
210.596	4456.26
210.67	4561.05
210.744	4703.46
210.818	4832.33
210.892	4959.81
210.966	5067.69
211.041	5196.31
211.115	5306.34
211.189	5446.42
211.263	5587.87
211.337	5717.55
211.411	5854.9
211.485	5971.82
211.559	6118.65
211.633	6248.63
211.707	6356.48
211.781	6502.17
211.855	6613.82
211.929	6753.72
212.003	6888.6
212.077	7050.34
212.151	7214.79
212.225	7378.88
212.299	7526.22
212.373	7677.21
212.447	7836.35
212.52	8026.66
212.594	8194.26
212.668	8373.49
212.742	8524.14
212.816	8687.76
212.89	8848.97
212.964	9027.33
213.038	9209.25
213.112	9395.2
213.186	9591.78
213.26	9752.5
213.333	9885.1
213.407	10066.7
213.481	10248.9
213.555	10437.03
213.629	10603.3
213.703	10774.74
213.777	10956.54
213.85	11114.55
213.924	11323.35
213.998	11500.85
214.072	11677.97
214.146	11840.34
214.219	12015.4
214.293	12196.47
214.367	12378.52
214.441	12571.81
214.515	12738.97
214.588	12890.81
214.662	13033.59
214.736	13182.3
214.81	13362.2
214.883	13545.66
214.957	13703.77
215.031	13865.74
215.105	14014.89
215.178	14167.75
215.252	14319.5
215.326	14458.28
215.4	14611.86
215.473	14729.95
215.547	14872.49
215.621	15008.71
215.694	15167.83
215.768	15298.31
215.842	15438.09
215.915	15568.67
215.989	15687.96
216.063	15816.46
216.136	15965.83
216.21	16108.17
216.284	16264.52
216.357	16392.25
216.431	16516.5
216.504	16656.65
216.578	16814.64
216.652	16951.76
216.725	17079.57
216.799	17216.06
216.873	17340.15
216.946	17457.84
217.02	17561.51
217.093	17673.41
217.167	17768.88
217.24	17876.11
217.314	17996.73
217.387	18103.38
217.461	18211.81
217.535	18338.6
217.608	18436.33
217.682	18545.24
217.755	18654.49
217.829	18746.2
217.902	18858.72
217.976	18961.51
218.049	19055.24
218.123	19123.43
218.196	19225.98
218.27	19309.69
218.343	19377.44
218.417	19470.74
218.49	19565.91
218.563	19688.9
218.637	19787.74
218.71	19907.25
218.784	20002.82
218.857	20084.89
218.931	20177.8
219.004	20261.41
219.077	20343.53
219.151	20428.4
219.224	20494.23
219.298	20572.16
219.371	20661.47
219.444	20723.73
219.518	20801.61
219.591	20885.28
219.665	20985.34
219.738	21048.09
219.811	21122.6
219.885	21205.64
219.958	21273.65
220.031	21333.17
220.105	21395.73
220.178	21454.44
220.251	21501.48
220.325	21559.03
220.398	21635.05
220.471	21698.05
220.544	21754.34
220.618	21797.24
220.691	21863.96
220.764	21925.51
220.838	21985.57
220.911	22029.44
220.984	22106.23
221.057	22160.8
221.131	22200.09
221.204	22221.73
221.277	22289.08
221.35	22358.45
221.424	22403.52
221.497	22445.08
221.57	22490.87
221.643	22534.84
221.716	22572.16
221.79	22599.68
221.863	22638.59
221.936	22661.97
222.009	22686.27
222.082	22719.05
222.155	22750.49
222.229	22787.71
222.302	22817.7
222.375	22838.86
222.448	22871.36
222.521	22889.78
222.594	22910.08
222.667	22922.8
222.74	22954.77
222.814	22978.21
222.887	22998.46
222.96	23028.11
223.033	23053.62
223.106	23077
223.179	23099.28
223.252	23122.76
223.325	23153.43
223.398	23167.85
223.471	23196.25
223.544	23226.48
223.617	23257.15
223.69	23280.34
223.763	23293.7
223.837	23309.85
223.91	23344.62
223.983	23349.83
224.056	23348.38
224.129	23357.06
224.202	23375.62
224.275	23368.63
224.348	23358.65
224.42	23343.17
224.493	23330.39
224.566	23331.26
224.639	23342.11
224.712	23326.34
224.785	23327.79
224.858	23320.94
224.931	23319.25
225.004	23301.46
225.077	23286.85
225.15	23262.59
225.223	23258.45
225.296	23268.19
225.369	23257.63
225.442	23228.21
225.514	23221.56
225.587	23224.21
225.66	23226.52
225.733	23229.85
225.806	23247.36
225.879	23246.63
225.952	23231.93
226.025	23238.39
226.097	23249.43
226.17	23242.25
226.243	23239.3
226.316	23244.46
226.389	23237.42
226.461	23239.26
226.534	23242.29
226.607	23235.88
226.68	23246.15
226.753	23241.76
226.825	23218.57
226.898	23218.95
226.971	23212.88
227.044	23212.4
227.117	23210.47
227.189	23211.29
227.262	23217.32
227.335	23209.02
227.407	23205.74
227.48	23209.36
227.553	23202.99
227.626	23191.03
227.698	23172.86
227.771	23164.13
227.844	23134.86
227.916	23133.32
227.989	23100.58
228.062	23086.74
228.134	23100.87
228.207	23086.45
228.28	23068.76
228.352	23047.59
228.425	23040.11
228.498	23033.8
228.57	23005.11
228.643	22999.04
228.716	22981.05
228.788	22957.18
228.861	22937.65
228.934	22930.47
229.006	22911.86
229.079	22891.56
229.151	22866.58
229.224	22853.71
229.296	22835.29
229.369	22852.12
229.442	22843.83
229.514	22834.28
229.587	22831.05
229.659	22794.75
229.732	22782.74
229.804	22776.52
229.877	22795.13
229.949	22792.72
230.022	22797.16
230.094	22780.04
230.167	22756.13
230.239	22733.23
230.312	22718.72
230.384	22724.17
230.457	22700.73
230.529	22692.15
230.602	22683.62
230.674	22678.08
230.747	22673.78
230.819	22678.46
230.892	22620.27
230.964	22609.42
231.037	22596.89
231.109	22569.17
231.181	22558.27
231.254	22529.68
231.326	22496.66
231.399	22466.48
231.471	22436.01
231.544	22392.67
231.616	22389.39
231.688	22381.48
231.761	22354.01
231.833	22328.17
231.905	22289.21
231.978	22271.52
232.05	22249.44
232.122	22222.45
232.195	22192.12
232.267	22181.33
232.339	22152.83
232.412	22155.97
232.484	22131.24
232.556	22101.01
232.629	22099.71
232.701	22088.62
232.773	22068.38
232.846	22048.28
232.918	22019.31
232.99	21997.08
233.062	21978.62
233.135	21966.38
233.207	21922.27
233.279	21898.89
233.351	21883.08
233.424	21851.7
233.496	21822.59
233.568	21805.57
233.64	21774.34
233.713	21751.54
233.785	21718.96
233.857	21693.36
233.929	21647.86
234.001	21626.79
234.074	21616.48
234.146	21568.04
234.218	21538.63
234.29	21513.28
234.362	21485.57
234.434	21448.79
234.507	21406.86
234.579	21374.37
234.651	21335.76
234.723	21309.64
234.795	21298.27
234.867	21267.27
234.939	21245.25
235.012	21213.78
235.084	21197.29
235.156	21175.75
235.228	21139.45
235.3	21106.83
235.372	21073.62
235.444	21058.63
235.516	21005.18
235.588	20974.72
235.66	20955.49
235.732	20914.38
235.804	20937.56
235.876	20919.92
235.948	20907.44
236.02	20878.62
236.092	20845.65
236.164	20813.17
236.236	20784.88
236.308	20746.81
236.38	20709.17
236.452	20669.75
236.524	20644.44
236.596	20622.03
236.668	20591.04
236.74	20551.67
236.812	20515.72
236.884	20492.01
236.956	20460.06
237.028	20422.52
237.1	20380.15
237.172	20356.68
237.244	20337.94
237.316	20263.09
237.388	20220.97
237.46	20165.4
237.532	20143.77
237.604	20103.53
237.675	20076.06
237.747	20049.46
237.819	20006.42
237.891	19966.86
237.963	19925.03
238.035	19878.09
238.107	19810.57
238.178	19786.09
238.25	19750.09
238.322	19737.52
238.394	19685.81
238.466	19654.77
238.538	19630.63
238.609	19598.54
238.681	19538.68
238.753	19489.62
238.825	19446.3
238.897	19411.12
238.968	19392.96
239.04	19351.46
239.112	19337.1
239.184	19287.56
239.255	19248.53
239.327	19215.71
239.399	19197.83
239.471	19169.35
239.542	19143.62
239.614	19124.78
239.686	19058.23
239.758	19039.63
239.829	18989.75
239.901	18971.54
239.973	18934.67
240.044	18907.39
240.116	18872.51
240.188	18835.59
240.259	18802.24
240.331	18773.23
240.403	18745.33
240.474	18698.59
240.546	18657.53
240.618	18605.39
240.689	18576.19
240.761	18540.19
240.833	18521.35
240.904	18474.65
240.976	18437.01
241.048	18402.85
241.119	18371.23
241.191	18347.09
241.262	18321.5
241.334	18287.91
241.405	18246.76
241.477	18200.98
241.549	18152.45
241.62	18118.09
241.692	18094.09
241.763	18068.6
241.835	18033.75
241.906	18002.24
241.978	17955.69
242.049	17927.4
242.121	17899.4
242.192	17875.11
242.264	17823.11
242.335	17769.47
242.407	17736.9
242.478	17704.99
242.55	17668.32
242.621	17616.46
242.693	17589.23
242.764	17550.15
242.836	17506.63
242.907	17477.28
242.979	17452.47
243.05	17427.12
243.122	17395.26
243.193	17354.73
243.264	17298.44
243.336	17263.55
243.407	17233.24
243.479	17212.8
243.55	17186.44
243.622	17145.04
243.693	17107.59
243.764	17096.27
243.836	17044.22
243.907	17008.51
243.978	16969.23
244.05	16941.08
244.121	16893.75
244.192	16864.69
244.264	16805.84
244.335	16768.98
244.407	16707.24
244.478	16670.8
244.549	16631.91
244.62	16586.65
244.692	16549.59
244.763	16526.26
244.834	16480.91
244.906	16431.56
244.977	16398.16
245.048	16372.47
245.119	16339.11
245.191	16288.75
245.262	16234.38
245.333	16227.49
245.405	16201.22
245.476	16181.12
245.547	16150.66
245.618	16132.11
245.689	16099.62
245.761	16074.03
245.832	16039.32
245.903	16023.51
245.974	15995.46
246.045	15957.53
246.117	15944.85
246.188	15899.69
246.259	15850.19
246.33	15817.51
246.401	15781.65
246.473	15743.14
246.544	15704.24
246.615	15683.08
246.686	15657.87
246.757	15628.28
246.828	15585.57
246.899	15555.11
246.97	15496.25
247.042	15457.93
247.113	15434.31
247.184	15419.66
247.255	15376.91
247.326	15345.29
247.397	15309.18
247.468	15274.96
247.539	15244.26
247.61	15194.85
247.681	15183.86
247.752	15172.72
247.823	15126.54
247.894	15104.37
247.965	15059.11
248.037	15021.46
248.108	14971.47
248.179	14937.15
248.25	14916.47
248.321	14888.28
248.392	14850.44
248.463	14848.12
248.534	14818.77
248.605	14792.4
248.675	14755.09
248.746	14743.52
248.817	14724.87
248.888	14699.56
248.959	14650.97
249.03	14630.39
249.101	14603.87
249.172	14564.44
249.243	14515.99
249.314	14511.61
249.385	14480.03
249.456	14455.83
249.527	14423.59
249.598	14409.9
249.669	14377.69
249.739	14349.06
249.81	14333.06
249.881	14293.43
249.952	14263.93
250.023	14230.43
250.094	14188.34
250.165	14150.55
250.235	14120.18
250.306	14087.93
250.377	14050.23
250.448	14026.61
250.519	13979.61
250.59	13964.67
250.66	13942.3
250.731	13927.26
250.802	13898.09
250.873	13873.75
250.944	13857.36
251.014	13825.64
251.085	13814.02
251.156	13794.64
251.227	13780.95
251.297	13760.46
251.368	13748.9
251.439	13731.16
251.51	13716.74
251.58	13686.71
251.651	13650.31
251.722	13637.15
251.792	13600.8
251.863	13583.59
251.934	13572.41
252.005	13575.98
252.075	13550.96
252.146	13536.01
252.217	13530.42
252.287	13515.72
252.358	13495.42
252.429	13486.7
252.499	13462.69
252.57	13443.89
252.641	13424.75
252.711	13397.37
252.782	13366.38
252.852	13359.34
252.923	13336.05
252.994	13314.65
253.064	13296.33
253.135	13271.41
253.205	13236.6
253.276	13229.57
253.347	13216.79
253.417	13191.15
253.488	13158.12
253.558	13130.41
253.629	13102.01
253.699	13075.79
253.77	13057.85
253.841	13029.9
253.911	13004.97
253.982	12984.2
254.052	12969.44
254.123	12947.9
254.193	12925.77
254.264	12929.43
254.334	12892.94
254.405	12854.81
254.475	12824.83
254.546	12807.04
254.616	12800.68
254.687	12788.24
254.757	12774.02
254.827	12746.54
254.898	12730.15
254.968	12714.77
255.039	12689.47
255.109	12678.33
255.18	12642.32
255.25	12599.13
255.321	12580.23
255.391	12545.62
255.461	12540.42
255.532	12491.2
255.602	12470.47
255.673	12428.78
255.743	12398.07
255.813	12358.88
255.884	12348.03
255.954	12332.85
256.024	12331.45
256.095	12315.35
256.165	12281.32
256.235	12263.24
256.306	12235.24
256.376	12215.72
256.446	12198.65
256.517	12181.59
256.587	12169.1
256.657	12151.08
256.728	12133.77
256.798	12118.64
256.868	12096.22
256.938	12068.22
257.009	12062.34
257.079	12047.92
257.149	12056.22
257.219	12011.29
257.29	11996.74
257.36	11960.59
257.43	11947.81
257.5	11901.73
257.571	11872.38
257.641	11862.69
257.711	11824.56
257.781	11814.73
257.852	11805.33
257.922	11764.41
257.992	11746.48
258.062	11724.55
258.132	11720.4
258.202	11701.56
258.273	11684.88
258.343	11684.35
258.413	11662.18
258.483	11638.61
258.553	11608.92
258.623	11582.51
258.693	11574.84
258.764	11567.9
258.834	11558.26
258.904	11542.94
258.974	11516.67
259.044	11500.28
259.114	11482.98
259.184	11468.91
259.254	11444.96
259.324	11402.64
259.394	11398.83
259.464	11392.71
259.535	11370.2
259.605	11345.86
259.675	11323.21
259.745	11307.26
259.815	11276.95
259.885	11253.77
259.955	11260.56
260.025	11235.79
260.095	11214.15
260.165	11193.72
260.235	11195.94
260.305	11173.14
260.375	11140.03
260.445	11144.18
260.515	11137.96
260.585	11129.72
260.655	11116.71
260.725	11107.26
260.795	11097.96
260.865	11096.85
260.934	11072.42
261.004	11058.39
261.074	11045.29
261.144	11043.26
261.214	11037.24
261.284	11016.66
261.354	11010.3
261.424	10981.87
261.494	10982.73
261.564	10974.06
261.634	10970.69
261.703	10930.45
261.773	10921.53
261.843	10909.87
261.913	10895.17
261.983	10862.12
