Data from 20250702_urea_0.5M_MAYP1162681_21-55-00-269.txt Node
Date: Wed Jul 02 21:55:00 BST 2025
User: adleo
Spectrometer: MAYP116268
Trigger mode: 0
Integration Time (sec): 1.000000E0
Scans to average: 1
Electric dark correction enabled: true
Nonlinearity correction enabled: true
Boxcar width: 10
XAxis mode: Wavelengths
Number of Pixels in Spectrum: 2068
>>>>>Begin Spectral Data<<<<<
179.565	1228.06
179.642	1282.5
179.718	1325.18
179.795	1365.91
179.871	1400.67
179.948	1416.12
180.024	1433.68
180.101	1456.83
180.177	1471.77
180.254	1496.09
180.33	1521.05
180.407	1578.12
180.483	1674.9
180.56	1766.31
180.636	1853.53
180.712	1838.4
180.789	1852.05
180.865	1864.36
180.942	1873.62
181.018	1883.27
181.095	1896.78
181.171	1904.05
181.248	1907.67
181.324	1925.41
181.4	1932.78
181.477	1943.19
181.553	1958.11
181.63	1984.07
181.706	2001.67
181.782	2009.85
181.859	2009.89
181.935	2013.51
182.011	2007.94
182.088	2025.3
182.164	2045.19
182.24	2058.07
182.317	2068.77
182.393	2066.44
182.469	2080.57
182.546	2094.74
182.622	2099.54
182.698	2095.88
182.775	2106.06
182.851	2120.28
182.927	2114
183.003	2110.34
183.08	2104.58
183.156	2114.29
183.232	2107.86
183.308	2095.97
183.385	2104.34
183.461	2121.18
183.537	2122.66
183.613	2136.21
183.69	2126.65
183.766	2116.66
183.842	2121.23
183.918	2126.46
183.995	2137.16
184.071	2141.73
184.147	2135.35
184.223	2123.28
184.299	2134.65
184.375	2123
184.452	2129.37
184.528	2183.72
184.604	2193.71
184.68	2205.75
184.756	2214.74
184.832	2219.31
184.908	2223.54
184.985	2223.73
185.061	2206.99
185.137	2216.36
185.213	2205.47
185.289	2204.94
185.365	2196.19
185.441	2197.86
185.517	2213.18
185.593	2209.99
185.669	2205.19
185.745	2215.04
185.822	2233.3
185.898	2225.87
185.974	2234.39
186.05	2223.16
186.126	2182.46
186.202	2175.09
186.278	2170.95
186.354	2161.72
186.43	2170.24
186.506	2168.71
186.582	2168.38
186.658	2176.61
186.734	2155.78
186.81	2156.49
186.886	2159.15
186.962	2173.14
187.038	2168.71
187.114	2158.67
187.19	2167.9
187.266	2160.43
187.341	2162.86
187.417	2156.96
187.493	2155.53
187.569	2159.86
187.645	2155.06
187.721	2143.59
187.797	2151.06
187.873	2154.77
187.949	2148.21
188.025	2139.69
188.101	2143.44
188.176	2148.2
188.252	2143.3
188.328	2151.39
188.404	2154.1
188.48	2151.86
188.556	2142.87
188.632	2142.35
188.707	2144.01
188.783	2140.01
188.859	2133.69
188.935	2120.42
189.011	2127.69
189.086	2123.6
189.162	2115.42
189.238	2112.19
189.314	2110.33
189.39	2105.19
189.465	2099.15
189.541	2117.42
189.617	2101.78
189.693	2097.64
189.768	2100.49
189.844	2126.86
189.92	2117.97
189.996	2124.63
190.071	2137.05
190.147	2138.61
190.223	2147.08
190.298	2136.62
190.374	2123.35
190.45	2135.19
190.526	2144.75
190.601	2139.23
190.677	2139.8
190.753	2168.12
190.828	2174.78
190.904	2190.2
190.98	2201.9
191.055	2211.7
191.131	2199.52
191.207	2221.31
191.282	2230.35
191.358	2223.45
191.433	2207.59
191.509	2223.38
191.585	2220.96
191.66	2220.15
191.736	2226.62
191.811	2219.62
191.887	2240.28
191.963	2266.69
192.038	2272.73
192.114	2275.97
192.189	2282.1
192.265	2276.54
192.34	2253.07
192.416	2250.45
192.491	2244.55
192.567	2251.41
192.642	2252.26
192.718	2252.79
192.793	2241.22
192.869	2237.42
192.944	2237.8
193.02	2243.37
193.095	2246.41
193.171	2252.98
193.246	2253.22
193.322	2250.6
193.397	2250.46
193.473	2233.13
193.548	2214.14
193.624	2219.33
193.699	2215.67
193.775	2229.04
193.85	2230.9
193.925	2241.08
194.001	2239.13
194.076	2232.56
194.152	2218.86
194.227	2212.24
194.302	2204.54
194.378	2210.63
194.453	2207.2
194.529	2220.62
194.604	2207.58
194.679	2199.97
194.755	2179.23
194.83	2187.75
194.905	2184.38
194.981	2193.27
195.056	2187.8
195.131	2193.94
195.207	2192.66
195.282	2185.57
195.357	2165.15
195.433	2181.75
195.508	2168.48
195.583	2179.66
195.659	2192.36
195.734	2202.17
195.809	2203.45
195.884	2210.54
195.96	2210.35
196.035	2225.72
196.11	2220.48
196.185	2232.47
196.261	2237.04
196.336	2270.44
196.411	2258.64
196.486	2266.06
196.561	2259.35
196.637	2266.58
196.712	2281.15
196.787	2284.58
196.862	2295.61
196.937	2310.7
197.013	2318.84
197.088	2331.16
197.163	2353.26
197.238	2372.45
197.313	2371.79
197.388	2382.69
197.464	2417.5
197.539	2429.63
197.614	2423.3
197.689	2437.3
197.764	2454.16
197.839	2474.49
197.914	2467.3
197.989	2492.91
198.065	2508.2
198.14	2560.18
198.215	2586.08
198.29	2601.75
198.365	2617.19
198.44	2630.18
198.515	2657.82
198.59	2671.44
198.665	2697.83
198.74	2702.64
198.815	2703.07
198.89	2725.36
198.965	2757.34
199.04	2749.67
199.115	2765.29
199.19	2808.31
199.265	2810.41
199.34	2819.37
199.415	2855.6
199.49	2878.23
199.565	2885.95
199.64	2910.55
199.715	2905.49
199.79	2913.35
199.865	2917.59
199.94	2913.97
200.015	2945.15
200.09	2949.63
200.165	2956.02
200.24	2962.12
200.315	3005.49
200.39	3020.75
200.464	3027.9
200.539	3034.29
200.614	3051.21
200.689	3076.54
200.764	3084.74
200.839	3105.05
200.914	3107.76
200.989	3093.4
201.063	3105.47
201.138	3088.41
201.213	3086.41
201.288	3069.62
201.363	3076.49
201.438	3075.44
201.512	3090.74
201.587	3074.76
201.662	3077.38
201.737	3091.36
201.812	3102.04
201.886	3068.68
201.961	3078.99
202.036	3069.31
202.111	3063.87
202.186	3035.52
202.26	3017.11
202.335	2992.03
202.41	2982.87
202.485	2967.82
202.559	2949.08
202.634	2924.82
202.709	2933.06
202.784	2914.66
202.858	2911.9
202.933	2895.55
203.008	2889.54
203.082	2870.77
203.157	2867.43
203.232	2821.08
203.306	2797.72
203.381	2761.16
203.456	2735.81
203.53	2711.15
203.605	2688.01
203.68	2664.13
203.754	2656.94
203.829	2639.64
203.904	2623.11
203.978	2610.39
204.053	2616.97
204.127	2604.68
204.202	2601.34
204.277	2584.82
204.351	2574.91
204.426	2570.58
204.5	2560.48
204.575	2524.91
204.65	2534.35
204.724	2527.48
204.799	2538.43
204.873	2535.43
204.948	2537.29
205.022	2526.1
205.097	2518.62
205.171	2534.52
205.246	2542.76
205.32	2541
205.395	2539.91
205.469	2531.58
205.544	2540.06
205.618	2521.2
205.693	2534.34
205.767	2524.48
205.842	2548.68
205.916	2546.64
205.991	2534.44
206.065	2538.25
206.14	2552.67
206.214	2548.34
206.289	2542.86
206.363	2557.86
206.438	2560.38
206.512	2566.62
206.586	2587.62
206.661	2597.58
206.735	2577.06
206.81	2577.35
206.884	2594.3
206.958	2583.3
207.033	2598.25
207.107	2606.92
207.181	2638.32
207.256	2634.7
207.33	2653.85
207.405	2667.63
207.479	2690.3
207.553	2699.54
207.628	2689.26
207.702	2706.07
207.776	2704.21
207.851	2712.07
207.925	2728.33
207.999	2730.52
208.073	2733.28
208.148	2743.34
208.222	2740.1
208.296	2782.92
208.371	2808.29
208.445	2830.31
208.519	2872.34
208.593	2899.22
208.668	2909.67
208.742	2926.65
208.816	2941.61
208.89	2974.09
208.965	2992.56
209.039	3017.03
209.113	3059.8
209.187	3105.6
209.261	3124.86
209.336	3169.46
209.41	3215.12
209.484	3244.8
209.558	3292.99
209.632	3341.7
209.707	3383.26
209.781	3440.54
209.855	3490.25
209.929	3545.34
210.003	3589.6
210.077	3632.25
210.151	3722.93
210.226	3799.29
210.3	3880.97
210.374	3955.81
210.448	4015.13
210.522	4075.23
210.596	4145.27
210.67	4213.36
210.744	4320.99
210.818	4420.92
210.892	4512.45
210.966	4576.26
211.041	4666.08
211.115	4739.53
211.189	4842.12
211.263	4940.84
211.337	5028.76
211.411	5125.33
211.485	5210.98
211.559	5313.82
211.633	5409
211.707	5473.26
211.781	5577.57
211.855	5638.33
211.929	5731.32
212.003	5810.23
212.077	5930.27
212.151	6050.52
212.225	6169.48
212.299	6271.23
212.373	6368.71
212.447	6472.81
212.52	6617.42
212.594	6732.69
212.668	6862.68
212.742	6958.86
212.816	7068.2
212.89	7178.56
212.964	7304.26
213.038	7424.93
213.112	7559.78
213.186	7700.01
213.26	7804.52
213.333	7887.04
213.407	8016.29
213.481	8143.96
213.555	8287.21
213.629	8392.59
213.703	8494.41
213.777	8616.99
213.85	8718.26
213.924	8882.16
213.998	9006.55
214.072	9127.84
214.146	9242.81
214.219	9370.7
214.293	9501.33
214.367	9637.46
214.441	9780.06
214.515	9889.69
214.588	9990.98
214.662	10086.07
214.736	10184.82
214.81	10310.1
214.883	10445.51
214.957	10556.6
215.031	10669.57
215.105	10770.12
215.178	10880.99
215.252	10993.02
215.326	11098.55
215.4	11200.08
215.473	11263.7
215.547	11367.13
215.621	11469.26
215.694	11587.92
215.768	11677.52
215.842	11781.09
215.915	11876.05
215.989	11956.16
216.063	12057.33
216.136	12165.35
216.21	12272.74
216.284	12388.48
216.357	12500.74
216.431	12593.87
216.504	12702.28
216.578	12832.29
216.652	12939.54
216.725	13047.04
216.799	13165.82
216.873	13261.89
216.946	13371.56
217.02	13465.27
217.093	13554.6
217.167	13626.76
217.24	13711.03
217.314	13802.09
217.387	13887.46
217.461	13974.71
217.535	14079.66
217.608	14158.72
217.682	14253.49
217.755	14354.81
217.829	14437.78
217.902	14521.17
217.976	14612.23
218.049	14696.68
218.123	14764.89
218.196	14857.64
218.27	14929.51
218.343	14997.18
218.417	15084.82
218.49	15165.07
218.563	15262.39
218.637	15354.07
218.71	15457.61
218.784	15544.47
218.857	15629.74
218.931	15714.52
219.004	15791.59
219.077	15877.15
219.151	15961.64
219.224	16040.01
219.298	16109.9
219.371	16193.77
219.444	16265.24
219.518	16341.44
219.591	16414.42
219.665	16505.55
219.738	16581.46
219.811	16648.17
219.885	16728.17
219.958	16796.37
220.031	16861.24
220.105	16940.52
220.178	16999.42
220.251	17059.56
220.325	17130.99
220.398	17205.4
220.471	17273.64
220.544	17348.48
220.618	17398.89
220.691	17469.69
220.764	17527.81
220.838	17604.44
220.911	17661.25
220.984	17734.84
221.057	17802.79
221.131	17873.54
221.204	17910.45
221.277	17976.96
221.35	18068.57
221.424	18120.66
221.497	18180.13
221.57	18235.41
221.643	18297.48
221.716	18366.05
221.79	18416.89
221.863	18473.37
221.936	18523.63
222.009	18573.75
222.082	18629.36
222.155	18685.36
222.229	18747.24
222.302	18796.25
222.375	18825.21
222.448	18879.32
222.521	18926.6
222.594	18974.02
222.667	19006.79
222.74	19061.63
222.814	19104.18
222.887	19131.36
222.96	19185.52
223.033	19228.41
223.106	19283.44
223.179	19327.49
223.252	19364.79
223.325	19404.3
223.398	19436.11
223.471	19474.81
223.544	19502.18
223.617	19535.28
223.69	19568.49
223.763	19585.93
223.837	19625.5
223.91	19670.17
223.983	19685.73
224.056	19707.56
224.129	19729.01
224.202	19766.21
224.275	19787.13
224.348	19798.26
224.42	19820.19
224.493	19830.64
224.566	19863.12
224.639	19886.79
224.712	19901.68
224.785	19923.75
224.858	19943.55
224.931	19962.98
225.004	19979.51
225.077	20017.82
225.15	20016.76
225.223	20037.96
225.296	20090.83
225.369	20103.84
225.442	20114.49
225.514	20135.36
225.587	20168.13
225.66	20191.26
225.733	20221.19
225.806	20249.19
225.879	20275.74
225.952	20280.61
226.025	20316.37
226.097	20341.57
226.17	20362.39
226.243	20352.27
226.316	20369.09
226.389	20389.09
226.461	20415.02
226.534	20431.26
226.607	20445.52
226.68	20492.75
226.753	20511.79
226.825	20499.74
226.898	20522.58
226.971	20540.94
227.044	20571.02
227.117	20583.16
227.189	20613.57
227.262	20622.97
227.335	20645.24
227.407	20653.43
227.48	20686.87
227.553	20696.37
227.626	20699.07
227.698	20707.4
227.771	20738.54
227.844	20744.8
227.916	20762.15
227.989	20756.8
228.062	20773.29
228.134	20803.79
228.207	20813.24
228.28	20808.47
228.352	20810.3
228.425	20825.43
228.498	20849.67
228.57	20842.93
228.643	20859.6
228.716	20849.63
228.788	20858.3
228.861	20843.27
228.934	20863.12
229.006	20865
229.079	20871.41
229.151	20871.22
229.224	20866.3
229.296	20872.13
229.369	20914.26
229.442	20931.75
229.514	20939.37
229.587	20956.19
229.659	20943.27
229.732	20940.19
229.804	20957.3
229.877	20994.36
229.949	21000.14
230.022	21013.25
230.094	21025.25
230.167	21034.03
230.239	21035.23
230.312	21027.23
230.384	21065.88
230.457	21062.51
230.529	21075.19
230.602	21072.15
230.674	21082.27
230.747	21101.93
230.819	21118.42
230.892	21086.9
230.964	21086.08
231.037	21080.73
231.109	21062.94
231.181	21068.87
231.254	21058.56
231.326	21063.95
231.399	21058.17
231.471	21048.87
231.544	21023.28
231.616	21032.29
231.688	21024.91
231.761	21012.91
231.833	21012.67
231.905	20978.12
231.978	20986.89
232.05	20970.16
232.122	20983.03
232.195	20973.1
232.267	20977.35
232.339	20960.09
232.412	20963.85
232.484	20951.7
232.556	20944.91
232.629	20971.08
232.701	20966.55
232.773	20956.53
232.846	20937.3
232.918	20922.98
232.99	20915.66
233.062	20926.02
233.135	20911.75
233.207	20884.28
233.279	20889.49
233.351	20891.46
233.424	20882.98
233.496	20855.75
233.568	20866.11
233.64	20832.37
233.713	20818.78
233.785	20803.89
233.857	20800.71
233.929	20776.66
234.001	20790.64
234.074	20803.84
234.146	20767.74
234.218	20749.58
234.29	20747.84
234.362	20737.33
234.434	20711.94
234.507	20690.78
234.579	20651.84
234.651	20630.68
234.723	20626.54
234.795	20616.61
234.867	20589.81
234.939	20584.95
235.012	20579.21
235.084	20562.68
235.156	20540.66
235.228	20515.07
235.3	20485.76
235.372	20466.2
235.444	20455.93
235.516	20407.35
235.588	20381.81
235.66	20366.29
235.732	20339.01
235.804	20368.32
235.876	20352.85
235.948	20338.53
236.02	20320.22
236.092	20295.31
236.164	20276.9
236.236	20243.98
236.308	20210.15
236.38	20193.53
236.452	20160.66
236.524	20135.84
236.596	20123.26
236.668	20126.78
236.74	20111.36
236.812	20099.07
236.884	20078.93
236.956	20057.82
237.028	20014.4
237.1	19970.01
237.172	19957
237.244	19952.81
237.316	19880.42
237.388	19847.7
237.46	19823.13
237.532	19814.07
237.604	19785.34
237.675	19779.85
237.747	19757.15
237.819	19732.96
237.891	19711.85
237.963	19684.58
238.035	19650.17
238.107	19581.89
238.178	19555.62
238.25	19524.54
238.322	19516.88
238.394	19481.89
238.466	19438.37
238.538	19429.36
238.609	19414.76
238.681	19364.11
238.753	19320.07
238.825	19309.47
238.897	19284.31
238.968	19267.98
239.04	19227.06
239.112	19228.94
239.184	19183.45
239.255	19164.56
239.327	19139.6
239.399	19103.41
239.471	19078.59
239.542	19055.41
239.614	19047.99
239.686	18988.19
239.758	18968.38
239.829	18922.07
239.901	18894.31
239.973	18870.17
240.044	18839.04
240.116	18806.51
240.188	18775.86
240.259	18746.47
240.331	18698.08
240.403	18677.12
240.474	18625.51
240.546	18585.46
240.618	18531.06
240.689	18491.2
240.761	18459.01
240.833	18447.83
240.904	18418.63
240.976	18383.21
241.048	18359.55
241.119	18332.71
241.191	18310.92
241.262	18299.17
241.334	18264.18
241.405	18234.73
241.477	18195.65
241.549	18165.68
241.62	18138.59
241.692	18111.94
241.763	18094.84
241.835	18065.44
241.906	18025.88
241.978	17985.88
242.049	17964.53
242.121	17945.01
242.192	17932.53
242.264	17887.61
242.335	17834.94
242.407	17811.76
242.478	17772.68
242.55	17730.61
242.621	17689.45
242.693	17658.32
242.764	17616.15
242.836	17576.97
242.907	17547.96
242.979	17525.98
243.05	17495.96
243.122	17462.8
243.193	17438.13
243.264	17379.91
243.336	17344.78
243.407	17326.56
243.479	17306.61
243.55	17281.12
243.622	17250.18
243.693	17212.63
243.764	17200.97
243.836	17156.92
243.907	17111.14
243.978	17079.62
244.05	17055.71
244.121	17015.23
244.192	16992.38
244.264	16937.39
244.335	16908.48
244.407	16858.84
244.478	16834.45
244.549	16804.43
244.62	16755.7
244.692	16723.6
244.763	16704.9
244.834	16661.77
244.906	16619.79
244.977	16597.91
245.048	16578.63
245.119	16533.32
245.191	16496.02
245.262	16435.58
245.333	16421.6
245.405	16403.92
245.476	16377.02
245.547	16350.9
245.618	16331.86
245.689	16290.31
245.761	16268
245.832	16230.36
245.903	16208.67
245.974	16177.53
246.045	16141.72
246.117	16136.37
246.188	16081.33
246.259	16038.04
246.33	16010.91
246.401	15974.42
246.473	15925.55
246.544	15879.62
246.615	15861.3
246.686	15819.99
246.757	15808.38
246.828	15762.2
246.899	15741.86
246.97	15694.09
247.042	15648.59
247.113	15621.84
247.184	15623.43
247.255	15582.41
247.326	15549.15
247.397	15512.52
247.468	15481.34
247.539	15447.06
247.61	15400.6
247.681	15386.19
247.752	15371.29
247.823	15329.89
247.894	15301.45
247.965	15268.52
248.037	15239.31
248.108	15189.38
248.179	15159.1
248.25	15121.7
248.321	15104.25
248.392	15056.82
248.463	15059.08
248.534	15038.02
248.605	15012.09
248.675	14974.3
248.746	14955.26
248.817	14938.48
248.888	14924.07
248.959	14876.59
249.03	14858.9
249.101	14837.21
249.172	14803.03
249.243	14745.81
249.314	14746.1
249.385	14724.79
249.456	14693.41
249.527	14662.95
249.598	14645.69
249.669	14618.12
249.739	14601.63
249.81	14577.09
249.881	14539.25
249.952	14506.86
250.023	14477.69
250.094	14427.56
250.165	14386.15
250.235	14357.86
250.306	14333.8
250.377	14287.82
250.448	14277.84
250.519	14222.88
250.59	14204.18
250.66	14180.41
250.731	14179.93
250.802	14140.31
250.873	14120.59
250.944	14102.99
251.014	14065.68
251.085	14064.91
251.156	14052.72
251.227	14042.93
251.297	14029.43
251.368	14012.56
251.439	14001.18
251.51	13976.36
251.58	13951.68
251.651	13927.43
251.722	13915.81
251.792	13865.72
251.863	13840.8
251.934	13821.08
252.005	13824.51
252.075	13796.35
252.146	13776.59
252.217	13757.89
252.287	13748.77
252.358	13721.78
252.429	13710.16
252.499	13688.32
252.57	13666
252.641	13647.54
252.711	13606.23
252.782	13560.43
252.852	13558.94
252.923	13527.36
252.994	13515.79
253.064	13506.68
253.135	13468.89
253.205	13435.91
253.276	13440.49
253.347	13434.52
253.417	13397.69
253.488	13374.5
253.558	13350.88
253.629	13328.56
253.699	13309.37
253.77	13290.57
253.841	13257.6
253.911	13238.07
253.982	13210.64
254.052	13197.24
254.123	13173.09
254.193	13166.92
254.264	13190.35
254.334	13153.18
254.405	13121.7
254.475	13081.84
254.546	13057.54
254.616	13048.43
254.687	13036.33
254.757	13013.58
254.827	12990.54
254.898	12974.1
254.968	12954.24
255.039	12919.82
255.109	12901.79
255.18	12864.96
255.25	12826.3
255.321	12814.49
255.391	12777.42
255.461	12785.56
255.532	12733.98
255.602	12712.44
255.673	12661
255.743	12624.51
255.813	12577.75
255.884	12565.6
255.954	12554.95
256.024	12550.37
256.095	12529.84
256.165	12486.26
256.235	12470.59
256.306	12440.27
256.376	12436.42
256.446	12423.64
256.517	12411.83
256.587	12408.27
256.657	12393.37
256.728	12370.67
256.798	12349.46
256.868	12331.04
256.938	12294.31
257.009	12292.58
257.079	12272.91
257.149	12279.13
257.219	12237.43
257.29	12226.78
257.36	12188.56
257.43	12177.71
257.5	12135
257.571	12108.4
257.641	12101.45
257.711	12073.06
257.781	12059.52
257.852	12046.17
257.922	12004.66
257.992	11982.35
258.062	11958.53
258.132	11944.94
258.202	11922.58
258.273	11907.01
258.343	11908.7
258.413	11888.16
258.483	11860.21
258.553	11830.61
258.623	11800.34
258.693	11784.48
258.764	11780.58
258.834	11780.05
258.904	11755.42
258.974	11728.09
259.044	11709.25
259.114	11697.73
259.184	11676.47
259.254	11655.75
259.324	11611.79
259.394	11610.87
259.464	11618.25
259.535	11593.57
259.605	11573.57
259.675	11554.77
259.745	11531.15
259.815	11502.09
259.885	11473.66
259.955	11483.68
260.025	11461.61
260.095	11448.16
260.165	11431.82
260.235	11432.06
260.305	11408.3
260.375	11382.28
260.445	11394.04
260.515	11391.05
260.585	11389.36
260.655	11386.9
260.725	11381.6
260.795	11371.63
260.865	11365.12
260.934	11330.95
261.004	11319.24
261.074	11305.84
261.144	11301.55
261.214	11301.41
261.284	11279.91
261.354	11276.68
261.424	11247.38
261.494	11247.19
261.564	11231.72
261.634	11230.8
261.703	11192.34
261.773	11176.73
261.843	11172.1
261.913	11145.4
261.983	11114.71
262.053	11101.74
262.123	11070.22
