Data from 20250702_urea_0.5M_MAYP1162681_19-24-59-990.txt Node
Date: Wed Jul 02 19:24:59 BST 2025
User: adleo
Spectrometer: MAYP116268
Trigger mode: 0
Integration Time (sec): 1.000000E0
Scans to average: 1
Electric dark correction enabled: true
Nonlinearity correction enabled: true
Boxcar width: 10
XAxis mode: Wavelengths
Number of Pixels in Spectrum: 2068
>>>>>Begin Spectral Data<<<<<
179.565	1165.94
179.642	1226.28
179.718	1266.43
179.795	1302.99
179.871	1332.54
179.948	1347.61
180.024	1366.6
180.101	1387.64
180.177	1403.58
180.254	1424.8
180.33	1445.72
180.407	1498.51
180.483	1590.2
180.56	1677.29
180.636	1757.95
180.712	1746.96
180.789	1756.42
180.865	1767.68
180.942	1775.47
181.018	1787.45
181.095	1797.24
181.171	1801.47
181.248	1798.72
181.324	1814.12
181.4	1821.72
181.477	1833.85
181.553	1847.77
181.63	1867.92
181.706	1885.61
181.782	1890.12
181.859	1891.31
181.935	1892.93
182.011	1886.79
182.088	1905.62
182.164	1924.17
182.24	1937.91
182.317	1947.51
182.393	1944.13
182.469	1957.59
182.546	1971.38
182.622	1973.18
182.698	1972.33
182.775	1986.26
182.851	1999.76
182.927	1991.39
183.003	1986.4
183.08	1982.79
183.156	1991.44
183.232	1988.97
183.308	1975.8
183.385	1985.16
183.461	1999.57
183.537	2003.9
183.613	2015.41
183.69	2004.23
183.766	1992.72
183.842	1999.23
183.918	2003.37
183.995	2016.45
184.071	2018.25
184.147	2014.59
184.223	2006.18
184.299	2015.83
184.375	2003
184.452	2007.47
184.528	2062.32
184.604	2072.3
184.68	2079.53
184.756	2087.57
184.832	2090.52
184.908	2095.51
184.985	2094.51
185.061	2079.39
185.137	2087.66
185.213	2078.77
185.289	2077.77
185.365	2073.69
185.441	2071.4
185.517	2082.63
185.593	2079.35
185.669	2077.83
185.745	2083.44
185.822	2099.17
185.898	2092.37
185.974	2099.93
186.05	2094.75
186.126	2056.78
186.202	2051.5
186.278	2048.6
186.354	2040.66
186.43	2048.17
186.506	2047.84
186.582	2047.46
186.658	2055.64
186.734	2037.95
186.81	2036.71
186.886	2042.37
186.962	2051.74
187.038	2050.46
187.114	2045.03
187.19	2054.02
187.266	2043.37
187.341	2046.7
187.417	2042.04
187.493	2041.28
187.569	2046.89
187.645	2040.33
187.721	2025.63
187.797	2033.76
187.873	2039.14
187.949	2031.77
188.025	2027.39
188.101	2028.44
188.176	2031.86
188.252	2024.97
188.328	2031.53
188.404	2034.66
188.48	2030.48
188.556	2024.63
188.632	2024.63
188.707	2026.15
188.783	2023.11
188.859	2021.02
188.935	2010.27
189.011	2016.83
189.086	2009.7
189.162	2001.66
189.238	1997.29
189.314	1998.57
189.39	1990.72
189.465	1983.5
189.541	2000.38
189.617	1981.65
189.693	1978.22
189.768	1983.07
189.844	2010.76
189.92	2002.49
189.996	2012.76
190.071	2023.27
190.147	2022.32
190.223	2028.51
190.298	2018.85
190.374	2005.77
190.45	2015.33
190.526	2025.79
190.601	2020.23
190.677	2022.41
190.753	2047.4
190.828	2053.67
190.904	2065.75
190.98	2079.88
191.055	2091.39
191.131	2082.21
191.207	2105.46
191.282	2113.83
191.358	2105.37
191.433	2089.42
191.509	2101.26
191.585	2096.27
191.66	2096.88
191.736	2105.49
191.811	2098.79
191.887	2113.77
191.963	2133.65
192.038	2139.36
192.114	2137.65
192.189	2140.12
192.265	2138.13
192.34	2116.19
192.416	2114.62
192.491	2113.57
192.567	2118.38
192.642	2118.81
192.718	2119.28
192.793	2107.15
192.869	2104.2
192.944	2106.53
193.02	2113.43
193.095	2119.81
193.171	2124.04
193.246	2122.75
193.322	2119.19
193.397	2119.42
193.473	2106.29
193.548	2092.02
193.624	2096.68
193.699	2096.68
193.775	2113.2
193.85	2111.91
193.925	2123.85
194.001	2123.85
194.076	2115.67
194.152	2106.68
194.227	2098.97
194.302	2089.27
194.378	2091.46
194.453	2088.89
194.529	2098.83
194.604	2086.08
194.679	2079.9
194.755	2063.54
194.83	2076.3
194.905	2073.92
194.981	2083.01
195.056	2078.06
195.131	2082.39
195.207	2081.25
195.282	2069.12
195.357	2048.52
195.433	2065.73
195.508	2050.99
195.583	2059.64
195.659	2075.25
195.734	2083.15
195.809	2083.19
195.884	2090.37
195.96	2092.23
196.035	2108.31
196.11	2104.74
196.185	2114.96
196.261	2118.34
196.336	2146.83
196.411	2131.37
196.486	2135.84
196.561	2126.52
196.637	2133.65
196.712	2150.02
196.787	2151.11
196.862	2169.24
196.937	2178.61
197.013	2184.41
197.088	2195.4
197.163	2214.15
197.238	2229.68
197.313	2227.2
197.388	2239.24
197.464	2270.7
197.539	2282.93
197.614	2277.08
197.689	2290.02
197.764	2306.2
197.839	2324.05
197.914	2317.62
197.989	2341.04
198.065	2356.27
198.14	2408.56
198.215	2434.55
198.29	2446.93
198.365	2459.83
198.44	2467.55
198.515	2494.83
198.59	2508.49
198.665	2532.68
198.74	2543.11
198.815	2544.02
198.89	2564.16
198.965	2596.17
199.04	2594.03
199.115	2608.69
199.19	2651.32
199.265	2655.51
199.34	2664.42
199.415	2699.54
199.49	2726.36
199.565	2736.74
199.64	2758.94
199.715	2756.79
199.79	2765.8
199.865	2772.04
199.94	2772.61
200.015	2807.54
200.09	2813.98
200.165	2819.98
200.24	2829.08
200.315	2867.43
200.39	2881.35
200.464	2891.31
200.539	2890.02
200.614	2903.6
200.689	2925.39
200.764	2929.92
200.839	2948.35
200.914	2953.5
200.989	2943.29
201.063	2953.31
201.138	2934.06
201.213	2936.21
201.288	2915.86
201.363	2918.24
201.438	2917.96
201.512	2932.44
201.587	2917.08
201.662	2921.57
201.737	2933.67
201.812	2943.26
201.886	2911.34
201.961	2918.49
202.036	2903.39
202.111	2902.82
202.186	2873.76
202.26	2856.46
202.335	2833.96
202.41	2825.33
202.485	2810.23
202.559	2789.55
202.634	2764.3
202.709	2778.53
202.784	2758.28
202.858	2757.38
202.933	2739.89
203.008	2734.99
203.082	2718.31
203.157	2711.55
203.232	2667.55
203.306	2650.01
203.381	2615.94
203.456	2590.74
203.53	2573.25
203.605	2554.49
203.68	2532.67
203.754	2526.29
203.829	2510.1
203.904	2490.39
203.978	2480.67
204.053	2484.53
204.127	2472.77
204.202	2470.91
204.277	2452.15
204.351	2446.01
204.426	2439.34
204.5	2428.92
204.575	2394.03
204.65	2403.46
204.724	2396.5
204.799	2406.3
204.873	2401.44
204.948	2398.4
205.022	2385.55
205.097	2374.26
205.171	2386.97
205.246	2394.68
205.32	2394.68
205.395	2397.4
205.469	2389.17
205.544	2394.17
205.618	2375.65
205.693	2390.22
205.767	2378.32
205.842	2398.22
205.916	2391.7
205.991	2384.42
206.065	2391.46
206.14	2405.69
206.214	2402.88
206.289	2398.3
206.363	2410.63
206.438	2410.82
206.512	2422.87
206.586	2444.72
206.661	2453.48
206.735	2433.26
206.81	2433.73
206.884	2450.01
206.958	2439.49
207.033	2458.48
207.107	2469.49
207.181	2509.4
207.256	2503.12
207.33	2524.26
207.405	2539.27
207.479	2562.13
207.553	2570.6
207.628	2560.32
207.702	2579.46
207.776	2578.8
207.851	2585.99
207.925	2605.76
207.999	2612.38
208.073	2616.71
208.148	2629.05
208.222	2626.39
208.296	2668.86
208.371	2695.98
208.445	2718.71
208.519	2757.87
208.593	2781.26
208.668	2792.61
208.742	2805.25
208.816	2824.88
208.89	2859.83
208.965	2878.29
209.039	2908.09
209.113	2951.72
209.187	2997.84
209.261	3017.52
209.336	3063.69
209.41	3113.29
209.484	3149.6
209.558	3205.04
209.632	3256.85
209.707	3305.52
209.781	3370.8
209.855	3432.2
209.929	3494.98
210.003	3548.31
210.077	3602.41
210.151	3707
210.226	3793.45
210.3	3880.9
210.374	3965.26
210.448	4034.62
210.522	4114.19
210.596	4192.65
210.67	4273.61
210.744	4394.4
210.818	4505.48
210.892	4606.31
210.966	4684.48
211.041	4788.02
211.115	4875.57
211.189	4989.06
211.263	5098.77
211.337	5197.43
211.411	5308.52
211.485	5403.91
211.559	5522.76
211.633	5634.03
211.707	5712.28
211.781	5835.17
211.855	5916.29
211.929	6028.52
212.003	6120.89
212.077	6244.35
212.151	6386.5
212.225	6523.96
212.299	6638.57
212.373	6755.02
212.447	6881.85
212.52	7044.61
212.594	7175.41
212.668	7319.86
212.742	7444.11
212.816	7578.09
212.89	7715.48
212.964	7855.82
213.038	8006.38
213.112	8167.34
213.186	8323.39
213.26	8439.69
213.333	8542.91
213.407	8698.28
213.481	8845.14
213.555	9011.38
213.629	9159.96
213.703	9286.78
213.777	9429.03
213.85	9557.02
213.924	9745.28
213.998	9894.73
214.072	10042.53
214.146	10188.68
214.219	10332.66
214.293	10473.47
214.367	10618.58
214.441	10774.06
214.515	10903.19
214.588	11022.03
214.662	11127.03
214.736	11250.25
214.81	11415.1
214.883	11559.42
214.957	11682.32
215.031	11816.1
215.105	11931.58
215.178	12043.55
215.252	12172.63
215.326	12290.86
215.4	12416.19
215.473	12502.95
215.547	12619.27
215.621	12730.96
215.694	12863
215.768	12977.14
215.842	13099.01
215.915	13218.36
215.989	13328.51
216.063	13453.37
216.136	13572.05
216.21	13697.19
216.284	13825.37
216.357	13942.65
216.431	14060.23
216.504	14186.48
216.578	14323.72
216.652	14452.66
216.725	14576.41
216.799	14703.9
216.873	14810
216.946	14930.85
217.02	15029.33
217.093	15128.39
217.167	15214.67
217.24	15303.22
217.314	15400.25
217.387	15492.8
217.461	15591.56
217.535	15697.12
217.608	15775.54
217.682	15874.83
217.755	15981.83
217.829	16074.18
217.902	16164.65
217.976	16254.16
218.049	16336.72
218.123	16419.57
218.196	16514.47
218.27	16600.02
218.343	16667.06
218.417	16766.96
218.49	16848.94
218.563	16948.37
218.637	17043.51
218.71	17142.5
218.784	17231.27
218.857	17318.46
218.931	17401.01
219.004	17479.95
219.077	17564.67
219.151	17658.41
219.224	17729.83
219.298	17801.59
219.371	17874.89
219.444	17941.58
219.518	18030.45
219.591	18107.41
219.665	18189.19
219.738	18262.15
219.811	18321.62
219.885	18402.43
219.958	18466.38
220.031	18524.93
220.105	18597.56
220.178	18666.81
220.251	18728.15
220.325	18792.24
220.398	18867.81
220.471	18939.66
220.544	19002.83
220.618	19054.45
220.691	19119.84
220.764	19189.86
220.838	19262.29
220.911	19324.84
220.984	19397.12
221.057	19453.56
221.131	19526.52
221.204	19561.07
221.277	19625.84
221.35	19703.95
221.424	19753.69
221.497	19811.61
221.57	19870.07
221.643	19917.58
221.716	19967.07
221.79	20016.81
221.863	20072.95
221.936	20117.09
222.009	20161.38
222.082	20209.81
222.155	20256.66
222.229	20313.23
222.302	20356.75
222.375	20377.81
222.448	20423.55
222.521	20464.46
222.594	20497.57
222.667	20508.99
222.74	20560.41
222.814	20593.57
222.887	20632.61
222.96	20671.36
223.033	20712.9
223.106	20746.01
223.179	20792.42
223.252	20825.15
223.325	20863.08
223.398	20881.15
223.471	20902.93
223.544	20927.03
223.617	20960.19
223.69	20981.11
223.763	20991.71
223.837	21025.06
223.91	21067.67
223.983	21075.71
224.056	21088.53
224.129	21112.34
224.202	21145.02
224.275	21154.95
224.348	21170.13
224.42	21178.23
224.493	21182.81
224.566	21191.43
224.639	21206.61
224.712	21210.42
224.785	21225.61
224.858	21233.22
224.931	21252.45
225.004	21260.84
225.077	21280.74
225.15	21270.14
225.223	21288.79
225.296	21319.16
225.369	21305.57
225.442	21307.54
225.514	21329.33
225.587	21352.95
225.66	21375.31
225.733	21399.41
225.806	21417.92
225.879	21419.85
225.952	21415.75
226.025	21443.99
226.097	21469.93
226.17	21489.49
226.243	21489.16
226.316	21495.13
226.389	21507.76
226.461	21518.51
226.534	21539.86
226.607	21546.08
226.68	21580.78
226.753	21584.93
226.825	21575.67
226.898	21616.79
226.971	21620.89
227.044	21621.9
227.117	21619.25
227.189	21625.08
227.262	21632.26
227.335	21641.03
227.407	21641.18
227.48	21646.96
227.553	21647.97
227.626	21641.71
227.698	21634.62
227.771	21632.31
227.844	21622.24
227.916	21621.85
227.989	21610.96
228.062	21606.76
228.134	21642.53
228.207	21633.61
228.28	21623.11
228.352	21626.62
228.425	21609.9
228.498	21619.59
228.57	21619.1
228.643	21637.28
228.716	21637.52
228.788	21632.02
228.861	21621.8
228.934	21648.8
229.006	21654.39
229.079	21650.63
229.151	21642.92
229.224	21628.26
229.296	21637.23
229.369	21659.5
229.442	21673.86
229.514	21666.92
229.587	21678.2
229.659	21647.74
229.732	21649.9
229.804	21658.97
229.877	21674.2
229.949	21692.42
230.022	21708.47
230.094	21709
230.167	21700.47
230.239	21686.2
230.312	21671.64
230.384	21701.19
230.457	21686.15
230.529	21689.62
230.602	21687.99
230.674	21694.16
230.747	21713.77
230.819	21728.96
230.892	21700.32
230.964	21689.86
231.037	21691.36
231.109	21672.51
231.181	21677.86
231.254	21668.75
231.326	21662.73
231.399	21647.83
231.471	21616.84
231.544	21582.52
231.616	21582.42
231.688	21568.78
231.761	21549.31
231.833	21546.56
231.905	21494.26
231.978	21489.2
232.05	21469.88
232.122	21462.36
232.195	21442.59
232.267	21431.75
232.339	21402.69
232.412	21409.67
232.484	21402.35
232.556	21378.44
232.629	21396.37
232.701	21387.94
232.773	21371.89
232.846	21352.13
232.918	21340.9
232.99	21337.71
233.062	21327.54
233.135	21318.77
233.207	21294.91
233.279	21284.41
233.351	21271.88
233.424	21262.24
233.496	21228.64
233.568	21239.39
233.64	21207.68
233.713	21187.68
233.785	21173.51
233.857	21165.51
233.929	21130.9
234.001	21123.14
234.074	21127.53
234.146	21081.64
234.218	21046.17
234.29	21030.46
234.362	21005.73
234.434	20965.25
234.507	20933.73
234.579	20907.32
234.651	20870.16
234.723	20850.35
234.795	20838.21
234.867	20812.04
234.939	20801.34
235.012	20794.2
235.084	20764.8
235.156	20747.79
235.228	20716.95
235.3	20688.95
235.372	20661.96
235.444	20645.77
235.516	20601.57
235.588	20577.96
235.66	20554.24
235.732	20526
235.804	20553.81
235.876	20542.97
235.948	20532.08
236.02	20508.13
236.092	20476.37
236.164	20451.45
236.236	20427.36
236.308	20397.62
236.38	20375.36
236.452	20353.52
236.524	20327.21
236.596	20312.9
236.668	20293.91
236.74	20271.84
236.812	20247.6
236.884	20219.84
236.956	20192.23
237.028	20146.16
237.1	20106.49
237.172	20094.98
237.244	20087.8
237.316	20017.87
237.388	19982.73
237.46	19950.64
237.532	19932.86
237.604	19895.94
237.675	19888.81
237.747	19871.37
237.819	19840.14
237.891	19807.32
237.963	19757.68
238.035	19715.47
238.107	19643.18
238.178	19626.22
238.25	19586.37
238.322	19577.69
238.394	19535.33
238.466	19491.91
238.538	19468.98
238.609	19447.92
238.681	19397.51
238.753	19348.65
238.825	19321.8
238.897	19290.24
238.968	19277.81
239.04	19236.22
239.112	19230.39
239.184	19181.28
239.255	19137.48
239.327	19109.33
239.399	19081.48
239.471	19062.3
239.542	19035.75
239.614	19026.01
239.686	18970.79
239.758	18961.01
239.829	18913.2
239.901	18889.97
239.973	18871.52
240.044	18852.43
240.116	18822.32
240.188	18787.04
240.259	18762.27
240.331	18719.67
240.403	18695.58
240.474	18641.65
240.546	18599.15
240.618	18550.33
240.689	18513.37
240.761	18481.13
240.833	18456.7
240.904	18419.83
240.976	18378.53
241.048	18348.03
241.119	18323.07
241.191	18294.25
241.262	18269.48
241.334	18228.95
241.405	18201.15
241.477	18163.46
241.549	18123.12
241.62	18090.69
241.692	18069.68
241.763	18050.79
241.835	18013.54
241.906	17982.12
241.978	17936.77
242.049	17931.76
242.121	17902.41
242.192	17883.23
242.264	17835.81
242.335	17784.92
242.407	17751.76
242.478	17721.55
242.55	17686.9
242.621	17644.82
242.693	17599.19
242.764	17554.95
242.836	17519.14
242.907	17486.32
242.979	17465.74
243.05	17442.42
243.122	17407.04
243.193	17366.95
243.264	17296.01
243.336	17262.22
243.407	17237.07
243.479	17222.95
243.55	17185.31
243.622	17163.91
243.693	17131.52
243.764	17117.88
243.836	17076.53
243.907	17047.09
243.978	17007.66
244.05	16981.73
244.121	16924.24
244.192	16909.59
244.264	16863.8
244.335	16836.47
244.407	16784.57
244.478	16748.13
244.549	16705.86
244.62	16660.08
244.692	16629.57
244.763	16615.35
244.834	16578.87
244.906	16535.35
244.977	16499.78
245.048	16478.04
245.119	16424.35
245.191	16381.31
245.262	16326.94
245.333	16319.67
245.405	16287.18
245.476	16261.78
245.547	16228.43
245.618	16210.55
245.689	16177.19
245.761	16150.78
245.832	16110.1
245.903	16086.05
245.974	16048.12
246.045	16004.21
246.117	15985.03
246.188	15935.14
246.259	15893.16
246.33	15859.95
246.401	15826.84
246.473	15783.26
246.544	15747.02
246.615	15730.34
246.686	15685.08
246.757	15677.46
246.828	15628.06
246.899	15612.39
246.97	15558.75
247.042	15518.98
247.113	15495.7
247.184	15484.95
247.255	15445.47
247.326	15414.96
247.397	15383.97
247.468	15353.31
247.539	15334.22
247.61	15288.63
247.681	15274.65
247.752	15260.72
247.823	15216.61
247.894	15189.47
247.965	15142.91
248.037	15104.83
248.108	15065.01
248.179	15042.84
248.25	15004.61
248.321	14975.93
248.392	14932.12
248.463	14938.29
248.534	14907.1
248.605	14885.65
248.675	14848.58
248.746	14830.7
248.817	14806.6
248.888	14782.88
248.959	14744.65
249.03	14722.09
249.101	14703.39
249.172	14670.03
249.243	14616.19
249.314	14608.62
249.385	14576.47
249.456	14562.78
249.527	14523.06
249.598	14499.73
249.669	14464.82
249.739	14438.89
249.81	14422.79
249.881	14378.1
249.952	14343.88
250.023	14312.93
250.094	14263.9
250.165	14225.29
250.235	14193.72
250.306	14175.69
250.377	14143.97
250.448	14121.22
250.519	14072.29
250.59	14055.03
250.66	14020.71
250.731	14006.1
250.802	13976.89
250.873	13956.45
250.944	13934.42
251.014	13903.47
251.085	13902.12
251.156	13889.1
251.227	13876.18
251.297	13862.4
251.368	13858.3
251.439	13840.27
251.51	13832.56
251.58	13805.71
251.651	13775.29
251.722	13757.98
251.792	13708.52
251.863	13672.66
251.934	13650.92
252.005	13655.4
252.075	13631.54
252.146	13623.92
252.217	13613.65
252.287	13598.66
252.358	13565.25
252.429	13557.35
252.499	13530.59
252.57	13500.85
252.641	13472.07
252.711	13443.14
252.782	13402.55
252.852	13394.79
252.923	13369.1
252.994	13340.75
253.064	13327.02
253.135	13297.66
253.205	13267
253.276	13267.14
253.347	13266.13
253.417	13242.94
253.488	13217.59
253.558	13187.41
253.629	13161.91
253.699	13145.42
253.77	13127.73
253.841	13107.82
253.911	13090.08
253.982	13072.73
254.052	13068.92
254.123	13059.71
254.193	13043.08
254.264	13053.83
254.334	13010.49
254.405	12973.81
254.475	12943.1
254.546	12923.19
254.616	12916.01
254.687	12904.2
254.757	12884.24
254.827	12858.93
254.898	12844.04
254.968	12820.51
255.039	12785.66
255.109	12769.61
255.18	12732.44
255.25	12691.71
255.321	12678.89
255.391	12639.94
255.461	12639.65
255.532	12581.85
255.602	12557.75
255.673	12518.51
255.743	12481.97
255.813	12444.37
255.884	12434.83
255.954	12420.12
256.024	12413.81
256.095	12393.32
256.165	12357.36
256.235	12342.13
256.306	12317.5
256.376	12310.03
256.446	12295.27
256.517	12288.67
256.587	12278.55
256.657	12265.68
256.728	12252.47
256.798	12228.13
256.868	12205.52
256.938	12177.13
257.009	12172.02
257.079	12160.79
257.149	12161.99
257.219	12131.24
257.29	12119.62
257.36	12077.21
257.43	12068.58
257.5	12027.08
257.571	12002.64
257.641	11989.53
257.711	11960.7
257.781	11945.04
257.852	11921.9
257.922	11880.55
257.992	11860.64
258.062	11835.67
258.132	11829.89
258.202	11804.92
258.273	11790.51
258.343	11789.26
258.413	11759.76
258.483	11742.26
258.553	11704.23
258.623	11673.91
258.693	11650.59
258.764	11649.96
258.834	11653.38
258.904	11634.01
258.974	11607.02
259.044	11586.1
259.114	11573.18
259.184	11552.02
259.254	11528.65
259.324	11492.84
259.394	11487.73
259.464	11486.86
259.535	11462.96
259.605	11434.81
259.675	11408.98
259.745	11393.99
259.815	11361.99
259.885	11343.09
259.955	11347.96
260.025	11325.22
260.095	11311.19
260.165	11302.47
260.235	11289.55
260.305	11260.78
260.375	11233.74
260.445	11241.79
260.515	11242.66
260.585	11230.9
260.655	11215.48
260.725	11208.73
260.795	11199.62
260.865	11201.98
260.934	11175.77
261.004	11171.43
261.074	11153.5
261.144	11149.4
261.214	11142.27
261.284	11119.72
261.354	11111.05
261.424	11083.14
261.494	11084.92
261.564	11066.27
261.634	11060.54
261.703	11033.98
261.773	11019.91
261.843	11008.16
261.913	10984.35
261.983	10951.15
262.053	10951.15
