Data from 20250702_urea_0.5M_MAYP1162681_08-05-00-315.txt Node
Date: Thu Jul 03 08:05:00 BST 2025
User: adleo
Spectrometer: MAYP116268
Trigger mode: 0
Integration Time (sec): 1.000000E0
Scans to average: 1
Electric dark correction enabled: true
Nonlinearity correction enabled: true
Boxcar width: 10
XAxis mode: Wavelengths
Number of Pixels in Spectrum: 2068
>>>>>Begin Spectral Data<<<<<
179.565	1176.48
179.642	1228.52
179.718	1270.64
179.795	1304.82
179.871	1336.43
179.948	1355.99
180.024	1376.06
180.101	1398.84
180.177	1412.76
180.254	1437.06
180.33	1458.72
180.407	1510.42
180.483	1601.49
180.56	1690.28
180.636	1771.32
180.712	1757.82
180.789	1765.09
180.865	1776.87
180.942	1784.38
181.018	1796.93
181.095	1810.53
181.171	1815.04
181.248	1817.56
181.324	1833.3
181.4	1842.71
181.477	1851.41
181.553	1860.67
181.63	1881.97
181.706	1896.24
181.782	1904.74
181.859	1901.32
181.935	1907.17
182.011	1903.55
182.088	1922.72
182.164	1939.03
182.24	1954.1
182.317	1964.22
182.393	1963.56
182.469	1977.87
182.546	1989.94
182.622	1995.22
182.698	1987.99
182.775	1998.6
182.851	2011.48
182.927	2004.06
183.003	1998.31
183.08	1993.46
183.156	2004.3
183.232	1998.74
183.308	1986.19
183.385	1992.51
183.461	2010.01
183.537	2008.3
183.613	2020.85
183.69	2012.15
183.766	2002.49
183.842	2010.39
183.918	2017.24
183.995	2028.98
184.071	2033.26
184.147	2029.65
184.223	2016.95
184.299	2031.18
184.375	2022.76
184.452	2028.75
184.528	2076.84
184.604	2088.25
184.68	2099.33
184.756	2104.8
184.832	2110.08
184.908	2119.07
184.985	2120.02
185.061	2103.18
185.137	2114.88
185.213	2106.04
185.289	2107.75
185.365	2100.67
185.441	2098.14
185.517	2109.52
185.593	2107.52
185.669	2103.95
185.745	2113.42
185.822	2129.49
185.898	2121.02
185.974	2130.62
186.05	2124.53
186.126	2092.19
186.202	2087.2
186.278	2087.15
186.354	2078.97
186.43	2085.01
186.506	2081.45
186.582	2079.88
186.658	2088.15
186.734	2067.56
186.81	2067.65
186.886	2068.84
186.962	2082.92
187.038	2079.21
187.114	2067.88
187.19	2074.88
187.266	2061.9
187.341	2061.94
187.417	2052.91
187.493	2051.86
187.569	2052.91
187.645	2046.49
187.721	2033.17
187.797	2041.59
187.873	2045.82
187.949	2042.4
188.025	2035.69
188.101	2037.83
188.176	2043.49
188.252	2038.88
188.328	2045.15
188.404	2044.77
188.48	2040.78
188.556	2032.12
188.632	2032.45
188.707	2036.07
188.783	2030.64
188.859	2030.12
188.935	2020.85
189.011	2031.59
189.086	2027.46
189.162	2020.75
189.238	2018.66
189.314	2018.47
189.39	2012.43
189.465	2003.15
189.541	2017.33
189.617	2002.87
189.693	1997.79
189.768	1999.83
189.844	2024.24
189.92	2017.91
189.996	2026
190.071	2039.65
190.147	2041.12
190.223	2048.45
190.298	2041.89
190.374	2032.09
190.45	2042.55
190.526	2050.87
190.601	2045.17
190.677	2046.21
190.753	2071.81
190.828	2074.95
190.904	2090.89
190.98	2102.59
191.055	2114.34
191.131	2105.78
191.207	2128.7
191.282	2139.35
191.358	2131.12
191.433	2116.47
191.509	2127.88
191.585	2125.55
191.66	2122.88
191.736	2128.73
191.811	2120.41
191.887	2137.92
191.963	2159.37
192.038	2163.18
192.114	2164.32
192.189	2169.79
192.265	2165.18
192.34	2145.09
192.416	2144.86
192.491	2138.38
192.567	2143.14
192.642	2144.95
192.718	2144.71
192.793	2132.68
192.869	2129.01
192.944	2132.01
193.02	2138.2
193.095	2144.85
193.171	2152.47
193.246	2153.61
193.322	2151.85
193.397	2153.56
193.473	2139.19
193.548	2121.44
193.624	2130.96
193.699	2127.87
193.775	2142.29
193.85	2145.19
193.925	2152.66
194.001	2150.09
194.076	2142.86
194.152	2131.15
194.227	2122.68
194.302	2114.6
194.378	2116.84
194.453	2114.41
194.529	2125.4
194.604	2114.46
194.679	2106.56
194.755	2087.73
194.83	2098.01
194.905	2094.21
194.981	2101.67
195.056	2092.21
195.131	2100.06
195.207	2095.06
195.282	2085.83
195.357	2064.04
195.433	2077.17
195.508	2063.99
195.583	2073.7
195.659	2088.35
195.734	2095.72
195.809	2095.91
195.884	2104.38
195.96	2107.18
196.035	2122.26
196.11	2120.5
196.185	2129.73
196.261	2135.25
196.336	2163.65
196.411	2153.84
196.486	2160.12
196.561	2155.37
196.637	2165.4
196.712	2180.96
196.787	2183.63
196.862	2198.94
196.937	2210.41
197.013	2215.07
197.088	2229.06
197.163	2248.1
197.238	2265.67
197.313	2265.19
197.388	2276.09
197.464	2305.41
197.539	2315.02
197.614	2307.31
197.689	2320.88
197.764	2338.83
197.839	2356.96
197.914	2352.44
197.989	2370.81
198.065	2385.57
198.14	2433.77
198.215	2459.62
198.29	2470.72
198.365	2484.62
198.44	2495.66
198.515	2524.05
198.59	2539.81
198.665	2563.09
198.74	2571.71
198.815	2571.09
198.89	2594.47
198.965	2627.11
199.04	2623.06
199.115	2637.1
199.19	2677.77
199.265	2675.49
199.34	2687.16
199.415	2717.9
199.49	2738.05
199.565	2744.81
199.64	2768.54
199.715	2766.25
199.79	2771.73
199.865	2780.97
199.94	2779.5
200.015	2811.33
200.09	2811.9
200.165	2820
200.24	2827.06
200.315	2869.8
200.39	2884.86
200.464	2891.25
200.539	2892.44
200.614	2911.64
200.689	2934.76
200.764	2944.2
200.839	2965.4
200.914	2969.26
200.989	2961.58
201.063	2976.27
201.138	2962.79
201.213	2962.26
201.288	2940.29
201.363	2946.15
201.438	2944.01
201.512	2961.3
201.587	2942.71
201.662	2951.05
201.737	2960.59
201.812	2969.31
201.886	2935.2
201.961	2945.83
202.036	2929.02
202.111	2923.92
202.186	2894.09
202.26	2877.22
202.335	2854
202.41	2844.71
202.485	2826.03
202.559	2806.25
202.634	2778.57
202.709	2789.09
202.784	2773.42
202.858	2776.56
202.933	2759.83
203.008	2755.55
203.082	2735.63
203.157	2735.25
203.232	2691.77
203.306	2674.23
203.381	2643.26
203.456	2617.06
203.53	2593.55
203.605	2576.94
203.68	2556.46
203.754	2548.08
203.829	2536.36
203.904	2519.6
203.978	2511.26
204.053	2512.5
204.127	2504.36
204.202	2503.45
204.277	2484.79
204.351	2476.5
204.426	2468.22
204.5	2458.31
204.575	2423.85
204.65	2431.94
204.724	2423.23
204.799	2432.55
204.873	2427.79
204.948	2423.79
205.022	2414.51
205.097	2404.74
205.171	2420.64
205.246	2429.12
205.32	2431.83
205.395	2428.88
205.469	2418.7
205.544	2420.98
205.618	2407.65
205.693	2415.41
205.767	2401.61
205.842	2419.47
205.916	2408.95
205.991	2399.85
206.065	2405.28
206.14	2416.32
206.214	2413.22
206.289	2407.22
206.363	2422.03
206.438	2425.32
206.512	2434.27
206.586	2453.16
206.661	2461.36
206.735	2440.51
206.81	2441.13
206.884	2451.32
206.958	2436.52
207.033	2456.08
207.107	2463.27
207.181	2495.04
207.256	2491.04
207.33	2512.89
207.405	2530.43
207.479	2554.33
207.553	2562.66
207.628	2551
207.702	2564.81
207.776	2559.47
207.851	2565.14
207.925	2576.53
207.999	2576.19
208.073	2576.05
208.148	2583.63
208.222	2577
208.296	2612.57
208.371	2632.16
208.445	2649.36
208.519	2687.6
208.593	2704.13
208.668	2707.94
208.742	2718.05
208.816	2726.34
208.89	2746.83
208.965	2750.22
209.039	2768.53
209.113	2795.78
209.187	2827.17
209.261	2836.08
209.336	2871.68
209.41	2904.38
209.484	2924.07
209.558	2965.18
209.632	2994.97
209.707	3023.19
209.781	3063.53
209.855	3097.97
209.929	3139.27
210.003	3167.6
210.077	3191.83
210.151	3263.6
210.226	3325.41
210.3	3376.71
210.374	3430.66
210.448	3467.51
210.522	3507.9
210.596	3545.95
210.67	3590.49
210.744	3670.3
210.818	3738.7
210.892	3791.58
210.966	3823.19
211.041	3877.94
211.115	3913.44
211.189	3978.32
211.263	4036.47
211.337	4087.41
211.411	4148.99
211.485	4188.65
211.559	4248.15
211.633	4295.85
211.707	4315.23
211.781	4375.01
211.855	4395.73
211.929	4437.38
212.003	4469.74
212.077	4539.62
212.151	4613.95
212.225	4679.28
212.299	4729.87
212.373	4779.45
212.447	4837.21
212.52	4927.36
212.594	4992.31
212.668	5071.19
212.742	5123.35
212.816	5181.03
212.89	5243.26
212.964	5308.02
213.038	5377.58
213.112	5466.27
213.186	5554.26
213.26	5603.48
213.333	5631.81
213.407	5706.97
213.481	5783.61
213.555	5869.93
213.629	5929.57
213.703	5986.04
213.777	6058.98
213.85	6108.31
213.924	6217.27
213.998	6295.56
214.072	6368.4
214.146	6431.77
214.219	6498.99
214.293	6570.47
214.367	6645.71
214.441	6725.76
214.515	6790.13
214.588	6841.04
214.662	6868.85
214.736	6921.45
214.81	6999.68
214.883	7078.45
214.957	7142.68
215.031	7203.73
215.105	7256
215.178	7321.22
215.252	7384.28
215.326	7435.43
215.4	7491.03
215.473	7515.17
215.547	7564.41
215.621	7623.96
215.694	7696.77
215.768	7747.65
215.842	7805.06
215.915	7869.32
215.989	7913.86
216.063	7968.31
216.136	8031.52
216.21	8106.16
216.284	8185.73
216.357	8258.71
216.431	8323.38
216.504	8395.88
216.578	8495.69
216.652	8572.23
216.725	8639.18
216.799	8716.63
216.873	8782.71
216.946	8861.69
217.02	8925.07
217.093	8991.6
217.167	9032.66
217.24	9080.52
217.314	9145.22
217.387	9205.92
217.461	9260.96
217.535	9347.05
217.608	9403.77
217.682	9476.34
217.755	9550.21
217.829	9606.17
217.902	9671.39
217.976	9736.5
218.049	9793.14
218.123	9831.53
218.196	9903.68
218.27	9960.76
218.343	10006.67
218.417	10067.61
218.49	10120.4
218.563	10197.77
218.637	10265.8
218.71	10352.81
218.784	10425.36
218.857	10496.28
218.931	10564.12
219.004	10628.25
219.077	10689.93
219.151	10765.14
219.224	10825.86
219.298	10888.79
219.371	10963
219.444	11013.12
219.518	11080.01
219.591	11152.87
219.665	11246.32
219.738	11305.64
219.811	11358.08
219.885	11430.32
219.958	11506.95
220.031	11576.88
220.105	11644.02
220.178	11705.76
220.251	11755.31
220.325	11830.17
220.398	11896.49
220.471	11965.8
220.544	12037.96
220.618	12091.46
220.691	12151.66
220.764	12211.34
220.838	12282.82
220.911	12333.29
220.984	12422.03
221.057	12485.47
221.131	12546.64
221.204	12572.29
221.277	12648.3
221.35	12742.11
221.424	12801.07
221.497	12860.7
221.57	12919.22
221.643	12983.67
221.716	13045.28
221.79	13104.09
221.863	13153.79
221.936	13212.5
222.009	13273
222.082	13339.86
222.155	13398.58
222.229	13472.48
222.302	13532.25
222.375	13581.23
222.448	13650.65
222.521	13697.84
222.594	13750.34
222.667	13791.75
222.74	13861.41
222.814	13920.03
222.887	13963.75
222.96	14034.37
223.033	14095.88
223.106	14157.59
223.179	14213.7
223.252	14271.98
223.325	14333.1
223.398	14387.24
223.471	14439.25
223.544	14484.42
223.617	14533.92
223.69	14581.74
223.763	14621.22
223.837	14682.15
223.91	14736.14
223.983	14760.1
224.056	14788.3
224.129	14838.29
224.202	14893.97
224.275	14933.97
224.348	14956.34
224.42	14985.7
224.493	15001.7
224.566	15035.01
224.639	15078.63
224.712	15113
224.785	15149.1
224.858	15185.69
224.931	15224.49
225.004	15251.53
225.077	15293.33
225.15	15302.1
225.223	15347.26
225.296	15409.59
225.369	15429.25
225.442	15467.28
225.514	15517.51
225.587	15566.43
225.66	15614.68
225.733	15665.53
225.806	15714.02
225.879	15766.61
225.952	15801.89
226.025	15863.49
226.097	15917.18
226.17	15958.25
226.243	15978.59
226.316	16013.24
226.389	16062.17
226.461	16110.6
226.534	16162.32
226.607	16207.58
226.68	16282.72
226.753	16318.87
226.825	16331.16
226.898	16388.56
226.971	16417.1
227.044	16464.72
227.117	16512.14
227.189	16539.9
227.262	16587.18
227.335	16627.91
227.407	16650.95
227.48	16696.01
227.553	16734.76
227.626	16766.52
227.698	16803.39
227.771	16844.4
227.844	16877.71
227.916	16904.17
227.989	16920.99
228.062	16945.81
228.134	16997.66
228.207	17019.54
228.28	17045.86
228.352	17081.14
228.425	17107.88
228.498	17152.8
228.57	17161.57
228.643	17202.49
228.716	17239.02
228.788	17251.74
228.861	17276.95
228.934	17323.12
229.006	17354.39
229.079	17376.75
229.151	17388.32
229.224	17395.65
229.296	17427.69
229.369	17482.1
229.442	17526.25
229.514	17541.43
229.587	17579.84
229.659	17583.79
229.732	17611.84
229.804	17650.1
229.877	17690.2
229.949	17735.88
230.022	17780.22
230.094	17813.28
230.167	17838
230.239	17857.42
230.312	17891.64
230.384	17935.35
230.457	17967.49
230.529	17991.59
230.602	18010.43
230.674	18045.03
230.747	18091.73
230.819	18130.47
230.892	18123.53
230.964	18145.27
231.037	18182.76
231.109	18206.04
231.181	18236.16
231.254	18244.49
231.326	18259.38
231.399	18279.29
231.471	18283.96
231.544	18276.78
231.616	18314.03
231.688	18338.51
231.761	18354.61
231.833	18355.67
231.905	18349.26
231.978	18363.04
232.05	18375.04
232.122	18401.98
232.195	18416.24
232.267	18442.07
232.339	18450.94
232.412	18482.02
232.484	18484.24
232.556	18492.48
232.629	18526.7
232.701	18545.97
232.773	18563.42
232.846	18577.34
232.918	18588.43
232.99	18597.63
233.062	18620.09
233.135	18632.57
233.207	18628.04
233.279	18641.48
233.351	18665.48
233.424	18665.34
233.496	18664.66
233.568	18691.7
233.64	18676.86
233.713	18683.41
233.785	18677.96
233.857	18690.69
233.929	18674.98
234.001	18704.66
234.074	18719.45
234.146	18693.19
234.218	18696.32
234.29	18706.64
234.362	18692.56
234.434	18676.81
234.507	18668.37
234.579	18654.21
234.651	18640.42
234.723	18639.46
234.795	18645.34
234.867	18645.77
234.939	18667.41
235.012	18672.81
235.084	18681.77
235.156	18698.73
235.228	18699.46
235.3	18694.06
235.372	18685.87
235.444	18701.72
235.516	18669.77
235.588	18668.08
235.66	18673.05
235.732	18660.95
235.804	18700.61
235.876	18714.01
235.948	18727.12
236.02	18727.45
236.092	18723.26
236.164	18716.95
236.236	18704.47
236.308	18693.24
236.38	18674.98
236.452	18647.27
236.524	18631.36
236.596	18640.13
236.668	18636.18
236.74	18620.33
236.812	18609.97
236.884	18616.95
236.956	18606.69
237.028	18591.85
237.1	18568.96
237.172	18577.68
237.244	18584.91
237.316	18540.96
237.388	18522.5
237.46	18499.13
237.532	18499.61
237.604	18477.59
237.675	18487.66
237.747	18482.75
237.819	18460.72
237.891	18454.75
237.963	18437.11
238.035	18420.19
238.107	18361.45
238.178	18355.76
238.25	18339.91
238.322	18356.78
238.394	18318.22
238.466	18295.29
238.538	18282.56
238.609	18279.29
238.681	18228.93
238.753	18200.64
238.825	18181.17
238.897	18174.86
238.968	18172.45
239.04	18142.09
239.112	18153.51
239.184	18116.31
239.255	18098.86
239.327	18079.15
239.399	18063.2
239.471	18060.45
239.542	18047.34
239.614	18041.8
239.686	17992.65
239.758	17982.91
239.829	17942.53
239.901	17932.89
239.973	17913.42
240.044	17898.29
240.116	17869.91
240.188	17856.7
240.259	17833.57
240.331	17804.41
240.403	17783.69
240.474	17751.4
240.546	17723.55
240.618	17678.87
240.689	17656.66
240.761	17631.16
240.833	17630.1
240.904	17596.27
240.976	17564.9
241.048	17543.5
241.119	17521.19
241.191	17504.51
241.262	17489.77
241.334	17461.67
241.405	17429.67
241.477	17400.71
241.549	17374.44
241.62	17356.56
241.692	17335.41
241.763	17316.8
241.835	17289.72
241.906	17262.39
241.978	17222.73
242.049	17210.92
242.121	17196.75
242.192	17177.33
242.264	17137.04
242.335	17088.99
242.407	17073.86
242.478	17048.7
242.55	17016.84
242.621	16984.6
242.693	16953.9
242.764	16927.25
242.836	16893.71
242.907	16876.6
242.979	16857.42
243.05	16830.33
243.122	16803.49
243.193	16769.89
243.264	16718.66
243.336	16691.19
243.407	16666.66
243.479	16655
243.55	16624.25
243.622	16594.03
243.693	16561.59
243.764	16553.69
243.836	16522.99
243.907	16479.42
243.978	16445.05
244.05	16428.28
244.121	16380.56
244.192	16360.18
244.264	16307.64
244.335	16281.71
244.407	16232.79
244.478	16201.41
244.549	16172.11
244.62	16128.92
244.692	16103.19
244.763	16087.28
244.834	16054.46
244.906	16017.97
244.977	15990.93
245.048	15977.15
245.119	15942.3
245.191	15907.5
245.262	15847.35
245.333	15830.04
245.405	15807.73
245.476	15791.72
245.547	15763
245.618	15752.15
245.689	15724.77
245.761	15704.34
245.832	15672.57
245.903	15645.73
245.974	15620.18
246.045	15584.08
246.117	15573.57
246.188	15536.16
246.259	15497.8
246.33	15466.08
246.401	15438.03
246.473	15395.27
246.544	15358.74
246.615	15344.08
246.686	15306.29
246.757	15299.54
246.828	15256.16
246.899	15243.77
246.97	15193.31
247.042	15157.92
247.113	15128.57
247.184	15120.18
247.255	15091.94
247.326	15060.03
247.397	15034.38
247.468	15002.52
247.539	14978.03
247.61	14938.17
247.681	14918.64
247.752	14901.15
247.823	14860.61
247.894	14831.3
247.965	14798.33
248.037	14757.31
248.108	14708.96
248.179	14690.78
248.25	14659.93
248.321	14645.71
248.392	14603.39
248.463	14597.75
248.534	14562.42
248.605	14534.89
248.675	14503.17
248.746	14469.57
248.817	14454.63
248.888	14426.04
248.959	14383.77
249.03	14364.82
249.101	14334.94
249.172	14295.99
249.243	14247.06
249.314	14244.26
249.385	14216.74
249.456	14189.16
249.527	14165.3
249.598	14141.63
249.669	14114.2
249.739	14092.51
249.81	14068.5
249.881	14031
249.952	14003.67
250.023	13973.83
250.094	13938.06
250.165	13893.23
250.235	13867.43
250.306	13833.64
250.377	13803.18
250.448	13789.15
250.519	13740.94
250.59	13726.24
250.66	13700.21
250.731	13694.81
250.802	13659.91
250.873	13643.66
250.944	13619.32
251.014	13588.95
251.085	13591.5
251.156	13563.69
251.227	13543.34
251.297	13534.33
251.368	13523.53
251.439	13505.31
251.51	13498.8
251.58	13466.89
251.651	13438.54
251.722	13427.84
251.792	13390.43
251.863	13364.83
251.934	13359.39
252.005	13363.05
252.075	13336.44
252.146	13326.46
252.217	13316
252.287	13303.18
252.358	13276.76
252.429	13274.3
252.499	13246.1
252.57	13220.5
252.641	13209.22
252.711	13191.72
252.782	13152.44
252.852	13147.23
252.923	13125.54
252.994	13102.69
253.064	13088.66
253.135	13063.01
253.205	13031
253.276	13030.38
253.347	13026.71
253.417	12985.45
253.488	12957.35
253.558	12934.01
253.629	12916.18
253.699	12888.94
253.77	12873.32
253.841	12846.23
253.911	12827.09
253.982	12807.52
254.052	12792.67
254.123	12775.08
254.193	12752.08
254.264	12760.47
254.334	12726.78
254.405	12686.62
254.475	12647.82
254.546	12634.37
254.616	12625.64
254.687	12609.64
254.757	12587.08
254.827	12558.93
254.898	12544.8
254.968	12523.11
255.039	12498.67
255.109	12481.7
255.18	12451.72
255.25	12410.03
255.321	12396.34
255.391	12359.8
255.461	12358.69
255.532	12313.38
255.602	12286.96
255.673	12247.39
255.743	12217.55
255.813	12175.61
255.884	12168.77
255.954	12164.43
256.024	12161.01
256.095	12146.4
256.165	12114.78
256.235	12105
256.306	12080.85
256.376	12073.95
256.446	12060.65
256.517	12043.92
256.587	12026.57
256.657	12013.7
256.728	11995.05
256.798	11971.09
256.868	11953.21
256.938	11922.65
257.009	11909.44
257.079	11900.14
257.149	11910.84
257.219	11870.3
257.29	11860.04
257.36	11820.95
257.43	11808.95
257.5	11763.35
257.571	11735.78
257.641	11727.59
257.711	11693.61
257.781	11681.7
257.852	11665.02
257.922	11626.66
257.992	11605.69
258.062	11588.48
258.132	11575.9
258.202	11557.59
258.273	11544.91
258.343	11540.19
258.413	11520.24
258.483	11506.74
258.553	11472.23
258.623	11437.92
258.693	11427.89
258.764	11421.53
258.834	11427.6
258.904	11406.11
258.974	11383.75
259.044	11363.21
259.114	11351.17
259.184	11334.49
259.254	11317.57
259.324	11275.69
259.394	11267.02
259.464	11268.32
259.535	11249.86
259.605	11225.96
259.675	11199.79
259.745	11183.5
259.815	11156.17
259.885	11125.86
259.955	11130.83
260.025	11109.91
260.095	11099.5
260.165	11083.21
260.235	11084.18
260.305	11055.84
260.375	11030.93
260.445	11032.57
260.515	11027.17
260.585	11015.02
260.655	10998.11
260.725	10990.88
260.795	10991.03
260.865	10994.78
260.934	10969.15
261.004	10961
261.074	10941.73
261.144	10942.88
261.214	10938.88
261.284	10918.98
261.354	10922.5
261.424	10894.64
261.494	10898.55
261.564	10873.68
261.634	10872.96
261.703	10835.85
261.773	10821.83
261.843	10811.76
261.913	10787.33
261.983	10760.73
262.053	10754.08
262.123	10736.83
262.192	10711.54
262.262	10698.04
262.332	10666.82
262.402	10657.86
