Data from 20250702_urea_0.5M_MAYP1162681_02-44-59-857.txt Node
Date: Thu Jul 03 02:44:59 BST 2025
User: adleo
Spectrometer: MAYP116268
Trigger mode: 0
Integration Time (sec): 1.000000E0
Scans to average: 1
Electric dark correction enabled: true
Nonlinearity correction enabled: true
Boxcar width: 10
XAxis mode: Wavelengths
Number of Pixels in Spectrum: 2068
>>>>>Begin Spectral Data<<<<<
179.565	1193.35
179.642	1249.48
179.718	1290.98
179.795	1328.27
179.871	1361.31
179.948	1377.88
180.024	1398.43
180.101	1420.4
180.177	1433.61
180.254	1456.72
180.33	1478.48
180.407	1532.7
180.483	1626.58
180.56	1713.57
180.636	1796.6
180.712	1784.48
180.789	1791.94
180.865	1803.96
180.942	1809.67
181.018	1819.03
181.095	1832.34
181.171	1836.14
181.248	1835.91
181.324	1849.27
181.4	1860.01
181.477	1870.57
181.553	1885.92
181.63	1903.22
181.706	1920.62
181.782	1928.84
181.859	1927.51
181.935	1931.13
182.011	1924.99
182.088	1940.87
182.164	1962.8
182.24	1975.78
182.317	1985.1
182.393	1984.86
182.469	1999.03
182.546	2011.15
182.622	2015.53
182.698	2010.49
182.775	2022.8
182.851	2037.59
182.927	2032.93
183.003	2022.8
183.08	2015.05
183.156	2022.81
183.232	2022.23
183.308	2009.96
183.385	2019.71
183.461	2035.79
183.537	2038.07
183.613	2052.1
183.69	2043.68
183.766	2032.55
183.842	2040.3
183.918	2047.24
183.995	2060.84
184.071	2064.79
184.147	2060.37
184.223	2050.48
184.299	2061.8
184.375	2051.72
184.452	2056.57
184.528	2111.53
184.604	2121.56
184.68	2134.16
184.756	2140.21
184.832	2142.87
184.908	2147.91
184.985	2147.96
185.061	2135.92
185.137	2148.91
185.213	2137.93
185.289	2141.82
185.365	2134.79
185.441	2131.46
185.517	2141.21
185.593	2139.69
185.669	2138.98
185.745	2149.77
185.822	2165.89
185.898	2156.14
185.974	2163.8
186.05	2155.57
186.126	2117.88
186.202	2114.79
186.278	2110.79
186.354	2100.85
186.43	2112.46
186.506	2109.7
186.582	2106.75
186.658	2112.65
186.734	2088.92
186.81	2088.63
186.886	2091.11
186.962	2103.61
187.038	2100.81
187.114	2094.57
187.19	2102.04
187.266	2090.01
187.341	2087.97
187.417	2080.88
187.493	2081.97
187.569	2087.44
187.645	2083.73
187.721	2067.61
187.797	2073.41
187.873	2078.31
187.949	2073.93
188.025	2066.94
188.101	2070.46
188.176	2077.02
188.252	2071.55
188.328	2077.4
188.404	2079.63
188.48	2072.83
188.556	2063.17
188.632	2061.94
188.707	2061.27
188.783	2056.99
188.859	2051.71
188.935	2043.58
189.011	2050.52
189.086	2045.82
189.162	2036.73
189.238	2032.78
189.314	2032.59
189.39	2025.51
189.465	2018.99
189.541	2034.12
189.617	2016.14
189.693	2009.2
189.768	2012.24
189.844	2035.7
189.92	2033.09
189.996	2040.17
190.071	2051.68
190.147	2051.11
190.223	2062.67
190.298	2053.4
190.374	2040.51
190.45	2052.49
190.526	2061.95
190.601	2058.77
190.677	2060.24
190.753	2089.08
190.828	2093.27
190.904	2110.92
190.98	2128.8
191.055	2139.75
191.131	2131.56
191.207	2152.44
191.282	2164.95
191.358	2154.67
191.433	2140.87
191.509	2151.24
191.585	2148.53
191.66	2148.29
191.736	2159.75
191.811	2149.95
191.887	2170.84
191.963	2193.68
192.038	2200.48
192.114	2200
192.189	2202.38
192.265	2200.91
192.34	2177.68
192.416	2178.3
192.491	2172.44
192.567	2176.87
192.642	2179.35
192.718	2179.35
192.793	2168.17
192.869	2161.89
192.944	2164.41
193.02	2170.93
193.095	2174.16
193.171	2181.01
193.246	2181.25
193.322	2177.59
193.397	2179.25
193.473	2161.12
193.548	2144.51
193.624	2146.94
193.699	2145.09
193.775	2159.7
193.85	2160.88
193.925	2169.31
194.001	2166.64
194.076	2158.79
194.152	2147.13
194.227	2138
194.302	2132.81
194.378	2135.53
194.453	2133.34
194.529	2147.23
194.604	2134.53
194.679	2129.91
194.755	2110.46
194.83	2126.31
194.905	2124.22
194.981	2133.16
195.056	2129.74
195.131	2137.45
195.207	2135.26
195.282	2126.27
195.357	2107.71
195.433	2122.89
195.508	2110.95
195.583	2118.22
195.659	2130.74
195.734	2136.83
195.809	2137.35
195.884	2143.82
195.96	2145.29
196.035	2157.61
196.11	2152.23
196.185	2163.94
196.261	2169.22
196.336	2199.28
196.411	2181.81
196.486	2183.91
196.561	2177.25
196.637	2185.14
196.712	2199.23
196.787	2205.85
196.862	2223.16
196.937	2233.39
197.013	2238.82
197.088	2248.04
197.163	2271.75
197.238	2289.89
197.313	2287.75
197.388	2299.17
197.464	2329.12
197.539	2337.92
197.614	2333.73
197.689	2347.49
197.764	2362.34
197.839	2380.53
197.914	2376.01
197.989	2397.76
198.065	2414.47
198.14	2463.96
198.215	2488.52
198.29	2497.19
198.365	2508.95
198.44	2517.14
198.515	2546.24
198.59	2559.77
198.665	2583
198.74	2592.72
198.815	2594.39
198.89	2619.34
198.965	2650.02
199.04	2645.07
199.115	2662.59
199.19	2705.31
199.265	2705.79
199.34	2716.46
199.415	2747.73
199.49	2768.59
199.565	2775.69
199.64	2799.61
199.715	2796.13
199.79	2803.18
199.865	2811.95
199.94	2808.9
200.015	2841.64
200.09	2845.89
200.165	2852.27
200.24	2864.28
200.315	2903.4
200.39	2918.23
200.464	2923.47
200.539	2926
200.614	2943.58
200.689	2966.08
200.764	2972.38
200.839	2990.77
200.914	2994.91
200.989	2982.9
201.063	2999.77
201.138	2985.72
201.213	2985.58
201.288	2968.18
201.363	2975.66
201.438	2977.95
201.512	2996.92
201.587	2980.94
201.662	2984.37
201.737	2997.1
201.812	3005.02
201.886	2971.29
201.961	2979.78
202.036	2968.58
202.111	2963.9
202.186	2933.84
202.26	2916.44
202.335	2893.27
202.41	2887.55
202.485	2869.69
202.559	2854.77
202.634	2825.37
202.709	2832.94
202.784	2816.11
202.858	2814.11
202.933	2794.67
203.008	2783.19
203.082	2762.56
203.157	2759.84
203.232	2717.78
203.306	2696.91
203.381	2664.55
203.456	2638.97
203.53	2617.61
203.605	2597.51
203.68	2575.45
203.754	2569.89
203.829	2555.83
203.904	2536.93
203.978	2523.31
204.053	2529.78
204.127	2515.36
204.202	2516.74
204.277	2500.36
204.351	2488.5
204.426	2482.36
204.5	2474.26
204.575	2442.66
204.65	2450.66
204.724	2440.56
204.799	2449.41
204.873	2445.98
204.948	2444.84
205.022	2432.32
205.097	2423.27
205.171	2436.36
205.246	2445.46
205.32	2444.41
205.395	2443.7
205.469	2435.27
205.544	2444.32
205.618	2425.33
205.693	2438.04
205.767	2423.38
205.842	2445.33
205.916	2440.76
205.991	2432.71
206.065	2437.24
206.14	2453.65
206.214	2452.51
206.289	2449.36
206.363	2460.98
206.438	2461.22
206.512	2468.89
206.586	2492.64
206.661	2498.26
206.735	2478.13
206.81	2479.61
206.884	2494.51
206.958	2482.46
207.033	2500.88
207.107	2505.98
207.181	2539.99
207.256	2533.04
207.33	2552.56
207.405	2565.62
207.479	2591.96
207.553	2598.86
207.628	2588.1
207.702	2599.91
207.776	2596.15
207.851	2602.43
207.925	2623.4
207.999	2626.64
208.073	2627.64
208.148	2631.69
208.222	2629.21
208.296	2666.45
208.371	2686.85
208.445	2708.34
208.519	2743.73
208.593	2764.46
208.668	2772.8
208.742	2782.33
208.816	2797.15
208.89	2824.13
208.965	2835.58
209.039	2854.03
209.113	2886.25
209.187	2920.69
209.261	2938.04
209.336	2975.37
209.41	3014.76
209.484	3032.36
209.558	3076.81
209.632	3116.24
209.707	3154.64
209.781	3203.44
209.855	3247.43
209.929	3294.37
210.003	3327.97
210.077	3359.85
210.151	3441.43
210.226	3509.44
210.3	3575.61
210.374	3639.14
210.448	3684.89
210.522	3739.12
210.596	3791.47
210.67	3847.13
210.744	3941.37
210.818	4017.89
210.892	4089.12
210.966	4131.31
211.041	4198.95
211.115	4249.48
211.189	4330.49
211.263	4402.9
211.337	4466.08
211.411	4542.64
211.485	4598.55
211.559	4675.15
211.633	4745.36
211.707	4784.83
211.781	4863.16
211.855	4900.95
211.929	4967.49
212.003	5023.98
212.077	5110.04
212.151	5202.38
212.225	5293.81
212.299	5366.94
212.373	5437.67
212.447	5515.73
212.52	5632.9
212.594	5724.97
212.668	5823.94
212.742	5895.79
212.816	5982.91
212.89	6067.81
212.964	6150.8
213.038	6245.16
213.112	6351.44
213.186	6457.84
213.26	6526.08
213.333	6572.5
213.407	6672.74
213.481	6770.25
213.555	6878.37
213.629	6960.96
213.703	7040.73
213.777	7135.12
213.85	7210.29
213.924	7338.96
213.998	7438.33
214.072	7523.92
214.146	7609.5
214.219	7703.31
214.293	7796.34
214.367	7892.96
214.441	8001.12
214.515	8096.37
214.588	8175.98
214.662	8237.22
214.736	8319.59
214.81	8423.91
214.883	8534.07
214.957	8622.07
215.031	8705.12
215.105	8781.68
215.178	8862.59
215.252	8943.98
215.326	9008.05
215.4	9082.47
215.473	9127.68
215.547	9200.01
215.621	9286.98
215.694	9387.19
215.768	9451.86
215.842	9525.63
215.915	9601.3
215.989	9667.23
216.063	9747.72
216.136	9836.93
216.21	9923.19
216.284	10016.01
216.357	10109.27
216.431	10191.45
216.504	10284.53
216.578	10390.96
216.652	10483.74
216.725	10562.95
216.799	10660.33
216.873	10745.9
216.946	10835.56
217.02	10924.85
217.093	11006.28
217.167	11067.97
217.24	11129.66
217.314	11208.2
217.387	11287.86
217.461	11360.29
217.535	11452.15
217.608	11515.58
217.682	11589.37
217.755	11679.98
217.829	11749.14
217.902	11825.44
217.976	11896.01
218.049	11957.32
218.123	12012.46
218.196	12086.5
218.27	12162.03
218.343	12222.19
218.417	12308.23
218.49	12381.59
218.563	12460.7
218.637	12532.91
218.71	12615.72
218.784	12694.01
218.857	12778.07
218.931	12851.25
219.004	12929.92
219.077	13005.55
219.151	13079.5
219.224	13148
219.298	13220.65
219.371	13301.06
219.444	13350.23
219.518	13426.73
219.591	13489.88
219.665	13589.57
219.738	13664.39
219.811	13724.65
219.885	13808.19
219.958	13872.06
220.031	13937.09
220.105	14013.74
220.178	14082
220.251	14141.63
220.325	14207.57
220.398	14278.77
220.471	14352.05
220.544	14422.33
220.618	14477.67
220.691	14547.03
220.764	14619.39
220.838	14681.28
220.911	14739.03
220.984	14828.35
221.057	14893.82
221.131	14969.59
221.204	14994.18
221.277	15078.24
221.35	15168.96
221.424	15219.86
221.497	15283.73
221.57	15349.09
221.643	15408.23
221.716	15472.49
221.79	15525.22
221.863	15585.37
221.936	15636.42
222.009	15689.58
222.082	15746.46
222.155	15792.2
222.229	15863.54
222.302	15913.71
222.375	15969.43
222.448	16027.7
222.521	16072.19
222.594	16121.79
222.667	16158.32
222.74	16221.7
222.814	16256.6
222.887	16300.94
222.96	16357.81
223.033	16415.65
223.106	16461.24
223.179	16509.87
223.252	16556.43
223.325	16614.31
223.398	16649.26
223.471	16697.98
223.544	16747.38
223.617	16793.31
223.69	16853.85
223.763	16883.05
223.837	16921.32
223.91	16954.58
223.983	16970.91
224.056	17009.13
224.129	17054.82
224.202	17114.49
224.275	17158.25
224.348	17189.86
224.42	17215.98
224.493	17230.59
224.566	17256.51
224.639	17302.49
224.712	17337.28
224.785	17375.79
224.858	17409.38
224.931	17447.12
225.004	17473.81
225.077	17510.63
225.15	17517.09
225.223	17541.53
225.296	17599.88
225.369	17630.1
225.442	17664.08
225.514	17716.99
225.587	17751.64
225.66	17790.39
225.733	17820.12
225.806	17855.21
225.879	17886.58
225.952	17901.57
226.025	17954.77
226.097	17999.2
226.17	18027.49
226.243	18033.42
226.316	18051.63
226.389	18075.82
226.461	18111.53
226.534	18145.12
226.607	18167.39
226.68	18221.17
226.753	18254.81
226.825	18257.94
226.898	18306.85
226.971	18328.39
227.044	18353.26
227.117	18377.55
227.189	18402.75
227.262	18441.59
227.335	18467.47
227.407	18488.34
227.48	18531.37
227.553	18548.24
227.626	18574.02
227.698	18599.17
227.771	18638.54
227.844	18668.66
227.916	18698.64
227.989	18709.53
228.062	18728.56
228.134	18768.95
228.207	18791.5
228.28	18805.14
228.352	18824.46
228.425	18843.3
228.498	18881.85
228.57	18890.96
228.643	18933.42
228.716	18948.5
228.788	18955.39
228.861	18971.82
228.934	19005.75
229.006	19019.92
229.079	19049.7
229.151	19054.37
229.224	19052.16
229.296	19067.91
229.369	19105.26
229.442	19143.72
229.514	19160.49
229.587	19185.31
229.659	19190.03
229.732	19212.58
229.804	19236.96
229.877	19275.85
229.949	19290.79
230.022	19320.57
230.094	19341.05
230.167	19344.48
230.239	19349.49
230.312	19373.68
230.384	19411.61
230.457	19423.65
230.529	19439.99
230.602	19448.33
230.674	19463.36
230.747	19499.36
230.819	19531.26
230.892	19513.43
230.964	19523.84
231.037	19545.24
231.109	19561.72
231.181	19584.75
231.254	19582.34
231.326	19596.12
231.399	19606.63
231.471	19608.89
231.544	19599.4
231.616	19620.89
231.688	19645.18
231.761	19645.28
231.833	19644.99
231.905	19622.82
231.978	19630.68
232.05	19639.59
232.122	19652.94
232.195	19660.12
232.267	19664.27
232.339	19653.76
232.412	19673.57
232.484	19669.95
232.556	19666.53
232.629	19690.19
232.701	19698.82
232.773	19703.93
232.846	19704.12
232.918	19704.02
232.99	19712.26
233.062	19727.2
233.135	19731.06
233.207	19722.29
233.279	19741.95
233.351	19749.51
233.424	19748.55
233.496	19744.36
233.568	19755.78
233.64	19736.89
233.713	19740.36
233.785	19748.31
233.857	19756.79
233.929	19736.6
234.001	19746.67
234.074	19757.9
234.146	19738.43
234.218	19730.86
234.29	19718.58
234.362	19704.75
234.434	19684.65
234.507	19671.83
234.579	19647.4
234.651	19631.88
234.723	19615.35
234.795	19606.15
234.867	19592.85
234.939	19609.18
235.012	19600.99
235.084	19591.88
235.156	19592.75
235.228	19573.14
235.3	19549.19
235.372	19542.34
235.444	19549.62
235.516	19513.77
235.588	19503.79
235.66	19489.33
235.732	19469.38
235.804	19516.71
235.876	19515.7
235.948	19510.01
236.02	19497.19
236.092	19476.13
236.164	19463.02
236.236	19446.01
236.308	19427.12
236.38	19414.01
236.452	19381.87
236.524	19375.85
236.596	19376.67
236.668	19365.2
236.74	19349.39
236.812	19340.77
236.884	19319.8
236.956	19302.02
237.028	19280.82
237.1	19250.31
237.172	19241.88
237.244	19240.77
237.316	19186.27
237.388	19164.15
237.46	19138.46
237.532	19133.55
237.604	19114.27
237.675	19115
237.747	19108.83
237.819	19075.05
237.891	19043.48
237.963	19021.65
238.035	18985.32
238.107	18927.54
238.178	18928.07
238.25	18906.96
238.322	18904.5
238.394	18874.67
238.466	18853.37
238.538	18843.54
238.609	18834.97
238.681	18796.22
238.753	18760.37
238.825	18747.02
238.897	18722.97
238.968	18721.91
239.04	18689.43
239.112	18698.15
239.184	18659.27
239.255	18626.74
239.327	18618.35
239.399	18605.1
239.471	18581.1
239.542	18562.93
239.614	18560.96
239.686	18507.9
239.758	18483.03
239.829	18443.04
239.901	18427.04
239.973	18400.92
240.044	18378.61
240.116	18344.63
240.188	18316.25
240.259	18294.23
240.331	18259.48
240.403	18238.85
240.474	18196.01
240.546	18162.09
240.618	18110.52
240.689	18084.6
240.761	18064.79
240.833	18059.49
240.904	18028.02
240.976	18003.73
241.048	17977.81
241.119	17948.41
241.191	17923.4
241.262	17920.51
241.334	17888.75
241.405	17867.25
241.477	17830.2
241.549	17789.28
241.62	17762.87
241.692	17744.75
241.763	17719.07
241.835	17680.03
241.906	17644.17
241.978	17599.89
242.049	17576.56
242.121	17559.6
242.192	17538.63
242.264	17496.56
242.335	17443.5
242.407	17428.85
242.478	17393.81
242.55	17364.61
242.621	17333.04
242.693	17297.38
242.764	17255.6
242.836	17226.01
242.907	17190.58
242.979	17171.55
243.05	17148.61
243.122	17127.35
243.193	17100.41
243.264	17046.48
243.336	17007.59
243.407	16984.31
243.479	16976.94
243.55	16946.91
243.622	16924.55
243.693	16890.38
243.764	16870.77
243.836	16822.67
243.907	16778.33
243.978	16744.25
244.05	16719.96
244.121	16670.46
244.192	16653.93
244.264	16606.46
244.335	16569.3
244.407	16528.33
244.478	16499.85
244.549	16466.74
244.62	16425.15
244.692	16387.31
244.763	16373.43
244.834	16343.4
244.906	16303.88
244.977	16271.83
245.048	16259.2
245.119	16210.09
245.191	16169.99
245.262	16116.06
245.333	16108.44
245.405	16079.95
245.476	16060.92
245.547	16026.45
245.618	16008.04
245.689	15979.03
245.761	15953.24
245.832	15928.61
245.903	15903.98
245.974	15869.18
246.045	15835.87
246.117	15818.91
246.188	15776.68
246.259	15733.55
246.33	15710.55
246.401	15679.51
246.473	15637
246.544	15592.18
246.615	15569.14
246.686	15532.98
246.757	15518.96
246.828	15482.57
246.899	15471
246.97	15418.79
247.042	15382.79
247.113	15358.2
247.184	15342.44
247.255	15310
247.326	15282.24
247.397	15241.12
247.468	15219.14
247.539	15190.85
247.61	15140.72
247.681	15124.42
247.752	15107.31
247.823	15061.9
247.894	15036.02
247.965	14991.62
248.037	14964.34
248.108	14921.1
248.179	14894.3
248.25	14864.94
248.321	14841.9
248.392	14798.09
248.463	14794.37
248.534	14762.22
248.605	14743.62
248.675	14711.47
248.746	14691.36
248.817	14672.71
248.888	14658.01
248.959	14611.3
249.03	14587.48
249.101	14555.04
249.172	14516.57
249.243	14469.91
249.314	14463.16
249.385	14435.11
249.456	14419.39
249.527	14385.21
249.598	14366.85
249.669	14344.05
249.739	14324.43
249.81	14301
249.881	14258.91
249.952	14236.31
250.023	14212.49
250.094	14170.7
250.165	14131.32
250.235	14095.16
250.306	14065.61
250.377	14024.59
250.448	14002.46
250.519	13962.69
250.59	13963.61
250.66	13939.89
250.731	13929.77
250.802	13901.37
250.873	13887.01
250.944	13867.63
251.014	13838.37
251.085	13840.29
251.156	13817.88
251.227	13809.54
251.297	13798.79
251.368	13789.24
251.439	13768.76
251.51	13758.68
251.58	13726.72
251.651	13696.83
251.722	13690.9
251.792	13643.52
251.863	13621.49
251.934	13607.7
252.005	13609.92
252.075	13577.47
252.146	13560.36
252.217	13554.96
252.287	13534.71
252.358	13507.19
252.429	13497.35
252.499	13466.98
252.57	13434.3
252.641	13415.35
252.711	13378.52
252.782	13341.45
252.852	13337.07
252.923	13308.05
252.994	13282.4
253.064	13267.99
253.135	13234.39
253.205	13202.52
253.276	13201.51
253.347	13194.95
253.417	13171.48
253.488	13139.56
253.558	13112.81
253.629	13090.68
253.699	13062.77
253.77	13055.83
253.841	13033.22
253.911	13012.01
253.982	12995.91
254.052	12987.28
254.123	12971.23
254.193	12950.11
254.264	12966.7
254.334	12929.05
254.405	12897.96
254.475	12868.5
254.546	12845.85
254.616	12840.01
254.687	12822.85
254.757	12808.44
254.827	12782.45
254.898	12760.52
254.968	12741.38
255.039	12715.06
255.109	12702.63
255.18	12667.97
255.25	12613.4
255.321	12596.34
255.391	12558.01
255.461	12557.29
255.532	12502.53
255.602	12472.88
255.673	12432.49
255.743	12394.17
255.813	12353.87
255.884	12345.96
255.954	12328.75
256.024	12325.14
256.095	12303.4
256.165	12270.24
256.235	12247.19
256.306	12221.98
256.376	12214.22
256.446	12201.06
256.517	12191.42
256.587	12183.81
256.657	12168.14
256.728	12156.62
256.798	12131.07
256.868	12108.95
256.938	12087.06
257.009	12079.35
257.079	12070.1
257.149	12084.99
257.219	12050.33
257.29	12040.45
257.36	11998.66
257.43	11991.38
257.5	11945.79
257.571	11923.28
257.641	11913.64
257.711	11887.71
257.781	11875.46
257.852	11860.95
257.922	11819.41
257.992	11794.53
258.062	11765.04
258.132	11753.81
258.202	11736.36
258.273	11724.79
258.343	11724.36
258.413	11689.56
258.483	11677.12
258.553	11646.18
258.623	11608.1
258.693	11591.04
258.764	11583.37
258.834	11581.78
258.904	11563.37
258.974	11544.34
259.044	11524.82
259.114	11508.86
259.184	11491.32
259.254	11463.85
259.324	11421.24
259.394	11412.57
259.464	11420.47
259.535	11397.39
259.605	11373.87
259.675	11349.05
259.745	11327.94
259.815	11295.07
259.885	11275.07
259.955	11281.96
260.025	11252.32
260.095	11238.2
260.165	11222.35
260.235	11223.74
260.305	11196.61
260.375	11167.17
260.445	11171.36
260.515	11169
260.585	11166.78
260.655	11143.5
260.725	11143.65
260.795	11141.67
260.865	11142.92
260.934	11108.32
261.004	11104.42
261.074	11084.8
261.144	11082.49
261.214	11078.2
261.284	11067.31
261.354	11060.23
261.424	11032.37
261.494	11036.47
261.564	11021.53
261.634	11007.12
261.703	10969
261.773	10954.01
261.843	10946.93
261.913	10932.52
261.983	10895.42
262.053	10884.48
262.123	10865.25
262.192	10832.24
