Data from 20250702_urea_0.5M_MAYP1162681_18-55-00-105.txt Node
Date: Wed Jul 02 18:55:00 BST 2025
User: adleo
Spectrometer: MAYP116268
Trigger mode: 0
Integration Time (sec): 1.000000E0
Scans to average: 1
Electric dark correction enabled: true
Nonlinearity correction enabled: true
Boxcar width: 10
XAxis mode: Wavelengths
Number of Pixels in Spectrum: 2068
>>>>>Begin Spectral Data<<<<<
179.565	1136.35
179.642	1192.68
179.718	1235.82
179.795	1272.08
179.871	1301.04
179.948	1316.72
180.024	1335.66
180.101	1357.48
180.177	1370.92
180.254	1393.49
180.33	1414.95
180.407	1464.37
180.483	1554.25
180.56	1641.19
180.636	1720.67
180.712	1709.78
180.789	1716.39
180.865	1728.83
180.942	1734.39
181.018	1745.75
181.095	1761.29
181.171	1769.47
181.248	1769.37
181.324	1782.83
181.4	1790.76
181.477	1803.03
181.553	1817.42
181.63	1838.19
181.706	1855.5
181.782	1862.72
181.859	1863.34
181.935	1866.28
182.011	1862.86
182.088	1879.6
182.164	1897.43
182.24	1911.07
182.317	1921.1
182.393	1921.29
182.469	1933.65
182.546	1948.62
182.622	1951.67
182.698	1944.11
182.775	1954.52
182.851	1966.98
182.927	1960.08
183.003	1952.57
183.08	1945.25
183.156	1954.38
183.232	1951.15
183.308	1938.83
183.385	1948.43
183.461	1963.7
183.537	1965.74
183.613	1977.87
183.69	1967.88
183.766	1954.85
183.842	1960.74
183.918	1963.88
183.995	1977
184.071	1979.38
184.147	1974.77
184.223	1964.46
184.299	1978.15
184.375	1968.55
184.452	1976.87
184.528	2032.29
184.604	2045.7
184.68	2058.92
184.756	2062.25
184.832	2067.19
184.908	2070.52
184.985	2070.24
185.061	2056.64
185.137	2066.77
185.213	2056.07
185.289	2059.11
185.365	2055.16
185.441	2053.17
185.517	2065.39
185.593	2063.16
185.669	2064.06
185.745	2073.81
185.822	2089.97
185.898	2083.93
185.974	2091.06
186.05	2082.12
186.126	2042.3
186.202	2035.07
186.278	2031.03
186.354	2023.51
186.43	2026.08
186.506	2025.42
186.582	2025.37
186.658	2029.89
186.734	2009.92
186.81	2010.68
186.886	2014.1
186.962	2024.89
187.038	2019.62
187.114	2014.95
187.19	2023.28
187.266	2010.92
187.341	2010.3
187.417	2002.07
187.493	1995.84
187.569	1997.03
187.645	1991.47
187.721	1978.25
187.797	1985.33
187.873	1989.56
187.949	1985.09
188.025	1981.1
188.101	1984.19
188.176	1988.8
188.252	1985.19
188.328	1993.6
188.404	1992.51
188.48	1988.09
188.556	1980.86
188.632	1984.42
188.707	1982.76
188.783	1978
188.859	1973.25
188.935	1963.5
189.011	1970.58
189.086	1966.07
189.162	1961.36
189.238	1956.94
189.314	1954.42
189.39	1950.28
189.465	1942.44
189.541	1961.46
189.617	1947.58
189.693	1942.63
189.768	1944.58
189.844	1966.8
189.92	1958.34
189.996	1968.61
190.071	1977.07
190.147	1977.74
190.223	1985.01
190.298	1980.16
190.374	1969.7
190.45	1983.96
190.526	1992.9
190.601	1990.95
190.677	1994.14
190.753	2016.59
190.828	2023.16
190.904	2040.71
190.98	2054.93
191.055	2066.39
191.131	2053.59
191.207	2073.37
191.282	2081.88
191.358	2075.27
191.433	2062.14
191.509	2075.69
191.585	2074.41
191.66	2074.45
191.736	2081.11
191.811	2071.88
191.887	2088.49
191.963	2108.7
192.038	2113.32
192.114	2111.75
192.189	2114.6
192.265	2113.32
192.34	2095.29
192.416	2094.33
192.491	2088.48
192.567	2089.91
192.642	2089.81
192.718	2089.01
192.793	2077.59
192.869	2073.45
192.944	2073.69
193.02	2081.83
193.095	2085.39
193.171	2090.63
193.246	2093.43
193.322	2089.68
193.397	2087.82
193.473	2071.98
193.548	2055.47
193.624	2059.85
193.699	2058.8
193.775	2071.74
193.85	2071.65
193.925	2078.26
194.001	2078.07
194.076	2072.36
194.152	2061.8
194.227	2056.85
194.302	2049.58
194.378	2055.24
194.453	2053
194.529	2066.99
194.604	2051.34
194.679	2044.63
194.755	2023.86
194.83	2033.76
194.905	2030.28
194.981	2042.7
195.056	2035.33
195.131	2041.13
195.207	2041.7
195.282	2035.37
195.357	2017.44
195.433	2031.37
195.508	2024.48
195.583	2030.33
195.659	2040.17
195.734	2046.55
195.809	2044.74
195.884	2057.43
195.96	2059.1
196.035	2072.94
196.11	2069.13
196.185	2080.78
196.261	2084.4
196.336	2116.22
196.411	2103.23
196.486	2112.93
196.561	2105.98
196.637	2117.06
196.712	2134
196.787	2132.2
196.862	2145.94
196.937	2155.36
197.013	2160.45
197.088	2168.82
197.163	2189.05
197.238	2206.33
197.313	2208.23
197.388	2224.07
197.464	2249.3
197.539	2256.77
197.614	2250.45
197.689	2261.77
197.764	2279.19
197.839	2300.08
197.914	2295.51
197.989	2316.41
198.065	2326.35
198.14	2374.02
198.215	2397.3
198.29	2406.68
198.365	2421.15
198.44	2429.43
198.515	2457.8
198.59	2476.61
198.665	2500.89
198.74	2506.7
198.815	2512.66
198.89	2532.89
198.965	2558.95
199.04	2554.71
199.115	2568.32
199.19	2611.37
199.265	2611.8
199.34	2620.47
199.415	2652.4
199.49	2671.59
199.565	2680.68
199.64	2703.64
199.715	2702.26
199.79	2708.69
199.865	2712.93
199.94	2713.74
200.015	2746.67
200.09	2751.91
200.165	2756.58
200.24	2765.58
200.315	2810.08
200.39	2823.47
200.464	2829.24
200.539	2831.52
200.614	2847.29
200.689	2870.12
200.764	2874.22
200.839	2891.8
200.914	2897.71
200.989	2889.41
201.063	2903.42
201.138	2886.47
201.213	2887.9
201.288	2869.69
201.363	2878.22
201.438	2881.08
201.512	2893.66
201.587	2875.83
201.662	2880.22
201.737	2890.7
201.812	2897.52
201.886	2861.7
201.961	2867.37
202.036	2859.08
202.111	2854.98
202.186	2829.45
202.26	2814.72
202.335	2793.09
202.41	2786.8
202.485	2771.03
202.559	2749.64
202.634	2724.72
202.709	2735.1
202.784	2716.75
202.858	2716.56
202.933	2697.6
203.008	2693.27
203.082	2677.26
203.157	2677.36
203.232	2638.88
203.306	2617.01
203.381	2583.42
203.456	2558.61
203.53	2538.45
203.605	2518.98
203.68	2495.59
203.754	2487.31
203.829	2473.26
203.904	2460.21
203.978	2449.45
204.053	2451.59
204.127	2439.83
204.202	2438.64
204.277	2423.93
204.351	2416.22
204.426	2407.22
204.5	2397.41
204.575	2361.05
204.65	2369.77
204.724	2360.67
204.799	2365.05
204.873	2362.71
204.948	2365.43
205.022	2358.53
205.097	2349.62
205.171	2361.42
205.246	2372.09
205.32	2372.38
205.395	2372.9
205.469	2361.67
205.544	2366.58
205.618	2349.68
205.693	2360.34
205.767	2346.63
205.842	2363.34
205.916	2359.87
205.991	2353.35
206.065	2357.54
206.14	2375
206.214	2368.85
206.289	2361.33
206.363	2373.04
206.438	2377.75
206.512	2381.13
206.586	2399.22
206.661	2407.6
206.735	2386.67
206.81	2386.14
206.884	2402.56
206.958	2389.67
207.033	2408.13
207.107	2417.89
207.181	2450.66
207.256	2449.56
207.33	2472.13
207.405	2487.14
207.479	2507.52
207.553	2520.28
207.628	2513.71
207.702	2526.94
207.776	2529.56
207.851	2540.89
207.925	2561.47
207.999	2563.95
208.073	2571.48
208.148	2582.91
208.222	2580.48
208.296	2623.42
208.371	2649.45
208.445	2672.56
208.519	2716.86
208.593	2744.21
208.668	2757.93
208.742	2778.73
208.816	2799.5
208.89	2830.68
208.965	2855.44
209.039	2888.77
209.113	2930.44
209.187	2974.7
209.261	3002.58
209.336	3050.56
209.41	3104.26
209.484	3139.95
209.558	3200.26
209.632	3252.11
209.707	3301.77
209.781	3368.63
209.855	3427.15
209.929	3492.94
210.003	3551.24
210.077	3602.38
210.151	3703
210.226	3796.43
210.3	3884.66
210.374	3971.41
210.448	4046.89
210.522	4128.04
210.596	4211.68
210.67	4293.88
210.744	4418.46
210.818	4531.42
210.892	4637.48
210.966	4715.9
211.041	4819.67
211.115	4908.14
211.189	5028.62
211.263	5142.99
211.337	5251.44
211.411	5375.42
211.485	5478.88
211.559	5598.61
211.633	5712.23
211.707	5799.32
211.781	5918.76
211.855	6002.82
211.929	6116.99
212.003	6222.14
212.077	6354.65
212.151	6491.2
212.225	6628.66
212.299	6754.21
212.373	6874.86
212.447	7006.09
212.52	7171.46
212.594	7318.63
212.668	7468.95
212.742	7594.76
212.816	7736.98
212.89	7876.86
212.964	8015.11
213.038	8165.01
213.112	8326.52
213.186	8489.65
213.26	8618.83
213.333	8732.41
213.407	8891.06
213.481	9043.52
213.555	9211.16
213.629	9350.6
213.703	9490.05
213.777	9637.98
213.85	9766.68
213.924	9953.46
213.998	10107.02
214.072	10254.54
214.146	10393.05
214.219	10545.48
214.293	10691.07
214.367	10846.03
214.441	11006.97
214.515	11150.62
214.588	11271.14
214.662	11383.86
214.736	11511.33
214.81	11655.13
214.883	11807.57
214.957	11939.91
215.031	12068.16
215.105	12189.62
215.178	12326.61
215.252	12463.51
215.326	12585.75
215.4	12701.67
215.473	12790.37
215.547	12903.51
215.621	13022.72
215.694	13160.64
215.768	13270.4
215.842	13394.05
215.915	13505.98
215.989	13604.95
216.063	13721.75
216.136	13844.82
216.21	13971.5
216.284	14116.26
216.357	14249.16
216.431	14366.21
216.504	14494.43
216.578	14640.59
216.652	14761.68
216.725	14873.65
216.799	14989.72
216.873	15098.62
216.946	15227.22
217.02	15333.7
217.093	15441.05
217.167	15535.33
217.24	15621.95
217.314	15718.78
217.387	15815.91
217.461	15918.91
217.535	16043.74
217.608	16125.3
217.682	16234.61
217.755	16341.03
217.829	16417.66
217.902	16509.96
217.976	16595.7
218.049	16680.72
218.123	16756.82
218.196	16858.13
218.27	16933.65
218.343	17010.37
218.417	17103.68
218.49	17187.68
218.563	17289.76
218.637	17379.49
218.71	17478
218.784	17570.67
218.857	17664.22
218.931	17755.97
219.004	17843.15
219.077	17923.05
219.151	18010.52
219.224	18083
219.298	18156.59
219.371	18233.93
219.444	18300.53
219.518	18386.51
219.591	18463.18
219.665	18573.1
219.738	18642.59
219.811	18711.74
219.885	18789.57
219.958	18868.89
220.031	18928.79
220.105	18993.22
220.178	19061.65
220.251	19123.53
220.325	19198.27
220.398	19267.33
220.471	19329.59
220.544	19393.2
220.618	19439.85
220.691	19504.13
220.764	19562.97
220.838	19628.7
220.911	19685.18
220.984	19754.14
221.057	19807.88
221.131	19855.05
221.204	19860.5
221.277	19924.59
221.35	20010.71
221.424	20058.13
221.497	20103.14
221.57	20160.92
221.643	20213.26
221.716	20269.45
221.79	20310.18
221.863	20350.95
221.936	20395.04
222.009	20438.9
222.082	20482.95
222.155	20520.44
222.229	20580.97
222.302	20621.79
222.375	20658.03
222.448	20711.58
222.521	20754.76
222.594	20794.62
222.667	20827.19
222.74	20878.76
222.814	20915.1
222.887	20938.28
222.96	20985.76
223.033	21027.98
223.106	21068.65
223.179	21107.26
223.252	21133.67
223.325	21161.29
223.398	21181.05
223.471	21210.59
223.544	21246.36
223.617	21278.17
223.69	21311.28
223.763	21325.3
223.837	21368.25
223.91	21391.43
223.983	21395.34
224.056	21408.35
224.129	21433.7
224.202	21458.09
224.275	21470.09
224.348	21470.96
224.42	21470.38
224.493	21465.37
224.566	21480.07
224.639	21492.94
224.712	21510.24
224.785	21518.24
224.858	21545.33
224.931	21560.85
225.004	21561.24
225.077	21563.7
225.15	21545.14
225.223	21559.07
225.296	21588.42
225.369	21585.73
225.442	21587.22
225.514	21613.25
225.587	21632
225.66	21648.39
225.733	21671.38
225.806	21685.69
225.879	21702.13
225.952	21707.05
226.025	21736.4
226.097	21751.2
226.17	21757.76
226.243	21744.4
226.316	21759.06
226.389	21764.26
226.461	21772.12
226.534	21787.16
226.607	21792.12
226.68	21824.32
226.753	21830.06
226.825	21805.52
226.898	21821.96
226.971	21829.57
227.044	21832.52
227.117	21825.82
227.189	21814.01
227.262	21826.83
227.335	21847.02
227.407	21841.58
227.48	21854.79
227.553	21862.45
227.626	21857.82
227.698	21860.81
227.771	21869.39
227.844	21854.98
227.916	21858.83
227.989	21850.16
228.062	21852.76
228.134	21883.03
228.207	21877.83
228.28	21871.42
228.352	21876.43
228.425	21866.93
228.498	21877.3
228.57	21858.35
228.643	21875.37
228.716	21881.01
228.788	21865.05
228.861	21851.46
228.934	21862.88
229.006	21857.68
229.079	21844.33
229.151	21833.48
229.224	21816.13
229.296	21817.57
229.369	21846.45
229.442	21848.66
229.514	21837.67
229.587	21849.34
229.659	21827.31
229.732	21828.23
229.804	21833.19
229.877	21849.97
229.949	21857.24
230.022	21869.97
230.094	21877.01
230.167	21868.33
230.239	21845.63
230.312	21851.7
230.384	21870.84
230.457	21869.54
230.529	21867.66
230.602	21860.52
230.674	21861.39
230.747	21871.23
230.819	21870.16
230.892	21830.74
230.964	21823.41
231.037	21828.71
231.109	21809.91
231.181	21806.78
231.254	21783.79
231.326	21763.4
231.399	21745.51
231.471	21735.34
231.544	21696.59
231.616	21689.16
231.688	21685.36
231.761	21678.66
231.833	21653.06
231.905	21611.61
231.978	21592.18
232.05	21582.3
232.122	21567.84
232.195	21549.67
232.267	21551.45
232.339	21542.68
232.412	21545.43
232.484	21522.05
232.556	21498.96
232.629	21515.11
232.701	21499.4
232.773	21488.46
232.846	21474.67
232.918	21462.04
232.99	21437.41
233.062	21436.16
233.135	21424.83
233.207	21383.24
233.279	21378.13
233.351	21368.83
233.424	21351.19
233.496	21329.64
233.568	21323.62
233.64	21299.62
233.713	21271.28
233.785	21243.95
233.857	21219.22
233.929	21186.98
234.001	21181.05
234.074	21177.39
234.146	21121.96
234.218	21100.65
234.29	21077.62
234.362	21053.91
234.434	21014.38
234.507	20992.55
234.579	20952.21
234.651	20925.27
234.723	20919.15
234.795	20895.63
234.867	20870.57
234.939	20855.24
235.012	20828.25
235.084	20810.28
235.156	20796.64
235.228	20774.61
235.3	20741.17
235.372	20723.14
235.444	20706.9
235.516	20660.25
235.588	20631.43
235.66	20608
235.732	20569.64
235.804	20604.1
235.876	20593.4
235.948	20590.27
236.02	20552.97
236.092	20521.02
236.164	20482.51
236.236	20444.01
236.308	20409.84
236.38	20389.69
236.452	20349.5
236.524	20329.79
236.596	20309.36
236.668	20288.44
236.74	20272.2
236.812	20254.23
236.884	20221.12
236.956	20192.54
237.028	20165.89
237.1	20130.32
237.172	20123.19
237.244	20114.71
237.316	20043.05
237.388	19998.18
237.46	19960.35
237.532	19943.53
237.604	19919.15
237.675	19908.5
237.747	19895.63
237.819	19863.53
237.891	19815.68
237.963	19784.94
238.035	19747.64
238.107	19682.92
238.178	19649.28
238.25	19601.72
238.322	19590.87
238.394	19539.12
238.466	19507.7
238.538	19479.26
238.609	19452.81
238.681	19393.97
238.753	19349.78
238.825	19318.6
238.897	19291.23
238.968	19270.75
239.04	19232.77
239.112	19220.48
239.184	19176.29
239.255	19127.96
239.327	19103
239.399	19086.71
239.471	19070.13
239.542	19042.04
239.614	19026.76
239.686	18973.95
239.758	18960.5
239.829	18901.56
239.901	18888.75
239.973	18854.05
240.044	18821.42
240.116	18795.35
240.188	18761.67
240.259	18730.59
240.331	18693.43
240.403	18665.05
240.474	18608.52
240.546	18564.38
240.618	18510.17
240.689	18469.06
240.761	18442.6
240.833	18420.58
240.904	18376.34
240.976	18335.09
241.048	18303.62
241.119	18277.41
241.191	18253.55
241.262	18234.42
241.334	18191.05
241.405	18149.89
241.477	18104.69
241.549	18068.79
241.62	18029.66
241.692	17997.56
241.763	17981.47
241.835	17937.08
241.906	17904.07
241.978	17871.64
242.049	17850.24
242.121	17824.32
242.192	17806.39
242.264	17762.34
242.335	17714.05
242.407	17687.11
242.478	17649.57
242.55	17616.61
242.621	17573.52
242.693	17543.98
242.764	17496.32
242.836	17465.91
242.907	17439.55
242.979	17418.15
243.05	17391.84
243.122	17361.28
243.193	17336.03
243.264	17267.16
243.336	17236.56
243.407	17210.44
243.479	17189.48
243.55	17165.48
243.622	17140.7
243.693	17110
243.764	17091.16
243.836	17051.16
243.907	17016.75
243.978	16974.96
244.05	16942.09
244.121	16892.16
244.192	16858.62
244.264	16812.16
244.335	16785.07
244.407	16743.1
244.478	16705.65
244.549	16665.5
244.62	16620.97
244.692	16581.25
244.763	16564.87
244.834	16529.64
244.906	16489.1
244.977	16457.73
245.048	16431.32
245.119	16389.1
245.191	16349.62
245.262	16296.61
245.333	16276.6
245.405	16244.46
245.476	16222
245.547	16194.67
245.618	16176.01
245.689	16148.06
245.761	16124.78
245.832	16089.4
245.903	16063.47
245.974	16043.85
246.045	16009.44
246.117	15996.76
246.188	15953.63
246.259	15913.23
246.33	15883.83
246.401	15849.76
246.473	15803.92
246.544	15768.15
246.615	15745.02
246.686	15707.76
246.757	15688.09
246.828	15645.39
246.899	15623.7
246.97	15580.08
247.042	15538.67
247.113	15506.62
247.184	15489.31
247.255	15447.43
247.326	15424.82
247.397	15387.8
247.468	15355.75
247.539	15331.21
247.61	15280.75
247.681	15263.73
247.752	15242.95
247.823	15199.38
247.894	15166.79
247.965	15123.03
248.037	15085.28
248.108	15038.19
248.179	15006.52
248.25	14977.16
248.321	14954.94
248.392	14910.35
248.463	14900.38
248.534	14868.99
248.605	14847.88
248.675	14814.04
248.746	14790.57
248.817	14762.66
248.888	14728.82
248.959	14678.25
249.03	14649.18
249.101	14623.73
249.172	14589.41
249.243	14536.96
249.314	14524.96
249.385	14500.09
249.456	14485.58
249.527	14450.24
249.598	14433.27
249.669	14408.01
249.739	14386.52
249.81	14361.26
249.881	14324.91
249.952	14294.73
250.023	14268.51
250.094	14229.8
250.165	14190.27
250.235	14164
250.306	14139.22
250.377	14108.03
250.448	14087.01
250.519	14054.48
250.59	14046.67
250.66	14020.44
250.731	14016.05
250.802	13987.32
250.873	13960.67
250.944	13932.9
251.014	13907.16
251.085	13898.62
251.156	13873.46
251.227	13859.1
251.297	13844.2
251.368	13838.61
251.439	13819.81
251.51	13812.19
251.58	13775.22
251.651	13747.4
251.722	13730.19
251.792	13684.68
251.863	13662.8
251.934	13649.4
252.005	13648.58
252.075	13618.54
252.146	13601.87
252.217	13584.32
252.287	13569.57
252.358	13537.61
252.429	13529.8
252.499	13507.43
252.57	13483.52
252.641	13464.48
252.711	13436.03
252.782	13397.57
252.852	13388.74
252.923	13363.34
252.994	13330.7
253.064	13315.33
253.135	13279.8
253.205	13250.97
253.276	13242.82
253.347	13235.78
253.417	13208.69
253.488	13169.69
253.558	13142.12
253.629	13112.42
253.699	13093.86
253.77	13074.82
253.841	13051.49
253.911	13029.9
253.982	12999.43
254.052	12979.13
254.123	12957.78
254.193	12938.59
254.264	12954.45
254.334	12915.84
254.405	12881.57
254.475	12853.12
254.546	12834.47
254.616	12833.22
254.687	12818.99
254.757	12800.05
254.827	12778.41
254.898	12763.75
254.968	12748.9
255.039	12724.66
255.109	12712.46
255.18	12684.94
255.25	12641.6
255.321	12629.93
255.391	12600.05
255.461	12601.93
255.532	12561.92
255.602	12537.62
255.673	12493.32
255.743	12461.22
255.813	12421.35
255.884	12416.72
255.954	12406.22
256.024	12405.98
256.095	12383.22
256.165	12349.58
256.235	12335.69
256.306	12313.13
256.376	12301.08
256.446	12288.84
256.517	12271.1
256.587	12262.57
256.657	12248.2
256.728	12228.59
256.798	12212.54
256.868	12181.83
256.938	12151.7
257.009	12134.98
257.079	12119.75
257.149	12126.83
257.219	12087.64
257.29	12072.22
257.36	12032.5
257.43	12020.21
257.5	11974.27
257.571	11953.26
257.641	11941.98
257.711	11907.71
257.781	11883.17
257.852	11871.94
257.922	11823.98
257.992	11807.02
258.062	11781.33
258.132	11765.08
258.202	11749.18
258.273	11734.67
258.343	11735.44
258.413	11706.71
258.483	11698.33
258.553	11669.02
258.623	11641.79
258.693	11620.97
258.764	11625.21
258.834	11618.61
258.904	11599.14
258.974	11580.39
259.044	11559.42
259.114	11542.89
259.184	11531.23
259.254	11517.92
259.324	11477.49
259.394	11469
259.464	11461.58
259.535	11441.44
259.605	11414.93
259.675	11389.91
259.745	11370.73
259.815	11344.51
259.885	11325.24
259.955	11333.05
260.025	11304.95
260.095	11282.49
260.165	11277.72
260.235	11275.5
260.305	11251.99
260.375	11225.58
260.445	11229.67
260.515	11222.68
260.585	11219.21
260.655	11198.92
260.725	11183.6
260.795	11177.43
260.865	11178.88
260.934	11155.94
261.004	11152.27
261.074	11134.68
261.144	11133.09
261.214	11125.96
261.284	11103.55
261.354	11098.73
261.424	11068.76
261.494	11079.79
261.564	11067.55
261.634	11054.01
261.703	11008.56
261.773	10993.82
261.843	10984.86
261.913	10959.31
261.983	10922.26
262.053	10910.21
262.123	10894.69
262.192	10870.46
