Data from 20250702_urea_0.5M_MAYP1162681_00-24-59-537.txt Node
Date: Thu Jul 03 00:24:59 BST 2025
User: adleo
Spectrometer: MAYP116268
Trigger mode: 0
Integration Time (sec): 1.000000E0
Scans to average: 1
Electric dark correction enabled: true
Nonlinearity correction enabled: true
Boxcar width: 10
XAxis mode: Wavelengths
Number of Pixels in Spectrum: 2068
>>>>>Begin Spectral Data<<<<<
179.565	1214.64
179.642	1270.35
179.718	1314.73
179.795	1350.84
179.871	1385.27
179.948	1405.41
180.024	1424.06
180.101	1446.46
180.177	1461.04
180.254	1484.45
180.33	1505.81
180.407	1564.79
180.483	1659.42
180.56	1748.22
180.636	1833.44
180.712	1819.6
180.789	1827.83
180.865	1842.13
180.942	1848.59
181.018	1859.76
181.095	1874.41
181.171	1879.59
181.248	1882.02
181.324	1895.76
181.4	1906.17
181.477	1914.11
181.553	1925.52
181.63	1945.58
181.706	1962.13
181.782	1969.4
181.859	1968.4
181.935	1975.25
182.011	1967.4
182.088	1986.95
182.164	2007.88
182.24	2022
182.317	2031.55
182.393	2031.55
182.469	2043.73
182.546	2060.42
182.622	2064.32
182.698	2059.23
182.775	2071.36
182.851	2085.3
182.927	2079.49
183.003	2074.5
183.08	2072.31
183.156	2081.06
183.232	2077.16
183.308	2067.6
183.385	2077.59
183.461	2096.81
183.537	2096.28
183.613	2109.12
183.69	2097.23
183.766	2086.15
183.842	2092.9
183.918	2098.99
183.995	2115.4
184.071	2121.87
184.147	2114.97
184.223	2103.94
184.299	2117.41
184.375	2106.13
184.452	2110.94
184.528	2166.05
184.604	2178.51
184.68	2188.35
184.756	2196.59
184.832	2205.1
184.908	2206.67
184.985	2206.19
185.061	2189.92
185.137	2200.91
185.213	2188.83
185.289	2191.73
185.365	2185.31
185.441	2183.08
185.517	2196.64
185.593	2190.55
185.669	2184.75
185.745	2192.93
185.822	2210.48
185.898	2200.39
185.974	2207.9
186.05	2201.38
186.126	2162.74
186.202	2155.03
186.278	2152.27
186.354	2144.99
186.43	2150.13
186.506	2150.8
186.582	2152.13
186.658	2158.27
186.734	2138.19
186.81	2139.57
186.886	2144.23
186.962	2154.51
187.038	2150.99
187.114	2141.04
187.19	2152.08
187.266	2142.85
187.341	2144.38
187.417	2135.48
187.493	2138.67
187.569	2144.23
187.645	2139.38
187.721	2127.44
187.797	2133.67
187.873	2136.14
187.949	2129.63
188.025	2123.92
188.101	2125.87
188.176	2130.53
188.252	2125.58
188.328	2134.76
188.404	2134.62
188.48	2127.39
188.556	2120.49
188.632	2120.82
188.707	2122.87
188.783	2116.59
188.859	2111.5
188.935	2100.61
189.011	2108.03
189.086	2097.61
189.162	2087.81
189.238	2084.2
189.314	2080.63
189.39	2075.63
189.465	2070.35
189.541	2086.24
189.617	2068.22
189.693	2064.46
189.768	2065.7
189.844	2093.92
189.92	2084.98
189.996	2096.59
190.071	2107.53
190.147	2109.57
190.223	2121.04
190.298	2113.48
190.374	2101.39
190.45	2114.42
190.526	2122.51
190.601	2118.8
190.677	2121.99
190.753	2147.26
190.828	2149.21
190.904	2163.19
190.98	2180.52
191.055	2191.17
191.131	2179.66
191.207	2202.63
191.282	2213.9
191.358	2203.82
191.433	2183.35
191.509	2197
191.585	2193.57
191.66	2193.91
191.736	2201.28
191.811	2192.67
191.887	2207.75
191.963	2227.88
192.038	2232.64
192.114	2233.68
192.189	2236.25
192.265	2231.35
192.34	2212.6
192.416	2211.08
192.491	2206.7
192.567	2204.8
192.642	2206.65
192.718	2212.22
192.793	2200.28
192.869	2193.66
192.944	2195.28
193.02	2204.65
193.095	2206.6
193.171	2212.93
193.246	2215.22
193.322	2212.36
193.397	2211.27
193.473	2199.99
193.548	2184.67
193.624	2192.38
193.699	2191.76
193.775	2209.7
193.85	2211.94
193.925	2218.88
194.001	2220.6
194.076	2213.98
194.152	2206.37
194.227	2198.28
194.302	2186.48
194.378	2192.48
194.453	2191.86
194.529	2205.09
194.604	2191.86
194.679	2188.53
194.755	2170.59
194.83	2180.59
194.905	2180.02
194.981	2188.44
195.056	2180.07
195.131	2184.07
195.207	2179.97
195.282	2172.08
195.357	2151.14
195.433	2170.31
195.508	2160.03
195.583	2167.07
195.659	2181.97
195.734	2188.44
195.809	2188.87
195.884	2197.76
195.96	2197.14
196.035	2212.37
196.11	2208.51
196.185	2220.46
196.261	2222.69
196.336	2251.67
196.411	2239.34
196.486	2242.01
196.561	2234.68
196.637	2241.24
196.712	2261.57
196.787	2264.09
196.862	2277.6
196.937	2288.45
197.013	2291.69
197.088	2305.63
197.163	2326.82
197.238	2342.77
197.313	2343.29
197.388	2357.05
197.464	2386.62
197.539	2398.75
197.614	2390.85
197.689	2407.04
197.764	2422.85
197.839	2445.65
197.914	2440.41
197.989	2461.51
198.065	2477.88
198.14	2528.33
198.215	2556.52
198.29	2567.1
198.365	2580.72
198.44	2591.52
198.515	2620.2
198.59	2635.92
198.665	2659.11
198.74	2667.02
198.815	2667.93
198.89	2690.93
198.965	2720.91
199.04	2716.52
199.115	2731.19
199.19	2773.64
199.265	2773.02
199.34	2783.27
199.415	2815.93
199.49	2836.6
199.565	2849.42
199.64	2873.06
199.715	2869.76
199.79	2876.01
199.865	2881.68
199.94	2880.63
200.015	2914.05
200.09	2915.72
200.165	2921.53
200.24	2928.2
200.315	2969.42
200.39	2987.02
200.464	2992.07
200.539	2993.12
200.614	3011.37
200.689	3030.83
200.764	3041.7
200.839	3060.52
200.914	3064.77
200.989	3054.22
201.063	3068.29
201.138	3050.14
201.213	3048.7
201.288	3030.64
201.363	3039.17
201.438	3040.08
201.512	3059.04
201.587	3040.92
201.662	3050.79
201.737	3062.52
201.812	3073.64
201.886	3037.9
201.961	3049.49
202.036	3040.1
202.111	3037.48
202.186	3009.7
202.26	2997.3
202.335	2973.36
202.41	2969.59
202.485	2952.96
202.559	2933.85
202.634	2909.11
202.709	2917.49
202.784	2899.09
202.858	2902.86
202.933	2882.75
203.008	2876.31
203.082	2854.53
203.157	2855.2
203.232	2808.85
203.306	2789.78
203.381	2752.98
203.456	2731.88
203.53	2705.6
203.605	2686.93
203.68	2661.1
203.754	2650.92
203.829	2633.95
203.904	2613.38
203.978	2597.65
204.053	2602.18
204.127	2586.22
204.202	2583.51
204.277	2564.65
204.351	2558.08
204.426	2546.98
204.5	2539.31
204.575	2504.32
204.65	2511.99
204.724	2502.79
204.799	2513.92
204.873	2511.07
204.948	2512.35
205.022	2501.97
205.097	2495.35
205.171	2505.11
205.246	2514.78
205.32	2515.59
205.395	2516.02
205.469	2506.93
205.544	2510.88
205.618	2493.36
205.693	2506.74
205.767	2495.36
205.842	2518.89
205.916	2511.51
205.991	2504.08
206.065	2508.41
206.14	2522.5
206.214	2518.64
206.289	2511.35
206.363	2522.92
206.438	2521.35
206.512	2528.97
206.586	2549.87
206.661	2557.93
206.735	2538.08
206.81	2540.03
206.884	2553.31
206.958	2543.27
207.033	2561.74
207.107	2573.41
207.181	2605.43
207.256	2601.19
207.33	2622.71
207.405	2635.63
207.479	2657.02
207.553	2665.92
207.628	2651.69
207.702	2669.36
207.776	2668.45
207.851	2676.65
207.925	2695.81
207.999	2700.48
208.073	2704.38
208.148	2713.25
208.222	2709.1
208.296	2748.11
208.371	2770.52
208.445	2792.25
208.519	2830.65
208.593	2851.33
208.668	2860.39
208.742	2877.8
208.816	2888.95
208.89	2913.94
208.965	2926.77
209.039	2952.43
209.113	2985.85
209.187	3024.15
209.261	3040.79
209.336	3082.85
209.41	3127.17
209.484	3148.21
209.558	3195.15
209.632	3236.89
209.707	3270.38
209.781	3319.29
209.855	3368.36
209.929	3417.51
210.003	3461.19
210.077	3499.05
210.151	3589.47
210.226	3660.22
210.3	3728.81
210.374	3798.76
210.448	3850.21
210.522	3909.67
210.596	3972.7
210.67	4035.46
210.744	4139.05
210.818	4225.89
210.892	4303.95
210.966	4357.93
211.041	4441.25
211.115	4500.75
211.189	4582.32
211.263	4666.66
211.337	4744.47
211.411	4825.82
211.485	4897.08
211.559	4980.48
211.633	5061.24
211.707	5110.8
211.781	5203.36
211.855	5251.09
211.929	5328.74
212.003	5400.79
212.077	5503.35
212.151	5605.92
212.225	5709.84
212.299	5798.38
212.373	5882.59
212.447	5974.82
212.52	6097.11
212.594	6193.34
212.668	6306.59
212.742	6396.48
212.816	6499.17
212.89	6595.51
212.964	6696.18
213.038	6805.85
213.112	6924.07
213.186	7039.01
213.26	7119.18
213.333	7182.46
213.407	7298.11
213.481	7413.18
213.555	7532.45
213.629	7624.38
213.703	7716.57
213.777	7821.37
213.85	7907.9
213.924	8052.83
213.998	8161.94
214.072	8271.56
214.146	8377.41
214.219	8484.43
214.293	8595.19
214.367	8703.62
214.441	8823.31
214.515	8930.22
214.588	9014.37
214.662	9094.18
214.736	9190.51
214.81	9304.16
214.883	9417.72
214.957	9507.99
215.031	9604.92
215.105	9689.95
215.178	9784.73
215.252	9884.62
215.326	9967.28
215.4	10052.14
215.473	10107.11
215.547	10189.78
215.621	10279.74
215.694	10382.22
215.768	10462.34
215.842	10546.9
215.915	10635.27
215.989	10712.08
216.063	10800.26
216.136	10894.9
216.21	10989.92
216.284	11087.9
216.357	11188.32
216.431	11279.6
216.504	11382.83
216.578	11499.85
216.652	11600.62
216.725	11695.76
216.799	11796.4
216.873	11894.77
216.946	11994.35
217.02	12075.32
217.093	12167.19
217.167	12226.87
217.24	12299.99
217.314	12384.2
217.387	12470.39
217.461	12551.51
217.535	12649.27
217.608	12717.29
217.682	12796.15
217.755	12891.98
217.829	12961.3
217.902	13042.24
217.976	13125.73
218.049	13194.33
218.123	13254.73
218.196	13333.6
218.27	13409.04
218.343	13470.12
218.417	13542.19
218.49	13612.28
218.563	13707.63
218.637	13779.84
218.71	13878.81
218.784	13959.07
218.857	14050.32
218.931	14132.32
219.004	14214.47
219.077	14291.54
219.151	14374.27
219.224	14447.63
219.298	14524.23
219.371	14611.92
219.444	14671.45
219.518	14745.39
219.591	14823.58
219.665	14920.28
219.738	15004.39
219.811	15061.61
219.885	15141.58
219.958	15222.41
220.031	15295.68
220.105	15363.98
220.178	15431.71
220.251	15488.44
220.325	15557.95
220.398	15619.98
220.471	15687.22
220.544	15754.22
220.618	15807.77
220.691	15878.24
220.764	15947.35
220.838	16011.22
220.911	16070.4
220.984	16159.77
221.057	16227.48
221.131	16296.21
221.204	16324.55
221.277	16395.84
221.35	16487.94
221.424	16542.69
221.497	16597.25
221.57	16653.98
221.643	16718.61
221.716	16791.43
221.79	16842.04
221.863	16900.55
221.936	16962.24
222.009	17020.02
222.082	17080.17
222.155	17126.82
222.229	17188.65
222.302	17245.14
222.375	17296.27
222.448	17354.78
222.521	17400.17
222.594	17442.15
222.667	17481.33
222.74	17535.21
222.814	17589.23
222.887	17627.35
222.96	17683.64
223.033	17733.38
223.106	17785.18
223.179	17837.76
223.252	17878.05
223.325	17928.5
223.398	17970.14
223.471	18007.39
223.544	18047.2
223.617	18088.31
223.69	18142.76
223.763	18166.23
223.837	18211.19
223.91	18250.32
223.983	18264.97
224.056	18286.95
224.129	18327.67
224.202	18369.79
224.275	18406.94
224.348	18419.76
224.42	18444
224.493	18463.08
224.566	18482.84
224.639	18519.95
224.712	18540.04
224.785	18568.57
224.858	18596.67
224.931	18622.3
225.004	18640.57
225.077	18668.23
225.15	18667.41
225.223	18688.37
225.296	18746.01
225.369	18753.96
225.442	18767.64
225.514	18805.38
225.587	18841.95
225.66	18880.12
225.733	18906.87
225.806	18932.65
225.879	18964.07
225.952	18978.33
226.025	19010.71
226.097	19071.43
226.17	19096.49
226.243	19099.62
226.316	19120.92
226.389	19149.5
226.461	19174.9
226.534	19209.93
226.607	19236.19
226.68	19291.52
226.753	19319.37
226.825	19322.98
226.898	19366.93
226.971	19401.92
227.044	19440.66
227.117	19463.12
227.189	19480.71
227.262	19513.53
227.335	19548.71
227.407	19561.24
227.48	19590.34
227.553	19625.57
227.626	19629.04
227.698	19646.63
227.771	19684.02
227.844	19699.3
227.916	19724.36
227.989	19735.01
228.062	19744.12
228.134	19777.56
228.207	19793.03
228.28	19799.73
228.352	19808.6
228.425	19819.68
228.498	19836.4
228.57	19830.43
228.643	19859.29
228.716	19874.86
228.788	19879.92
228.861	19877.22
228.934	19899.29
229.006	19910.81
229.079	19905.89
229.151	19906.52
229.224	19904.4
229.296	19921.51
229.369	19955.92
229.442	19978.04
229.514	19979
229.587	20013.5
229.659	20002.85
229.732	20008.11
229.804	20031.87
229.877	20074.42
229.949	20101.7
230.022	20134.85
230.094	20153.12
230.167	20154.18
230.239	20154.85
230.312	20169.21
230.384	20200.87
230.457	20206.51
230.529	20217.98
230.602	20238.32
230.674	20262.95
230.747	20285.74
230.819	20302.08
230.892	20282.27
230.964	20292.49
231.037	20312.34
231.109	20312.82
231.181	20337.74
231.254	20338.99
231.326	20344
231.399	20333.26
231.471	20328.77
231.544	20300.29
231.616	20312.82
231.688	20322.94
231.761	20318.85
231.833	20322.22
231.905	20310.27
231.978	20327.57
232.05	20327.33
232.122	20325.26
232.195	20308.92
232.267	20328.97
232.339	20318.46
232.412	20337.54
232.484	20323.71
232.556	20309.59
232.629	20323.62
232.701	20331.09
232.773	20327.71
232.846	20318.9
232.918	20317.5
232.99	20320.2
233.062	20334.12
233.135	20332.73
233.207	20323.81
233.279	20332.73
233.351	20335.76
233.424	20326.99
233.496	20301.02
233.568	20319.43
233.64	20308
233.713	20309.31
233.785	20291.33
233.857	20289.31
233.929	20259.81
234.001	20278.46
234.074	20282.61
234.146	20252.49
234.218	20225.45
234.29	20213.02
234.362	20194.51
234.434	20178.17
234.507	20141.89
234.579	20109.41
234.651	20096.25
234.723	20085.74
234.795	20068.59
234.867	20049.21
234.939	20054.08
235.012	20049.89
235.084	20034.95
235.156	20019.09
235.228	20001.07
235.3	19981.41
235.372	19959.92
235.444	19959.43
235.516	19911.92
235.588	19913.41
235.66	19892.59
235.732	19880.16
235.804	19932.26
235.876	19929.56
235.948	19922.04
236.02	19923.68
236.092	19908.11
236.164	19879.97
236.236	19862.96
236.308	19845.75
236.38	19832.16
236.452	19801.56
236.524	19777.95
236.596	19779.06
236.668	19771.35
236.74	19749.04
236.812	19735.16
236.884	19738.92
236.956	19720.89
237.028	19691.88
237.1	19653.67
237.172	19653.76
237.244	19644.9
237.316	19574.58
237.388	19547.31
237.46	19517.96
237.532	19504.71
237.604	19478.69
237.675	19478.3
237.747	19456.08
237.819	19427.36
237.891	19406.74
237.963	19376.33
238.035	19355.56
238.107	19290.99
238.178	19271.61
238.25	19245.3
238.322	19245.16
238.394	19198.85
238.466	19178.03
238.538	19173.4
238.609	19159.28
238.681	19111.96
238.753	19073.26
238.825	19045.99
238.897	19019.2
238.968	19016.98
239.04	18980.88
239.112	18986.67
239.184	18940.94
239.255	18918.53
239.327	18897.71
239.399	18868.6
239.471	18850.19
239.542	18827.4
239.614	18821.86
239.686	18779.07
239.758	18766.2
239.829	18724.66
239.901	18707.79
239.973	18676.13
240.044	18649.53
240.116	18628.62
240.188	18602.59
240.259	18580.38
240.331	18544.86
240.403	18535.56
240.474	18478.55
240.546	18437.16
240.618	18380.73
240.689	18352.01
240.761	18316.73
240.833	18300.06
240.904	18269.99
240.976	18235.19
241.048	18205.51
241.119	18174.47
241.191	18147.24
241.262	18131.53
241.334	18093.85
241.405	18058.33
241.477	18021.56
241.549	17982.48
241.62	17945.47
241.692	17926.24
241.763	17904.55
241.835	17880.51
241.906	17836.8
241.978	17788.12
242.049	17771.88
242.121	17759.02
242.192	17744.32
242.264	17697.28
242.335	17650.73
242.407	17622.01
242.478	17594.01
242.55	17570.1
242.621	17534.25
242.693	17498.34
242.764	17462.87
242.836	17429.77
242.907	17402.39
242.979	17376.42
243.05	17349.67
243.122	17329.38
243.193	17294.54
243.264	17239.26
243.336	17204.7
243.407	17184.99
243.479	17187.16
243.55	17166.15
243.622	17131.16
243.693	17103.21
243.764	17088.37
243.836	17049.38
243.907	17017.95
243.978	16980.17
244.05	16948.07
244.121	16894.62
244.192	16871.44
244.264	16813.32
244.335	16783.05
244.407	16745.46
244.478	16723.77
244.549	16686.66
244.62	16629.69
244.692	16587.09
244.763	16560.14
244.834	16526.6
244.906	16489.68
244.977	16458.45
245.048	16436.71
245.119	16401
245.191	16357.24
245.262	16310.44
245.333	16297.04
245.405	16267.49
245.476	16248.17
245.547	16224.5
245.618	16208.79
245.689	16184.3
245.761	16165.07
245.832	16133.55
245.903	16104.3
245.974	16067.33
246.045	16043.28
246.117	16032.53
246.188	15997.05
246.259	15960.95
246.33	15924.13
246.401	15885.47
246.473	15829.85
246.544	15786.71
246.615	15762.71
246.686	15721.06
246.757	15704.43
246.828	15658.5
246.899	15640.28
246.97	15594.34
247.042	15547.54
247.113	15520.45
247.184	15509.22
247.255	15469.16
247.326	15438.94
247.397	15411.85
247.468	15386.21
247.539	15351.6
247.61	15314.82
247.681	15297.66
247.752	15285.13
247.823	15245.7
247.894	15220.01
247.965	15188.2
248.037	15154.12
248.108	15109.05
248.179	15088.75
248.25	15062.19
248.321	15041.18
248.392	14992.97
248.463	14984.88
248.534	14955.04
248.605	14935.37
248.675	14894.54
248.746	14875.79
248.817	14859.79
248.888	14831.88
248.959	14787.44
249.03	14765.45
249.101	14734.41
249.172	14703.61
249.243	14658.01
249.314	14648.8
249.385	14625.37
249.456	14611.15
249.527	14583.14
249.598	14564.97
249.669	14537.11
249.739	14506.69
249.81	14486.25
249.881	14449.91
249.952	14418.81
250.023	14391.19
250.094	14342.65
250.165	14302.83
250.235	14270.1
250.306	14244.84
250.377	14208.2
250.448	14181.59
250.519	14140.57
250.59	14127.8
250.66	14096.56
250.731	14080.99
250.802	14054.04
250.873	14035.96
250.944	14000.24
251.014	13967.37
251.085	13964.18
251.156	13936.51
251.227	13931.6
251.297	13929.86
251.368	13910.68
251.439	13892.89
251.51	13886.52
251.58	13860.3
251.651	13839.91
251.722	13830.12
251.792	13770.01
251.863	13742.82
251.934	13735.88
252.005	13738.53
252.075	13708.5
252.146	13694.81
252.217	13680.01
252.287	13663.52
252.358	13629.01
252.429	13630.6
252.499	13599.89
252.57	13575.11
252.641	13567.88
252.711	13534.52
252.782	13483.08
252.852	13478.31
252.923	13456.67
252.994	13436.56
253.064	13426.25
253.135	13389.08
253.205	13359.29
253.276	13364.06
253.347	13363.58
253.417	13329.35
253.488	13296.33
253.558	13271.31
253.629	13240.08
253.699	13210.19
253.77	13197.99
253.841	13173.02
253.911	13150.31
253.982	13126.84
254.052	13113.87
254.123	13091.12
254.193	13067.35
254.264	13085
254.334	13051.06
254.405	13016.59
254.475	12977.59
254.546	12953.83
254.616	12950.98
254.687	12931.22
254.757	12911.79
254.827	12883.35
254.898	12873.71
254.968	12847.15
255.039	12817.4
255.109	12807.67
255.18	12790.89
255.25	12742.69
255.321	12724.75
255.391	12686.29
255.461	12690.96
255.532	12637.41
255.602	12607.47
255.673	12566.45
255.743	12530.34
255.813	12491.39
255.884	12478.57
255.954	12467.87
256.024	12471.92
256.095	12447.19
256.165	12416.15
256.235	12399.18
256.306	12367.65
256.376	12352.08
256.446	12342.68
256.517	12326.15
256.587	12319.4
256.657	12303.11
256.728	12290.62
256.798	12283.68
256.868	12266.91
256.938	12240.11
257.009	12233.17
257.079	12223.33
257.149	12233.31
257.219	12190.8
257.29	12181.44
257.36	12142.21
257.43	12130.01
257.5	12079.83
257.571	12053.95
257.641	12045.76
257.711	12008.88
257.781	11994.23
257.852	11978.66
257.922	11944.63
257.992	11925.45
258.062	11895.66
258.132	11882.64
258.202	11860.76
258.273	11836.66
258.343	11837.67
258.413	11812.03
258.483	11786.92
258.553	11751.49
258.623	11719.53
258.693	11708.74
258.764	11695.97
258.834	11695.24
258.904	11676.93
258.974	11647.72
259.044	11636.15
259.114	11617.64
259.184	11614.17
259.254	11596.97
259.324	11566.8
259.394	11559.08
259.464	11562.55
259.535	11549.4
259.605	11524.96
259.675	11499.71
259.745	11487.32
259.815	11450.83
259.885	11427.51
259.955	11449.68
260.025	11424.28
260.095	11409.53
260.165	11396.81
260.235	11401.63
260.305	11370.88
260.375	11331.6
260.445	11346.64
260.515	11341.1
260.585	11339.65
260.655	11315.6
260.725	11308.18
260.795	11287.46
260.865	11287.7
260.934	11258.54
261.004	11241.09
261.074	11220.47
261.144	11218.15
261.214	11210.68
261.284	11194.83
261.354	11183.46
261.424	11148.08
261.494	11151.69
261.564	11131.93
261.634	11125.72
261.703	11087.89
261.773	11084.47
261.843	11089.33
261.913	11059.98
261.983	11023.79
262.053	11007.36
262.123	10986.25
