Data from 20250702_urea_0.5M_MAYP1162681_14-35-00-363.txt Node
Date: Wed Jul 02 14:35:00 BST 2025
User: adleo
Spectrometer: MAYP116268
Trigger mode: 0
Integration Time (sec): 1.000000E0
Scans to average: 1
Electric dark correction enabled: true
Nonlinearity correction enabled: true
Boxcar width: 10
XAxis mode: Wavelengths
Number of Pixels in Spectrum: 2068
>>>>>Begin Spectral Data<<<<<
179.565	1113.78
179.642	1164.24
179.718	1203.41
179.795	1238.84
179.871	1267.88
179.948	1284.25
180.024	1301.63
180.101	1323.56
180.177	1337.3
180.254	1358.95
180.33	1379.1
180.407	1424.2
180.483	1509.62
180.56	1593.85
180.636	1670.33
180.712	1655.6
180.789	1663.72
180.865	1675.03
180.942	1682.34
181.018	1696.07
181.095	1710.66
181.171	1716.13
181.248	1716.27
181.324	1731.76
181.4	1738.75
181.477	1746.12
181.553	1757.75
181.63	1777.67
181.706	1791.88
181.782	1798.24
181.859	1795.11
181.935	1799.91
182.011	1797.82
182.088	1816.64
182.164	1834.04
182.24	1849.77
182.317	1858.09
182.393	1853.91
182.469	1869.02
182.546	1881.05
182.622	1884.66
182.698	1878.1
182.775	1889.75
182.851	1904.58
182.927	1899.25
183.003	1894.45
183.08	1894.17
183.156	1903.82
183.232	1900.39
183.308	1888.94
183.385	1895.73
183.461	1913.89
183.537	1914.13
183.613	1925.68
183.69	1916.7
183.766	1903.9
183.842	1908.37
183.918	1916.41
183.995	1931.81
184.071	1934.33
184.147	1929.53
184.223	1920.26
184.299	1933.39
184.375	1921.64
184.452	1928.45
184.528	1981.86
184.604	1992.13
184.68	2001.97
184.756	2006.39
184.832	2012.2
184.908	2017.52
184.985	2018.09
185.061	2002.07
185.137	2012.1
185.213	2003.88
185.289	2004.73
185.365	2001.21
185.441	2001.74
185.517	2011.01
185.593	2007.97
185.669	2005.16
185.745	2015.1
185.822	2028.22
185.898	2022.51
185.974	2031.69
186.05	2023.74
186.126	1982.64
186.202	1975.51
186.278	1971.33
186.354	1963.72
186.43	1967.43
186.506	1965.62
186.582	1964.81
186.658	1972.89
186.734	1954.35
186.81	1954.26
186.886	1957.25
186.962	1968.66
187.038	1963.96
187.114	1957.3
187.19	1964.19
187.266	1955.26
187.341	1956.92
187.417	1951.98
187.493	1948.69
187.569	1950.69
187.645	1944.18
187.721	1932.43
187.797	1939.32
187.873	1941.56
187.949	1937.57
188.025	1932.38
188.101	1934.62
188.176	1941.51
188.252	1936.42
188.328	1944.08
188.404	1943.6
188.48	1938.89
188.556	1929.05
188.632	1927.1
188.707	1926.72
188.783	1921.25
188.859	1916.31
188.935	1905.04
189.011	1911.7
189.086	1906.14
189.162	1900.14
189.238	1898.34
189.314	1898.29
189.39	1894.01
189.465	1888.64
189.541	1904.43
189.617	1890.21
189.693	1885.6
189.768	1887.46
189.844	1912.81
189.92	1903.78
189.996	1912.05
190.071	1921.47
190.147	1921.51
190.223	1933.45
190.298	1924.51
190.374	1916.14
190.45	1926.5
190.526	1932.73
190.601	1928.88
190.677	1931.35
190.753	1958.8
190.828	1963.32
190.904	1977.02
190.98	1991.95
191.055	2002.22
191.131	1991.47
191.207	2013.34
191.282	2024.23
191.358	2012.77
191.433	1994.17
191.509	2005.53
191.585	2003.1
191.66	2004.82
191.736	2011.42
191.811	1999.63
191.887	2016.28
191.963	2036.96
192.038	2043.53
192.114	2045.62
192.189	2047.28
192.265	2042.39
192.34	2022.35
192.416	2017.27
192.491	2010.85
192.567	2012.27
192.642	2014.32
192.718	2016.55
192.793	2003.47
192.869	1996.3
192.944	2003.28
193.02	2015.41
193.095	2019.17
193.171	2025.45
193.246	2027.92
193.322	2025.3
193.397	2028.77
193.473	2016.5
193.548	1998.52
193.624	2002.9
193.699	1999.81
193.775	2015.56
193.85	2017.65
193.925	2020.6
194.001	2019.5
194.076	2014.27
194.152	2004.52
194.227	1996.48
194.302	1988.26
194.378	1992.87
194.453	1992.82
194.529	2001.67
194.604	1983.22
194.679	1978.23
194.755	1960.59
194.83	1970.63
194.905	1968.54
194.981	1976.95
195.056	1971.87
195.131	1979.81
195.207	1978
195.282	1969.06
195.357	1950.08
195.433	1963.35
195.508	1954.27
195.583	1964.35
195.659	1979.57
195.734	1987.51
195.809	1986.37
195.884	1992.69
195.96	1991.22
196.035	2006.86
196.11	2006.2
196.185	2021.27
196.261	2026.02
196.336	2054.41
196.411	2039.43
196.486	2045.66
196.561	2039.09
196.637	2045.89
196.712	2059.21
196.787	2063.64
196.862	2079.9
196.937	2090.89
197.013	2097.31
197.088	2107.77
197.163	2127.56
197.238	2141.46
197.313	2141.84
197.388	2156.45
197.464	2182.24
197.539	2194.27
197.614	2186.56
197.689	2196.13
197.764	2213.31
197.839	2230.67
197.914	2225.82
197.989	2246.99
198.065	2258.98
198.14	2303.64
198.215	2327.58
198.29	2337.86
198.365	2349.28
198.44	2360.04
198.515	2385.7
198.59	2399.45
198.665	2423.87
198.74	2432.97
198.815	2434.35
198.89	2455.3
198.965	2484.3
199.04	2485.78
199.115	2499.34
199.19	2536.28
199.265	2537.57
199.34	2544
199.415	2576.49
199.49	2595.58
199.565	2604.53
199.64	2628.15
199.715	2627.73
199.79	2633.82
199.865	2639.77
199.94	2636.78
200.015	2666.5
200.09	2671.03
200.165	2678.22
200.24	2685.37
200.315	2722.8
200.39	2734.33
200.464	2739.19
200.539	2741.33
200.614	2753.67
200.689	2777.73
200.764	2786.5
200.839	2804.36
200.914	2809.36
200.989	2800.16
201.063	2813.6
201.138	2796.27
201.213	2797.22
201.288	2779.73
201.363	2784.21
201.438	2786.07
201.512	2804.98
201.587	2786.44
201.662	2792.02
201.737	2804.26
201.812	2812.08
201.886	2780.65
201.961	2789.24
202.036	2776.57
202.111	2773.23
202.186	2746.99
202.26	2733.22
202.335	2713.59
202.41	2708.73
202.485	2692.11
202.559	2669.86
202.634	2645.8
202.709	2655.18
202.784	2638.23
202.858	2636.99
202.933	2620.27
203.008	2612.08
203.082	2592.6
203.157	2594.17
203.232	2554.03
203.306	2533.79
203.381	2502.97
203.456	2482.2
203.53	2462
203.605	2445.2
203.68	2422.58
203.754	2417.39
203.829	2401.25
203.904	2382.21
203.978	2371.06
204.053	2374.82
204.127	2365.5
204.202	2362.74
204.277	2347.79
204.351	2340.08
204.426	2331.99
204.5	2324.99
204.575	2295.02
204.65	2303.3
204.724	2296.58
204.799	2301.63
204.873	2298.86
204.948	2298.53
205.022	2288.16
205.097	2283.64
205.171	2295.53
205.246	2304.62
205.32	2303.63
205.395	2301.91
205.469	2291.92
205.544	2297.11
205.618	2280.55
205.693	2292.74
205.767	2283.46
205.842	2305.83
205.916	2303.17
205.991	2297.12
206.065	2303.26
206.14	2317.91
206.214	2314.43
206.289	2306.67
206.363	2320.57
206.438	2323.85
206.512	2330.23
206.586	2347.89
206.661	2351.46
206.735	2332.86
206.81	2332.67
206.884	2346.8
206.958	2335.24
207.033	2356.65
207.107	2365.89
207.181	2401.22
207.256	2397.79
207.33	2419.5
207.405	2430.69
207.479	2450.17
207.553	2459.21
207.628	2450.03
207.702	2469.31
207.776	2469.83
207.851	2482.83
207.925	2506.36
207.999	2514.03
208.073	2522.32
208.148	2536.37
208.222	2544.66
208.296	2590.03
208.371	2619.72
208.445	2648.02
208.519	2696.08
208.593	2725.52
208.668	2744.78
208.742	2769.29
208.816	2795.78
208.89	2836.83
208.965	2867.17
209.039	2906.7
209.113	2959.34
209.187	3019.05
209.261	3053.52
209.336	3114.9
209.41	3175.15
209.484	3223.55
209.558	3292.61
209.632	3361.8
209.707	3431.21
209.781	3508.36
209.855	3585.44
209.929	3669.47
210.003	3746.52
210.077	3818.9
210.151	3946.17
210.226	4055.04
210.3	4166.24
210.374	4283.12
210.448	4379.61
210.522	4488.92
210.596	4600.18
210.67	4713.9
210.744	4858.21
210.818	5001.73
210.892	5136.05
210.966	5249.47
211.041	5385.75
211.115	5510.79
211.189	5660.51
211.263	5805.46
211.337	5946.56
211.411	6094.56
211.485	6229
211.559	6380.83
211.633	6525.88
211.707	6642.22
211.781	6806.2
211.855	6927.98
211.929	7073.76
212.003	7216.97
212.077	7384.4
212.151	7558.47
212.225	7730.93
212.299	7898.33
212.373	8058.63
212.447	8230.48
212.52	8435.85
212.594	8617.71
212.668	8804.28
212.742	8971.6
212.816	9147.78
212.89	9327.69
212.964	9517.41
213.038	9707.06
213.112	9906.34
213.186	10115.6
213.26	10284.02
213.333	10430.23
213.407	10631.83
213.481	10821.4
213.555	11025.77
213.629	11215.97
213.703	11393.41
213.777	11579.14
213.85	11753.75
213.924	11975.5
213.998	12166.61
214.072	12347.51
214.146	12528.26
214.219	12715.38
214.293	12897.59
214.367	13093.19
214.441	13294.11
214.515	13469.81
214.588	13638.53
214.662	13792.69
214.736	13954.7
214.81	14137.45
214.883	14325.73
214.957	14490.45
215.031	14656.37
215.105	14811.25
215.178	14959.71
215.252	15136.33
215.326	15296.74
215.4	15440.15
215.473	15565.9
215.547	15707.75
215.621	15860.35
215.694	16017.62
215.768	16154.46
215.842	16298.48
215.915	16438
215.989	16561.39
216.063	16703.13
216.136	16844.49
216.21	16993.17
216.284	17152.21
216.357	17315.78
216.431	17455.83
216.504	17599.55
216.578	17761.72
216.652	17906.92
216.725	18050.2
216.799	18184.26
216.873	18318.52
216.946	18456.79
217.02	18581.31
217.093	18708.49
217.167	18813.93
217.24	18921.05
217.314	19041.43
217.387	19156.75
217.461	19263.93
217.535	19399.06
217.608	19510.47
217.682	19624.01
217.755	19742.56
217.829	19831.18
217.902	19917.73
217.976	20018.74
218.049	20107.8
218.123	20199.9
218.196	20295.94
218.27	20384.81
218.343	20469.2
218.417	20561.39
218.49	20647.71
218.563	20743.08
218.637	20836.97
218.71	20939.39
218.784	21031.68
218.857	21118.63
218.931	21212.61
219.004	21294.74
219.077	21380.97
219.151	21455.87
219.224	21530.92
219.298	21609.2
219.371	21692.25
219.444	21760.5
219.518	21836.46
219.591	21917.64
219.665	22008.36
219.738	22087.61
219.811	22152.3
219.885	22225.38
219.958	22292.87
220.031	22365.57
220.105	22440.68
220.178	22507.4
220.251	22565.16
220.325	22631.83
220.398	22692.58
220.471	22748.02
220.544	22818.7
220.618	22852.5
220.691	22902.45
220.764	22957.51
220.838	23008.18
220.911	23056.06
220.984	23126.89
221.057	23181.52
221.131	23220.82
221.204	23227.09
221.277	23285.1
221.35	23350.63
221.424	23377.63
221.497	23405.02
221.57	23437.52
221.643	23468.63
221.716	23503.54
221.79	23529.39
221.863	23560.98
221.936	23596.28
222.009	23622.9
222.082	23658.68
222.155	23683.62
222.229	23730.25
222.302	23761.46
222.375	23787.4
222.448	23817.21
222.521	23832.54
222.594	23839.49
222.667	23854.73
222.74	23890.13
222.814	23902.57
222.887	23912.07
222.96	23942.84
223.033	23980.71
223.106	23995.85
223.179	24014.61
223.252	24028.02
223.325	24055.71
223.398	24071.38
223.471	24086.38
223.544	24097.14
223.617	24089.42
223.69	24098.39
223.763	24092.26
223.837	24103.74
223.91	24113.39
223.983	24111.37
224.056	24109.82
224.129	24125.59
224.202	24151.06
224.275	24149.71
224.348	24138.91
224.42	24133.55
224.493	24119.56
224.566	24111.94
224.639	24123.9
224.712	24115.03
224.785	24112.09
224.858	24096.46
224.931	24092.55
225.004	24075.62
225.077	24083.19
225.15	24064.24
225.223	24065.83
225.296	24081.99
225.369	24063.95
225.442	24051.12
225.514	24045.62
225.587	24045.82
225.66	24037.42
225.733	24016.73
225.806	24005.06
225.879	24001.49
225.952	23983.07
226.025	23984.13
226.097	23992.91
226.17	23984.47
226.243	23957.8
226.316	23943.52
226.389	23937.44
226.461	23920.13
226.534	23915.45
226.607	23897.94
226.68	23912.75
226.753	23897.84
226.825	23855.59
226.898	23854.19
226.971	23835.05
227.044	23823.91
227.117	23807.41
227.189	23796.51
227.262	23795.84
227.335	23796.27
227.407	23764.3
227.48	23755.23
227.553	23738.83
227.626	23705.84
227.698	23696.29
227.771	23697.02
227.844	23662.78
227.916	23641.7
227.989	23611.85
228.062	23590.01
228.134	23595.02
228.207	23565.51
228.28	23553.45
228.352	23545.49
228.425	23524.66
228.498	23515.11
228.57	23479.38
228.643	23477.21
228.716	23463.51
228.788	23443.11
228.861	23416.54
228.934	23418.33
229.006	23398.41
229.079	23379.94
229.151	23359.11
229.224	23311.08
229.296	23296.52
229.369	23316.1
229.442	23325.89
229.514	23305.49
229.587	23295.8
229.659	23264.79
229.732	23256.98
229.804	23248.69
229.877	23253.46
229.949	23241.21
230.022	23245.17
230.094	23235.23
230.167	23216.96
230.239	23188.03
230.312	23160.45
230.384	23159.72
230.457	23142.03
230.529	23126.41
230.602	23116.95
230.674	23100.71
230.747	23086.19
230.819	23066.71
230.892	23008.08
230.964	22980.45
231.037	22967.63
231.109	22952.39
231.181	22933.78
231.254	22898.68
231.326	22864.69
231.399	22835.85
231.471	22811.75
231.544	22764.3
231.616	22754.9
231.688	22723.03
231.761	22695.21
231.833	22671.4
231.905	22628.44
231.978	22599.71
232.05	22572.61
232.122	22541.85
232.195	22509.98
232.267	22513.41
232.339	22484.29
232.412	22473.49
232.484	22439.98
232.556	22402.24
232.629	22386.18
232.701	22371.53
232.773	22354.8
232.846	22325.1
232.918	22290.01
232.99	22262.62
233.062	22247.29
233.135	22222.66
233.207	22191.04
233.279	22172.67
233.351	22151.65
233.424	22124.61
233.496	22084.46
233.568	22073.18
233.64	22035.05
233.713	22007.96
233.785	21978.94
233.857	21955.41
233.929	21927.79
234.001	21913.86
234.074	21909.96
234.146	21860.74
234.218	21819.58
234.29	21775.95
234.362	21741.63
234.434	21700.86
234.507	21655.55
234.579	21601.76
234.651	21563.82
234.723	21542.85
234.795	21513.07
234.867	21478.12
234.939	21457.2
235.012	21434.02
235.084	21401.82
235.156	21371.02
235.228	21330.92
235.3	21284.46
235.372	21246.72
235.444	21210.96
235.516	21150.81
235.588	21122.66
235.66	21096.39
235.732	21047.95
235.804	21074.66
235.876	21051.62
235.948	21027.42
236.02	20999.57
236.092	20963.95
236.164	20928.53
236.236	20879.32
236.308	20836.91
236.38	20801.05
236.452	20756.62
236.524	20725.68
236.596	20707.94
236.668	20689.24
236.74	20660.37
236.812	20627.17
236.884	20597.48
236.956	20565.33
237.028	20528.81
237.1	20470.59
237.172	20449.19
237.244	20434.39
237.316	20359.06
237.388	20316.46
237.46	20280.03
237.532	20255.84
237.604	20223.45
237.675	20203.21
237.747	20178.49
237.819	20146.1
237.891	20110.78
237.963	20069.38
238.035	20023.8
238.107	19951.99
238.178	19920.57
238.25	19872.28
238.322	19865.92
238.394	19815.56
238.466	19783.71
238.538	19757.59
238.609	19733.25
238.681	19676.05
238.753	19628.82
238.825	19593.55
238.897	19553.74
238.968	19537.16
239.04	19496.73
239.112	19478.28
239.184	19433.7
239.255	19398.23
239.327	19359.87
239.399	19325.85
239.471	19296.17
239.542	19276.41
239.614	19254.96
239.686	19196.32
239.758	19186.87
239.829	19133.38
239.901	19111.98
239.973	19067.36
240.044	19029.72
240.116	18991.94
240.188	18954.98
240.259	18928.72
240.331	18885.97
240.403	18862.6
240.474	18796.53
240.546	18759.96
240.618	18705.6
240.689	18666.42
240.761	18629.12
240.833	18603.44
240.904	18564.02
240.976	18525.03
241.048	18479.69
241.119	18445.52
241.191	18412.65
241.262	18384.99
241.334	18342.83
241.405	18306.63
241.477	18261.38
241.549	18227.46
241.62	18185.48
241.692	18164.52
241.763	18133.63
241.835	18099.66
241.906	18060.48
241.978	18018.65
242.049	17984.24
242.121	17962.79
242.192	17925.97
242.264	17872.63
242.335	17822.89
242.407	17795.76
242.478	17748.24
242.55	17717.3
242.621	17666.99
242.693	17634.46
242.764	17584.92
242.836	17545.89
242.907	17505.69
242.979	17478.46
243.05	17444.83
243.122	17428.1
243.193	17384.1
243.264	17313.69
243.336	17271.04
243.407	17242.75
243.479	17225.84
243.55	17190.46
243.622	17158.08
243.693	17132.58
243.764	17112.49
243.836	17061.74
243.907	17018.31
243.978	16989.4
244.05	16957.88
244.121	16913.63
244.192	16875.13
244.264	16831.36
244.335	16792.23
244.407	16750.2
244.478	16725.67
244.549	16689.57
244.62	16634.34
244.692	16601.81
244.763	16586.1
244.834	16552.99
244.906	16513.51
244.977	16486.04
245.048	16462.43
245.119	16417.7
245.191	16363.29
245.262	16313.64
245.333	16314.7
245.405	16280.53
245.476	16252.72
245.547	16220.67
245.618	16197.68
245.689	16173.15
245.761	16135.89
245.832	16103.16
245.903	16075.5
245.974	16041.52
246.045	16001.61
246.117	15987.77
246.188	15944.78
246.259	15900.63
246.33	15868.24
246.401	15833.97
246.473	15785.29
246.544	15740.8
246.615	15725.62
246.686	15696.84
246.757	15673.08
246.828	15614.37
246.899	15600.59
246.97	15553.06
247.042	15515.17
247.113	15490.93
247.184	15479.65
247.255	15447.16
247.326	15418.77
247.397	15385.66
247.468	15358.95
247.539	15328.97
247.61	15283.9
247.681	15250.3
247.752	15238.01
247.823	15196.27
247.894	15162.33
247.965	15115.24
248.037	15088.01
248.108	15033.87
248.179	15007.41
248.25	14974.44
248.321	14954.77
248.392	14907.73
248.463	14897.84
248.534	14859.33
248.605	14832
248.675	14797.73
248.746	14772.52
248.817	14749.86
248.888	14727.3
248.959	14673.5
249.03	14647.38
249.101	14618.17
249.172	14594.98
249.243	14535.98
249.314	14520.36
249.385	14492.16
249.456	14476.15
249.527	14441.3
249.598	14416.62
249.669	14386.44
249.739	14363.55
249.81	14332.93
249.881	14290.22
249.952	14266.56
250.023	14242.07
250.094	14197.86
250.165	14154.86
250.235	14126.66
250.306	14100.68
250.377	14063.03
250.448	14045.15
250.519	14003.98
250.59	13986.24
250.66	13955.92
250.731	13953.56
250.802	13921.31
250.873	13901.06
250.944	13873.92
251.014	13836.27
251.085	13836.51
251.156	13810.05
251.227	13804.31
251.297	13795.82
251.368	13792.26
251.439	13774.23
251.51	13753.93
251.58	13729.15
251.651	13698.5
251.722	13682.83
251.792	13640.65
251.863	13613.17
251.934	13604.4
252.005	13606.03
252.075	13581.88
252.146	13565.69
252.217	13548.24
252.287	13538.64
252.358	13511.6
252.429	13521.82
252.499	13500.51
252.57	13475.01
252.641	13469.22
252.711	13437.46
252.782	13397.35
252.852	13387.47
252.923	13355.94
252.994	13335.93
253.064	13319.21
253.135	13284.3
253.205	13255.96
253.276	13254.13
253.347	13247.72
253.417	13215.85
253.488	13184.08
253.558	13150.15
253.629	13120.21
253.699	13106.09
253.77	13088.83
253.841	13065.25
253.911	13033.34
253.982	13014.78
254.052	12999.89
254.123	12971.35
254.193	12942.18
254.264	12963.88
254.334	12929.12
254.405	12896.2
254.475	12871.13
254.546	12851.99
254.616	12844.28
254.687	12825.43
254.757	12800.17
254.827	12772.93
254.898	12756.54
254.968	12732.01
255.039	12712.29
255.109	12702.12
255.18	12667.41
255.25	12623.06
255.321	12603.98
255.391	12566.38
255.461	12562.47
255.532	12515.04
255.602	12492.82
255.673	12460.13
255.743	12424.17
255.813	12385.71
255.884	12379.15
255.954	12363.68
256.024	12358.13
256.095	12337.26
256.165	12311.23
256.235	12293.06
256.306	12274.4
256.376	12259.75
256.446	12246.16
256.517	12234.49
256.587	12225.04
256.657	12209.14
256.728	12193.95
256.798	12174.53
256.868	12153.99
256.938	12129.94
257.009	12113.21
257.079	12098.42
257.149	12101.64
257.219	12054.5
257.29	12047.61
257.36	12006.54
257.43	11994.78
257.5	11954.82
257.571	11936.75
257.641	11922.14
257.711	11889.56
257.781	11864.06
257.852	11852.83
257.922	11816.39
257.992	11798.61
258.062	11776.15
258.132	11758.41
258.202	11737.44
258.273	11717.39
258.343	11723.75
258.413	11694.4
258.483	11685.58
258.553	11651.41
258.623	11624.03
258.693	11614.15
258.764	11602.82
258.834	11603.5
258.904	11582.92
258.974	11560.36
259.044	11532.79
259.114	11516.45
259.184	11507.1
259.254	11489.37
259.324	11447.34
259.394	11443.73
259.464	11436.26
259.535	11413.56
259.605	11386.32
259.675	11362.32
259.745	11353.41
259.815	11317.98
259.885	11298.13
259.955	11303.86
260.025	11282.95
260.095	11265.69
260.165	11254.27
260.235	11248.01
260.305	11214.32
260.375	11182.61
260.445	11189.07
260.515	11191
260.585	11188.63
260.655	11165.89
260.725	11163.91
260.795	11158.8
260.865	11151
260.934	11119.91
261.004	11113.89
261.074	11108.73
261.144	11109.79
261.214	11101.84
261.284	11078.56
261.354	11075.48
261.424	11045.31
261.494	11048.3
261.564	11031.38
261.634	11019
261.703	10985.79
261.773	10987.62
261.843	10982.42
261.913	10957.89
261.983	10928.69
262.053	10913.89
