Data from 20250702_urea_0.5M_MAYP1162681_20-34-59-641.txt Node
Date: Wed Jul 02 20:34:59 BST 2025
User: adleo
Spectrometer: MAYP116268
Trigger mode: 0
Integration Time (sec): 1.000000E0
Scans to average: 1
Electric dark correction enabled: true
Nonlinearity correction enabled: true
Boxcar width: 10
XAxis mode: Wavelengths
Number of Pixels in Spectrum: 2068
>>>>>Begin Spectral Data<<<<<
179.565	1209.12
179.642	1266.36
179.718	1308.5
179.795	1346.61
179.871	1378.91
179.948	1396.39
180.024	1414.09
180.101	1438.04
180.177	1452.79
180.254	1475.55
180.33	1499.94
180.407	1553.78
180.483	1651.56
180.56	1738.36
180.636	1823.58
180.712	1810.79
180.789	1821.63
180.865	1833.79
180.942	1842.34
181.018	1853.7
181.095	1867.83
181.171	1870.73
181.248	1871.15
181.324	1885.7
181.4	1893.03
181.477	1904.15
181.553	1917.17
181.63	1937.66
181.706	1952.83
181.782	1959.68
181.859	1957.2
181.935	1960.11
182.011	1956.06
182.088	1970.9
182.164	1995.35
182.24	2007.28
182.317	2016.36
182.393	2013.56
182.469	2029.39
182.546	2043.23
182.622	2047.89
182.698	2041.66
182.775	2055.31
182.851	2067.82
182.927	2062.3
183.003	2058.83
183.08	2052.36
183.156	2061.64
183.232	2058.88
183.308	2047.56
183.385	2058.97
183.461	2076.52
183.537	2078.23
183.613	2090.65
183.69	2081.94
183.766	2067.62
183.842	2075.56
183.918	2080.94
183.995	2094.44
184.071	2096.16
184.147	2091.11
184.223	2077.71
184.299	2090.08
184.375	2077.43
184.452	2088.47
184.528	2145.67
184.604	2154.9
184.68	2169.16
184.756	2178.82
184.832	2186.2
184.908	2191.28
184.985	2189.14
185.061	2174.21
185.137	2183.68
185.213	2172.22
185.289	2170.98
185.365	2164.99
185.441	2163.8
185.517	2177.36
185.593	2175.08
185.669	2173.79
185.745	2184.88
185.822	2205.04
185.898	2195.52
185.974	2205.65
186.05	2194.09
186.126	2152.82
186.202	2144.88
186.278	2140.93
186.354	2127.04
186.43	2132.47
186.506	2131.99
186.582	2130.13
186.658	2140.41
186.734	2120.29
186.81	2123.52
186.886	2131.65
186.962	2145.59
187.038	2144.35
187.114	2135.07
187.19	2142.31
187.266	2130.61
187.341	2130.08
187.417	2121
187.493	2123.33
187.569	2124.75
187.645	2118.43
187.721	2105.82
187.797	2115.95
187.873	2118.23
187.949	2112.48
188.025	2107.06
188.101	2108.86
188.176	2114.9
188.252	2109.72
188.328	2117.42
188.404	2117.61
188.48	2108.43
188.556	2101.15
188.632	2098.68
188.707	2101.06
188.783	2095.73
188.859	2090.12
188.935	2079.27
189.011	2088.03
189.086	2080.04
189.162	2073.42
189.238	2072.9
189.314	2069.86
189.39	2061.68
189.465	2056.63
189.541	2073.71
189.617	2056.59
189.693	2048.93
189.768	2051.69
189.844	2074.06
189.92	2066.97
189.996	2075.44
190.071	2085.57
190.147	2085.57
190.223	2092.47
190.298	2084.71
190.374	2074.35
190.45	2088.14
190.526	2098.93
190.601	2094.32
190.677	2097.46
190.753	2123.59
190.828	2126.39
190.904	2143.09
190.98	2163.07
191.055	2173.59
191.131	2164.69
191.207	2186.05
191.282	2197.32
191.358	2188.85
191.433	2173.34
191.509	2184.42
191.585	2184.04
191.66	2186.08
191.736	2191.84
191.811	2184.18
191.887	2198.83
191.963	2219.82
192.038	2227.05
192.114	2226.1
192.189	2228
192.265	2225
192.34	2203.73
192.416	2204.01
192.491	2198.06
192.567	2196.92
192.642	2197.78
192.718	2200.68
192.793	2187.98
192.869	2185.93
192.944	2190.07
193.02	2197.11
193.095	2202.53
193.171	2206.96
193.246	2206.58
193.322	2204.49
193.397	2207.91
193.473	2193.44
193.548	2174.36
193.624	2178.93
193.699	2176.03
193.775	2192.07
193.85	2192.74
193.925	2200.06
194.001	2198.83
194.076	2193.4
194.152	2183.74
194.227	2176.75
194.302	2165.95
194.378	2170.76
194.453	2166.19
194.529	2175.09
194.604	2161.77
194.679	2154.58
194.755	2135.75
194.83	2148.74
194.905	2145.79
194.981	2152.65
195.056	2145.7
195.131	2154.36
195.207	2152.88
195.282	2145.51
195.357	2128
195.433	2143.27
195.508	2133.42
195.583	2142.51
195.659	2157.54
195.734	2165.49
195.809	2163.44
195.884	2172.67
195.96	2173.95
196.035	2187.85
196.11	2184.99
196.185	2198.45
196.261	2202.88
196.336	2235.52
196.411	2219.86
196.486	2226.38
196.561	2220.86
196.637	2228.94
196.712	2244.65
196.787	2248.32
196.862	2261.4
196.937	2271.11
197.013	2272.63
197.088	2283.48
197.163	2302.43
197.238	2318
197.313	2318.71
197.388	2333.28
197.464	2365.94
197.539	2376.41
197.614	2370.75
197.689	2382.12
197.764	2399.93
197.839	2419.11
197.914	2409.64
197.989	2436.35
198.065	2454.11
198.14	2502.94
198.215	2534.46
198.29	2545.65
198.365	2556.36
198.44	2566.17
198.515	2594.13
198.59	2614.47
198.665	2639.85
198.74	2649.76
198.815	2652.29
198.89	2671
198.965	2700.55
199.04	2694.4
199.115	2711.5
199.19	2754.42
199.265	2757.18
199.34	2763.85
199.415	2799.27
199.49	2822.46
199.565	2828.9
199.64	2846.34
199.715	2843.52
199.79	2849.91
199.865	2856.82
199.94	2856.54
200.015	2888.47
200.09	2890.8
200.165	2893.57
200.24	2899.96
200.315	2940.8
200.39	2953.53
200.464	2960.72
200.539	2961.91
200.614	2980.36
200.689	3000.62
200.764	3010.02
200.839	3030.51
200.914	3039.66
200.989	3027.45
201.063	3041.09
201.138	3022.84
201.213	3026.75
201.288	3004.87
201.363	3012.69
201.438	3014.12
201.512	3032.09
201.587	3017.88
201.662	3022.64
201.737	3036.9
201.812	3046.25
201.886	3011.89
201.961	3019.81
202.036	3007.85
202.111	3003.89
202.186	2971.59
202.26	2958.71
202.335	2934.63
202.41	2926.81
202.485	2905.08
202.559	2887.5
202.634	2861.33
202.709	2875.14
202.784	2856.94
202.858	2858.75
202.933	2836.2
203.008	2827.53
203.082	2808.56
203.157	2808.42
203.232	2765.69
203.306	2745.24
203.381	2714.26
203.456	2687.77
203.53	2666.7
203.605	2649.51
203.68	2626.02
203.754	2620.78
203.829	2603.58
203.904	2584.91
203.978	2574.1
204.053	2582.1
204.127	2566.53
204.202	2564.91
204.277	2546.57
204.351	2537.86
204.426	2532.81
204.5	2525.57
204.575	2492.25
204.65	2500.63
204.724	2491.86
204.799	2498.24
204.873	2495.48
204.948	2495.67
205.022	2485.82
205.097	2478.53
205.171	2489.09
205.246	2498.81
205.32	2500.95
205.395	2501.48
205.469	2492.34
205.544	2499.63
205.618	2477.2
205.693	2489.63
205.767	2476.3
205.842	2495.21
205.916	2488.87
205.991	2478.87
206.065	2484.02
206.14	2501
206.214	2497.91
206.289	2492.95
206.363	2508
206.438	2511.19
206.512	2519.19
206.586	2541.19
206.661	2551.43
206.735	2533.06
206.81	2534.54
206.884	2549.25
206.958	2537.35
207.033	2555.72
207.107	2562.63
207.181	2599.26
207.256	2596.07
207.33	2619.88
207.405	2638.05
207.479	2659.19
207.553	2668.15
207.628	2658.58
207.702	2673.63
207.776	2670.43
207.851	2676.67
207.925	2699.31
207.999	2700.31
208.073	2701.31
208.148	2707.84
208.222	2701.55
208.296	2741.41
208.371	2768.74
208.445	2788.47
208.519	2825.91
208.593	2850.31
208.668	2862.19
208.742	2879.41
208.816	2898.51
208.89	2929.56
208.965	2942.4
209.039	2972.73
209.113	3013.88
209.187	3059.63
209.261	3081.04
209.336	3128.97
209.41	3176.54
209.484	3206.89
209.558	3262.53
209.632	3309.18
209.707	3362.82
209.781	3427.68
209.855	3485.55
209.929	3544.33
210.003	3594.79
210.077	3647.8
210.151	3745.32
210.226	3827.99
210.3	3908.56
210.374	3989.25
210.448	4054.4
210.522	4126.5
210.596	4200.09
210.67	4273.68
210.744	4387.45
210.818	4493.27
210.892	4586.01
210.966	4660.46
211.041	4755.23
211.115	4836.12
211.189	4946.19
211.263	5044.65
211.337	5135.22
211.411	5243.89
211.485	5330.75
211.559	5442.29
211.633	5541.37
211.707	5607.99
211.781	5721.84
211.855	5794.35
211.929	5894.33
212.003	5979.25
212.077	6103.06
212.151	6231.84
212.225	6360.81
212.299	6463.16
212.373	6567.82
212.447	6682.95
212.52	6831.36
212.594	6957.18
212.668	7093.57
212.742	7209.05
212.816	7334.2
212.89	7462.57
212.964	7585.48
213.038	7724.11
213.112	7869.69
213.186	8018.42
213.26	8137.62
213.333	8227.2
213.407	8372.37
213.481	8508.26
213.555	8667.3
213.629	8794.22
213.703	8913.07
213.777	9049.79
213.85	9173.91
213.924	9340.69
213.998	9484.57
214.072	9622.42
214.146	9747.68
214.219	9881.62
214.293	10011.8
214.367	10155.88
214.441	10294.47
214.515	10422.09
214.588	10538.59
214.662	10638.42
214.736	10750.15
214.81	10894.35
214.883	11037.83
214.957	11155.79
215.031	11280.31
215.105	11382.32
215.178	11497.99
215.252	11621.56
215.326	11718.53
215.4	11827.5
215.473	11919.76
215.547	12018.43
215.621	12125.68
215.694	12257.75
215.768	12358.64
215.842	12471.63
215.915	12573
215.989	12668.11
216.063	12772.85
216.136	12879.34
216.21	12998.07
216.284	13125.14
216.357	13232.83
216.431	13341.92
216.504	13466.38
216.578	13605.21
216.652	13732.28
216.725	13840.75
216.799	13960.1
216.873	14081.58
216.946	14189.56
217.02	14285.83
217.093	14382.87
217.167	14468.77
217.24	14549.94
217.314	14644.47
217.387	14736.02
217.461	14828.18
217.535	14938.42
217.608	15033.58
217.682	15135.96
217.755	15237.57
217.829	15321.3
217.902	15422.66
217.976	15513.19
218.049	15589.3
218.123	15660.39
218.196	15757.61
218.27	15840.9
218.343	15908.62
218.417	15993.5
218.49	16081.8
218.563	16173.28
218.637	16268.9
218.71	16364.62
218.784	16464.1
218.857	16557.6
218.931	16643.2
219.004	16726.39
219.077	16813.14
219.151	16892.47
219.224	16963.61
219.298	17035.9
219.371	17125.25
219.444	17189.35
219.518	17272.67
219.591	17350.17
219.665	17448.1
219.738	17509.4
219.811	17570.89
219.885	17648.72
219.958	17717.54
220.031	17781.16
220.105	17858.6
220.178	17932.57
220.251	17995.03
220.325	18060.28
220.398	18127.75
220.471	18204.9
220.544	18276.27
220.618	18323.31
220.691	18384.99
220.764	18447.16
220.838	18509.37
220.911	18551.82
220.984	18626.13
221.057	18682.61
221.131	18751.52
221.204	18759.57
221.277	18839.04
221.35	18927.18
221.424	18985.68
221.497	19038.01
221.57	19085.53
221.643	19145.09
221.716	19195.35
221.79	19243.5
221.863	19287.49
221.936	19336.84
222.009	19376.07
222.082	19418.28
222.155	19465.41
222.229	19530.85
222.302	19582.17
222.375	19625.35
222.448	19685.49
222.521	19728.38
222.594	19769.59
222.667	19796
222.74	19866.55
222.814	19891.61
222.887	19918.69
222.96	19957.43
223.033	20005.77
223.106	20053.33
223.179	20099.65
223.252	20138.83
223.325	20174.59
223.398	20209.14
223.471	20244.32
223.544	20275.02
223.617	20308.41
223.69	20349.86
223.763	20368.27
223.837	20404.17
223.91	20445.81
223.983	20458.44
224.056	20463.79
224.129	20501.33
224.202	20530.15
224.275	20554.92
224.348	20570.58
224.42	20579.11
224.493	20588.8
224.566	20602.34
224.639	20646.87
224.712	20648.17
224.785	20666.92
224.858	20682.73
224.931	20690.1
225.004	20703.74
225.077	20723.84
225.15	20720.47
225.223	20730.73
225.296	20771.22
225.369	20767.07
225.442	20771.46
225.514	20790.93
225.587	20822.01
225.66	20835.65
225.733	20851.6
225.806	20867.8
225.879	20880.09
225.952	20893.39
226.025	20924.48
226.097	20957.49
226.17	20954.94
226.243	20951.95
226.316	20958.74
226.389	20979.37
226.461	21004.72
226.534	21015.86
226.607	21037.54
226.68	21082.8
226.753	21109.55
226.825	21094.12
226.898	21119.91
226.971	21130.75
227.044	21148.25
227.117	21162.32
227.189	21175.48
227.262	21200.88
227.335	21221.22
227.407	21231.39
227.48	21244.5
227.553	21253.17
227.626	21254.67
227.698	21276.12
227.771	21288.84
227.844	21289.37
227.916	21292.7
227.989	21289.61
228.062	21300.55
228.134	21321.95
228.207	21318.77
228.28	21311.93
228.352	21318.1
228.425	21331.59
228.498	21343.55
228.57	21339.45
228.643	21357.62
228.716	21351.31
228.788	21335.4
228.861	21317.47
228.934	21331.26
229.006	21344.22
229.079	21334.24
229.151	21325.62
229.224	21302.43
229.296	21317.23
229.369	21356.66
229.442	21371.94
229.514	21369
229.587	21371.84
229.659	21351.07
229.732	21356.85
229.804	21370.35
229.877	21388.28
229.949	21400.81
230.022	21428.43
230.094	21425.1
230.167	21418.31
230.239	21407.56
230.312	21417.58
230.384	21444.29
230.457	21455.18
230.529	21453.35
230.602	21466.12
230.674	21477.74
230.747	21487.47
230.819	21496.44
230.892	21457.63
230.964	21461.39
231.037	21462.41
231.109	21470.99
231.181	21464.14
231.254	21440.81
231.326	21433.15
231.399	21427.08
231.471	21404.81
231.544	21358.97
231.616	21372.51
231.688	21359.26
231.761	21345.72
231.833	21339.11
231.905	21305.33
231.978	21294.19
232.05	21284.22
232.122	21280.02
232.195	21253.13
232.267	21250.57
232.339	21225.94
232.412	21232.02
232.484	21217.36
232.556	21196.01
232.629	21196.59
232.701	21205.65
232.773	21207.34
232.846	21184.83
232.918	21175.91
232.99	21171
233.062	21178.81
233.135	21166.9
233.207	21147.29
233.279	21152.83
233.351	21140.49
233.424	21126.03
233.496	21097.84
233.568	21101.79
233.64	21069.45
233.713	21065.21
233.785	21056.82
233.857	21058.6
233.929	21022.94
234.001	21017.59
234.074	21021.16
234.146	20983.71
234.218	20959.95
234.29	20940.43
234.362	20920.23
234.434	20889.82
234.507	20856.38
234.579	20820.76
234.651	20793.38
234.723	20802.78
234.795	20788.42
234.867	20762.06
234.939	20759.12
235.012	20745.96
235.084	20721.96
235.156	20717.91
235.228	20682.01
235.3	20654.63
235.372	20621.77
235.444	20610.58
235.516	20564.51
235.588	20549.14
235.66	20529.81
235.732	20505.47
235.804	20539.89
235.876	20531.69
235.948	20522.54
236.02	20494.1
236.092	20470.2
236.164	20442.25
236.236	20395.6
236.308	20366.78
236.38	20343.6
236.452	20307.79
236.524	20280.9
236.596	20281.09
236.668	20257.14
236.74	20240.95
236.812	20216.47
236.884	20203.17
236.956	20179.21
237.028	20141.19
237.1	20104.76
237.172	20098.4
237.244	20084.52
237.316	20008.04
237.388	19961.24
237.46	19920.13
237.532	19918.45
237.604	19889.29
237.675	19892.91
237.747	19874.79
237.819	19835.32
237.891	19815.85
237.963	19776.58
238.035	19744.96
238.107	19667.23
238.178	19650.8
238.25	19612.15
238.322	19610.08
238.394	19553.45
238.466	19518.9
238.538	19502.37
238.609	19476.98
238.681	19421.7
238.753	19375.92
238.825	19357.27
238.897	19337.8
238.968	19326.04
239.04	19281.13
239.112	19278.63
239.184	19219.16
239.255	19189.38
239.327	19169.96
239.399	19142.73
239.471	19124.85
239.542	19105.38
239.614	19086.11
239.686	19029.05
239.758	19024.62
239.829	18966.36
239.901	18956.33
239.973	18933.59
240.044	18907.56
240.116	18880.91
240.188	18843.95
240.259	18811.04
240.331	18770.66
240.403	18739.38
240.474	18689.02
240.546	18652.74
240.618	18594.91
240.689	18552.21
240.761	18515.39
240.833	18493.47
240.904	18459.69
240.976	18432.36
241.048	18389.28
241.119	18373.67
241.191	18350.15
241.262	18324.22
241.334	18288.9
241.405	18260.95
241.477	18216.9
241.549	18176.86
241.62	18141.97
241.692	18125.82
241.763	18115.32
241.835	18085.44
241.906	18057.68
241.978	18013.83
242.049	17994.21
242.121	17972.24
242.192	17964.38
242.264	17912.38
242.335	17858.41
242.407	17829.83
242.478	17784.72
242.55	17766.12
242.621	17723.38
242.693	17680.29
242.764	17633.5
242.836	17601.69
242.907	17564.92
242.979	17540.3
243.05	17519.62
243.122	17491.72
243.193	17445.98
243.264	17383.38
243.336	17348.1
243.407	17333.6
243.479	17319.81
243.55	17287.67
243.622	17259.53
243.693	17221.6
243.764	17212.15
243.836	17172.25
243.907	17133.69
243.978	17096.29
244.05	17066.75
244.121	17013.49
244.192	16992.24
244.264	16946.98
244.335	16920.53
244.407	16866.31
244.478	16833.58
244.549	16784.9
244.62	16736.08
244.692	16704.32
244.763	16675.45
244.834	16629.71
244.906	16580.31
244.977	16551.11
245.048	16526.62
245.119	16489.03
245.191	16444.79
245.262	16387.19
245.333	16375.86
245.405	16341.65
245.476	16322.22
245.547	16284.15
245.618	16263.28
245.689	16227.42
245.761	16199.08
245.832	16155.84
245.903	16139.99
245.974	16113.86
246.045	16087.06
246.117	16074.87
246.188	16031.15
246.259	15993.8
246.33	15961.22
246.401	15923.38
246.473	15874.26
246.544	15837.25
246.615	15808.62
246.686	15774.2
246.757	15755.55
246.828	15707.64
246.899	15685.47
246.97	15636.45
247.042	15595.19
247.113	15573.06
247.184	15566.36
247.255	15535.37
247.326	15506.88
247.397	15468.95
247.468	15434.82
247.539	15403.44
247.61	15353.36
247.681	15334.8
247.752	15317.98
247.823	15277.97
247.894	15252.62
247.965	15218.25
248.037	15184.51
248.108	15141.46
248.179	15113.7
248.25	15082.17
248.321	15067.62
248.392	15032.96
248.463	15020.09
248.534	14990.54
248.605	14969.19
248.675	14928.6
248.746	14902.71
248.817	14880.25
248.888	14856.78
248.959	14811.75
249.03	14787.17
249.101	14764.37
249.172	14728.6
249.243	14681.84
249.314	14670.95
249.385	14644.29
249.456	14621.06
249.527	14588.62
249.598	14565.24
249.669	14541.13
249.739	14515.15
249.81	14486.47
249.881	14443.9
249.952	14419.37
250.023	14396.13
250.094	14346.53
250.165	14312.35
250.235	14281.4
250.306	14250.89
250.377	14213.48
250.448	14191.45
250.519	14148.45
250.59	14134.23
250.66	14104.83
250.731	14098.27
250.802	14078.26
250.873	14052.57
250.944	14023.17
251.014	13989.85
251.085	13990.29
251.156	13964.84
251.227	13954.47
251.297	13943.58
251.368	13938.66
251.439	13918.56
251.51	13902.36
251.58	13873.63
251.651	13844.85
251.722	13830.05
251.792	13787.58
251.863	13761.36
251.934	13762.85
252.005	13767.24
252.075	13748.73
252.146	13739.37
252.217	13726.17
252.287	13711.85
252.358	13689.58
252.429	13686.01
252.499	13661.14
252.57	13636.6
252.641	13618.23
252.711	13588.63
252.782	13546.93
252.852	13535.8
252.923	13511.16
252.994	13489.23
253.064	13480.07
253.135	13440.11
253.205	13413.21
253.276	13416.05
253.347	13411.96
253.417	13375.27
253.488	13343.6
253.558	13308.31
253.629	13290.86
253.699	13265.79
253.77	13248.58
253.841	13216.82
253.911	13200.62
253.982	13175.02
254.052	13161.14
254.123	13143.54
254.193	13128.6
254.264	13144.84
254.334	13108.25
254.405	13076.82
254.475	13041.87
254.546	13020.37
254.616	13016.95
254.687	12998.3
254.757	12980.03
254.827	12953.22
254.898	12931.68
254.968	12915
255.039	12879.18
255.109	12859.85
255.18	12832.57
255.25	12776.74
255.321	12765.03
255.391	12719.72
255.461	12726.08
255.532	12672.72
255.602	12646.49
255.673	12606.82
255.743	12574.04
255.813	12529.26
255.884	12522.65
255.954	12510.41
256.024	12507.95
256.095	12489.44
256.165	12455.31
256.235	12436.27
256.306	12407.59
256.376	12398.87
256.446	12386.96
256.517	12380.36
256.587	12367.24
256.657	12347.62
256.728	12336.83
256.798	12315.67
256.868	12301.83
256.938	12269.01
257.009	12259.51
257.079	12247.22
257.149	12249.29
257.219	12206.24
257.29	12195.06
257.36	12150.76
257.43	12140.21
257.5	12089.5
257.571	12063.04
257.641	12055.13
257.711	12027.9
257.781	12011.7
257.852	11997.92
257.922	11953.76
257.992	11929.37
258.062	11902.96
258.132	11891.25
258.202	11869.03
258.273	11856.35
258.343	11851
258.413	11822.71
258.483	11809.07
258.553	11778.75
258.623	11753.83
258.693	11738.26
258.764	11730.07
258.834	11729.83
258.904	11707.51
258.974	11689.53
259.044	11668.66
259.114	11650.44
259.184	11631.55
259.254	11615.89
259.324	11575.35
259.394	11565.33
259.464	11573.47
259.535	11551.54
259.605	11526.38
259.675	11504.69
259.745	11492.02
259.815	11462.57
259.885	11445.65
259.955	11450.67
260.025	11427.68
260.095	11410.04
260.165	11401.84
260.235	11402.13
260.305	11378.52
260.375	11352.44
260.445	11363.87
260.515	11372.54
260.585	11369.12
260.655	11354.13
260.725	11348.83
260.795	11339
260.865	11340.11
260.934	11303.38
261.004	11295.14
261.074	11277.94
261.144	11278.18
261.214	11264.44
261.284	11246.22
261.354	11238.42
261.424	11209.55
261.494	11214.9
261.564	11192.15
261.634	11180.34
261.703	11140.15
261.773	11126.37
261.843	11119.43
261.913	11084.2
261.983	11038.56
262.053	11028.73
262.123	11006.47
262.192	10973.41
