Data from 20250702_urea_0.5M_MAYP1162681_23-24-59-834.txt Node
Date: Wed Jul 02 23:24:59 BST 2025
User: adleo
Spectrometer: MAYP116268
Trigger mode: 0
Integration Time (sec): 1.000000E0
Scans to average: 1
Electric dark correction enabled: true
Nonlinearity correction enabled: true
Boxcar width: 10
XAxis mode: Wavelengths
Number of Pixels in Spectrum: 2068
>>>>>Begin Spectral Data<<<<<
179.565	1221.5
179.642	1279.08
179.718	1323.58
179.795	1362.65
179.871	1398.31
179.948	1416.72
180.024	1436.31
180.101	1458.66
180.177	1472.41
180.254	1495.71
180.33	1516.41
180.407	1572.86
180.483	1671.49
180.56	1764.81
180.636	1850.55
180.712	1838.14
180.789	1847.03
180.865	1858.91
180.942	1865.28
181.018	1880.82
181.095	1893.61
181.171	1899.94
181.248	1903.46
181.324	1918.29
181.4	1927.61
181.477	1936.36
181.553	1951.62
181.63	1974.02
181.706	1991.14
181.782	1999.07
181.859	1996.74
181.935	2002.97
182.011	1999.74
182.088	2015.2
182.164	2031.18
182.24	2045.97
182.317	2055.1
182.393	2054.1
182.469	2068.89
182.546	2082.73
182.622	2086.96
182.698	2080.78
182.775	2093.33
182.851	2102.94
182.927	2096.71
183.003	2089.01
183.08	2083.44
183.156	2089.77
183.232	2087.01
183.308	2073.26
183.385	2083.73
183.461	2106.08
183.537	2109.94
183.613	2121.5
183.69	2111.22
183.766	2101.04
183.842	2106.65
183.918	2113.5
183.995	2130.15
184.071	2135.43
184.147	2130.96
184.223	2118.64
184.299	2132.73
184.375	2119.08
184.452	2127.21
184.528	2185.52
184.604	2196.93
184.68	2209.54
184.756	2217.72
184.832	2222.19
184.908	2231.09
184.985	2229.18
185.061	2210.25
185.137	2218.62
185.213	2206.54
185.289	2209.16
185.365	2203.02
185.441	2203.31
185.517	2217.35
185.593	2210.12
185.669	2205.31
185.745	2216.25
185.822	2231.52
185.898	2225.33
185.974	2235.22
186.05	2228.61
186.126	2185.29
186.202	2176.87
186.278	2172.92
186.354	2161.89
186.43	2171.64
186.506	2168.03
186.582	2169.41
186.658	2176.87
186.734	2154.23
186.81	2157.28
186.886	2157.71
186.962	2168.36
187.038	2165.03
187.114	2155.6
187.19	2165.03
187.266	2153.47
187.341	2153.99
187.417	2146.43
187.493	2143.86
187.569	2147.05
187.645	2141.58
187.721	2129.49
187.797	2137.15
187.873	2143.1
187.949	2137.34
188.025	2124.78
188.101	2124.82
188.176	2129.06
188.252	2123.73
188.328	2135.28
188.404	2135.76
188.48	2131.58
188.556	2127.96
188.632	2125.63
188.707	2126.63
188.783	2118.44
188.859	2115.59
188.935	2103.7
189.011	2114.92
189.086	2111.69
189.162	2103.17
189.238	2097.61
189.314	2095.52
189.39	2091.57
189.465	2082.39
189.541	2100.08
189.617	2086.24
189.693	2083.82
189.768	2088.29
189.844	2114.75
189.92	2104.39
189.996	2112.42
190.071	2124.75
190.147	2123.32
190.223	2129.12
190.298	2122.27
190.374	2113.76
190.45	2126.64
190.526	2138.3
190.601	2132.92
190.677	2133.59
190.753	2160.72
190.828	2166.48
190.904	2181.42
190.98	2194.74
191.055	2207.3
191.131	2199.59
191.207	2220.66
191.282	2231.93
191.358	2220.23
191.433	2204.19
191.509	2218.46
191.585	2216.51
191.66	2218.88
191.736	2226.69
191.811	2223.26
191.887	2237.25
191.963	2261.85
192.038	2265.8
192.114	2263.23
192.189	2265.28
192.265	2261.71
192.34	2242.15
192.416	2240.96
192.491	2237.48
192.567	2243.1
192.642	2244.05
192.718	2244.24
192.793	2235.63
192.869	2229.68
192.944	2232.16
193.02	2238.63
193.095	2241.2
193.171	2247.62
193.246	2247.48
193.322	2244.72
193.397	2243.67
193.473	2230.16
193.548	2210.26
193.624	2216.74
193.699	2215.97
193.775	2233.97
193.85	2232.64
193.925	2237.49
194.001	2237.01
194.076	2228.74
194.152	2218.03
194.227	2212.65
194.302	2202.47
194.378	2202.23
194.453	2202.23
194.529	2215.65
194.604	2203.85
194.679	2195.05
194.755	2174.31
194.83	2184.26
194.905	2182.17
194.981	2188.92
195.056	2183.17
195.131	2191.4
195.207	2186.88
195.282	2177.17
195.357	2154.85
195.433	2172.21
195.508	2160.94
195.583	2169.45
195.659	2185.35
195.734	2192.96
195.809	2186.83
195.884	2195.77
195.96	2198.05
196.035	2211.47
196.11	2208.42
196.185	2217.18
196.261	2225.88
196.336	2258.48
196.411	2245.91
196.486	2254.33
196.561	2250
196.637	2259.85
196.712	2275.27
196.787	2280.42
196.862	2294.64
196.937	2306.63
197.013	2312.06
197.088	2323.33
197.163	2344.9
197.238	2361.24
197.313	2359.67
197.388	2377.9
197.464	2409.04
197.539	2420.27
197.614	2412.89
197.689	2425.75
197.764	2441.89
197.839	2460.03
197.914	2450.84
197.989	2471.36
198.065	2482.26
198.14	2533.48
198.215	2560.43
198.29	2573.49
198.365	2585.2
198.44	2598.63
198.515	2626.64
198.59	2642.83
198.665	2672.13
198.74	2680.23
198.815	2686.19
198.89	2710.76
198.965	2741.12
199.04	2737.88
199.115	2752.7
199.19	2795.52
199.265	2795.85
199.34	2808.2
199.415	2844.72
199.49	2866.67
199.565	2876.87
199.64	2902.37
199.715	2901.32
199.79	2905.61
199.865	2913.38
199.94	2916.29
200.015	2946.7
200.09	2954.57
200.165	2959.1
200.24	2966.87
200.315	3007.23
200.39	3018.2
200.464	3025.59
200.539	3025.78
200.614	3040.03
200.689	3069.84
200.764	3075.7
200.839	3096.63
200.914	3101.15
200.989	3088.18
201.063	3104.48
201.138	3088.57
201.213	3085.33
201.288	3064.63
201.363	3071.21
201.438	3068.21
201.512	3078.89
201.587	3062.39
201.662	3062.39
201.737	3076.79
201.812	3082.99
201.886	3048.05
201.961	3060.08
202.036	3048.26
202.111	3044.2
202.186	3014.71
202.26	2991.01
202.335	2971.22
202.41	2962.68
202.485	2946.58
202.559	2926.99
202.634	2900.53
202.709	2910.44
202.784	2895.09
202.858	2893.85
202.933	2876.65
203.008	2870.02
203.082	2853.72
203.157	2853.44
203.232	2810.33
203.306	2789.73
203.381	2755.94
203.456	2734.5
203.53	2707.79
203.605	2685.5
203.68	2659.53
203.754	2652.96
203.829	2638.86
203.904	2619.14
203.978	2609.89
204.053	2614.47
204.127	2603.42
204.202	2600.99
204.277	2584.89
204.351	2574.79
204.426	2567.03
204.5	2558.31
204.575	2525.32
204.65	2534.56
204.724	2525.69
204.799	2535.45
204.873	2531.02
204.948	2532.5
205.022	2517.69
205.097	2510.69
205.171	2525.97
205.246	2537.16
205.32	2537.07
205.395	2534.97
205.469	2524.6
205.544	2528.55
205.618	2510.55
205.693	2520.93
205.767	2512.27
205.842	2532.42
205.916	2526.56
205.991	2518.08
206.065	2520.75
206.14	2533.65
206.214	2531.03
206.289	2523.26
206.363	2536.36
206.438	2538.93
206.512	2542.26
206.586	2565.59
206.661	2570.22
206.735	2548.75
206.81	2549.7
206.884	2568.32
206.958	2557.46
207.033	2577.98
207.107	2587.7
207.181	2622.39
207.256	2617.77
207.33	2635.92
207.405	2650.7
207.479	2674.8
207.553	2684.08
207.628	2674.51
207.702	2689.85
207.776	2687.85
207.851	2695.71
207.925	2713.25
207.999	2714.53
208.073	2720.73
208.148	2727.49
208.222	2724.06
208.296	2762.16
208.371	2786.48
208.445	2805.55
208.519	2844.28
208.593	2864.82
208.668	2873.65
208.742	2887.34
208.816	2905.73
208.89	2931.29
208.965	2945.8
209.039	2971.41
209.113	3011.03
209.187	3050.97
209.261	3068.75
209.336	3110
209.41	3155.27
209.484	3181.37
209.558	3230.13
209.632	3275.98
209.707	3319.73
209.781	3376.28
209.855	3425.11
209.929	3483.16
210.003	3526.99
210.077	3567.71
210.151	3659.57
210.226	3738.18
210.3	3813.33
210.374	3881.19
210.448	3939.49
210.522	3997.66
210.596	4060.71
210.67	4123.63
210.744	4228.64
210.818	4322.66
210.892	4404.12
210.966	4463.18
211.041	4546.95
211.115	4613.59
211.189	4704.62
211.263	4792.3
211.337	4874.92
211.411	4972.67
211.485	5041.33
211.559	5136.63
211.633	5220.94
211.707	5275.59
211.781	5363.87
211.855	5420.77
211.929	5503.32
212.003	5575.73
212.077	5684.88
212.151	5792.27
212.225	5897.99
212.299	5990.05
212.373	6081.21
212.447	6180.51
212.52	6312.93
212.594	6423.98
212.668	6547.74
212.742	6643.39
212.816	6755.97
212.89	6859.37
212.964	6961.86
213.038	7084.98
213.112	7210.7
213.186	7340.67
213.26	7433.6
213.333	7506.42
213.407	7617.97
213.481	7745.25
213.555	7871.18
213.629	7973.73
213.703	8083.89
213.777	8203.43
213.85	8296.92
213.924	8446.08
213.998	8570.63
214.072	8679.51
214.146	8781.4
214.219	8894.42
214.293	9006.33
214.367	9119.85
214.441	9249.55
214.515	9366.9
214.588	9455.5
214.662	9538.43
214.736	9638.88
214.81	9759.16
214.883	9889.13
214.957	9999.36
215.031	10098.34
215.105	10195.87
215.178	10293.23
215.252	10390.35
215.326	10474.9
215.4	10568.12
215.473	10631.78
215.547	10714.95
215.621	10815.13
215.694	10933.2
215.768	11013.86
215.842	11109.42
215.915	11201.47
215.989	11278.39
216.063	11369
216.136	11475.03
216.21	11579.95
216.284	11691.38
216.357	11796.84
216.431	11888.23
216.504	11995.32
216.578	12119.88
216.652	12229.67
216.725	12332.87
216.799	12438.15
216.873	12535.66
216.946	12640.46
217.02	12734.26
217.093	12832.55
217.167	12907.99
217.24	12978.52
217.314	13067.45
217.387	13150.85
217.461	13229.76
217.535	13332.34
217.608	13411.88
217.682	13493.16
217.755	13582.68
217.829	13655.81
217.902	13743.4
217.976	13830.7
218.049	13912.26
218.123	13982.55
218.196	14071.2
218.27	14144.08
218.343	14207.04
218.417	14294.82
218.49	14374.27
218.563	14466.82
218.637	14546.98
218.71	14647.1
218.784	14741.92
218.857	14831.92
218.931	14919.75
219.004	15010.27
219.077	15095.93
219.151	15172.67
219.224	15253.02
219.298	15332.07
219.371	15415.75
219.444	15475.09
219.518	15544.11
219.591	15613.18
219.665	15706.98
219.738	15771.23
219.811	15833.94
219.885	15922.53
219.958	15987.12
220.031	16047.42
220.105	16126.46
220.178	16196.3
220.251	16251.97
220.325	16322.91
220.398	16390.53
220.471	16458.54
220.544	16526.35
220.618	16581.92
220.691	16646.12
220.764	16713.79
220.838	16777.45
220.911	16833.75
220.984	16921.65
221.057	16992.93
221.131	17052.36
221.204	17080.36
221.277	17156.75
221.35	17252.6
221.424	17295.69
221.497	17367.16
221.57	17440.17
221.643	17493.72
221.716	17556.27
221.79	17605.47
221.863	17652.94
221.936	17702.82
222.009	17761.95
222.082	17821.86
222.155	17868.02
222.229	17941.85
222.302	17986.67
222.375	18037.85
222.448	18098.14
222.521	18135.92
222.594	18185.55
222.667	18228.11
222.74	18292.78
222.814	18341.6
222.887	18380.63
222.96	18444.58
223.033	18501.11
223.106	18543.95
223.179	18599.03
223.252	18646.83
223.325	18685.91
223.398	18721.82
223.471	18778.73
223.544	18810.49
223.617	18839.06
223.69	18878.82
223.763	18899.59
223.837	18945.27
223.91	18984.55
223.983	19005.36
224.056	19033.89
224.129	19067
224.202	19109.65
224.275	19133.69
224.348	19161.16
224.42	19177.79
224.493	19192.68
224.566	19203.95
224.639	19231.71
224.712	19253.06
224.785	19269.69
224.858	19305.3
224.931	19332.09
225.004	19333.44
225.077	19366.31
225.15	19377.34
225.223	19407.99
225.296	19458.16
225.369	19475.02
225.442	19492.76
225.514	19521.09
225.587	19551.36
225.66	19578.49
225.733	19606.77
225.806	19634.53
225.879	19643.45
225.952	19660.12
226.025	19698.77
226.097	19750.62
226.17	19786.09
226.243	19788.98
226.316	19814.09
226.389	19841.51
226.461	19874.57
226.534	19916.16
226.607	19937.99
226.68	19980.54
226.753	20009.79
226.825	20008.97
226.898	20037.55
226.971	20060.97
227.044	20090.18
227.117	20109.07
227.189	20133.36
227.262	20161.02
227.335	20181.64
227.407	20204.2
227.48	20232.29
227.553	20251.81
227.626	20252.29
227.698	20258.08
227.771	20278.75
227.844	20291.14
227.916	20310.8
227.989	20301.26
228.062	20306.99
228.134	20350.03
228.207	20368.49
228.28	20371.28
228.352	20395.18
228.425	20413.3
228.498	20439.14
228.57	20442.65
228.643	20475.47
228.716	20491.23
228.788	20497.93
228.861	20522.37
228.934	20549.35
229.006	20558.13
229.079	20563.72
229.151	20568.78
229.224	20566.75
229.296	20582.32
229.369	20618.32
229.442	20641.26
229.514	20652.63
229.587	20677.07
229.659	20665.31
229.732	20676.06
229.804	20698.42
229.877	20733.02
229.949	20754.18
230.022	20785.85
230.094	20785.07
230.167	20786.18
230.239	20790.81
230.312	20799.77
230.384	20819.1
230.457	20832.16
230.529	20840.88
230.602	20849.13
230.674	20862.81
230.747	20891.92
230.819	20917.51
230.892	20893.32
230.964	20890.14
231.037	20913.66
231.109	20923.3
231.181	20928.4
231.254	20921.7
231.326	20926.04
231.399	20904.5
231.471	20894.18
231.544	20868.01
231.616	20890.42
231.688	20900.79
231.761	20893.85
231.833	20899.24
231.905	20870.28
231.978	20875.48
232.05	20877.89
232.122	20881.8
232.195	20877.12
232.267	20886.95
232.339	20871.43
232.412	20893.8
232.484	20900.78
232.556	20887.58
232.629	20896.64
232.701	20898.95
232.773	20895.34
232.846	20881.12
232.918	20879.87
232.99	20877.65
233.062	20879.15
233.135	20878.47
233.207	20855.1
233.279	20856.83
233.351	20843.82
233.424	20832.25
233.496	20807.05
233.568	20827.48
233.64	20810.04
233.713	20803.48
233.785	20789.17
233.857	20781.22
233.929	20750.23
234.001	20750.08
234.074	20758.71
234.146	20729.07
234.218	20716.97
234.29	20708.49
234.362	20691.48
234.434	20665.31
234.507	20648.05
234.579	20609.16
234.651	20590.22
234.723	20594.8
234.795	20581.88
234.867	20567.62
234.939	20571.38
235.012	20564.05
235.084	20549.06
235.156	20542.51
235.228	20520.92
235.3	20500.82
235.372	20486.51
235.444	20483.18
235.516	20448.2
235.588	20427.47
235.66	20417.21
235.732	20398.51
235.804	20437.02
235.876	20431.33
235.948	20436.49
236.02	20414.32
236.092	20413.55
236.164	20393.4
236.236	20361.4
236.308	20336.54
236.38	20326.46
236.452	20300.97
236.524	20281.6
236.596	20272.92
236.668	20255.96
236.74	20240.83
236.812	20229.69
236.884	20222.66
236.956	20201.26
237.028	20164.68
237.1	20141.21
237.172	20132.97
237.244	20124.54
237.316	20057.17
237.388	20025.46
237.46	19992.35
237.532	19988.06
237.604	19951.15
237.675	19947.48
237.747	19938.76
237.819	19907.15
237.891	19883.49
237.963	19855.92
238.035	19827.97
238.107	19758.29
238.178	19747.06
238.25	19715.49
238.322	19710.38
238.394	19664.41
238.466	19633.86
238.538	19621.57
238.609	19606.15
238.681	19562.83
238.753	19521.57
238.825	19506.49
238.897	19482.4
238.968	19466.35
239.04	19429.48
239.112	19429.58
239.184	19390.79
239.255	19367.85
239.327	19340.86
239.399	19314.6
239.471	19289.49
239.542	19267.32
239.614	19259.95
239.686	19202.41
239.758	19184.97
239.829	19134.75
239.901	19117.41
239.973	19092.97
240.044	19065.46
240.116	19024.54
240.188	18987.34
240.259	18961.99
240.331	18920.41
240.403	18902.09
240.474	18861.33
240.546	18815.98
240.618	18767.02
240.689	18722.88
240.761	18683.84
240.833	18681.72
240.904	18640.81
240.976	18609.15
241.048	18578.55
241.119	18554.26
241.191	18530.89
241.262	18517.39
241.334	18488.43
241.405	18460.92
241.477	18417.79
241.549	18389.16
241.62	18359.91
241.692	18337.26
241.763	18320.06
241.835	18296.59
241.906	18263.34
241.978	18214.18
242.049	18205.75
242.121	18187
242.192	18172.88
242.264	18117.75
242.335	18070.67
242.407	18053.37
242.478	18012.65
242.55	17989.42
242.621	17949.52
242.693	17921.28
242.764	17882.34
242.836	17843.74
242.907	17811.26
242.979	17782.87
243.05	17749.86
243.122	17726.63
243.193	17693.47
243.264	17627.07
243.336	17589.57
243.407	17566.92
243.479	17559.12
243.55	17531.02
243.622	17497.81
243.693	17464.75
243.764	17459.6
243.836	17412.22
243.907	17375.6
243.978	17351.6
244.05	17318.87
244.121	17275.36
244.192	17249.48
244.264	17195.98
244.335	17173.47
244.407	17125.52
244.478	17105.28
244.549	17066.82
244.62	17022.87
244.692	16990.05
244.763	16984.89
244.834	16944.21
244.906	16899.97
244.977	16872.12
245.048	16850.14
245.119	16810.38
245.191	16766.57
245.262	16708.44
245.333	16694.52
245.405	16661.6
245.476	16634.27
245.547	16603.76
245.618	16581.5
245.689	16550.65
245.761	16523.08
245.832	16487.56
245.903	16463.75
245.974	16428.52
246.045	16398.88
246.117	16386.16
246.188	16341.28
246.259	16289.42
246.33	16252.79
246.401	16220.11
246.473	16175.53
246.544	16131.24
246.615	16111.67
246.686	16077.06
246.757	16062.31
246.828	16012.62
246.899	15996.28
246.97	15948.51
247.042	15902.39
247.113	15877.08
247.184	15870.19
247.255	15838.67
247.326	15795.05
247.397	15753.31
247.468	15723.62
247.539	15693.2
247.61	15639.75
247.681	15622.3
247.752	15611.45
247.823	15574.15
247.894	15546.29
247.965	15497.26
248.037	15458.66
248.108	15405.39
248.179	15373.63
248.25	15345.62
248.321	15329.47
248.392	15291.64
248.463	15291.11
248.534	15261.03
248.605	15237.7
248.675	15193.74
248.746	15172.05
248.817	15163.76
248.888	15156.58
248.959	15109.39
249.03	15091.12
249.101	15068.75
249.172	15037.13
249.243	14984.88
249.314	14976.01
249.385	14951.52
249.456	14941.4
249.527	14915.46
249.598	14900.71
249.669	14875.07
249.739	14849.04
249.81	14830.72
249.881	14778.66
249.952	14752.87
250.023	14725.88
250.094	14682.2
250.165	14643.01
250.235	14608.21
250.306	14572.11
250.377	14529.3
250.448	14514.55
250.519	14461.62
250.59	14448.99
250.66	14419.68
250.731	14411.1
250.802	14382.18
250.873	14352.24
250.944	14322.11
251.014	14295.17
251.085	14297.34
251.156	14279.84
251.227	14272.51
251.297	14255.64
251.368	14251.4
251.439	14222.42
251.51	14212.06
251.58	14180.44
251.651	14157.15
251.722	14149.3
251.792	14111.5
251.863	14076.99
251.934	14069.56
252.005	14075.35
252.075	14045.32
252.146	14027.82
252.217	14016.05
252.287	13998.51
252.358	13973.15
252.429	13964.18
252.499	13940.37
252.57	13910.15
252.641	13899.25
252.711	13868.01
252.782	13827.91
252.852	13821.49
252.923	13798.6
252.994	13777.24
253.064	13766.92
253.135	13733.08
253.205	13701.36
253.276	13698.13
253.347	13692.78
253.417	13653.4
253.488	13613.1
253.558	13590.49
253.629	13566.19
253.699	13542.04
253.77	13522.42
253.841	13503.33
253.911	13488.97
253.982	13456.52
254.052	13446.25
254.123	13417.72
254.193	13389.47
254.264	13407.64
254.334	13368.98
254.405	13334.95
254.475	13295.95
254.546	13272.76
254.616	13265.48
254.687	13247.84
254.757	13231.54
254.827	13213.9
254.898	13202.23
254.968	13196.3
255.039	13162.27
255.109	13144.19
255.18	13107.56
255.25	13064.12
255.321	13049.18
255.391	13007
255.461	13013.36
255.532	12961.39
255.602	12939.03
255.673	12896.41
255.743	12857.85
255.813	12814.03
255.884	12807.14
255.954	12797.06
256.024	12783.61
256.095	12764.23
256.165	12728.08
256.235	12708.36
256.306	12680.21
256.376	12669.51
256.446	12652.83
256.517	12643.82
256.587	12638.37
256.657	12623.09
256.728	12609.59
256.798	12583.03
256.868	12562.35
256.938	12533.76
257.009	12525.47
257.079	12511.78
257.149	12521.52
257.219	12481.99
257.29	12465.6
257.36	12426.75
257.43	12413.64
257.5	12380.43
257.571	12350.98
257.641	12337.14
257.711	12301.71
257.781	12292.6
257.852	12273.22
257.922	12232.93
257.992	12212.1
258.062	12183.37
258.132	12175.61
258.202	12148.09
258.273	12128.37
258.343	12126.69
258.413	12091.69
258.483	12071.11
258.553	12038.62
258.623	12008.74
258.693	11993.7
258.764	11998.76
258.834	11995.24
258.904	11973.07
258.974	11938.27
259.044	11917.44
259.114	11903.66
259.184	11891.08
259.254	11868.14
259.324	11819.55
259.394	11808.42
259.464	11807.93
259.535	11788.85
259.605	11763.35
259.675	11743.83
259.745	11733.18
259.815	11699.44
259.885	11683.15
259.955	11689.75
260.025	11659
260.095	11641.89
260.165	11630.76
260.235	11631.38
260.305	11605.16
260.375	11577.98
260.445	11592.1
260.515	11593.98
260.585	11591.52
260.655	11577.55
260.725	11574.56
260.795	11573.21
260.865	11578.85
260.934	11550.51
261.004	11538.7
261.074	11518.84
261.144	11514.31
261.214	11506.65
261.284	11488.53
261.354	11480.91
261.424	11456.76
261.494	11466.06
261.564	11447.03
261.634	11433.48
261.703	11393.77
261.773	11380.32
261.843	11377.48
261.913	11357.91
261.983	11320.56
262.053	11307.55
262.123	11279.31
