Data from 20250702_urea_0.5M_MAYP1162681_12-15-00-086.txt Node
Date: Wed Jul 02 12:15:00 BST 2025
User: adleo
Spectrometer: MAYP116268
Trigger mode: 0
Integration Time (sec): 1.000000E0
Scans to average: 1
Electric dark correction enabled: true
Nonlinearity correction enabled: true
Boxcar width: 10
XAxis mode: Wavelengths
Number of Pixels in Spectrum: 2068
>>>>>Begin Spectral Data<<<<<
179.565	1054.69
179.642	1101.73
179.718	1138.01
179.795	1171.03
179.871	1200.91
179.948	1213.78
180.024	1230.89
180.101	1250.13
180.177	1263
180.254	1280.96
180.33	1299.4
180.407	1340.97
180.483	1426.25
180.56	1503.31
180.636	1574.89
180.712	1564.3
180.789	1570
180.865	1579.97
180.942	1588.28
181.018	1595.83
181.095	1607.95
181.171	1611.7
181.248	1610.75
181.324	1623.87
181.4	1628.9
181.477	1636.27
181.553	1650.13
181.63	1668.38
181.706	1682.68
181.782	1688.52
181.859	1688.29
181.935	1694.6
182.011	1691.9
182.088	1704.25
182.164	1722.69
182.24	1736.99
182.317	1745.02
182.393	1743.26
182.469	1754.62
182.546	1767.64
182.622	1773.82
182.698	1769.68
182.775	1781.51
182.851	1795.68
182.927	1791.02
183.003	1788.78
183.08	1785.46
183.156	1792.4
183.232	1790.31
183.308	1780.28
183.385	1788.17
183.461	1803.13
183.537	1801.14
183.613	1812.83
183.69	1805.89
183.766	1794.86
183.842	1800.38
183.918	1807.31
183.995	1819.1
184.071	1820.76
184.147	1817.15
184.223	1808.27
184.299	1815.97
184.375	1806.46
184.452	1813.83
184.528	1863.37
184.604	1871.73
184.68	1880.95
184.756	1888.37
184.832	1892.13
184.908	1896.07
184.985	1896.07
185.061	1884.23
185.137	1894.79
185.213	1882.38
185.289	1883.76
185.365	1877.68
185.441	1877.68
185.517	1890.19
185.593	1887.76
185.669	1886.05
185.745	1893.42
185.822	1906.11
185.898	1900.12
185.974	1910.81
186.05	1900.25
186.126	1863.17
186.202	1858.7
186.278	1857.09
186.354	1845.92
186.43	1850.81
186.506	1849.96
186.582	1849.06
186.658	1857.28
186.734	1839.03
186.81	1842.35
186.886	1844.92
186.962	1857.23
187.038	1853.33
187.114	1844.53
187.19	1852.14
187.266	1842.78
187.341	1844.39
187.417	1837.98
187.493	1838.45
187.569	1838.69
187.645	1837.84
187.721	1826.81
187.797	1831.8
187.873	1831.7
187.949	1828.52
188.025	1823.72
188.101	1823.1
188.176	1827.95
188.252	1822.58
188.328	1830.56
188.404	1830.89
188.48	1826.8
188.556	1818.91
188.632	1817.44
188.707	1818.87
188.783	1814.63
188.859	1812.21
188.935	1803.23
189.011	1811.21
189.086	1808.03
189.162	1799.04
189.238	1795.58
189.314	1796.15
189.39	1793.01
189.465	1789.06
189.541	1805.75
189.617	1794.48
189.693	1794.58
189.768	1793.87
189.844	1814.6
189.92	1807.57
189.996	1815.5
190.071	1823.54
190.147	1825.1
190.223	1833.38
190.298	1827.15
190.374	1818.31
190.45	1829.66
190.526	1836.22
190.601	1830.42
190.677	1829.57
190.753	1856.2
190.828	1860.14
190.904	1872.12
190.98	1884.96
191.055	1896.04
191.131	1886.15
191.207	1903.31
191.282	1910.91
191.358	1905.87
191.433	1893.65
191.509	1903.58
191.585	1903.44
191.66	1903.96
191.736	1910.19
191.811	1901.82
191.887	1914.09
191.963	1931.54
192.038	1937.19
192.114	1938.76
192.189	1944.09
192.265	1942.99
192.34	1923.78
192.416	1920.4
192.491	1916.08
192.567	1918.5
192.642	1918.88
192.718	1920.17
192.793	1907.66
192.869	1902.44
192.944	1904.29
193.02	1908.81
193.095	1913.46
193.171	1915.98
193.246	1916.89
193.322	1912.89
193.397	1912.42
193.473	1899.01
193.548	1883.32
193.624	1888.84
193.699	1885.27
193.775	1898.07
193.85	1899.68
193.925	1906.43
194.001	1908
194.076	1902.44
194.152	1894.35
194.227	1887.27
194.302	1878.15
194.378	1884.28
194.453	1883.09
194.529	1895.83
194.604	1884.14
194.679	1877.2
194.755	1861.23
194.83	1871.26
194.905	1870.88
194.981	1878.06
195.056	1871.45
195.131	1878.11
195.207	1875.64
195.282	1866.8
195.357	1849.11
195.433	1860.61
195.508	1849.15
195.583	1853.81
195.659	1865.17
195.734	1870.02
195.809	1871.55
195.884	1879.86
195.96	1878.15
196.035	1890.6
196.11	1886.9
196.185	1898.35
196.261	1905.1
196.336	1932.82
196.411	1922.12
196.486	1925.35
196.561	1923.4
196.637	1935.05
196.712	1950.6
196.787	1952.22
196.862	1966
196.937	1977.65
197.013	1983.74
197.088	1996.33
197.163	2019.31
197.238	2036.11
197.313	2037.34
197.388	2047.28
197.464	2073.97
197.539	2084.86
197.614	2079.49
197.689	2089.43
197.764	2103.46
197.839	2121.15
197.914	2115.35
197.989	2132.47
198.065	2148.41
198.14	2191.48
198.215	2213.03
198.29	2222.93
198.365	2233.11
198.44	2245.67
198.515	2266.75
198.59	2278.17
198.665	2299.35
198.74	2301.59
198.815	2299.02
198.89	2316.81
198.965	2346.33
199.04	2342.19
199.115	2356.47
199.19	2395.92
199.265	2397.49
199.34	2407.39
199.415	2433.92
199.49	2453
199.565	2463.67
199.64	2482.33
199.715	2480.8
199.79	2486.61
199.865	2489.99
199.94	2492.13
200.015	2520.19
200.09	2526.57
200.165	2535.8
200.24	2539.76
200.315	2577.02
200.39	2592.36
200.464	2599.74
200.539	2599.12
200.614	2614.07
200.689	2632.65
200.764	2637.41
200.839	2655.07
200.914	2658.93
200.989	2650.21
201.063	2660.83
201.138	2645.7
201.213	2647.7
201.288	2632.22
201.363	2637.41
201.438	2640.93
201.512	2654.6
201.587	2636.07
201.662	2640.02
201.737	2649.88
201.812	2661.12
201.886	2632.9
201.961	2642.2
202.036	2633.72
202.111	2632.72
202.186	2608.44
202.26	2596.01
202.335	2578.05
202.41	2570.91
202.485	2557.82
202.559	2541.2
202.634	2518.15
202.709	2525.62
202.784	2507.72
202.858	2506.53
202.933	2490.82
203.008	2485.2
203.082	2466.82
203.157	2467.25
203.232	2429.23
203.306	2411.75
203.381	2381.7
203.456	2359.57
203.53	2338.61
203.605	2319.24
203.68	2296.39
203.754	2289.11
203.829	2273.78
203.904	2254.99
203.978	2247.51
204.053	2249.7
204.127	2238.67
204.202	2239.28
204.277	2226.48
204.351	2219.78
204.426	2213.25
204.5	2207.45
204.575	2177.67
204.65	2189.38
204.724	2179.57
204.799	2187.09
204.873	2184.23
204.948	2182.28
205.022	2171.2
205.097	2164.68
205.171	2175.81
205.246	2185.66
205.32	2185.04
205.395	2186.52
205.469	2181.48
205.544	2186.14
205.618	2168.63
205.693	2177.1
205.767	2165.26
205.842	2182.48
205.916	2179.58
205.991	2170.73
206.065	2173.11
206.14	2187.23
206.214	2182.71
206.289	2180.33
206.363	2192.99
206.438	2194.7
206.512	2202.79
206.586	2225.34
206.661	2233.24
206.735	2216.55
206.81	2218.12
206.884	2232.82
206.958	2222.83
207.033	2236.67
207.107	2246.33
207.181	2280.41
207.256	2280.7
207.33	2303.87
207.405	2321.21
207.479	2341.96
207.553	2354.57
207.628	2350.05
207.702	2365.85
207.776	2365.19
207.851	2377.99
207.925	2399.71
207.999	2406.9
208.073	2416.99
208.148	2430.85
208.222	2437.56
208.296	2482.83
208.371	2513.32
208.445	2545.76
208.519	2593.19
208.593	2629.92
208.668	2651.31
208.742	2678.92
208.816	2714.36
208.89	2759.84
208.965	2790.03
209.039	2833.27
209.113	2890.24
209.187	2951.33
209.261	2993.8
209.336	3061.42
209.41	3130.93
209.484	3183.9
209.558	3262.63
209.632	3337.26
209.707	3414.39
209.781	3503
209.855	3588.31
209.929	3676.72
210.003	3757.84
210.077	3840.26
210.151	3971.21
210.226	4091.76
210.3	4215.36
210.374	4332.65
210.448	4443.14
210.522	4559.91
210.596	4679.17
210.67	4803.22
210.744	4957.65
210.818	5108.19
210.892	5254.76
210.966	5384.9
211.041	5536.79
211.115	5675.77
211.189	5835.3
211.263	5995.41
211.337	6149.08
211.411	6314.67
211.485	6468.59
211.559	6644.43
211.633	6810.77
211.707	6947.29
211.781	7119.15
211.855	7258.09
211.929	7425.69
212.003	7584.88
212.077	7772.89
212.151	7973.68
212.225	8169.35
212.299	8350.9
212.373	8529.77
212.447	8721.32
212.52	8939.45
212.594	9143.85
212.668	9352.11
212.742	9548.66
212.816	9745.85
212.89	9948.17
212.964	10155.88
213.038	10370.29
213.112	10583.32
213.186	10813.08
213.26	11008.15
213.333	11183.07
213.407	11400.96
213.481	11615.63
213.555	11842.89
213.629	12050.76
213.703	12241.87
213.777	12449.61
213.85	12646.85
213.924	12895.9
213.998	13106.88
214.072	13308.47
214.146	13499.7
214.219	13703.6
214.293	13907.74
214.367	14118.34
214.441	14340.27
214.515	14538.34
214.588	14718.43
214.662	14894.18
214.736	15068.57
214.81	15273.29
214.883	15480.03
214.957	15665.36
215.031	15847.08
215.105	16011.16
215.178	16187.23
215.252	16375.87
215.326	16539.7
215.4	16700.92
215.473	16839.28
215.547	17001.56
215.621	17169.75
215.694	17348.02
215.768	17502.68
215.842	17660.7
215.915	17808.7
215.989	17940.89
216.063	18089.95
216.136	18248.84
216.21	18406.42
216.284	18580.25
216.357	18730.51
216.431	18876
216.504	19038.93
216.578	19210.92
216.652	19360.36
216.725	19497.03
216.799	19647.39
216.873	19788.11
216.946	19941.98
217.02	20068.73
217.093	20194.17
217.167	20311.71
217.24	20433.6
217.314	20549.93
217.387	20664.25
217.461	20784.73
217.535	20914.33
217.608	21019.16
217.682	21135.65
217.755	21261.78
217.829	21359.63
217.902	21472.56
217.976	21579.66
218.049	21662.47
218.123	21747.11
218.196	21845.63
218.27	21947.58
218.343	22018.25
218.417	22112.59
218.49	22196.03
218.563	22298.96
218.637	22388.09
218.71	22492.04
218.784	22587.98
218.857	22686.19
218.931	22773.54
219.004	22860.18
219.077	22941.81
219.151	23022.43
219.224	23091.96
219.298	23165.93
219.371	23247.03
219.444	23299.93
219.518	23371.87
219.591	23453.61
219.665	23548.38
219.738	23627.46
219.811	23678.67
219.885	23764.03
219.958	23833.82
220.031	23892.22
220.105	23958.2
220.178	24024.13
220.251	24067.11
220.325	24120.8
220.398	24177.14
220.471	24237.86
220.544	24292.95
220.618	24339.21
220.691	24392.7
220.764	24441.32
220.838	24483.29
220.911	24517.06
220.984	24577.31
221.057	24627.19
221.131	24668.54
221.204	24671.67
221.277	24714.8
221.35	24785.92
221.424	24807.44
221.497	24836.19
221.57	24862.82
221.643	24897.32
221.716	24931.1
221.79	24948.27
221.863	24965.21
221.936	24986.2
222.009	24996.57
222.082	25015.15
222.155	25025.28
222.229	25056.21
222.302	25083.47
222.375	25087.81
222.448	25105.91
222.521	25127.77
222.594	25132.69
222.667	25132.25
222.74	25167.91
222.814	25185.14
222.887	25182.92
222.96	25204.4
223.033	25224.04
223.106	25255.11
223.179	25266.45
223.252	25269.88
223.325	25287.54
223.398	25300.38
223.471	25314.28
223.544	25339.66
223.617	25352.69
223.69	25364.17
223.763	25357.99
223.837	25361.42
223.91	25378.07
223.983	25373.24
224.056	25354.57
224.129	25357.17
224.202	25361.42
224.275	25345.16
224.348	25322.28
224.42	25302.4
224.493	25269.73
224.566	25260.08
224.639	25247.63
224.712	25238.03
224.785	25233.3
224.858	25217.62
224.931	25198.8
225.004	25170.57
225.077	25149.19
225.15	25110.06
225.223	25096.93
225.296	25099.92
225.369	25068.32
225.442	25048.68
225.514	25036.67
225.587	25043.71
225.66	25032.8
225.733	25026.73
225.806	25018.57
225.879	25008.15
225.952	24988.85
226.025	24990.06
226.097	24978.47
226.17	24957.78
226.243	24910.64
226.316	24882.84
226.389	24877.54
226.461	24855.15
226.534	24849.99
226.607	24834.26
226.68	24842.22
226.753	24830.3
226.825	24798.74
226.898	24800.58
226.971	24778.34
227.044	24764.44
227.117	24736.27
227.189	24726.62
227.262	24712.87
227.335	24697.76
227.407	24680.35
227.48	24670.07
227.553	24656.23
227.626	24638.42
227.698	24618.98
227.771	24603.69
227.844	24575.04
227.916	24544.69
227.989	24524.05
228.062	24493.51
228.134	24479.09
228.207	24452.36
228.28	24421.29
228.352	24397.22
228.425	24374.64
228.498	24359.06
228.57	24323.9
228.643	24303.93
228.716	24271.95
228.788	24236.49
228.861	24203.45
228.934	24187.05
229.006	24161.48
229.079	24134.86
229.151	24096.27
229.224	24057.88
229.296	24046.4
229.369	24054.64
229.442	24044.56
229.514	24005.69
229.587	23991.9
229.659	23955.29
229.732	23929.87
229.804	23909.9
229.877	23910.92
229.949	23893.94
230.022	23890.95
230.094	23874.94
230.167	23863.75
230.239	23825.84
230.312	23804.23
230.384	23795.6
230.457	23772.89
230.529	23745.88
230.602	23729.48
230.674	23715.3
230.747	23704.65
230.819	23684.54
230.892	23627.05
230.964	23613.54
231.037	23601.97
231.109	23578.39
231.181	23562.72
231.254	23527.47
231.326	23494.68
231.399	23446.55
231.471	23406.67
231.544	23349.95
231.616	23324.78
231.688	23290.21
231.761	23260.12
231.833	23227.67
231.905	23179.16
231.978	23146.56
232.05	23119.61
232.122	23092.22
232.195	23054.17
232.267	23029.87
232.339	22991.73
232.412	22973.6
232.484	22930.3
232.556	22900.27
232.629	22886.14
232.701	22858.46
232.773	22835.17
232.846	22802.25
232.918	22781.46
232.99	22760.83
233.062	22747.96
233.135	22722.93
233.207	22677.71
233.279	22649.41
233.351	22622.22
233.424	22590.79
233.496	22551.74
233.568	22538.05
233.64	22486.03
233.713	22456.91
233.785	22425.96
233.857	22400.99
233.929	22365.12
234.001	22346.08
234.074	22329.11
234.146	22273.57
234.218	22243.1
234.29	22207.29
234.362	22167.42
234.434	22117.77
234.507	22073.52
234.579	22020.73
234.651	21980.34
234.723	21950.55
234.795	21926.01
234.867	21890.58
234.939	21869.57
235.012	21841.17
235.084	21806.03
235.156	21777.93
235.228	21734.5
235.3	21698.93
235.372	21660.61
235.444	21626.1
235.516	21564.88
235.588	21524.78
235.66	21498.56
235.732	21451.03
235.804	21470.89
235.876	21450.89
235.948	21437.1
236.02	21399.99
236.092	21373
236.164	21342.3
236.236	21303.79
236.308	21265.57
236.38	21234.96
236.452	21192.11
236.524	21155.34
236.596	21131.39
236.668	21102.18
236.74	21078.61
236.812	21041.45
236.884	21018.22
236.956	20986.94
237.028	20947.09
237.1	20901.06
237.172	20879.52
237.244	20870.46
237.316	20797.43
237.388	20762.16
237.46	20699.21
237.532	20673.38
237.604	20623.02
237.675	20597.91
237.747	20570.39
237.819	20528.22
237.891	20488.85
237.963	20443.45
238.035	20401.38
238.107	20321.77
238.178	20292.32
238.25	20246.49
238.322	20230.59
238.394	20169.91
238.466	20128.13
238.538	20098.78
238.609	20070.16
238.681	20009.1
238.753	19947.56
238.825	19907.22
238.897	19867.22
238.968	19855.56
239.04	19811.46
239.112	19799.66
239.184	19751.56
239.255	19711.03
239.327	19673.93
239.399	19632.34
239.471	19603.23
239.542	19572.1
239.614	19558.66
239.686	19498.76
239.758	19472.93
239.829	19420.79
239.901	19402.91
239.973	19371.39
240.044	19344.21
240.116	19312.21
240.188	19277.13
240.259	19240.8
240.331	19195.88
240.403	19159.31
240.474	19103.07
240.546	19055.22
240.618	19001
240.689	18948.33
240.761	18906.55
240.833	18890.36
240.904	18854.55
240.976	18812.82
241.048	18780.54
241.119	18748.3
241.191	18721.07
241.262	18699.38
241.334	18660.11
241.405	18618.23
241.477	18567.05
241.549	18516.84
241.62	18475.06
241.692	18444.6
241.763	18410.34
241.835	18374.39
241.906	18342.58
241.978	18298.35
242.049	18270.88
242.121	18241.43
242.192	18215.17
242.264	18175.46
242.335	18111.85
242.407	18079.61
242.478	18039.99
242.55	18005.25
242.621	17954.74
242.693	17924
242.764	17869.01
242.836	17834.41
242.907	17798.51
242.979	17768.58
243.05	17735.62
243.122	17697.93
243.193	17656.3
243.264	17613.45
243.336	17571.53
243.407	17538.75
243.479	17521.12
243.55	17496.3
243.622	17467.14
243.693	17437.94
243.764	17414.03
243.836	17373.4
243.907	17343.67
243.978	17313.45
244.05	17274.08
244.121	17224.44
244.192	17188.39
244.264	17139.09
244.335	17102.7
244.407	17059.04
244.478	17033.83
244.549	16993.97
244.62	16949.64
244.692	16916.09
244.763	16890.02
244.834	16860.96
244.906	16819.56
244.977	16785
245.048	16752.81
245.119	16700.18
245.191	16656.8
245.262	16601.23
245.333	16596.41
245.405	16553.57
245.476	16515.2
245.547	16483.1
245.618	16462.09
245.689	16428.5
245.761	16404.01
245.832	16363.62
245.903	16332.54
245.974	16295.18
246.045	16257.97
246.117	16233.1
246.188	16182.69
246.259	16136.8
246.33	16093.47
246.401	16057.08
246.473	16010.19
246.544	15976.26
246.615	15962.9
246.686	15922.46
246.757	15898.61
246.828	15843.61
246.899	15827.37
246.97	15782.59
247.042	15739.11
247.113	15710.63
247.184	15695.54
247.255	15657.56
247.326	15623.43
247.397	15589.11
247.468	15553.88
247.539	15530.4
247.61	15491.84
247.681	15476.32
247.752	15456.27
247.823	15410.62
247.894	15383.49
247.965	15349.79
248.037	15312.34
248.108	15267.32
248.179	15245.53
248.25	15221.29
248.321	15199.64
248.392	15155.35
248.463	15150.96
248.534	15129.51
248.605	15109.41
248.675	15070.46
248.746	15054.07
248.817	15038.75
248.888	15020.62
248.959	14980.42
249.03	14959.88
249.101	14936.12
249.172	14903.92
249.243	14857.98
249.314	14849.69
249.385	14820.62
249.456	14796.14
249.527	14762.06
249.598	14734.24
249.669	14703.39
249.739	14679.34
249.81	14658.17
249.881	14618.5
249.952	14590.78
250.023	14551.93
250.094	14511.58
250.165	14477.36
250.235	14436.77
250.306	14410.79
250.377	14365.04
250.448	14344.36
250.519	14294.23
250.59	14282.46
250.66	14247.9
250.731	14233.15
250.802	14209.72
250.873	14186.2
250.944	14154.14
251.014	14117.89
251.085	14114.27
251.156	14087.66
251.227	14068.29
251.297	14054.55
251.368	14041.53
251.439	14021.04
251.51	14010.2
251.58	13979.35
251.651	13946.95
251.722	13937.45
251.792	13891.27
251.863	13870.59
251.934	13859.36
252.005	13860.28
252.075	13831.5
252.146	13819.88
252.217	13803.59
252.287	13779.96
252.358	13749.26
252.429	13747.18
252.499	13726.7
252.57	13701.73
252.641	13686.44
252.711	13658.44
252.782	13613.36
252.852	13604.54
252.923	13575.71
252.994	13560.05
253.064	13550.55
253.135	13522.98
253.205	13488.36
253.276	13480.94
253.347	13471.68
253.417	13445.7
253.488	13417.4
253.558	13387.47
253.629	13354.78
253.699	13330.29
253.77	13312.12
253.841	13292.64
253.911	13268.2
253.982	13241.98
254.052	13227.18
254.123	13206.4
254.193	13184.28
254.264	13199.22
254.334	13163.02
254.405	13128.89
254.475	13091.29
254.546	13061.45
254.616	13051.32
254.687	13029.68
254.757	13009.91
254.827	12987.79
254.898	12962.86
254.968	12943.58
255.039	12917.98
255.109	12905.64
255.18	12880.14
255.25	12842.25
255.321	12827.84
255.391	12793.42
255.461	12797.52
255.532	12746.32
255.602	12723.23
255.673	12684.86
255.743	12654.49
255.813	12617.38
255.884	12605.23
255.954	12592.5
256.024	12587.78
256.095	12563.92
256.165	12535.04
256.235	12516.68
256.306	12489.44
256.376	12481.29
256.446	12462.25
256.517	12441.09
256.587	12432.7
256.657	12417.81
256.728	12401.13
256.798	12370.14
256.868	12341.89
256.938	12306.94
257.009	12302.17
257.079	12293.97
257.149	12300.67
257.219	12258.93
257.29	12247.94
257.36	12214.87
257.43	12203.5
257.5	12170.91
257.571	12146.86
257.641	12143.05
257.711	12116.35
257.781	12096.78
257.852	12081.98
257.922	12045.3
257.992	12029.1
258.062	12001.43
258.132	11986.68
258.202	11964.51
258.273	11951.06
258.343	11957.86
258.413	11938
258.483	11911.44
258.553	11871.82
258.623	11841.31
258.693	11829.4
258.764	11818.17
258.834	11814.85
258.904	11795.81
258.974	11763.47
259.044	11744.67
259.114	11723.22
259.184	11706.06
259.254	11682.59
259.324	11642.15
259.394	11633.96
259.464	11629.91
259.535	11616.66
259.605	11594.34
259.675	11565.62
259.745	11550.96
259.815	11522.82
259.885	11498.81
259.955	11506.14
260.025	11484.55
260.095	11468.31
260.165	11451.58
260.235	11445.7
260.305	11419.15
260.375	11387.67
260.445	11394.61
260.515	11398.71
260.585	11393.99
260.655	11373.89
260.725	11368.3
260.795	11356.88
260.865	11349.5
260.934	11328.1
261.004	11313.79
261.074	11292.54
261.144	11294.51
261.214	11294.22
261.284	11274.46
261.354	11265.12
261.424	11232.58
261.494	11234.37
261.564	11217.02
261.634	11205.26
261.703	11173.88
261.773	11156.58
261.843	11150.99
261.913	11127.96
261.983	11084.15
262.053	11068.58
262.123	11053.07
