Data from 20250702_urea_0.5M_MAYP1162681_06-54-59-635.txt Node
Date: Thu Jul 03 06:54:59 BST 2025
User: adleo
Spectrometer: MAYP116268
Trigger mode: 0
Integration Time (sec): 1.000000E0
Scans to average: 1
Electric dark correction enabled: true
Nonlinearity correction enabled: true
Boxcar width: 10
XAxis mode: Wavelengths
Number of Pixels in Spectrum: 2068
>>>>>Begin Spectral Data<<<<<
179.565	1200.66
179.642	1253.21
179.718	1295.3
179.795	1333.65
179.871	1366.83
179.948	1383.07
180.024	1403.63
180.101	1426.11
180.177	1440.55
180.254	1460.89
180.33	1483.23
180.407	1534.93
180.483	1629.95
180.56	1716.89
180.636	1801.93
180.712	1789.61
180.789	1799.59
180.865	1810.76
180.942	1818.74
181.018	1827.2
181.095	1841.13
181.171	1843.84
181.248	1847.22
181.324	1862.29
181.4	1868.85
181.477	1876.6
181.553	1889.48
181.63	1909.92
181.706	1922.95
181.782	1928.03
181.859	1929.65
181.935	1932.69
182.011	1929.79
182.088	1943.54
182.164	1963.42
182.24	1974.3
182.317	1983.1
182.393	1980.62
182.469	1995.03
182.546	2005.4
182.622	2009.15
182.698	2002.35
182.775	2017.05
182.851	2030.03
182.927	2022.09
183.003	2017.1
183.08	2014.67
183.156	2025.42
183.232	2022.99
183.308	2013.91
183.385	2025.56
183.461	2043.25
183.537	2046.06
183.613	2058.85
183.69	2049.81
183.766	2040.54
183.842	2049.72
183.918	2057.99
183.995	2071.21
184.071	2075.54
184.147	2072.45
184.223	2063.04
184.299	2075.64
184.375	2064.47
184.452	2071.7
184.528	2131.04
184.604	2142.07
184.68	2152.49
184.756	2158.44
184.832	2160.91
184.908	2162.05
184.985	2160.67
185.061	2145.93
185.137	2155.82
185.213	2142.51
185.289	2146.74
185.365	2140.75
185.441	2139.32
185.517	2149.17
185.593	2147.98
185.669	2144.27
185.745	2155.78
185.822	2173.14
185.898	2165
185.974	2175.32
186.05	2165.57
186.126	2124.45
186.202	2118.36
186.278	2114.74
186.354	2106.85
186.43	2114.55
186.506	2121.35
186.582	2120.4
186.658	2127.39
186.734	2106.18
186.81	2109.94
186.886	2113.32
186.962	2128.16
187.038	2125.06
187.114	2117.93
187.19	2125.21
187.266	2114.6
187.341	2113.08
187.417	2104.61
187.493	2103.61
187.569	2107.37
187.645	2100.86
187.721	2088.53
187.797	2094.48
187.873	2097.85
187.949	2090.67
188.025	2085.39
188.101	2083.01
188.176	2089.05
188.252	2081.83
188.328	2089.72
188.404	2089.62
188.48	2082.92
188.556	2072.36
188.632	2070.83
188.707	2070.98
188.783	2064.89
188.859	2061.37
188.935	2053
189.011	2063.75
189.086	2057.61
189.162	2048.19
189.238	2046.77
189.314	2044.01
189.39	2039.16
189.465	2033.07
189.541	2050.15
189.617	2032.83
189.693	2027.99
189.768	2032.17
189.844	2057.58
189.92	2049.83
189.996	2057.77
190.071	2068.57
190.147	2067.48
190.223	2074.14
190.298	2063.62
190.374	2053.4
190.45	2061.76
190.526	2069
190.601	2059.67
190.677	2063.19
190.753	2087.75
190.828	2090.79
190.904	2104.21
190.98	2119.95
191.055	2129.51
191.131	2122.47
191.207	2144.83
191.282	2152.72
191.358	2140.83
191.433	2125.17
191.509	2137.15
191.585	2135.77
191.66	2139.72
191.736	2149.14
191.811	2141.24
191.887	2162.18
191.963	2183.35
192.038	2191.44
192.114	2190.63
192.189	2195.95
192.265	2191.87
192.34	2173.4
192.416	2171.54
192.491	2164.88
192.567	2166.69
192.642	2167.07
192.718	2166.02
192.793	2154.99
192.869	2152.75
192.944	2156.94
193.02	2162.88
193.095	2165.59
193.171	2168.59
193.246	2164.93
193.322	2163.02
193.397	2164.74
193.473	2149.98
193.548	2130.43
193.624	2136.09
193.699	2136.05
193.775	2150.8
193.85	2150.13
193.925	2156.84
194.001	2157.41
194.076	2153.7
194.152	2144.04
194.227	2138.43
194.302	2129.58
194.378	2131.72
194.453	2130.44
194.529	2141.38
194.604	2128.92
194.679	2125.59
194.755	2110.32
194.83	2123.51
194.905	2117.61
194.981	2126.22
195.056	2116.9
195.131	2124.98
195.207	2121.75
195.282	2111.57
195.357	2092.87
195.433	2110.56
195.508	2099.19
195.583	2108.13
195.659	2120.98
195.734	2127.12
195.809	2126.02
195.884	2133.44
195.96	2133.16
196.035	2146.48
196.11	2142.86
196.185	2155.37
196.261	2158.42
196.336	2188.91
196.411	2174.4
196.486	2182.06
196.561	2175.44
196.637	2187.05
196.712	2203.99
196.787	2205.85
196.862	2223.4
196.937	2235.63
197.013	2239.05
197.088	2249.52
197.163	2267.28
197.238	2284.18
197.313	2285.28
197.388	2300.93
197.464	2332.02
197.539	2343.06
197.614	2335.87
197.689	2348.53
197.764	2363.58
197.839	2384.28
197.914	2375.38
197.989	2397.04
198.065	2411.84
198.14	2461.29
198.215	2485.19
198.29	2495.67
198.365	2510.85
198.44	2519.19
198.515	2544.57
198.59	2560.28
198.665	2587.19
198.74	2598.39
198.815	2596.81
198.89	2618.63
198.965	2648.17
199.04	2643.07
199.115	2657.54
199.19	2702.27
199.265	2706.03
199.34	2713.27
199.415	2744.87
199.49	2769.21
199.565	2779.83
199.64	2799.8
199.715	2798.03
199.79	2805.37
199.865	2814.95
199.94	2815.67
200.015	2845.36
200.09	2850.89
200.165	2862.04
200.24	2864.56
200.315	2906.16
200.39	2924.61
200.464	2929.8
200.539	2932.57
200.614	2948.72
200.689	2974.28
200.764	2981.19
200.839	2998.11
200.914	3006.92
200.989	2995.81
201.063	3008.64
201.138	2991.44
201.213	2993.87
201.288	2972.66
201.363	2979.52
201.438	2976.04
201.512	2991.86
201.587	2974.75
201.662	2979.61
201.737	2990.29
201.812	3003.55
201.886	2968.38
201.961	2974.73
202.036	2962.29
202.111	2956.47
202.186	2925.84
202.26	2910.06
202.335	2887.51
202.41	2884.51
202.485	2868.54
202.559	2849.72
202.634	2822.84
202.709	2831.27
202.784	2810.45
202.858	2811.21
202.933	2789.77
203.008	2783.57
203.082	2762.47
203.157	2763.51
203.232	2720.17
203.306	2698.39
203.381	2666.03
203.456	2642.88
203.53	2622.52
203.605	2606.23
203.68	2584.03
203.754	2579.94
203.829	2562.45
203.904	2542.64
203.978	2528.45
204.053	2531.92
204.127	2520.35
204.202	2519.83
204.277	2503.07
204.351	2498.64
204.426	2490.78
204.5	2485.26
204.575	2452.6
204.65	2462.37
204.724	2455.89
204.799	2464.6
204.873	2457.78
204.948	2451.6
205.022	2439.79
205.097	2432.93
205.171	2445.93
205.246	2452.45
205.32	2451.69
205.395	2450.36
205.469	2441.22
205.544	2444.8
205.618	2425.89
205.693	2438.42
205.767	2426.99
205.842	2450.14
205.916	2443.52
205.991	2435.71
206.065	2439.85
206.14	2453.03
206.214	2449.32
206.289	2442.08
206.363	2453.41
206.438	2459.12
206.512	2469.74
206.586	2492.02
206.661	2498.93
206.735	2476.23
206.81	2477.7
206.884	2492.22
206.958	2482.94
207.033	2499.98
207.107	2508.55
207.181	2544.18
207.256	2538.8
207.33	2556.18
207.405	2567.14
207.479	2586.05
207.553	2595.33
207.628	2582.48
207.702	2597.15
207.776	2592.81
207.851	2599
207.925	2619.45
207.999	2618.88
208.073	2620.02
208.148	2626.45
208.222	2621.16
208.296	2661.16
208.371	2681.56
208.445	2698.62
208.519	2730.77
208.593	2751.11
208.668	2755.35
208.742	2760.5
208.816	2772.65
208.89	2794.96
208.965	2807.02
209.039	2826.33
209.113	2855.64
209.187	2886.6
209.261	2896.56
209.336	2928.54
209.41	2963.11
209.484	2973.5
209.558	3010.08
209.632	3041.59
209.707	3070.63
209.781	3113.6
209.855	3145.09
209.929	3186.1
210.003	3214.29
210.077	3240.96
210.151	3309.72
210.226	3371.07
210.3	3428.19
210.374	3480.39
210.448	3518.58
210.522	3557.03
210.596	3601.58
210.67	3646.08
210.744	3732.97
210.818	3800.82
210.892	3861.68
210.966	3896.69
211.041	3959.14
211.115	4000.27
211.189	4071.39
211.263	4131.04
211.337	4178.74
211.411	4244.64
211.485	4286.78
211.559	4352.09
211.633	4405
211.707	4429.46
211.781	4489.2
211.855	4512.07
211.929	4559.9
212.003	4599.46
212.077	4670.84
212.151	4746.96
212.225	4813.89
212.299	4862.95
212.373	4917.87
212.447	4980.81
212.52	5077.72
212.594	5146.76
212.668	5225.75
212.742	5279.61
212.816	5346.13
212.89	5413.73
212.964	5482.45
213.038	5558.68
213.112	5643.8
213.186	5735.7
213.26	5797.54
213.333	5832.46
213.407	5916.27
213.481	5999.09
213.555	6094.37
213.629	6158.39
213.703	6219.93
213.777	6299.71
213.85	6358.56
213.924	6474.18
213.998	6551.78
214.072	6618.84
214.146	6685.16
214.219	6759.6
214.293	6836.87
214.367	6919.06
214.441	7010.86
214.515	7082.94
214.588	7142.57
214.662	7189.28
214.736	7243.39
214.81	7325.16
214.883	7413.62
214.957	7474.31
215.031	7538.18
215.105	7588.12
215.178	7651
215.252	7718.56
215.326	7771.36
215.4	7828.76
215.473	7854.74
215.547	7910.49
215.621	7976.83
215.694	8055.87
215.768	8110.52
215.842	8170.46
215.915	8228.48
215.989	8271.74
216.063	8335.75
216.136	8405.42
216.21	8474.51
216.284	8561.96
216.357	8630.15
216.431	8695.65
216.504	8777.62
216.578	8873.17
216.652	8950.75
216.725	9024.06
216.799	9102.3
216.873	9168.4
216.946	9245.52
217.02	9308.05
217.093	9380.76
217.167	9427.23
217.24	9479.15
217.314	9544.83
217.387	9603.14
217.461	9664.83
217.535	9751.96
217.608	9799.26
217.682	9867.7
217.755	9950.45
217.829	10008.36
217.902	10075.12
217.976	10135.53
218.049	10192.04
218.123	10244.07
218.196	10317.63
218.27	10384.51
218.343	10433.46
218.417	10506.26
218.49	10570
218.563	10650.85
218.637	10714.6
218.71	10802.49
218.784	10873.72
218.857	10945.08
218.931	11022.8
219.004	11093.74
219.077	11159.62
219.151	11231.71
219.224	11288.72
219.298	11345.06
219.371	11414.03
219.444	11470.85
219.518	11541.12
219.591	11609.32
219.665	11700.27
219.738	11768.13
219.811	11816.19
219.885	11891.62
219.958	11966.43
220.031	12033.38
220.105	12100.76
220.178	12166.7
220.251	12215.63
220.325	12284.37
220.398	12355.47
220.471	12420.93
220.544	12482.34
220.618	12534.25
220.691	12605.26
220.764	12674.34
220.838	12741.77
220.911	12794.7
220.984	12878.24
221.057	12946.31
221.131	13012.64
221.204	13039.64
221.277	13117.2
221.35	13213.51
221.424	13267.55
221.497	13323.33
221.57	13388.99
221.643	13458.02
221.716	13525.02
221.79	13574
221.863	13632.14
221.936	13687.72
222.009	13740.51
222.082	13806.89
222.155	13859.72
222.229	13928.32
222.302	13989.4
222.375	14047.58
222.448	14111.6
222.521	14161.3
222.594	14216.54
222.667	14258.87
222.74	14332.33
222.814	14375.72
222.887	14417.99
222.96	14489.67
223.033	14558.8
223.106	14619.87
223.179	14673.14
223.252	14726.02
223.325	14798.9
223.398	14847.44
223.471	14892.42
223.544	14948.29
223.617	14997.74
223.69	15055.44
223.763	15089.91
223.837	15149.87
223.91	15197.5
223.983	15236.64
224.056	15277.56
224.129	15322.87
224.202	15384.48
224.275	15417.98
224.348	15455.81
224.42	15485.22
224.493	15503.63
224.566	15534.04
224.639	15572.85
224.712	15604.08
224.785	15636.04
224.858	15665.44
224.931	15706.79
225.004	15742.17
225.077	15781.84
225.15	15796.69
225.223	15837.66
225.296	15907.74
225.369	15919.93
225.442	15950.73
225.514	15990.69
225.587	16031.47
225.66	16076.77
225.733	16115.86
225.806	16160.06
225.879	16197.17
225.952	16235.78
226.025	16296.51
226.097	16343.84
226.17	16383.12
226.243	16404.95
226.316	16445.53
226.389	16488.67
226.461	16532.81
226.534	16578.79
226.607	16617.64
226.68	16677.55
226.753	16714.85
226.825	16722.71
226.898	16774.81
226.971	16811.25
227.044	16851.97
227.117	16890.62
227.189	16929.47
227.262	16974.63
227.335	17011.4
227.407	17039.98
227.48	17077.47
227.553	17108.75
227.626	17137.96
227.698	17165.23
227.771	17206.78
227.844	17239.07
227.916	17275.74
227.989	17294.68
228.062	17325.28
228.134	17370.39
228.207	17402.59
228.28	17423.31
228.352	17455.74
228.425	17483.36
228.498	17525.24
228.57	17542.3
228.643	17583.89
228.716	17607.55
228.788	17631.21
228.861	17656.42
228.934	17704.22
229.006	17733.19
229.079	17759.4
229.151	17776.85
229.224	17789.47
229.296	17820.89
229.369	17859.59
229.442	17890.43
229.514	17900.99
229.587	17927.45
229.659	17931.3
229.732	17965.03
229.804	18013.61
229.877	18062.33
229.949	18098.91
230.022	18147.24
230.094	18171.1
230.167	18191.72
230.239	18203.34
230.312	18219.53
230.384	18263.43
230.457	18290.18
230.529	18309.65
230.602	18318.85
230.674	18349.64
230.747	18380.77
230.819	18423.95
230.892	18418.46
230.964	18456.29
231.037	18485.97
231.109	18513.59
231.181	18551.13
231.254	18547.66
231.326	18550.36
231.399	18558.74
231.471	18575.8
231.544	18562.26
231.616	18599.17
231.688	18615.22
231.761	18631.27
231.833	18647.27
231.905	18637.72
231.978	18640.18
232.05	18651.51
232.122	18681.53
232.195	18690.4
232.267	18727.17
232.339	18728.03
232.412	18762.63
232.484	18756.08
232.556	18764.18
232.629	18791.93
232.701	18803.16
232.773	18822.44
232.846	18828.07
232.918	18841.28
232.99	18841.62
233.062	18851.83
233.135	18865.47
233.207	18859.21
233.279	18875.69
233.351	18890.14
233.424	18898.09
233.496	18898.62
233.568	18925.9
233.64	18908.65
233.713	18909.52
233.785	18905.03
233.857	18907.44
233.929	18894.29
234.001	18909.66
234.074	18935.01
234.146	18919.01
234.218	18919.68
234.29	18916.5
234.362	18917.08
234.434	18891.11
234.507	18882.05
234.579	18871.83
234.651	18855.93
234.723	18869.66
234.795	18868.7
234.867	18860.65
234.939	18869.95
235.012	18872.22
235.084	18873.57
235.156	18887.73
235.228	18879.73
235.3	18868.7
235.372	18867.98
235.444	18879.88
235.516	18856.36
235.588	18855.78
235.66	18849.33
235.732	18834.1
235.804	18883.93
235.876	18893.47
235.948	18918.86
236.02	18919.83
236.092	18920.65
236.164	18914.67
236.236	18898.67
236.308	18888.02
236.38	18881.52
236.452	18862.92
236.524	18855.64
236.596	18860.65
236.668	18854.58
236.74	18851.01
236.812	18843.78
236.884	18839.79
236.956	18823.4
237.028	18799.35
237.1	18776.03
237.172	18780.99
237.244	18789.62
237.316	18737.67
237.388	18710.68
237.46	18680.47
237.532	18679.75
237.604	18661.24
237.675	18662.11
237.747	18658.93
237.819	18639.56
237.891	18625.2
237.963	18601.39
238.035	18580.62
238.107	18530.45
238.178	18525.1
238.25	18505.83
238.322	18512.48
238.394	18473.35
238.466	18451.13
238.538	18450.51
238.609	18436.92
238.681	18397.55
238.753	18365.5
238.825	18352.1
238.897	18332.2
238.968	18326.61
239.04	18300.59
239.112	18296.59
239.184	18269.02
239.255	18234.47
239.327	18223.43
239.399	18208.11
239.471	18189.75
239.542	18178.81
239.614	18175.77
239.686	18129.08
239.758	18118.57
239.829	18073.56
239.901	18065.95
239.973	18050.81
240.044	18033.56
240.116	18002.33
240.188	17982.91
240.259	17963.4
240.331	17933.28
240.403	17921.86
240.474	17888.46
240.546	17845.42
240.618	17803.06
240.689	17775.4
240.761	17755.45
240.833	17741.14
240.904	17706.97
240.976	17691.21
241.048	17664.95
241.119	17644.99
241.191	17624.42
241.262	17605.24
241.334	17583.16
241.405	17553.67
241.477	17518.73
241.549	17488.66
241.62	17477.96
241.692	17463.84
241.763	17448.23
241.835	17416.9
241.906	17389.57
241.978	17345.96
242.049	17338.3
242.121	17330.78
242.192	17309.43
242.264	17271.02
242.335	17229.86
242.407	17212.37
242.478	17175.26
242.55	17147.02
242.621	17102.77
242.693	17070.68
242.764	17035.06
242.836	17001.47
242.907	16979.35
242.979	16950.48
243.05	16925.9
243.122	16892.41
243.193	16852.36
243.264	16802.23
243.336	16776.21
243.407	16750.42
243.479	16743.29
243.55	16719.87
243.622	16692.88
243.693	16665.84
243.764	16653.79
243.836	16612.34
243.907	16569.83
243.978	16541.25
244.05	16511.66
244.121	16462.93
244.192	16452.43
244.264	16414.06
244.335	16383.5
244.407	16331.06
244.478	16312.17
244.549	16279.11
244.62	16233.27
244.692	16202.09
244.763	16182.33
244.834	16150.03
244.906	16118.61
244.977	16092.05
245.048	16076.68
245.119	16031.23
245.191	15988.76
245.262	15940.42
245.333	15927.84
245.405	15907.88
245.476	15888.07
245.547	15866.48
245.618	15850.86
245.689	15817.32
245.761	15789.31
245.832	15756.73
245.903	15740.44
245.974	15716.44
246.045	15671.22
246.117	15668.43
246.188	15635.84
246.259	15589.14
246.33	15555.93
246.401	15517.65
246.473	15475.48
246.544	15436.53
246.615	15418.99
246.686	15382.16
246.757	15366.83
246.828	15326.2
246.899	15305.91
246.97	15255.49
247.042	15218.71
247.113	15200.78
247.184	15192.58
247.255	15165.93
247.326	15153.54
247.397	15125.1
247.468	15093
247.539	15079.16
247.61	15026.77
247.681	15004.35
247.752	14994.28
247.823	14956.05
247.894	14930.26
247.965	14884.8
248.037	14845.81
248.108	14800.74
248.179	14776.97
248.25	14736.63
248.321	14712.04
248.392	14671.45
248.463	14666.92
248.534	14632.7
248.605	14615.25
248.675	14576.49
248.746	14549.98
248.817	14520.77
248.888	14497.1
248.959	14452.03
249.03	14422.96
249.101	14403.82
249.172	14371.81
249.243	14323.37
249.314	14313.24
249.385	14283.89
249.456	14268.99
249.527	14245.66
249.598	14231.39
249.669	14203.53
249.739	14189.84
249.81	14169.54
249.881	14140.43
249.952	14111.94
250.023	14085.57
250.094	14040.06
250.165	14007.28
250.235	13984
250.306	13953.39
250.377	13920.08
250.448	13898.34
250.519	13851.14
250.59	13833.4
250.66	13800.57
250.731	13788.95
250.802	13759.26
250.873	13739.78
250.944	13720.16
251.014	13685.41
251.085	13684.54
251.156	13667.47
251.227	13655.9
251.297	13646.41
251.368	13631.22
251.439	13613.63
251.51	13607.84
251.58	13576.6
251.651	13538.96
251.722	13518.42
251.792	13481.69
251.863	13459.66
251.934	13457.78
252.005	13466.4
252.075	13442.74
252.146	13432.27
252.217	13416.03
252.287	13408.7
252.358	13377.61
252.429	13365.03
252.499	13336.83
252.57	13301.01
252.641	13284.76
252.711	13255.65
252.782	13210.38
252.852	13201.8
252.923	13175.96
252.994	13155.67
253.064	13138.89
253.135	13113.1
253.205	13083.55
253.276	13075.16
253.347	13060.99
253.417	13022.76
253.488	12996.58
253.558	12977.11
253.629	12958.69
253.699	12943.7
253.77	12919.36
253.841	12904.13
253.911	12880.84
253.982	12863.54
254.052	12853.65
254.123	12840.64
254.193	12823.91
254.264	12843.53
254.334	12808.77
254.405	12773.15
254.475	12737.04
254.546	12716.41
254.616	12708.51
254.687	12699.35
254.757	12691.2
254.827	12666.38
254.898	12654.71
254.968	12628.15
255.039	12590.55
255.109	12577.68
255.18	12547.6
255.25	12508.02
255.321	12485.61
255.391	12452.59
255.461	12451
255.532	12401.78
255.602	12370.35
255.673	12329.19
255.743	12292.65
255.813	12248.54
255.884	12245.41
255.954	12229.89
256.024	12225.07
256.095	12203.28
256.165	12167.8
256.235	12146.83
256.306	12124.47
256.376	12112.85
256.446	12105.91
256.517	12097.81
256.587	12080.56
256.657	12057.66
256.728	12042
256.798	12024.26
256.868	12006.66
256.938	11975.81
257.009	11974.18
257.079	11964.87
257.149	11969.5
257.219	11931.81
257.29	11924.43
257.36	11884.43
257.43	11873.44
257.5	11835.6
257.571	11812.13
257.641	11798.44
257.711	11764.7
257.781	11752.79
257.852	11732.84
257.922	11694.57
257.992	11676.06
258.062	11653.94
258.132	11649.98
258.202	11627.43
258.273	11610.99
258.343	11603.33
258.413	11579.66
258.483	11550.7
258.553	11520.19
258.623	11489.34
258.693	11476.95
258.764	11475.12
258.834	11475.41
258.904	11456.33
258.974	11430.06
259.044	11412.95
259.114	11394.01
259.184	11377.96
259.254	11352.56
259.324	11315.07
259.394	11300.85
259.464	11294.3
259.535	11271.79
259.605	11252.17
259.675	11230.29
259.745	11223.26
259.815	11192.13
259.885	11166.87
259.955	11178.39
260.025	11147.89
260.095	11128.13
260.165	11111.7
260.235	11108.32
260.305	11076.9
260.375	11050.01
260.445	11056.28
260.515	11051.46
260.585	11045.82
260.655	11030.88
260.725	11026.11
260.795	11014.21
260.865	11018.98
260.934	10994.35
261.004	10984.95
261.074	10960.28
261.144	10960.04
261.214	10951.22
261.284	10937.68
261.354	10937.68
261.424	10909.05
261.494	10912.33
261.564	10893.54
261.634	10889.39
261.703	10849.49
261.773	10842.41
261.843	10832.48
261.913	10810.27
261.983	10777.65
262.053	10776.01
262.123	10758.13
262.192	10729.61
262.262	10726.47
262.332	10694.53
