Data from 20250702_urea_0.5M_MAYP1162681_04-35-00-328.txt Node
Date: Thu Jul 03 04:35:00 BST 2025
User: adleo
Spectrometer: MAYP116268
Trigger mode: 0
Integration Time (sec): 1.000000E0
Scans to average: 1
Electric dark correction enabled: true
Nonlinearity correction enabled: true
Boxcar width: 10
XAxis mode: Wavelengths
Number of Pixels in Spectrum: 2068
>>>>>Begin Spectral Data<<<<<
179.565	1174.79
179.642	1226.44
179.718	1267.01
179.795	1302.85
179.871	1335.24
179.948	1349.98
180.024	1371.33
180.101	1394.18
180.177	1408.91
180.254	1431.99
180.33	1455.49
180.407	1505.85
180.483	1600.82
180.56	1687.48
180.636	1769.8
180.712	1758.44
180.789	1767.18
180.865	1778.92
180.942	1786.76
181.018	1797.55
181.095	1808.53
181.171	1813.14
181.248	1814.33
181.324	1831.21
181.4	1840.66
181.477	1851.27
181.553	1867.33
181.63	1886.34
181.706	1902.37
181.782	1911.92
181.859	1910.16
181.935	1914.39
182.011	1911.35
182.088	1925.52
182.164	1946.06
182.24	1960.8
182.317	1968.55
182.393	1968.88
182.469	1982.67
182.546	1997.41
182.622	2003.69
182.698	1999.88
182.775	2012.01
182.851	2026.46
182.927	2017
183.003	2010.44
183.08	2005.68
183.156	2011.1
183.232	2007.06
183.308	1995.36
183.385	2001.83
183.461	2017.52
183.537	2017.71
183.613	2030.65
183.69	2021.52
183.766	2010.57
183.842	2018.56
183.918	2023.27
183.995	2033.78
184.071	2037.11
184.147	2031.74
184.223	2019.14
184.299	2032.27
184.375	2022.71
184.452	2030.23
184.528	2085.94
184.604	2094.35
184.68	2104.2
184.756	2114.99
184.832	2120.37
184.908	2121.89
184.985	2121.37
185.061	2107.15
185.137	2115.57
185.213	2104.39
185.289	2106.15
185.365	2097.93
185.441	2094.12
185.517	2105.44
185.593	2104.06
185.669	2100.97
185.745	2112.39
185.822	2129.65
185.898	2118.94
185.974	2125.31
186.05	2115.99
186.126	2077.02
186.202	2074.6
186.278	2071.27
186.354	2060.99
186.43	2069.84
186.506	2072.12
186.582	2071.84
186.658	2079.78
186.734	2061.23
186.81	2062.95
186.886	2065.85
186.962	2079.73
187.038	2076.74
187.114	2071.6
187.19	2078.16
187.266	2066.94
187.341	2065.04
187.417	2057.43
187.493	2058.9
187.569	2062.13
187.645	2058.09
187.721	2045.49
187.797	2050.29
187.873	2055.66
187.949	2047.96
188.025	2039.44
188.101	2042.3
188.176	2044.96
188.252	2038.97
188.328	2048.95
188.404	2049.57
188.48	2045.62
188.556	2038.77
188.632	2037.16
188.707	2035.4
188.783	2033.83
188.859	2030.64
188.935	2020.84
189.011	2026.46
189.086	2020.56
189.162	2011.81
189.238	2011.1
189.314	2008.96
189.39	2005.25
189.465	1997.92
189.541	2014.66
189.617	1998.02
189.693	1992.03
189.768	1996.03
189.844	2020.38
189.92	2010.07
189.996	2020.29
190.071	2030.04
190.147	2027.28
190.223	2037.27
190.298	2032.47
190.374	2019.63
190.45	2030.18
190.526	2038.74
190.601	2034.99
190.677	2036.94
190.753	2065.39
190.828	2066.39
190.904	2081.99
190.98	2096.31
191.055	2105.4
191.131	2096.59
191.207	2118.42
191.282	2129.22
191.358	2123.51
191.433	2107.62
191.509	2120.26
191.585	2118.22
191.66	2118.74
191.736	2128.35
191.811	2119.07
191.887	2135.06
191.963	2159.32
192.038	2162.51
192.114	2164.7
192.189	2168.84
192.265	2165.89
192.34	2145.04
192.416	2143.19
192.491	2138.38
192.567	2142.14
192.642	2143.9
192.718	2148.04
192.793	2137.1
192.869	2129.49
192.944	2129.82
193.02	2137.62
193.095	2140.91
193.171	2143.71
193.246	2142.62
193.322	2139.53
193.397	2141.67
193.473	2124.16
193.548	2103.08
193.624	2112.36
193.699	2107.89
193.775	2124.02
193.85	2122.55
193.925	2130.73
194.001	2131.11
194.076	2126.4
194.152	2115.03
194.227	2107.84
194.302	2096.62
194.378	2101.66
194.453	2102.04
194.529	2112.84
194.604	2098.71
194.679	2093.67
194.755	2074.32
194.83	2087.69
194.905	2085.69
194.981	2092.83
195.056	2087.93
195.131	2095.54
195.207	2093.31
195.282	2083.37
195.357	2062.91
195.433	2081.27
195.508	2070.04
195.583	2076.55
195.659	2088.88
195.734	2095.78
195.809	2095.68
195.884	2102.48
195.96	2101.1
196.035	2113.75
196.11	2109.33
196.185	2123.07
196.261	2128.16
196.336	2162.22
196.411	2145.66
196.486	2150.8
196.561	2144.09
196.637	2154.6
196.712	2170.31
196.787	2172.83
196.862	2191
196.937	2203.61
197.013	2208.32
197.088	2218.45
197.163	2241.78
197.238	2256.49
197.313	2256.35
197.388	2270.53
197.464	2301.23
197.539	2311.27
197.614	2306.94
197.689	2317.41
197.764	2331.07
197.839	2349.72
197.914	2341.39
197.989	2365.62
198.065	2380.04
198.14	2432.06
198.215	2455.95
198.29	2466.43
198.365	2478.95
198.44	2491.62
198.515	2514.81
198.59	2532.09
198.665	2556.33
198.74	2561.28
198.815	2563.48
198.89	2585.76
198.965	2615.15
199.04	2612.06
199.115	2629.77
199.19	2671.97
199.265	2679.06
199.34	2690.88
199.415	2722.81
199.49	2746.48
199.565	2756.91
199.64	2776.59
199.715	2771.87
199.79	2779.25
199.865	2786.97
199.94	2785.31
200.015	2810.94
200.09	2817.86
200.165	2820.71
200.24	2828.86
200.315	2868.02
200.39	2884.94
200.464	2889.71
200.539	2890.71
200.614	2906.86
200.689	2929.89
200.764	2934.03
200.839	2953.28
200.914	2958
200.989	2947.89
201.063	2958.33
201.138	2939.95
201.213	2939.99
201.288	2919.78
201.363	2928.22
201.438	2926.08
201.512	2941.13
201.587	2926.64
201.662	2931.41
201.737	2945.8
201.812	2952.86
201.886	2923.71
201.961	2930.91
202.036	2918.91
202.111	2917.14
202.186	2888.94
202.26	2868.73
202.335	2850.57
202.41	2842.27
202.485	2826.65
202.559	2808.73
202.634	2786.24
202.709	2797.47
202.784	2784.61
202.858	2785.37
202.933	2765.02
203.008	2763.26
203.082	2745.35
203.157	2748.49
203.232	2707.16
203.306	2684.09
203.381	2654.31
203.456	2628.63
203.53	2605.75
203.605	2587.42
203.68	2562.65
203.754	2553.94
203.829	2540.08
203.904	2518.17
203.978	2509.36
204.053	2513.89
204.127	2498.13
204.202	2493.51
204.277	2477.37
204.351	2467.94
204.426	2458.94
204.5	2451.94
204.575	2417.23
204.65	2429
204.724	2416.47
204.799	2423.51
204.873	2421.84
204.948	2420.94
205.022	2410.66
205.097	2401.85
205.171	2418.65
205.246	2427.08
205.32	2427.32
205.395	2427.22
205.469	2418.32
205.544	2421.18
205.618	2404.14
205.693	2418.9
205.767	2410.8
205.842	2430.9
205.916	2424.95
205.991	2419.43
206.065	2424
206.14	2436.03
206.214	2427.94
206.289	2422.7
206.363	2434.46
206.438	2434.55
206.512	2440.36
206.586	2460.83
206.661	2470.12
206.735	2445.32
206.81	2448.09
206.884	2461.84
206.958	2451.66
207.033	2471.6
207.107	2478.6
207.181	2508.61
207.256	2504.84
207.33	2522.32
207.405	2536.52
207.479	2554
207.553	2561.23
207.628	2547.24
207.702	2563.09
207.776	2562.86
207.851	2570.33
207.925	2590.39
207.999	2591.68
208.073	2592.92
208.148	2602.16
208.222	2598.01
208.296	2636.86
208.371	2656.02
208.445	2675.89
208.519	2709.56
208.593	2729.43
208.668	2734.2
208.742	2744.4
208.816	2755.93
208.89	2778.95
208.965	2787.39
209.039	2809.94
209.113	2839.92
209.187	2873.44
209.261	2884.16
209.336	2915.05
209.41	2952.91
209.484	2969.6
209.558	3011.42
209.632	3045.89
209.707	3075.79
209.781	3119.43
209.855	3161.46
209.929	3206.92
210.003	3240.12
210.077	3268.94
210.151	3340.81
210.226	3406.93
210.3	3466.5
210.374	3525.48
210.448	3568.36
210.522	3614.97
210.596	3665.55
210.67	3718.03
210.744	3806.94
210.818	3883.3
210.892	3951.92
210.966	3994.44
211.041	4060.3
211.115	4107.8
211.189	4181.07
211.263	4252.74
211.337	4313.03
211.411	4380
211.485	4430.92
211.559	4500.64
211.633	4563.38
211.707	4596.74
211.781	4667.72
211.855	4701.03
211.929	4753.43
212.003	4801.13
212.077	4880.35
212.151	4961.24
212.225	5036.67
212.299	5095.96
212.373	5159.72
212.447	5230.02
212.52	5329.55
212.594	5406.63
212.668	5496.11
212.742	5561.07
212.816	5632.17
212.89	5705.43
212.964	5782.13
213.038	5871.47
213.112	5968.48
213.186	6069.02
213.26	6132.04
213.333	6170.86
213.407	6259.71
213.481	6345.68
213.555	6444.9
213.629	6523.28
213.703	6592.81
213.777	6683.54
213.85	6760.15
213.924	6876.41
213.998	6968.04
214.072	7052.86
214.146	7125.85
214.219	7211.2
214.293	7298.65
214.367	7389.35
214.441	7490.97
214.515	7576.93
214.588	7639.73
214.662	7689.83
214.736	7754.06
214.81	7852.61
214.883	7953.52
214.957	8036.72
215.031	8122.84
215.105	8185.98
215.178	8258.29
215.252	8338.25
215.326	8401.09
215.4	8458.68
215.473	8498.67
215.547	8560.95
215.621	8623.67
215.694	8714.64
215.768	8775.91
215.842	8843.92
215.915	8909.54
215.989	8960.23
216.063	9021.52
216.136	9096.19
216.21	9181.64
216.284	9271.87
216.357	9353.54
216.431	9423.7
216.504	9512.36
216.578	9611.04
216.652	9699.69
216.725	9779.55
216.799	9869.14
216.873	9947.41
216.946	10035.55
217.02	10110.4
217.093	10183.19
217.167	10241.72
217.24	10305.8
217.314	10375.55
217.387	10444.54
217.461	10518.11
217.535	10607.92
217.608	10673.45
217.682	10747.12
217.755	10828.26
217.829	10889.32
217.902	10955.82
217.976	11024.1
218.049	11084.63
218.123	11139.04
218.196	11219.47
218.27	11278.56
218.343	11332.63
218.417	11399.19
218.49	11464.16
218.563	11543.92
218.637	11623.3
218.71	11722.4
218.784	11796.48
218.857	11876.88
218.931	11952.11
219.004	12024.17
219.077	12103.03
219.151	12180.69
219.224	12249.86
219.298	12312.13
219.371	12393.07
219.444	12455.15
219.518	12526.49
219.591	12593.74
219.665	12689.09
219.738	12753.3
219.811	12816.35
219.885	12886.87
219.958	12962.8
220.031	13029.22
220.105	13104.76
220.178	13168.3
220.251	13221.81
220.325	13290.6
220.398	13361.22
220.471	13426.01
220.544	13491.38
220.618	13538.14
220.691	13600.47
220.764	13664.15
220.838	13737.81
220.911	13794.93
220.984	13878.86
221.057	13949.43
221.131	14008.63
221.204	14029.17
221.277	14105.33
221.35	14194.94
221.424	14254.04
221.497	14312.42
221.57	14374.75
221.643	14434.77
221.716	14494.59
221.79	14550.6
221.863	14611.44
221.936	14660.03
222.009	14719.56
222.082	14783.67
222.155	14842.91
222.229	14919.22
222.302	14982.27
222.375	15036.21
222.448	15101.86
222.521	15147.41
222.594	15199.62
222.667	15245.41
222.74	15317.81
222.814	15366.54
222.887	15404.19
222.96	15465.35
223.033	15531.68
223.106	15593.33
223.179	15647.7
223.252	15702.45
223.325	15756.49
223.398	15805.5
223.471	15853.08
223.544	15906.34
223.617	15953.77
223.69	16001.39
223.763	16034.07
223.837	16084.68
223.91	16127.14
223.983	16155.24
224.056	16190.67
224.129	16238.62
224.202	16289.71
224.275	16320.66
224.348	16347.26
224.42	16379.22
224.493	16404.38
224.566	16433.24
224.639	16476.72
224.712	16512
224.785	16545.88
224.858	16582.17
224.931	16611.52
225.004	16647.04
225.077	16680.54
225.15	16687.29
225.223	16730.28
225.296	16785.85
225.369	16796.59
225.442	16821.99
225.514	16860.5
225.587	16905.85
225.66	16944.7
225.733	16979.2
225.806	17019.25
225.879	17058.05
225.952	17085.86
226.025	17133.57
226.097	17183.5
226.17	17208.75
226.243	17216.61
226.316	17258.2
226.389	17280.17
226.461	17320.08
226.534	17357.67
226.607	17392.03
226.68	17458.15
226.753	17490.97
226.825	17498.78
226.898	17548.99
226.971	17588.71
227.044	17624.22
227.117	17658.01
227.189	17683.74
227.262	17730.92
227.335	17773.42
227.407	17803.21
227.48	17838.05
227.553	17859.35
227.626	17870.48
227.698	17897.66
227.771	17935.88
227.844	17943.49
227.916	17979.25
227.989	17986.14
228.062	18007.68
228.134	18054.04
228.207	18075.78
228.28	18096.02
228.352	18131.2
228.425	18163.82
228.498	18193.41
228.57	18212.11
228.643	18235.67
228.716	18255.96
228.788	18262.32
228.861	18262.95
228.934	18300.59
229.006	18326.95
229.079	18356.44
229.151	18381.69
229.224	18392.34
229.296	18423.42
229.369	18469.59
229.442	18502.84
229.514	18532.09
229.587	18566.45
229.659	18570.21
229.732	18588.33
229.804	18611.22
229.877	18643.41
229.949	18666.35
230.022	18711.94
230.094	18726.2
230.167	18751.98
230.239	18764.9
230.312	18792.32
230.384	18846.77
230.457	18866.58
230.529	18890.87
230.602	18912.36
230.674	18929.37
230.747	18960.89
230.819	18988.55
230.892	18970.19
230.964	18987.82
231.037	19013.17
231.109	19029.6
231.181	19044.35
231.254	19053.46
231.326	19074.23
231.399	19081.02
231.471	19085.5
231.544	19064.06
231.616	19094.56
231.688	19112.83
231.761	19124.15
231.833	19125.69
231.905	19115.67
231.978	19120.2
232.05	19118.42
232.122	19125.02
232.195	19124.59
232.267	19153.36
232.339	19155.91
232.412	19195.62
232.484	19194.75
232.556	19182.7
232.629	19213.01
232.701	19230.6
232.773	19244.48
232.846	19239.62
232.918	19252.82
232.99	19260.24
233.062	19281.78
233.135	19283.66
233.207	19268.63
233.279	19282.65
233.351	19300.24
233.424	19288.62
233.496	19285.83
233.568	19314.94
233.64	19308.62
233.713	19317.3
233.785	19299.47
233.857	19303.47
233.929	19277.97
234.001	19295.42
234.074	19317.01
234.146	19290.79
234.218	19291.61
234.29	19275.66
234.362	19268.19
234.434	19242.22
234.507	19234.36
234.579	19208.68
234.651	19202.03
234.723	19214.41
234.795	19219.81
234.867	19223.57
234.939	19242.31
235.012	19237.69
235.084	19225.59
235.156	19230.17
235.228	19218.99
235.3	19205.21
235.372	19191.47
235.444	19199.52
235.516	19171.57
235.588	19161.45
235.66	19158.46
235.732	19145.6
235.804	19203.96
235.876	19208.34
235.948	19225.26
236.02	19212.82
236.092	19204.82
236.164	19200
236.236	19172.97
236.308	19144.78
236.38	19118.03
236.452	19097.75
236.524	19082.85
236.596	19090.18
236.668	19080.16
236.74	19068.88
236.812	19067.29
236.884	19073.26
236.956	19068.06
237.028	19049.51
237.1	19025.56
237.172	19020.02
237.244	19016.26
237.316	18955.97
237.388	18927.2
237.46	18898.48
237.532	18897.13
237.604	18878.43
237.675	18869.81
237.747	18867.2
237.819	18845.52
237.891	18831.16
237.963	18798.58
238.035	18785.67
238.107	18734.2
238.178	18728.71
238.25	18703.41
238.322	18708.9
238.394	18664.04
238.466	18632.91
238.538	18613.53
238.609	18600.81
238.681	18557.01
238.753	18525.73
238.825	18508
238.897	18489.93
238.968	18482.55
239.04	18447.62
239.112	18453.93
239.184	18421.3
239.255	18391.47
239.327	18370.7
239.399	18352.87
239.471	18344.83
239.542	18327.04
239.614	18319.38
239.686	18270.9
239.758	18264.83
239.829	18226.04
239.901	18213.55
239.973	18193.03
240.044	18179.44
240.116	18154.14
240.188	18133.85
240.259	18103.92
240.331	18066.38
240.403	18046
240.474	17999.73
240.546	17974.19
240.618	17932.41
240.689	17898.72
240.761	17870.19
240.833	17865.13
240.904	17841.38
240.976	17815.11
241.048	17782.82
241.119	17761.23
241.191	17737.33
241.262	17720.66
241.334	17678.73
241.405	17651.5
241.477	17622.01
241.549	17582.83
241.62	17553.77
241.692	17523.98
241.763	17506.97
241.835	17476.95
241.906	17450.25
241.978	17411.79
242.049	17387.89
242.121	17359.36
242.192	17350.68
242.264	17311.69
242.335	17261.14
242.407	17232.51
242.478	17194.2
242.55	17165.86
242.621	17120.51
242.693	17085.67
242.764	17053.33
242.836	17020.03
242.907	16991.16
242.979	16966.39
243.05	16940.02
243.122	16916.7
243.193	16893.03
243.264	16845.13
243.336	16816.5
243.407	16799
243.479	16790.91
243.55	16765.99
243.622	16743.87
243.693	16705.94
243.764	16693.94
243.836	16656.73
243.907	16625.64
243.978	16600.53
244.05	16569.01
244.121	16526.21
244.192	16511.27
244.264	16462.64
244.335	16438.64
244.407	16404.08
244.478	16376.9
244.549	16351.31
244.62	16308.08
244.692	16276.65
244.763	16256.6
244.834	16225.95
244.906	16184.64
244.977	16164.64
245.048	16147.14
245.119	16109.98
245.191	16065.25
245.262	16011.51
245.333	15999.51
245.405	15962.59
245.476	15931.74
245.547	15906.44
245.618	15898.05
245.689	15864.36
245.761	15838.19
245.832	15819
245.903	15789.22
245.974	15763.19
246.045	15726.61
246.117	15716.58
246.188	15673.78
246.259	15627.7
246.33	15591.59
246.401	15553.52
246.473	15501.07
246.544	15467.53
246.615	15449.02
246.686	15419.95
246.757	15406.79
246.828	15374.83
246.899	15362.88
246.97	15310.39
247.042	15275.44
247.113	15242.66
247.184	15231.72
247.255	15195.09
247.326	15160.62
247.397	15121.82
247.468	15090.54
247.539	15063.88
247.61	15022.52
247.681	15006.28
247.752	14993.07
247.823	14961.55
247.894	14942.75
247.965	14904.09
248.037	14867.98
248.108	14818.57
248.179	14789.26
248.25	14763.91
248.321	14734.79
248.392	14686.4
248.463	14689.53
248.534	14658.44
248.605	14643.06
248.675	14614.38
248.746	14591.29
248.817	14569.31
248.888	14548.63
248.959	14501.29
249.03	14475.79
249.101	14447.06
249.172	14417.8
249.243	14373.93
249.314	14364.1
249.385	14335.71
249.456	14314.59
249.527	14284.03
249.598	14263.69
249.669	14241.9
249.739	14212.73
249.81	14183.81
249.881	14151.27
249.952	14126.2
250.023	14105.96
250.094	14063.01
250.165	14027.29
250.235	14003.28
250.306	13972.04
250.377	13937.77
250.448	13922.44
250.519	13892.02
250.59	13878.96
250.66	13848.1
250.731	13836.78
250.802	13814.36
250.873	13802.12
250.944	13785.05
251.014	13755.02
251.085	13761.04
251.156	13733.85
251.227	13726.62
251.297	13722.33
251.368	13712.4
251.439	13696.25
251.51	13679
251.58	13647.08
251.651	13614.78
251.722	13604.85
251.792	13564.7
251.863	13538.09
251.934	13525.89
252.005	13523.19
252.075	13498.85
252.146	13490.27
252.217	13477.35
252.287	13453.49
252.358	13415.26
252.429	13408.99
252.499	13375.92
252.57	13341.79
252.641	13328.63
252.711	13304.96
252.782	13260.27
252.852	13250.2
252.923	13223.15
252.994	13197.89
253.064	13179.67
253.135	13147.13
253.205	13105.96
253.276	13102.69
253.347	13104.95
253.417	13074.73
253.488	13040.5
253.558	13013.12
253.629	12983.04
253.699	12962.31
253.77	12954.6
253.841	12933.53
253.911	12911.07
253.982	12894.58
254.052	12884.84
254.123	12874.33
254.193	12848.16
254.264	12869.22
254.334	12833.84
254.405	12795.71
254.475	12765.25
254.546	12745.82
254.616	12742.4
254.687	12728.56
254.757	12715.93
254.827	12679.78
254.898	12662.47
254.968	12637.6
255.039	12602.22
255.109	12593.54
255.18	12562.3
255.25	12510
255.321	12494.43
255.391	12461.46
255.461	12465.41
255.532	12414.03
255.602	12380.04
255.673	12333.33
255.743	12295.4
255.813	12258.52
255.884	12252.16
255.954	12237.36
256.024	12235.87
256.095	12220.1
256.165	12189.45
256.235	12167.37
256.306	12141.34
256.376	12133.53
256.446	12125.87
256.517	12120.42
256.587	12104.8
256.657	12086.82
256.728	12071.3
256.798	12051.54
256.868	12023.05
256.938	11994.76
257.009	11989.36
257.079	11977.74
257.149	11990.28
257.219	11950.75
257.29	11933.35
257.36	11900.82
257.43	11891.32
257.5	11848.86
257.571	11812.56
257.641	11808.32
257.711	11779.54
257.781	11770.24
257.852	11751.93
257.922	11716.84
257.992	11691.44
258.062	11669.75
258.132	11666.28
258.202	11643.04
258.273	11623.81
258.343	11629.93
258.413	11599.67
258.483	11577.98
258.553	11546.26
258.623	11517.34
258.693	11504.14
258.764	11501.3
258.834	11495.56
258.904	11475.61
258.974	11451.94
259.044	11436.52
259.114	11423.7
259.184	11406.54
259.254	11390.3
259.324	11347.31
259.394	11336.56
259.464	11338.3
259.535	11325.14
259.605	11298.05
259.675	11278.78
259.745	11262.15
259.815	11224.66
259.885	11199.16
259.955	11212.51
260.025	11186.93
260.095	11167.89
260.165	11152.37
260.235	11154.44
260.305	11131.12
260.375	11103.79
260.445	11108.03
260.515	11109.72
260.585	11094.97
260.655	11082.2
260.725	11075.7
260.795	11072.52
260.865	11070.78
260.934	11052.76
261.004	11037.19
261.074	11021.14
261.144	11017.53
261.214	11020.13
261.284	11006.21
261.354	11007.99
261.424	10976.28
261.494	10984.66
261.564	10965.19
261.634	10964.57
261.703	10923.8
261.773	10915.37
261.843	10910.11
261.913	10889.83
261.983	10852.63
262.053	10849.88
262.123	10826.85
262.192	10791.62
262.262	10774.18
262.332	10743.97
