Data from 20250702_urea_0.5M_MAYP1162681_02-14-59-994.txt Node
Date: Thu Jul 03 02:14:59 BST 2025
User: adleo
Spectrometer: MAYP116268
Trigger mode: 0
Integration Time (sec): 1.000000E0
Scans to average: 1
Electric dark correction enabled: true
Nonlinearity correction enabled: true
Boxcar width: 10
XAxis mode: Wavelengths
Number of Pixels in Spectrum: 2068
>>>>>Begin Spectral Data<<<<<
179.565	1188.92
179.642	1242.24
179.718	1285.6
179.795	1326.82
179.871	1360.55
179.948	1377.47
180.024	1397.44
180.101	1420.13
180.177	1436.75
180.254	1462.84
180.33	1483.69
180.407	1537.91
180.483	1631.5
180.56	1721.06
180.636	1803.47
180.712	1792.73
180.789	1801.62
180.865	1812.64
180.942	1822.24
181.018	1833.69
181.095	1844.58
181.171	1848.95
181.248	1851.14
181.324	1867.4
181.4	1874.25
181.477	1884.52
181.553	1898.44
181.63	1919.55
181.706	1935.72
181.782	1941.56
181.859	1937.24
181.935	1941.61
182.011	1938.09
182.088	1955.21
182.164	1973.43
182.24	1985.93
182.317	1996.34
182.393	1997.43
182.469	2013.08
182.546	2026.3
182.622	2031.15
182.698	2029.01
182.775	2041.9
182.851	2058.16
182.927	2049.17
183.003	2043.7
183.08	2038.85
183.156	2050.31
183.232	2045.75
183.308	2034.19
183.385	2043.27
183.461	2059.11
183.537	2061.39
183.613	2072.76
183.69	2064.53
183.766	2053.49
183.842	2062.25
183.918	2063.05
183.995	2074.23
184.071	2076.23
184.147	2073.85
184.223	2063.2
184.299	2076.09
184.375	2063.92
184.452	2068.01
184.528	2126.78
184.604	2136.1
184.68	2146.42
184.756	2151.28
184.832	2157.46
184.908	2160.74
184.985	2158.89
185.061	2146.52
185.137	2157.6
185.213	2144.29
185.289	2145.57
185.365	2138.63
185.441	2135.82
185.517	2152.67
185.593	2150.34
185.669	2148.48
185.745	2156.14
185.822	2173.73
185.898	2162.41
185.974	2173.73
186.05	2163.07
186.126	2120.14
186.202	2113.67
186.278	2109.16
186.354	2097.07
186.43	2103.5
186.506	2103.88
186.582	2104.92
186.658	2110.39
186.734	2089.51
186.81	2092.98
186.886	2098.69
186.962	2112.25
187.038	2110.49
187.114	2100.35
187.19	2107.91
187.266	2097.02
187.341	2098.21
187.417	2091.08
187.493	2093.79
187.569	2095.83
187.645	2093.88
187.721	2082.23
187.797	2090.46
187.873	2094.93
187.949	2093.83
188.025	2089.07
188.101	2091.17
188.176	2095.26
188.252	2091.17
188.328	2097.82
188.404	2097.49
188.48	2089.07
188.556	2081.65
188.632	2080.51
188.707	2081.22
188.783	2077.94
188.859	2074.19
188.935	2065.1
189.011	2072.04
189.086	2066.29
189.162	2058.82
189.238	2058.68
189.314	2056.44
189.39	2052.16
189.465	2045.88
189.541	2060.63
189.617	2040.85
189.693	2035.95
189.768	2042.33
189.844	2064.74
189.92	2059.79
189.996	2072.06
190.071	2081.91
190.147	2081.43
190.223	2090.76
190.298	2083.72
190.374	2070.97
190.45	2082.86
190.526	2091.23
190.601	2084.05
190.677	2084.66
190.753	2111.6
190.828	2113.32
190.904	2130.49
190.98	2144.29
191.055	2157.99
191.131	2148.47
191.207	2169.97
191.282	2179
191.358	2166.3
191.433	2153.64
191.509	2164.01
191.585	2157.21
191.66	2156.35
191.736	2164.96
191.811	2156.25
191.887	2174.96
191.963	2196.08
192.038	2202.74
192.114	2201.36
192.189	2205.12
192.265	2202.79
192.34	2179.42
192.416	2177.8
192.491	2171.9
192.567	2173.66
192.642	2172.71
192.718	2173.61
192.793	2162.72
192.869	2158.91
192.944	2161.58
193.02	2168.76
193.095	2173.85
193.171	2179.18
193.246	2181.46
193.322	2179.37
193.397	2179.42
193.473	2163.33
193.548	2145.87
193.624	2150.96
193.699	2151.34
193.775	2168.33
193.85	2168.24
193.925	2177.66
194.001	2177.09
194.076	2171.14
194.152	2159.96
194.227	2154.87
194.302	2145.07
194.378	2150.92
194.453	2148.59
194.529	2160.48
194.604	2145.78
194.679	2139.41
194.755	2123.95
194.83	2139.04
194.905	2135.57
194.981	2143.56
195.056	2134.67
195.131	2140.33
195.207	2135.52
195.282	2124.77
195.357	2105.02
195.433	2123.43
195.508	2112.82
195.583	2119.15
195.659	2132.81
195.734	2143.8
195.809	2142.94
195.884	2153.69
195.96	2154.45
196.035	2170.39
196.11	2167.06
196.185	2179.47
196.261	2183.9
196.336	2214.39
196.411	2198.4
196.486	2203.4
196.561	2196.64
196.637	2206.25
196.712	2223.43
196.787	2226.09
196.862	2242.98
196.937	2254.59
197.013	2257.92
197.088	2266.91
197.163	2290.29
197.238	2305.19
197.313	2303.2
197.388	2314.05
197.464	2340.18
197.539	2350.41
197.614	2343.23
197.689	2357.13
197.764	2373.27
197.839	2390.83
197.914	2383.88
197.989	2408.68
198.065	2419.06
198.14	2473.94
198.215	2500.83
198.29	2512.6
198.365	2528.27
198.44	2538.41
198.515	2566.89
198.59	2582.13
198.665	2608.13
198.74	2614.28
198.815	2615.42
198.89	2636.66
198.965	2666.29
199.04	2664.86
199.115	2679.58
199.19	2723.69
199.265	2725.93
199.34	2736.03
199.415	2770.39
199.49	2792.87
199.565	2799.74
199.64	2829.47
199.715	2826.65
199.79	2833.75
199.865	2840
199.94	2839.81
200.015	2867.26
200.09	2872.84
200.165	2881.18
200.24	2888.8
200.315	2928.97
200.39	2942.22
200.464	2948.84
200.539	2949.56
200.614	2965.05
200.689	2991.08
200.764	2999.14
200.839	3016.96
200.914	3021.68
200.989	3011.85
201.063	3026.25
201.138	3009.58
201.213	3010.2
201.288	2988.79
201.363	2997.95
201.438	3000
201.512	3014.77
201.587	3000.7
201.662	3001.13
201.737	3010.24
201.812	3016.72
201.886	2984.47
201.961	2995.01
202.036	2986.48
202.111	2986.86
202.186	2958.42
202.26	2939.78
202.335	2916.94
202.41	2909.98
202.485	2891.92
202.559	2873.47
202.634	2844.69
202.709	2854.02
202.784	2831.96
202.858	2831.58
202.933	2810.32
203.008	2801.98
203.082	2784.11
203.157	2781.06
203.232	2742.63
203.306	2722.8
203.381	2692.25
203.456	2668.33
203.53	2648.93
203.605	2625.69
203.68	2602.2
203.754	2596.34
203.829	2580.72
203.904	2557.91
203.978	2546.04
204.053	2552.28
204.127	2539.43
204.202	2538.14
204.277	2520.38
204.351	2513.48
204.426	2506.52
204.5	2498.57
204.575	2463.77
204.65	2473.11
204.724	2467.01
204.799	2475.48
204.873	2470.67
204.948	2470.72
205.022	2458.49
205.097	2447.24
205.171	2462.86
205.246	2468.33
205.32	2466.48
205.395	2465.48
205.469	2458.53
205.544	2466.91
205.618	2449.77
205.693	2463.01
205.767	2453.06
205.842	2474.2
205.916	2470.16
205.991	2462.25
206.065	2467.97
206.14	2482.29
206.214	2478.1
206.289	2472.43
206.363	2484.9
206.438	2488.38
206.512	2493.81
206.586	2516.23
206.661	2525.57
206.735	2504.67
206.81	2507.58
206.884	2523.05
206.958	2512.63
207.033	2530.9
207.107	2536.91
207.181	2569.68
207.256	2564.35
207.33	2586.11
207.405	2601.41
207.479	2621.13
207.553	2628.03
207.628	2612.99
207.702	2628.37
207.776	2620.7
207.851	2628.75
207.925	2645.38
207.999	2647.72
208.073	2651.86
208.148	2661.3
208.222	2656.1
208.296	2695.39
208.371	2716.42
208.445	2734.04
208.519	2770.92
208.593	2791.6
208.668	2797.79
208.742	2808.81
208.816	2821.72
208.89	2845.8
208.965	2856.29
209.039	2873.17
209.113	2906.11
209.187	2942.79
209.261	2959.23
209.336	2999.94
209.41	3040.81
209.484	3065.34
209.558	3107.16
209.632	3141.88
209.707	3175.65
209.781	3224.74
209.855	3264.11
209.929	3312.01
210.003	3350.75
210.077	3382.4
210.151	3462.08
210.226	3531.09
210.3	3596.6
210.374	3661.62
210.448	3705.08
210.522	3755.48
210.596	3817.68
210.67	3873.29
210.744	3970.88
210.818	4051.33
210.892	4126.97
210.966	4171.32
211.041	4240.84
211.115	4298.6
211.189	4385.5
211.263	4460.16
211.337	4527.17
211.411	4609.63
211.485	4671.15
211.559	4751.54
211.633	4826.32
211.707	4865.73
211.781	4947
211.855	4986.08
211.929	5048.08
212.003	5110.56
212.077	5203.57
212.151	5294.87
212.225	5385.15
212.299	5455.51
212.373	5530.04
212.447	5608.88
212.52	5723.48
212.594	5814.23
212.668	5913.94
212.742	5988.64
212.816	6073.27
212.89	6158.67
212.964	6248.68
213.038	6347.73
213.112	6455.32
213.186	6566.51
213.26	6645.22
213.333	6696.99
213.407	6804.35
213.481	6908.3
213.555	7020.28
213.629	7108.04
213.703	7191.41
213.777	7288.74
213.85	7369.54
213.924	7501.42
213.998	7605.95
214.072	7700.11
214.146	7789.51
214.219	7892.33
214.293	7986.54
214.367	8089.8
214.441	8202.6
214.515	8293.24
214.588	8366.52
214.662	8427.72
214.736	8504.28
214.81	8609.34
214.883	8721.88
214.957	8807.06
215.031	8888.92
215.105	8961.01
215.178	9038.13
215.252	9124.87
215.326	9198.73
215.4	9275.08
215.473	9322.61
215.547	9393.31
215.621	9471.62
215.694	9564.67
215.768	9635.56
215.842	9719.07
215.915	9803.03
215.989	9868.3
216.063	9948.46
216.136	10038.59
216.21	10138.73
216.284	10238.98
216.357	10330.95
216.431	10409.67
216.504	10509.41
216.578	10629.86
216.652	10726.31
216.725	10817.72
216.799	10911.49
216.873	11007.63
216.946	11100.72
217.02	11175.41
217.093	11254.97
217.167	11322.11
217.24	11392.28
217.314	11467.85
217.387	11539.22
217.461	11610.36
217.535	11700.54
217.608	11771.15
217.682	11854.97
217.755	11941.39
217.829	12004
217.902	12076.01
217.976	12151.06
218.049	12209.73
218.123	12263.62
218.196	12351.49
218.27	12415.41
218.343	12474.7
218.417	12536.59
218.49	12608.42
218.563	12702.22
218.637	12781.42
218.71	12881.26
218.784	12964.56
218.857	13045.01
218.931	13121.37
219.004	13194.59
219.077	13276.01
219.151	13345.53
219.224	13406.99
219.298	13472.17
219.371	13567.42
219.444	13624.98
219.518	13699.8
219.591	13771.04
219.665	13870.64
219.738	13929.45
219.811	13996.07
219.885	14082.31
219.958	14166.67
220.031	14224.85
220.105	14299.38
220.178	14371.21
220.251	14418.59
220.325	14490.75
220.398	14558.38
220.471	14633.83
220.544	14710.71
220.618	14762
220.691	14825.39
220.764	14894.18
220.838	14955.88
220.911	15004.37
220.984	15094.75
221.057	15162.67
221.131	15227.02
221.204	15263.22
221.277	15344
221.35	15441.47
221.424	15487.69
221.497	15542.74
221.57	15614.85
221.643	15681.94
221.716	15739.64
221.79	15796.37
221.863	15844.23
221.936	15899.18
222.009	15955.09
222.082	16017.12
222.155	16070.86
222.229	16147.98
222.302	16207.6
222.375	16263.22
222.448	16318.51
222.521	16362.7
222.594	16407.43
222.667	16448.93
222.74	16504.36
222.814	16556.99
222.887	16600.27
222.96	16667.26
223.033	16723.26
223.106	16763.17
223.179	16807.6
223.252	16853.44
223.325	16901.58
223.398	16945.49
223.471	16992.19
223.544	17034.89
223.617	17073.83
223.69	17119.76
223.763	17153.5
223.837	17195.23
223.91	17238.51
223.983	17264.92
224.056	17299.14
224.129	17346.8
224.202	17396.54
224.275	17431.24
224.348	17455.72
224.42	17468.59
224.493	17483
224.566	17510.61
224.639	17559.04
224.712	17585.55
224.785	17623.81
224.858	17651.28
224.931	17682.85
225.004	17703.91
225.077	17736.44
225.15	17743.57
225.223	17783.33
225.296	17837.78
225.369	17851.28
225.442	17872.68
225.514	17902.6
225.587	17937.64
225.66	17966.65
225.733	18010.12
225.806	18043.32
225.879	18071.56
225.952	18101.68
226.025	18141.34
226.097	18180.86
226.17	18210.88
226.243	18217.77
226.316	18245.77
226.389	18291.94
226.461	18336.66
226.534	18382.15
226.607	18414.97
226.68	18468.46
226.753	18487.83
226.825	18483.93
226.898	18536.31
226.971	18565.08
227.044	18609.75
227.117	18639.39
227.189	18669.07
227.262	18703.53
227.335	18736.15
227.407	18765.98
227.48	18795.67
227.553	18832.63
227.626	18856.53
227.698	18884.87
227.771	18922.41
227.844	18937.97
227.916	18959.85
227.989	18964.48
228.062	18975.99
228.134	19015.27
228.207	19029
228.28	19050.78
228.352	19082.4
228.425	19093.72
228.498	19129.24
228.57	19125.86
228.643	19150.25
228.716	19160.9
228.788	19167.84
228.861	19177.14
228.934	19190.29
229.006	19210.82
229.079	19221.91
229.151	19232.89
229.224	19230.96
229.296	19251.01
229.369	19301.23
229.442	19322.82
229.514	19329.08
229.587	19357.8
229.659	19353.08
229.732	19374.62
229.804	19396.45
229.877	19431.58
229.949	19463.34
230.022	19499.34
230.094	19529.21
230.167	19549.74
230.239	19566.9
230.312	19581.11
230.384	19625.74
230.457	19656.87
230.529	19673.3
230.602	19689.16
230.674	19703.71
230.747	19737.49
230.819	19765.78
230.892	19737.88
230.964	19761.73
231.037	19785.83
231.109	19793.34
231.181	19816.91
231.254	19810.79
231.326	19814.74
231.399	19814.11
231.471	19805.34
231.544	19779.32
231.616	19795.61
231.688	19808.91
231.761	19802.6
231.833	19805.58
231.905	19775.56
231.978	19770.5
232.05	19765.83
232.122	19770.16
232.195	19777.1
232.267	19789.39
232.339	19791.8
232.412	19820.52
232.484	19808.43
232.556	19802.26
232.629	19826.64
232.701	19835.32
232.773	19848.67
232.846	19844.43
232.918	19839.66
232.99	19843.17
233.062	19860.04
233.135	19865.53
233.207	19850.88
233.279	19869.05
233.351	19874.35
233.424	19869.44
233.496	19865.82
233.568	19893.29
233.64	19875.75
233.713	19865.05
233.785	19857.1
233.857	19850.79
233.929	19833.53
234.001	19844.72
234.074	19863.94
234.146	19828.76
234.218	19817.87
234.29	19809.92
234.362	19804.86
234.434	19787.18
234.507	19776.43
234.579	19749.49
234.651	19729.35
234.723	19721.2
234.795	19705.06
234.867	19692.63
234.939	19712.09
235.012	19694.07
235.084	19682.51
235.156	19683.23
235.228	19665.54
235.3	19647.23
235.372	19631.57
235.444	19620.73
235.516	19584.29
235.588	19568.25
235.66	19570.7
235.732	19544.39
235.804	19588.58
235.876	19588.15
235.948	19593.07
236.02	19579.96
236.092	19568.44
236.164	19552.68
236.236	19535.29
236.308	19520.15
236.38	19516.25
236.452	19480.59
236.524	19480.25
236.596	19477.89
236.668	19471.96
236.74	19461.7
236.812	19455.96
236.884	19450.9
236.956	19436.5
237.028	19405.32
237.1	19376.4
237.172	19370.57
237.244	19378.72
237.316	19312.84
237.388	19285.28
237.46	19263.4
237.532	19255.45
237.604	19228.56
237.675	19225.18
237.747	19216.8
237.819	19190.49
237.891	19155.93
237.963	19126.83
238.035	19094.4
238.107	19037.82
238.178	19024.23
238.25	18996.86
238.322	18984.62
238.394	18938.36
238.466	18925.59
238.538	18919.47
238.609	18902.02
238.681	18856.82
238.753	18817.93
238.825	18798.22
238.897	18783.57
238.968	18774.27
239.04	18744.34
239.112	18750.32
239.184	18715.48
239.255	18687.87
239.327	18677.26
239.399	18660.01
239.471	18647.1
239.542	18630.42
239.614	18620.69
239.686	18570.14
239.758	18559.63
239.829	18523.59
239.901	18514.29
239.973	18465.9
240.044	18444.99
240.116	18414.82
240.188	18391.16
240.259	18361.72
240.331	18337.81
240.403	18308.8
240.474	18267.17
240.546	18230.01
240.618	18178.69
240.689	18152.42
240.761	18122.31
240.833	18098.64
240.904	18058.65
240.976	18024.29
241.048	17992.14
241.119	17978.84
241.191	17958.22
241.262	17945.06
241.334	17907.33
241.405	17884.48
241.477	17854.94
241.549	17822.36
241.62	17798.08
241.692	17780.63
241.763	17758.61
241.835	17720.44
241.906	17694.32
241.978	17646.99
242.049	17631.52
242.121	17617.11
242.192	17594.37
242.264	17553.93
242.335	17512.59
242.407	17500.15
242.478	17472.44
242.55	17443.62
242.621	17394.42
242.693	17363.72
242.764	17325.26
242.836	17299.72
242.907	17269.55
242.979	17248.59
243.05	17220.1
243.122	17199.09
243.193	17156.68
243.264	17104.15
243.336	17068.15
243.407	17042.85
243.479	17030.51
243.55	17006.22
243.622	16980.39
243.693	16945.2
243.764	16929.88
243.836	16891.66
243.907	16855.8
243.978	16822.06
244.05	16805.49
244.121	16758.54
244.192	16732.23
244.264	16686.3
244.335	16662.1
244.407	16619.02
244.478	16595.88
244.549	16561.42
244.62	16514.19
244.692	16480.98
244.763	16465.85
244.834	16436.83
244.906	16399.77
244.977	16373.36
245.048	16356.83
245.119	16316.15
245.191	16279.28
245.262	16227.56
245.333	16216.48
245.405	16188.96
245.476	16160.57
245.547	16120.47
245.618	16097.72
245.689	16064.99
245.761	16037.03
245.832	15998.14
245.903	15969.56
245.974	15939.33
246.045	15907.28
246.117	15892.05
246.188	15848.09
246.259	15803.02
246.33	15769.09
246.401	15732.8
246.473	15676.02
246.544	15640.74
246.615	15618.47
246.686	15584.39
246.757	15574.07
246.828	15524.23
246.899	15500.57
246.97	15458.05
247.042	15424.99
247.113	15398.81
247.184	15393.61
247.255	15358.9
247.326	15330.71
247.397	15292.87
247.468	15265.87
247.539	15234.11
247.61	15187.02
247.681	15173.33
247.752	15164.07
247.823	15123.53
247.894	15094.95
247.965	15069.45
248.037	15024.57
248.108	14979.02
248.179	14949.81
248.25	14909.03
248.321	14890.18
248.392	14852.68
248.463	14846.51
248.534	14815.99
248.605	14805.73
248.675	14770.59
248.746	14749.33
248.817	14728.55
248.888	14708.55
248.959	14658.8
249.03	14642.27
249.101	14616.86
249.172	14585.39
249.243	14541.13
249.314	14543.74
249.385	14517.03
249.456	14497.89
249.527	14467.24
249.598	14452.24
249.669	14424.72
249.739	14400.33
249.81	14384.23
249.881	14350.82
249.952	14319.97
250.023	14289.21
250.094	14241.25
250.165	14202.78
250.235	14167.69
250.306	14138.52
250.377	14102.22
250.448	14087.18
250.519	14042.5
250.59	14033.58
250.66	14004.75
250.731	13985.37
250.802	13940.4
250.873	13923.67
250.944	13896.58
251.014	13870.25
251.085	13865.39
251.156	13849.38
251.227	13840.03
251.297	13820.84
251.368	13804.45
251.439	13790.23
251.51	13779.05
251.58	13738.46
251.651	13707.94
251.722	13699.65
251.792	13657.47
251.863	13633.27
251.934	13616.25
252.005	13624.21
252.075	13593.16
252.146	13577.93
252.217	13568.82
252.287	13555.56
252.358	13524.57
252.429	13523.36
252.499	13487.83
252.57	13461.42
252.641	13433.7
252.711	13407.33
252.782	13367.7
252.852	13360.28
252.923	13332.85
252.994	13309.85
253.064	13304.79
253.135	13273.75
253.205	13241.59
253.276	13237.64
253.347	13232.39
253.417	13205.44
253.488	13171.4
253.558	13145.33
253.629	13124.16
253.699	13099.87
253.77	13089.89
253.841	13063.42
253.911	13033.92
253.982	13022.01
254.052	13001.91
254.123	12987.84
254.193	12963.49
254.264	12980.27
254.334	12940.11
254.405	12904.68
254.475	12872.33
254.546	12849.34
254.616	12843.99
254.687	12825.29
254.757	12809.57
254.827	12782.24
254.898	12764.26
254.968	12741.5
255.039	12718.7
255.109	12698.79
255.18	12665.34
255.25	12620.22
255.321	12608.84
255.391	12577.61
255.461	12575.1
255.532	12530.08
255.602	12512.15
255.673	12477.82
255.743	12443.16
255.813	12406.87
255.884	12395.78
255.954	12383.87
256.024	12383.78
256.095	12358.61
256.165	12323.28
256.235	12307.81
256.306	12281.83
256.376	12271.32
256.446	12258.4
256.517	12242.88
256.587	12236.03
256.657	12223.79
256.728	12209.38
256.798	12190.39
256.868	12171.2
256.938	12138.52
257.009	12130.9
257.079	12114.76
257.149	12116.83
257.219	12070.94
257.29	12057.06
257.36	12024.62
257.43	12016.14
257.5	11971.55
257.571	11946.49
257.641	11938.24
257.711	11901.9
257.781	11887.97
257.852	11865.7
257.922	11829.84
257.992	11807.67
258.062	11785.21
258.132	11773.35
258.202	11748.91
258.273	11730.21
258.343	11725.39
258.413	11701.39
258.483	11679.51
258.553	11644.9
258.623	11623.4
258.693	11618.29
258.764	11612.99
258.834	11616.7
258.904	11595.45
258.974	11568.94
259.044	11549.37
259.114	11538.82
259.184	11527.3
259.254	11511.49
259.324	11474.09
259.394	11459.15
259.464	11459.05
259.535	11432.93
259.605	11408.49
259.675	11385.02
259.745	11375.14
259.815	11344.59
259.885	11324.54
259.955	11343.1
260.025	11318.28
260.095	11294.04
260.165	11277.75
260.235	11276.93
260.305	11246.37
260.375	11213.55
260.445	11220.49
260.515	11217.79
260.585	11215.62
260.655	11194.08
260.725	11178.27
260.795	11173.94
260.865	11176.44
260.934	11147.24
261.004	11142.23
261.074	11122.9
261.144	11126.56
261.214	11114.9
261.284	11093.02
261.354	11084.69
261.424	11044.34
261.494	11056.83
261.564	11040.97
261.634	11035.72
261.703	11002.85
261.773	10991.24
261.843	10993.31
261.913	10971.82
261.983	10941.36
262.053	10922.33
262.123	10905.56
262.192	10885.08
