Data from 20250702_urea_0.5M_MAYP1162681_05-54-59-916.txt Node
Date: Thu Jul 03 05:54:59 BST 2025
User: adleo
Spectrometer: MAYP116268
Trigger mode: 0
Integration Time (sec): 1.000000E0
Scans to average: 1
Electric dark correction enabled: true
Nonlinearity correction enabled: true
Boxcar width: 10
XAxis mode: Wavelengths
Number of Pixels in Spectrum: 2068
>>>>>Begin Spectral Data<<<<<
179.565	1164.65
179.642	1218.21
179.718	1259.91
179.795	1299.16
179.871	1330.77
179.948	1349.64
180.024	1367
180.101	1384.53
180.177	1397.33
180.254	1419.53
180.33	1441.51
180.407	1493.5
180.483	1584.62
180.56	1671.18
180.636	1751.84
180.712	1739.24
180.789	1749.7
180.865	1762.9
180.942	1767.42
181.018	1776.97
181.095	1790.52
181.171	1798.31
181.248	1801.78
181.324	1816
181.4	1821.27
181.477	1832.26
181.553	1843.66
181.63	1865.15
181.706	1883.16
181.782	1892.81
181.859	1891.38
181.935	1897.04
182.011	1892.76
182.088	1910.3
182.164	1929.8
182.24	1944.01
182.317	1953.9
182.393	1952.9
182.469	1967.17
182.546	1982.52
182.622	1986.28
182.698	1980.38
182.775	1987.99
182.851	1999.26
182.927	1993.79
183.003	1990.42
183.08	1984.28
183.156	1993.18
183.232	1988.89
183.308	1978.53
183.385	1984.09
183.461	2002.59
183.537	2003.83
183.613	2016.38
183.69	2007.16
183.766	1998.02
183.842	2004.58
183.918	2009.2
183.995	2020.47
184.071	2021.23
184.147	2014.81
184.223	2005.68
184.299	2017.62
184.375	2009.2
184.452	2014.82
184.528	2071.87
184.604	2082.95
184.68	2096.02
184.756	2101.92
184.832	2105.44
184.908	2109.2
184.985	2110.29
185.061	2096.64
185.137	2103.01
185.213	2090.79
185.289	2093.17
185.365	2084.8
185.441	2081.66
185.517	2095.51
185.593	2091.23
185.669	2088.23
185.745	2098.08
185.822	2116.33
185.898	2108.58
185.974	2119.18
186.05	2111.19
186.126	2067.36
186.202	2060.42
186.278	2055.09
186.354	2047.34
186.43	2054.9
186.506	2054.05
186.582	2054.38
186.658	2059.94
186.734	2040.74
186.81	2045.82
186.886	2046.82
186.962	2058.66
187.038	2057.85
187.114	2048.48
187.19	2055.61
187.266	2047.39
187.341	2050.01
187.417	2043.25
187.493	2043.3
187.569	2045.35
187.645	2040.45
187.721	2028.22
187.797	2036.93
187.873	2041.68
187.949	2037.59
188.025	2031.5
188.101	2036.21
188.176	2041.77
188.252	2035.59
188.328	2045.53
188.404	2041.39
188.48	2039.73
188.556	2032.07
188.632	2029.64
188.707	2029.55
188.783	2025.93
188.859	2021.37
188.935	2009.29
189.011	2015.47
189.086	2010.29
189.162	2000.49
189.238	1999.35
189.314	2000.3
189.39	1993.41
189.465	1987.6
189.541	2001.54
189.617	1988.37
189.693	1981
189.768	1981.24
189.844	2005.21
189.92	1999.03
189.996	2011.21
190.071	2020.63
190.147	2022.72
190.223	2034.75
190.298	2027.19
190.374	2015.78
190.45	2029.47
190.526	2037.56
190.601	2033.8
190.677	2038.69
190.753	2067.86
190.828	2070.72
190.904	2082.37
190.98	2093.88
191.055	2101.44
191.131	2093.36
191.207	2113.57
191.282	2125.46
191.358	2118.75
191.433	2102.62
191.509	2114.46
191.585	2110.99
191.66	2111.08
191.736	2117.84
191.811	2105.95
191.887	2121.83
191.963	2143.24
192.038	2147.66
192.114	2147.9
192.189	2149.09
192.265	2141.86
192.34	2118.21
192.416	2116.5
192.491	2113.41
192.567	2117.64
192.642	2119.21
192.718	2120.45
192.793	2106.75
192.869	2100.42
192.944	2101.09
193.02	2110.46
193.095	2112.08
193.171	2115.88
193.246	2115.65
193.322	2110.98
193.397	2114.12
193.473	2103.08
193.548	2084.72
193.624	2090.67
193.699	2090.67
193.775	2107.09
193.85	2108.46
193.925	2117.12
194.001	2118.12
194.076	2110.94
194.152	2100.38
194.227	2094.62
194.302	2083.21
194.378	2087.82
194.453	2086.25
194.529	2099.29
194.604	2084.73
194.679	2078.64
194.755	2060.15
194.83	2073.57
194.905	2073.33
194.981	2079.7
195.056	2072.09
195.131	2079.37
195.207	2078.18
195.282	2065.44
195.357	2044.69
195.433	2061.48
195.508	2051.35
195.583	2058.29
195.659	2073.14
195.734	2082.22
195.809	2080.75
195.884	2091.07
195.96	2095.01
196.035	2107.76
196.11	2104.1
196.185	2116.56
196.261	2118.7
196.336	2149.28
196.411	2133.34
196.486	2140.05
196.561	2136.24
196.637	2143.99
196.712	2160.65
196.787	2161.22
196.862	2179.87
196.937	2190.42
197.013	2195.61
197.088	2204.93
197.163	2225.26
197.238	2242.88
197.313	2244.07
197.388	2259.15
197.464	2290.95
197.539	2297.66
197.614	2291.19
197.689	2303.37
197.764	2319.03
197.839	2340.78
197.914	2334.35
197.989	2355.63
198.065	2364.96
198.14	2413.11
198.215	2440.39
198.29	2451.1
198.365	2464.77
198.44	2476
198.515	2505.24
198.59	2519.29
198.665	2546.76
198.74	2555.34
198.815	2554.05
198.89	2572.43
198.965	2602.59
199.04	2596.87
199.115	2615.11
199.19	2658.87
199.265	2661.72
199.34	2673.54
199.415	2706.23
199.49	2726.76
199.565	2736.71
199.64	2763.77
199.715	2761.77
199.79	2768.63
199.865	2773.82
199.94	2771.44
200.015	2803.8
200.09	2806.62
200.165	2812.91
200.24	2817.39
200.315	2857.55
200.39	2873.75
200.464	2879.18
200.539	2876.66
200.614	2891.81
200.689	2914.45
200.764	2921.89
200.839	2940.57
200.914	2942.76
200.989	2931.55
201.063	2945.76
201.138	2928.7
201.213	2924.65
201.288	2905.4
201.363	2911.21
201.438	2911.4
201.512	2929.94
201.587	2911.91
201.662	2916.68
201.737	2928.12
201.812	2932.17
201.886	2899.35
201.961	2910.51
202.036	2901.7
202.111	2901.51
202.186	2872.83
202.26	2855.62
202.335	2835.69
202.41	2828.64
202.485	2813.44
202.559	2794.53
202.634	2770.56
202.709	2779.32
202.784	2761.45
202.858	2763.93
202.933	2743.06
203.008	2743.44
203.082	2722.2
203.157	2719.05
203.232	2677.53
203.306	2657.65
203.381	2629.93
203.456	2605.87
203.53	2580.17
203.605	2560.7
203.68	2536.69
203.754	2530.36
203.829	2512.31
203.904	2491.5
203.978	2481.26
204.053	2484.93
204.127	2473.03
204.202	2470.55
204.277	2453.32
204.351	2445.18
204.426	2437.13
204.5	2429.51
204.575	2392.14
204.65	2401.67
204.724	2395.76
204.799	2404.42
204.873	2399.89
204.948	2399.18
205.022	2388.57
205.097	2383.8
205.171	2396.13
205.246	2402.18
205.32	2400.66
205.395	2401.8
205.469	2391.38
205.544	2393.95
205.618	2376.1
205.693	2387.33
205.767	2372.63
205.842	2396.96
205.916	2393.53
205.991	2382.82
206.065	2386.53
206.14	2402.23
206.214	2395.42
206.289	2388.09
206.363	2398.56
206.438	2399.8
206.512	2406.61
206.586	2427.17
206.661	2433.03
206.735	2413.33
206.81	2416.43
206.884	2434.66
206.958	2424.23
207.033	2442.27
207.107	2451.6
207.181	2486.42
207.256	2484.04
207.33	2505.46
207.405	2515.8
207.479	2538.18
207.553	2544.9
207.628	2531.43
207.702	2542.38
207.776	2542.85
207.851	2548.81
207.925	2568.63
207.999	2574.29
208.073	2575.39
208.148	2580.96
208.222	2572.06
208.296	2607.19
208.371	2623.11
208.445	2638.35
208.519	2673.41
208.593	2692.79
208.668	2696.51
208.742	2703.33
208.816	2714.71
208.89	2737.54
208.965	2748.37
209.039	2762.19
209.113	2793.16
209.187	2830.45
209.261	2843.89
209.336	2877.06
209.41	2911.67
209.484	2929.6
209.558	2968.32
209.632	3000.59
209.707	3032.64
209.781	3078.6
209.855	3115.81
209.929	3162.39
210.003	3193.21
210.077	3219.54
210.151	3295.61
210.226	3359.73
210.3	3419.62
210.374	3472.29
210.448	3515.55
210.522	3557.28
210.596	3608.51
210.67	3655.88
210.744	3736.22
210.818	3808.18
210.892	3872.35
210.966	3911.27
211.041	3970.91
211.115	4008.79
211.189	4080.72
211.263	4145.68
211.337	4199.83
211.411	4269.99
211.485	4315.87
211.559	4385.2
211.633	4445.05
211.707	4473.49
211.781	4537.74
211.855	4566.31
211.929	4617.78
212.003	4659.2
212.077	4736.67
212.151	4815.35
212.225	4889.37
212.299	4945.95
212.373	5004.85
212.447	5068.72
212.52	5166.35
212.594	5241.77
212.668	5332.47
212.742	5391.36
212.816	5463.41
212.89	5537.6
212.964	5610.4
213.038	5691.11
213.112	5779.23
213.186	5869.81
213.26	5922.35
213.333	5961.16
213.407	6044.71
213.481	6130.17
213.555	6218.42
213.629	6288.65
213.703	6352.06
213.777	6429.26
213.85	6497.87
213.924	6611.31
213.998	6693.78
214.072	6768.24
214.146	6833.95
214.219	6908.08
214.293	6987.57
214.367	7069.74
214.441	7159.54
214.515	7225.58
214.588	7286.47
214.662	7332.99
214.736	7397.21
214.81	7492.59
214.883	7578.62
214.957	7651.73
215.031	7724.66
215.105	7785.51
215.178	7850.91
215.252	7921.75
215.326	7984.18
215.4	8043.57
215.473	8073.79
215.547	8131.71
215.621	8198.6
215.694	8282.51
215.768	8340.39
215.842	8406.26
215.915	8466.9
215.989	8514.73
216.063	8584.28
216.136	8658.88
216.21	8731.25
216.284	8814.05
216.357	8883.36
216.431	8955.04
216.504	9034.91
216.578	9131.59
216.652	9217.46
216.725	9293.54
216.799	9378.97
216.873	9452.4
216.946	9530.74
217.02	9600.7
217.093	9671.25
217.167	9719.37
217.24	9777.5
217.314	9842.23
217.387	9905.56
217.461	9965.92
217.535	10048.48
217.608	10107.01
217.682	10180.52
217.755	10260.49
217.829	10323.99
217.902	10393.99
217.976	10461.54
218.049	10522.05
218.123	10572.55
218.196	10647.57
218.27	10705.83
218.343	10759.32
218.417	10829.91
218.49	10894.24
218.563	10975.87
218.637	11048.06
218.71	11136.06
218.784	11205.94
218.857	11285.31
218.931	11359.52
219.004	11430.03
219.077	11505.75
219.151	11578.91
219.224	11635.11
219.298	11708.42
219.371	11784.33
219.444	11837.73
219.518	11912.3
219.591	11976.89
219.665	12075.61
219.738	12141.26
219.811	12202.23
219.885	12276.56
219.958	12344.96
220.031	12412.64
220.105	12484.8
220.178	12555.66
220.251	12617.31
220.325	12695.26
220.398	12762.22
220.471	12832.45
220.544	12909
220.618	12958.6
220.691	13026.38
220.764	13099.8
220.838	13161.93
220.911	13216.75
220.984	13305.64
221.057	13373.08
221.131	13444.18
221.204	13462.69
221.277	13540.16
221.35	13626.5
221.424	13677.79
221.497	13743.3
221.57	13799.56
221.643	13859.19
221.716	13918.44
221.79	13966.93
221.863	14026.32
221.936	14089.23
222.009	14145.53
222.082	14202.18
222.155	14260.17
222.229	14329.15
222.302	14376.97
222.375	14429.13
222.448	14489.91
222.521	14534.94
222.594	14588.93
222.667	14628.5
222.74	14699.89
222.814	14746.65
222.887	14792.93
222.96	14866.77
223.033	14925.34
223.106	14983.48
223.179	15041.95
223.252	15091.79
223.325	15149.25
223.398	15193.98
223.471	15242.18
223.544	15294.09
223.617	15344.13
223.69	15399.56
223.763	15433.3
223.837	15499.19
223.91	15544.55
223.983	15579.16
224.056	15618.59
224.129	15661.05
224.202	15720.97
224.275	15760.2
224.348	15793.7
224.42	15827.25
224.493	15841.42
224.566	15867.16
224.639	15912.85
224.712	15944.37
224.785	15978.01
224.858	16019.85
224.931	16052.05
225.004	16082.7
225.077	16116.06
225.15	16133.94
225.223	16166.23
225.296	16228.36
225.369	16236.84
225.442	16267.16
225.514	16310.24
225.587	16352.08
225.66	16390.78
225.733	16425.34
225.806	16466.55
225.879	16509.2
225.952	16543.42
226.025	16603.14
226.097	16664.1
226.17	16699.91
226.243	16716.39
226.316	16762.37
226.389	16800.16
226.461	16843.97
226.534	16885.61
226.607	16922.04
226.68	16980.21
226.753	17027.54
226.825	17047.88
226.898	17102.63
226.971	17142.53
227.044	17179.64
227.117	17211.07
227.189	17244.61
227.262	17286.3
227.335	17324.99
227.407	17352.75
227.48	17390.68
227.553	17419.89
227.626	17439.02
227.698	17470.78
227.771	17510.1
227.844	17532.56
227.916	17562.39
227.989	17574.3
228.062	17599.94
228.134	17654.3
228.207	17675.98
228.28	17693.19
228.352	17712.46
228.425	17746.58
228.498	17789.09
228.57	17802.34
228.643	17846.82
228.716	17867.11
228.788	17892.6
228.861	17915.25
228.934	17939.54
229.006	17959.25
229.079	17979.93
229.151	17995.83
229.224	17998.77
229.296	18023.59
229.369	18063.49
229.442	18094.72
229.514	18109.22
229.587	18142.04
229.659	18142.91
229.732	18175.39
229.804	18206.95
229.877	18260.35
229.949	18294.27
230.022	18334.27
230.094	18361.02
230.167	18388.68
230.239	18408.58
230.312	18420.34
230.384	18451.9
230.457	18481.64
230.529	18508.14
230.602	18538.84
230.674	18564.33
230.747	18613.34
230.819	18649.24
230.892	18651.89
230.964	18682.93
231.037	18722.11
231.109	18741.43
231.181	18771.11
231.254	18776.13
231.326	18786.58
231.399	18790.05
231.471	18785.28
231.544	18771.36
231.616	18803.93
231.688	18815.69
231.761	18827.54
231.833	18840.94
231.905	18826.73
231.978	18837.71
232.05	18850.39
232.122	18851.59
232.195	18854.53
232.267	18870.67
232.339	18874.43
232.412	18894.43
232.484	18897.03
232.556	18887.01
232.629	18915.01
232.701	18929.66
232.773	18941.85
232.846	18946.72
232.918	18950.72
232.99	18964.84
233.062	18980.88
233.135	18972.35
233.207	18962.62
233.279	18983.73
233.351	18992.31
233.424	19001.36
233.496	18997.56
233.568	19020.3
233.64	19011.87
233.713	19024.01
233.785	19023.58
233.857	19027.24
233.929	19012.64
234.001	19024.26
234.074	19043.15
234.146	19021.07
234.218	19014.57
234.29	19012.4
234.362	19012.64
234.434	18996.84
234.507	18990.86
234.579	18974.67
234.651	18974.81
234.723	18983.39
234.795	18980.07
234.867	18973.75
234.939	18985.13
235.012	18994.23
235.084	18982.76
235.156	18987.97
235.228	18965.95
235.3	18950.43
235.372	18950.33
235.444	18962.33
235.516	18926
235.588	18930
235.66	18924.6
235.732	18906.09
235.804	18956.65
235.876	18953.51
235.948	18973.51
236.02	18967.1
236.092	18957.03
236.164	18950.38
236.236	18928.21
236.308	18912.36
236.38	18908.65
236.452	18892.46
236.524	18877.61
236.596	18890.77
236.668	18891.54
236.74	18893.28
236.812	18889.42
236.884	18887.64
236.956	18867.49
237.028	18861.47
237.1	18828.99
237.172	18830.53
237.244	18833.13
237.316	18775.26
237.388	18762.44
237.46	18723.5
237.532	18720.47
237.604	18704.95
237.675	18696.61
237.747	18698.3
237.819	18671.12
237.891	18655.94
237.963	18628.38
238.035	18611.17
238.107	18547.18
238.178	18536.53
238.25	18518.74
238.322	18524.77
238.394	18482.6
238.466	18461.4
238.538	18445.11
238.609	18447.47
238.681	18404.2
238.753	18380.78
238.825	18366.7
238.897	18338.66
238.968	18342.32
239.04	18306.32
239.112	18312.92
239.184	18291.57
239.255	18260.78
239.327	18251.48
239.399	18233.31
239.471	18225.75
239.542	18209.36
239.614	18204.4
239.686	18148.93
239.758	18137.94
239.829	18092.21
239.901	18081.27
239.973	18060.21
240.044	18044.12
240.116	18020.6
240.188	18003.15
240.259	17972.7
240.331	17937.57
240.403	17920.46
240.474	17881.23
240.546	17854.34
240.618	17812.99
240.689	17784.37
240.761	17765.52
240.833	17745.52
240.904	17709.23
240.976	17687.84
241.048	17651.55
241.119	17639.98
241.191	17635.65
241.262	17620.71
241.334	17597.09
241.405	17570.44
241.477	17539.45
241.549	17499.36
241.62	17453.96
241.692	17434.06
241.763	17420.95
241.835	17395.02
241.906	17370.49
241.978	17330.44
242.049	17313.67
242.121	17291.12
242.192	17270.92
242.264	17225.81
242.335	17191.45
242.407	17174.25
242.478	17136.7
242.55	17117.47
242.621	17073.71
242.693	17037.37
242.764	17000.36
242.836	16972.6
242.907	16951.2
242.979	16925.85
243.05	16908.17
243.122	16890.72
243.193	16858.09
243.264	16807.15
243.336	16782.52
243.407	16763.77
243.479	16753.36
243.55	16735
243.622	16711.92
243.693	16687.63
243.764	16674.66
243.836	16630.13
243.907	16590.27
243.978	16553.54
244.05	16534.84
244.121	16489.73
244.192	16469.97
244.264	16422.74
244.335	16390.83
244.407	16340.08
244.478	16318.34
244.549	16285.37
244.62	16251.2
244.692	16221.85
244.763	16204.11
244.834	16159.24
244.906	16113.93
244.977	16086.75
245.048	16067.66
245.119	16029.44
245.191	15982.59
245.262	15930.35
245.333	15920.61
245.405	15900.7
245.476	15876.36
245.547	15846
245.618	15828.31
245.689	15799.77
245.761	15774.52
245.832	15741.02
245.903	15729.55
245.974	15696.19
246.045	15660.14
246.117	15643.94
246.188	15599.02
246.259	15552.02
246.33	15522.76
246.401	15495.43
246.473	15450.75
246.544	15413.54
246.615	15391.27
246.686	15359.31
246.757	15345.82
246.828	15294.34
246.899	15278.24
246.97	15231.82
247.042	15192.2
247.113	15171.23
247.184	15162.12
247.255	15133.68
247.326	15106.49
247.397	15061.37
247.468	15040.74
247.539	15015.39
247.61	14974.8
247.681	14958.17
247.752	14949.74
247.823	14914.98
247.894	14883.65
247.965	14848.17
248.037	14812.16
248.108	14765.89
248.179	14738.26
248.25	14700.76
248.321	14687.17
248.392	14649.62
248.463	14651.64
248.534	14618.19
248.605	14598.04
248.675	14561.79
248.746	14538.41
248.817	14519.27
248.888	14503.99
248.959	14453.47
249.03	14433.61
249.101	14405.17
249.172	14375.67
249.243	14325.68
249.314	14317.1
249.385	14295.12
249.456	14276.03
249.527	14239.87
249.598	14223.15
249.669	14197.12
249.739	14177.01
249.81	14153.92
249.881	14109
249.952	14076.84
250.023	14053.37
250.094	14009.02
250.165	13973.49
250.235	13944.52
250.306	13918.05
250.377	13877.75
250.448	13863.05
250.519	13816.34
250.59	13800.38
250.66	13768.18
250.731	13758.44
250.802	13726.53
250.873	13699.29
250.944	13676.06
251.014	13643.76
251.085	13639.37
251.156	13624.96
251.227	13617.48
251.297	13615.17
251.368	13596.66
251.439	13586.01
251.51	13577.14
251.58	13548.07
251.651	13512.83
251.722	13500.97
251.792	13459.32
251.863	13439.89
251.934	13428.71
252.005	13435.21
252.075	13412.51
252.146	13397.52
252.217	13388.74
252.287	13371.15
252.358	13348.15
252.429	13341.02
252.499	13319.76
252.57	13292.52
252.641	13278.54
252.711	13253.43
252.782	13204.79
252.852	13201.85
252.923	13169.6
252.994	13138.99
253.064	13128.33
253.135	13098.69
253.205	13065.57
253.276	13064.22
253.347	13050.58
253.417	13013.65
253.488	12987.71
253.558	12963.47
253.629	12946.93
253.699	12923.31
253.77	12912.03
253.841	12893.95
253.911	12869.85
253.982	12849.65
254.052	12836.3
254.123	12811.67
254.193	12783.23
254.264	12796.67
254.334	12767.46
254.405	12738.15
254.475	12705.81
254.546	12680.84
254.616	12676.89
254.687	12654.66
254.757	12632.58
254.827	12611.86
254.898	12597.73
254.968	12575.41
255.039	12545.62
255.109	12528.08
255.18	12502.14
255.25	12453.46
255.321	12439.48
255.391	12405.64
255.461	12401.88
255.532	12359.07
255.602	12334.54
255.673	12301.86
255.743	12273.22
255.813	12232.06
255.884	12228.83
255.954	12218.37
256.024	12216.34
256.095	12197.16
256.165	12170.31
256.235	12151.46
256.306	12124.81
256.376	12120.52
256.446	12103.31
256.517	12085.14
256.587	12069.62
256.657	12045.61
256.728	12036.74
256.798	12012.5
256.868	11991.82
256.938	11964.2
257.009	11948.05
257.079	11927.86
257.149	11935.62
257.219	11894.79
257.29	11885.1
257.36	11846.06
257.43	11835.74
257.5	11793.28
257.571	11768.31
257.641	11757.18
257.711	11728.21
257.781	11720.98
257.852	11706.42
257.922	11674.37
257.992	11659.38
258.062	11643.77
258.132	11631.33
258.202	11609.4
258.273	11592.29
258.343	11591.76
258.413	11563.86
258.483	11543.61
258.553	11517.68
258.623	11484.62
258.693	11470.06
258.764	11461.73
258.834	11456.57
258.904	11439.7
258.974	11420.13
259.044	11397.48
259.114	11383.65
259.184	11368.85
259.254	11340.61
259.324	11296.56
259.394	11283.45
259.464	11279.69
259.535	11252.94
259.605	11232.51
259.675	11210.97
259.745	11192.75
259.815	11159.35
259.885	11141.38
259.955	11155.5
260.025	11130.06
260.095	11116.95
260.165	11106.54
260.235	11101.29
260.305	11072.03
260.375	11037.38
260.445	11038.35
260.515	11040.18
260.585	11033.82
260.655	11022.83
260.725	11021.77
260.795	11014.4
260.865	11014.78
260.934	10984.09
261.004	10976.23
261.074	10967.8
261.144	10963.85
261.214	10962.21
261.284	10944.91
261.354	10940.91
261.424	10908.38
261.494	10916.62
261.564	10895.85
261.634	10884.14
261.703	10850.79
261.773	10840
261.843	10833.35
261.913	10813.93
261.983	10777.16
262.053	10763.86
262.123	10746.13
262.192	10711.78
262.262	10702.09
