Data from 20250702_urea_0.5M_MAYP1162681_01-05-00-335.txt Node
Date: Thu Jul 03 01:05:00 BST 2025
User: adleo
Spectrometer: MAYP116268
Trigger mode: 0
Integration Time (sec): 1.000000E0
Scans to average: 1
Electric dark correction enabled: true
Nonlinearity correction enabled: true
Boxcar width: 10
XAxis mode: Wavelengths
Number of Pixels in Spectrum: 2068
>>>>>Begin Spectral Data<<<<<
179.565	1213.55
179.642	1267.02
179.718	1310.43
179.795	1349.55
179.871	1377.74
179.948	1396.3
180.024	1416.6
180.101	1437.81
180.177	1454.53
180.254	1476.81
180.33	1501.68
180.407	1556.23
180.483	1651.01
180.56	1741.57
180.636	1828.11
180.712	1816.7
180.789	1824.17
180.865	1836.47
180.942	1844.46
181.018	1857.81
181.095	1870.37
181.171	1874.69
181.248	1876.93
181.324	1890.72
181.4	1900.75
181.477	1914.78
181.553	1925.52
181.63	1946.01
181.706	1962.46
181.782	1969.83
181.859	1967.59
181.935	1971.3
182.011	1968.64
182.088	1985.66
182.164	2004.69
182.24	2017.15
182.317	2029.89
182.393	2027.13
182.469	2041.4
182.546	2056.09
182.622	2060.61
182.698	2055.95
182.775	2064.42
182.851	2078.92
182.927	2076.02
183.003	2069.79
183.08	2062.66
183.156	2073.79
183.232	2070.12
183.308	2059.47
183.385	2066.7
183.461	2086.63
183.537	2086.53
183.613	2096.42
183.69	2086.91
183.766	2074.97
183.842	2084.05
183.918	2086.05
183.995	2098.46
184.071	2098.42
184.147	2096.37
184.223	2083.96
184.299	2095.28
184.375	2086.91
184.452	2093.48
184.528	2145.16
184.604	2154.01
184.68	2168.13
184.756	2175.22
184.832	2182.93
184.908	2189.58
184.985	2188.06
185.061	2173.89
185.137	2186.59
185.213	2176.32
185.289	2178.6
185.365	2171.04
185.441	2165.33
185.517	2178.37
185.593	2177.61
185.669	2176.32
185.745	2184.7
185.822	2201.29
185.898	2193.54
185.974	2202.34
186.05	2194.48
186.126	2155.37
186.202	2150.8
186.278	2147.75
186.354	2140.28
186.43	2147.57
186.506	2143.57
186.582	2144.86
186.658	2150.94
186.734	2126.54
186.81	2130.54
186.886	2134.72
186.962	2151.23
187.038	2150.8
187.114	2144.57
187.19	2154.18
187.266	2147.33
187.341	2148.99
187.417	2143.62
187.493	2145.38
187.569	2147.24
187.645	2141.1
187.721	2129.35
187.797	2136.29
187.873	2137.72
187.949	2129.35
188.025	2122.11
188.101	2126.44
188.176	2130.1
188.252	2123.4
188.328	2130.86
188.404	2131.91
188.48	2124.87
188.556	2117.73
188.632	2113.31
188.707	2114.17
188.783	2107.84
188.859	2103.18
188.935	2088.29
189.011	2095.56
189.086	2087.91
189.162	2079.2
189.238	2076.97
189.314	2077.73
189.39	2070.36
189.465	2064.17
189.541	2082.01
189.617	2066.89
189.693	2063.89
189.768	2069.03
189.844	2094.67
189.92	2089.21
189.996	2095.91
190.071	2106.81
190.147	2102.53
190.223	2116.89
190.298	2106.38
190.374	2095.11
190.45	2106.81
190.526	2115.56
190.601	2111.56
190.677	2111.75
190.753	2140.31
190.828	2144.49
190.904	2156.01
190.98	2169.19
191.055	2181.46
191.131	2173.18
191.207	2192.54
191.282	2200.44
191.358	2191.3
191.433	2175.6
191.509	2186.01
191.585	2184.54
191.66	2184.68
191.736	2194.81
191.811	2183.34
191.887	2203.28
191.963	2226.69
192.038	2230.26
192.114	2229.5
192.189	2231.97
192.265	2229.55
192.34	2208.41
192.416	2206.56
192.491	2203.04
192.567	2207.75
192.642	2209.8
192.718	2209.51
192.793	2198.09
192.869	2195.38
192.944	2196.9
193.02	2205.42
193.095	2210.6
193.171	2212.6
193.246	2215.22
193.322	2210.99
193.397	2212.36
193.473	2199.18
193.548	2178.48
193.624	2185.19
193.699	2186.76
193.775	2203.66
193.85	2205.18
193.925	2211.13
194.001	2211.98
194.076	2204.42
194.152	2196.99
194.227	2187.14
194.302	2177.96
194.378	2181.29
194.453	2176.68
194.529	2191.29
194.604	2177.49
194.679	2172.02
194.755	2155.52
194.83	2167.09
194.905	2164.14
194.981	2170.37
195.056	2160.57
195.131	2169.08
195.207	2166.66
195.282	2154
195.357	2133.4
195.433	2149.91
195.508	2139.87
195.583	2146.67
195.659	2160.37
195.734	2166.18
195.809	2167.85
195.884	2176.31
195.96	2178.93
196.035	2195.39
196.11	2186.63
196.185	2197.81
196.261	2203.24
196.336	2234.11
196.411	2218.69
196.486	2225.64
196.561	2219.69
196.637	2228.59
196.712	2242.91
196.787	2245.67
196.862	2263.85
196.937	2274.17
197.013	2279.88
197.088	2289.87
197.163	2310.3
197.238	2327.54
197.313	2326.25
197.388	2339.82
197.464	2370.91
197.539	2381.86
197.614	2373.67
197.689	2388
197.764	2407.04
197.839	2423.13
197.914	2416.09
197.989	2438.08
198.065	2455.17
198.14	2508.24
198.215	2539.67
198.29	2554.44
198.365	2569.58
198.44	2578.53
198.515	2608.02
198.59	2623.07
198.665	2652.74
198.74	2657.98
198.815	2660.22
198.89	2686.27
198.965	2716.2
199.04	2712.67
199.115	2725.3
199.19	2769.45
199.265	2771.88
199.34	2780.65
199.415	2816.26
199.49	2841.55
199.565	2852.37
199.64	2872
199.715	2865.23
199.79	2869.66
199.865	2873.24
199.94	2870.52
200.015	2904.65
200.09	2907.66
200.165	2913.61
200.24	2919.1
200.315	2964.13
200.39	2979.77
200.464	2983.68
200.539	2983.1
200.614	2997.88
200.689	3022.1
200.764	3029.54
200.839	3050.89
200.914	3053.89
200.989	3043.68
201.063	3055.03
201.138	3036.02
201.213	3041.03
201.288	3026.21
201.363	3030.16
201.438	3033.74
201.512	3049.99
201.587	3035.16
201.662	3038.78
201.737	3052.13
201.812	3061.38
201.886	3026.79
201.961	3032.85
202.036	3020.22
202.111	3019.5
202.186	2991.2
202.26	2972.98
202.335	2949.53
202.41	2941.37
202.485	2926.93
202.559	2908.2
202.634	2881.89
202.709	2895.37
202.784	2876.4
202.858	2875.21
202.933	2855.91
203.008	2843.99
203.082	2824.12
203.157	2819.74
203.232	2777.01
203.306	2754.94
203.381	2720.24
203.456	2697.37
203.53	2675.87
203.605	2655.06
203.68	2630.04
203.754	2625.14
203.829	2614.56
203.904	2593.18
203.978	2578.74
204.053	2581.17
204.127	2567.55
204.202	2565.31
204.277	2544.6
204.351	2535.45
204.426	2527.16
204.5	2517.97
204.575	2488.03
204.65	2498.03
204.724	2490.46
204.799	2500.21
204.873	2497.45
204.948	2496.97
205.022	2485.88
205.097	2475.64
205.171	2490.11
205.246	2499.49
205.32	2495.97
205.395	2493.92
205.469	2485.03
205.544	2495.03
205.618	2479.6
205.693	2490.84
205.767	2479.75
205.842	2503.42
205.916	2493.8
205.991	2484.66
206.065	2489.09
206.14	2500.5
206.214	2494.6
206.289	2488.21
206.363	2500.88
206.438	2502.26
206.512	2512.07
206.586	2532.21
206.661	2544.08
206.735	2522.94
206.81	2523.8
206.884	2541.08
206.958	2526.47
207.033	2544.6
207.107	2551.23
207.181	2582.86
207.256	2580.48
207.33	2597.1
207.405	2610.16
207.479	2635.35
207.553	2643.4
207.628	2634.17
207.702	2651.17
207.776	2649.26
207.851	2658.55
207.925	2676.32
207.999	2679.95
208.073	2681.95
208.148	2690.14
208.222	2679.85
208.296	2720.14
208.371	2743.69
208.445	2763.52
208.519	2802.25
208.593	2824.26
208.668	2829.46
208.742	2841.81
208.816	2855.3
208.89	2883.28
208.965	2894.73
209.039	2921.25
209.113	2957.1
209.187	2994.36
209.261	3008.46
209.336	3047.47
209.41	3087.34
209.484	3113.68
209.558	3158.47
209.632	3199.88
209.707	3237.33
209.781	3295
209.855	3339.58
209.929	3393.47
210.003	3431.03
210.077	3465.54
210.151	3551.88
210.226	3628.31
210.3	3700.82
210.374	3766.99
210.448	3821.36
210.522	3882.62
210.596	3936.39
210.67	3993.34
210.744	4087.37
210.818	4176.43
210.892	4256.1
210.966	4308.4
211.041	4383.73
211.115	4442.36
211.189	4526.99
211.263	4609.52
211.337	4679.81
211.411	4763.11
211.485	4821.15
211.559	4908.7
211.633	4987.52
211.707	5034.14
211.781	5121.62
211.855	5166.42
211.929	5240.56
212.003	5303.88
212.077	5395.88
212.151	5495.98
212.225	5596.65
212.299	5675.85
212.373	5752.56
212.447	5838.34
212.52	5956.96
212.594	6052.4
212.668	6160.16
212.742	6244.25
212.816	6338.57
212.89	6437.35
212.964	6539.69
213.038	6648.08
213.112	6755.28
213.186	6874.09
213.26	6956.78
213.333	7010.88
213.407	7117.32
213.481	7225.32
213.555	7337
213.629	7431.94
213.703	7515.88
213.777	7619.12
213.85	7714.56
213.924	7853.74
213.998	7961.19
214.072	8060.87
214.146	8152.84
214.219	8257.48
214.293	8356.34
214.367	8461.81
214.441	8569.65
214.515	8657.39
214.588	8738.73
214.662	8815.06
214.736	8897.95
214.81	9009.27
214.883	9123.14
214.957	9215.76
215.031	9302.94
215.105	9387.23
215.178	9476.41
215.252	9570.84
215.326	9643.22
215.4	9719.11
215.473	9774.7
215.547	9852.45
215.621	9932.6
215.694	10041.24
215.768	10116.82
215.842	10204.49
215.915	10287.27
215.989	10363.1
216.063	10454.41
216.136	10558.96
216.21	10658.7
216.284	10763.12
216.357	10853.37
216.431	10939.33
216.504	11040.14
216.578	11155.9
216.652	11267.6
216.725	11355.84
216.799	11453.29
216.873	11547.75
216.946	11643.8
217.02	11734.45
217.093	11822.27
217.167	11893.89
217.24	11960.07
217.314	12037.82
217.387	12114.79
217.461	12189.22
217.535	12289.24
217.608	12359.23
217.682	12429.51
217.755	12508.08
217.829	12578.22
217.902	12657.66
217.976	12738.5
218.049	12801.45
218.123	12861.28
218.196	12935.46
218.27	12999.63
218.343	13066.97
218.417	13152.92
218.49	13231.35
218.563	13324
218.637	13406.34
218.71	13503.67
218.784	13583.11
218.857	13669.21
218.931	13750.05
219.004	13829.35
219.077	13904.45
219.151	13982.26
219.224	14056.01
219.298	14136.66
219.371	14215.14
219.444	14279.4
219.518	14351.32
219.591	14424.3
219.665	14522.3
219.738	14595.82
219.811	14662.2
219.885	14739.27
219.958	14802.13
220.031	14862.63
220.105	14925.87
220.178	14989.98
220.251	15050.86
220.325	15125.33
220.398	15199.52
220.471	15264.88
220.544	15345.38
220.618	15399.31
220.691	15463.18
220.764	15529.02
220.838	15594.58
220.911	15657.04
220.984	15750.46
221.057	15824.2
221.131	15895.97
221.204	15931.01
221.277	16009.38
221.35	16109.78
221.424	16167.86
221.497	16231.82
221.57	16299.83
221.643	16355.59
221.716	16416.32
221.79	16468.62
221.863	16522.74
221.936	16575.18
222.009	16633.5
222.082	16677.84
222.155	16726.9
222.229	16798.71
222.302	16845.8
222.375	16891.87
222.448	16956.84
222.521	16995.59
222.594	17032.65
222.667	17071.59
222.74	17127.79
222.814	17160.03
222.887	17202.77
222.96	17256.9
223.033	17316.9
223.106	17367.5
223.179	17427.02
223.252	17486.53
223.325	17541.14
223.398	17590
223.471	17635.5
223.544	17680.85
223.617	17731.21
223.69	17773.52
223.763	17800.31
223.837	17851.88
223.91	17904.99
223.983	17912.65
224.056	17938.72
224.129	17985.52
224.202	18032.41
224.275	18071.06
224.348	18103.87
224.42	18113.66
224.493	18137.08
224.566	18160.35
224.639	18195.77
224.712	18212.88
224.785	18235.43
224.858	18255.24
224.931	18279
225.004	18302.9
225.077	18335.48
225.15	18341.5
225.223	18377.69
225.296	18439.04
225.369	18447.42
225.442	18461.2
225.514	18495.9
225.587	18530.16
225.66	18567.13
225.733	18592.57
225.806	18624.62
225.879	18656.37
225.952	18686.06
226.025	18726.92
226.097	18773.91
226.17	18800.08
226.243	18810.1
226.316	18837.81
226.389	18875.93
226.461	18907.01
226.534	18934.09
226.607	18953.42
226.68	19001.51
226.753	19028.4
226.825	19021.94
226.898	19065.6
226.971	19095.09
227.044	19123.77
227.117	19146.8
227.189	19171.57
227.262	19214.89
227.335	19245.4
227.407	19264.77
227.48	19296.05
227.553	19320.38
227.626	19333.06
227.698	19350.55
227.771	19379.32
227.844	19376.57
227.916	19395.46
227.989	19401.1
228.062	19419.75
228.134	19455.65
228.207	19467.75
228.28	19474.97
228.352	19495.21
228.425	19510.83
228.498	19538.92
228.57	19550.83
228.643	19587.4
228.716	19598.63
228.788	19602.63
228.861	19602.53
228.934	19634.19
229.006	19639.3
229.079	19650.39
229.151	19663.93
229.224	19667.16
229.296	19684.79
229.369	19723.4
229.442	19741.85
229.514	19757.9
229.587	19775.78
229.659	19779.2
229.732	19797.32
229.804	19824.21
229.877	19859.05
229.949	19889.51
230.022	19915.97
230.094	19938.04
230.167	19948.35
230.239	19940.35
230.312	19951.82
230.384	19983.48
230.457	19982.42
230.529	19997.75
230.602	20012.59
230.674	20024.59
230.747	20051.29
230.819	20078.47
230.892	20072.63
230.964	20080.54
231.037	20091.14
231.109	20106.22
231.181	20125.45
231.254	20134.03
231.326	20137.26
231.399	20140.68
231.471	20136.2
231.544	20114.61
231.616	20125.55
231.688	20124.15
231.761	20139.38
231.833	20145.79
231.905	20130.61
231.978	20147.33
232.05	20156.15
232.122	20159.19
232.195	20149.35
232.267	20166.13
232.339	20159.23
232.412	20177.4
232.484	20175.81
232.556	20172.82
232.629	20192.53
232.701	20199.33
232.773	20190.03
232.846	20187.33
232.918	20186.32
232.99	20182.9
233.062	20195.96
233.135	20202.32
233.207	20196.92
233.279	20199.38
233.351	20202.7
233.424	20196.29
233.496	20179.43
233.568	20185.79
233.64	20166.27
233.713	20160.58
233.785	20148.34
233.857	20142.95
233.929	20111.43
234.001	20129.12
234.074	20142.27
234.146	20114.8
234.218	20099.77
234.29	20095.28
234.362	20076.49
234.434	20043
234.507	20022.76
234.579	19990.42
234.651	19973.41
234.723	19967.53
234.795	19966.71
234.867	19945.22
234.939	19951.82
235.012	19941.12
235.084	19935.43
235.156	19928.01
235.228	19917.99
235.3	19907.82
235.372	19894.81
235.444	19905.56
235.516	19860.4
235.588	19846.76
235.66	19826.28
235.732	19802.96
235.804	19845.85
235.876	19845.95
235.948	19861.22
236.02	19854.04
236.092	19849.99
236.164	19832.26
236.236	19814.24
236.308	19786.96
236.38	19776.98
236.452	19751.06
236.524	19737.71
236.596	19732.65
236.668	19728.65
236.74	19706.87
236.812	19681.42
236.884	19669.38
236.956	19645.76
237.028	19617.38
237.1	19582.06
237.172	19582.3
237.244	19587.36
237.316	19516.8
237.388	19480.37
237.46	19441.92
237.532	19431.84
237.604	19402.16
237.675	19393.44
237.747	19378.98
237.819	19349.39
237.891	19329.2
237.963	19294.89
238.035	19264
238.107	19210.03
238.178	19193.16
238.25	19164.05
238.322	19164.29
238.394	19122.76
238.466	19096.3
238.538	19087.24
238.609	19073.26
238.681	19028.01
238.753	18979.34
238.825	18960.6
238.897	18949.27
238.968	18944.45
239.04	18909.71
239.112	18917.56
239.184	18875.78
239.255	18844.03
239.327	18826.97
239.399	18798.78
239.471	18785.86
239.542	18762.01
239.614	18744.8
239.686	18692.42
239.758	18681
239.829	18641.63
239.901	18637.44
239.973	18610.3
240.044	18591.37
240.116	18562.69
240.188	18531.75
240.259	18504.91
240.331	18467.08
240.403	18447.04
240.474	18397.06
240.546	18360.01
240.618	18301.45
240.689	18265.99
240.761	18242.85
240.833	18235.14
240.904	18202.52
240.976	18167.19
241.048	18138.18
241.119	18115.2
241.191	18090.04
241.262	18069.56
241.334	18026.14
241.405	17990.67
241.477	17960.07
241.549	17924.26
241.62	17895.74
241.692	17881.81
241.763	17872.07
241.835	17850.92
241.906	17817.33
241.978	17776.22
242.049	17755.93
242.121	17740.61
242.192	17732.75
242.264	17677.23
242.335	17623.16
242.407	17610.15
242.478	17575.21
242.55	17552.9
242.621	17514.73
242.693	17490.3
242.764	17460.22
242.836	17430.44
242.907	17409.77
242.979	17370.97
243.05	17339.74
243.122	17314.63
243.193	17273.19
243.264	17219.16
243.336	17183.4
243.407	17154.82
243.479	17138.82
243.55	17118
243.622	17086.53
243.693	17047.4
243.764	17044.51
243.836	17002.77
243.907	16960.12
243.978	16932.99
244.05	16905.56
244.121	16861.27
244.192	16829.8
244.264	16778.62
244.335	16744.49
244.407	16690.9
244.478	16677.84
244.549	16650.46
244.62	16601.88
244.692	16575.09
244.763	16544.34
244.834	16507.8
244.906	16474.02
244.977	16450.88
245.048	16429.1
245.119	16391.31
245.191	16359.12
245.262	16303.3
245.333	16293.86
245.405	16257.57
245.476	16235.3
245.547	16208.4
245.618	16186.62
245.689	16164.21
245.761	16138.47
245.832	16111.81
245.903	16095.52
245.974	16068.68
246.045	16032.58
246.117	16020.29
246.188	15969.19
246.259	15932.75
246.33	15897.95
246.401	15861.8
246.473	15818.18
246.544	15776.3
246.615	15755.91
246.686	15707.85
246.757	15691.66
246.828	15646.25
246.899	15636.66
246.97	15586.82
247.042	15542.53
247.113	15505.94
247.184	15498.57
247.255	15461.93
247.326	15430.27
247.397	15390.35
247.468	15351.84
247.539	15321.91
247.61	15272.5
247.681	15257.56
247.752	15234.86
247.823	15192.87
247.894	15161.73
247.965	15116.28
248.037	15084.46
248.108	15030.81
248.179	15012.69
248.25	14971.18
248.321	14947.81
248.392	14910.98
248.463	14902.98
248.534	14870.83
248.605	14858.24
248.675	14808.84
248.746	14791
248.817	14774.52
248.888	14752.29
248.959	14712.57
249.03	14688.76
249.101	14670.44
249.172	14646.29
249.243	14594.76
249.314	14596.69
249.385	14574.56
249.456	14564.39
249.527	14523.76
249.598	14502.4
249.669	14471.45
249.739	14455.21
249.81	14422.91
249.881	14376.39
249.952	14351.66
250.023	14328.43
250.094	14289.14
250.165	14258.58
250.235	14216.64
250.306	14190.03
250.377	14146.55
250.448	14122.49
250.519	14077.76
250.59	14058.48
250.66	14023.38
250.731	14023.29
250.802	13983.47
250.873	13962.88
250.944	13935.21
251.014	13908.17
251.085	13910.34
251.156	13893.03
251.227	13868.78
251.297	13862.08
251.368	13848.01
251.439	13829.98
251.51	13815.85
251.58	13777.77
251.651	13736.89
251.722	13732.46
251.792	13681.21
251.863	13663.57
251.934	13654.02
252.005	13662.99
252.075	13644.87
252.146	13635.85
252.217	13627.32
252.287	13618.54
252.358	13599.17
252.429	13595.12
252.499	13575.26
252.57	13557.8
252.641	13540.98
252.711	13526.28
252.782	13491.91
252.852	13483.81
252.923	13454.21
252.994	13429.96
253.064	13427.74
253.135	13406.82
253.205	13384.45
253.276	13391.64
253.347	13381.8
253.417	13351.82
253.488	13323.71
253.558	13285.34
253.629	13256.9
253.699	13236.8
253.77	13219.06
253.841	13184.11
253.911	13159.81
253.982	13133.59
254.052	13113.2
254.123	13086.63
254.193	13066.19
254.264	13083.36
254.334	13050.82
254.405	13015.05
254.475	12983.14
254.546	12948.91
254.616	12939.27
254.687	12919.94
254.757	12896.03
254.827	12869.8
254.898	12853.03
254.968	12825.26
255.039	12806.08
255.109	12789.98
255.18	12755.8
255.25	12716.32
255.321	12708.56
255.391	12676.02
255.461	12683.2
255.532	12630.22
255.602	12609.25
255.673	12566.21
255.743	12529.57
255.813	12482.81
255.884	12476.5
255.954	12464.35
256.024	12462.18
256.095	12438.75
256.165	12400.19
256.235	12383.71
256.306	12357.19
256.376	12342.4
256.446	12332.22
256.517	12322.1
256.587	12310.87
256.657	12291.73
256.728	12273.99
256.798	12245.46
256.868	12219.33
256.938	12185.88
257.009	12183.03
257.079	12172.48
257.149	12181.54
257.219	12138.25
257.29	12134.3
257.36	12095.74
257.43	12083.21
257.5	12039.83
257.571	12020.26
257.641	12011.68
257.711	11984.83
257.781	11973.45
257.852	11960.34
257.922	11924.1
257.992	11900
258.062	11876.71
258.132	11874.88
258.202	11851.84
258.273	11838.44
258.343	11837.82
258.413	11809.57
258.483	11784.65
258.553	11756.46
258.623	11728.55
258.693	11721.12
258.764	11713.22
258.834	11713.51
258.904	11695.63
258.974	11675.29
259.044	11660.69
259.114	11642.42
259.184	11626.95
259.254	11603.47
259.324	11562.75
259.394	11546.94
259.464	11540.72
259.535	11520.38
259.605	11488.23
259.675	11463.37
259.745	11450.98
259.815	11418.78
259.885	11403.26
259.955	11419.32
260.025	11387.6
260.095	11369.63
260.165	11348.95
260.235	11351.02
260.305	11322.35
260.375	11297.38
260.445	11304.56
260.515	11296.18
260.585	11293.09
260.655	11271.41
260.725	11263.89
260.795	11255.65
260.865	11258.35
260.934	11232.71
261.004	11222.44
261.074	11206.73
261.144	11210.83
261.214	11201.81
261.284	11179.94
261.354	11170.15
261.424	11134.87
261.494	11143.45
261.564	11125.67
261.634	11115.35
261.703	11077.19
261.773	11074.2
261.843	11062.63
261.913	11040.22
261.983	11008.47
262.053	10998.06
262.123	10976.23
262.192	10943.85
262.262	10940.52
262.332	10908.62
