Data from 20250702_urea_0.5M_MAYP1162681_01-35-00-189.txt Node
Date: Thu Jul 03 01:35:00 BST 2025
User: adleo
Spectrometer: MAYP116268
Trigger mode: 0
Integration Time (sec): 1.000000E0
Scans to average: 1
Electric dark correction enabled: true
Nonlinearity correction enabled: true
Boxcar width: 10
XAxis mode: Wavelengths
Number of Pixels in Spectrum: 2068
>>>>>Begin Spectral Data<<<<<
179.565	1203.5
179.642	1260.79
179.718	1307.81
179.795	1345.4
179.871	1376.38
179.948	1393.33
180.024	1416.62
180.101	1439.42
180.177	1455.05
180.254	1478.64
180.33	1499.71
180.407	1554.64
180.483	1652.32
180.56	1744.96
180.636	1828.33
180.712	1814.31
180.789	1823.72
180.865	1836.17
180.942	1844.1
181.018	1857.98
181.095	1871.29
181.171	1877.66
181.248	1878.43
181.324	1892.12
181.4	1898.54
181.477	1909.85
181.553	1925.82
181.63	1942.42
181.706	1958.92
181.782	1966.14
181.859	1965.43
181.935	1971.37
182.011	1967.57
182.088	1982.5
182.164	2000.48
182.24	2016.6
182.317	2026.63
182.393	2024.26
182.469	2035.81
182.546	2050.36
182.622	2054.02
182.698	2051.93
182.775	2059.87
182.851	2074.95
182.927	2068.1
183.003	2066.44
183.08	2063.77
183.156	2070.72
183.232	2070.76
183.308	2057.54
183.385	2065.25
183.461	2082.18
183.537	2085.08
183.613	2096.26
183.69	2085.22
183.766	2072.61
183.842	2075.66
183.918	2081.79
183.995	2097.01
184.071	2104.48
184.147	2100.87
184.223	2090.6
184.299	2102.25
184.375	2093.88
184.452	2098.64
184.528	2151.84
184.604	2161.35
184.68	2168.82
184.756	2175.91
184.832	2179.38
184.908	2184.94
184.985	2185.9
185.061	2167.44
185.137	2176.53
185.213	2163.55
185.289	2166.49
185.365	2160.45
185.441	2160.93
185.517	2171.02
185.593	2162.93
185.669	2156.27
185.745	2170.02
185.822	2185.71
185.898	2176.1
185.974	2185.76
186.05	2179.67
186.126	2140.41
186.202	2133.94
186.278	2132.75
186.354	2124.66
186.43	2130.23
186.506	2129.52
186.582	2127.38
186.658	2137.12
186.734	2116.24
186.81	2119.38
186.886	2120.19
186.962	2131.8
187.038	2130.23
187.114	2124.37
187.19	2133.7
187.266	2125.18
187.341	2119.9
187.417	2112.53
187.493	2111.48
187.569	2116.29
187.645	2109.44
187.721	2098.11
187.797	2105.06
187.873	2108.1
187.949	2101.21
188.025	2096.78
188.101	2101.01
188.176	2107.43
188.252	2100.54
188.328	2108.29
188.404	2109.38
188.48	2107.67
188.556	2103.2
188.632	2101.49
188.707	2103.2
188.783	2098.87
188.859	2092.31
188.935	2082.84
189.011	2089.26
189.086	2085.93
189.162	2075.66
189.238	2071.76
189.314	2070.24
189.39	2065.77
189.465	2058.44
189.541	2076.42
189.617	2059.11
189.693	2051.6
189.768	2053.88
189.844	2081.58
189.92	2071.64
189.996	2081.34
190.071	2091.81
190.147	2089.62
190.223	2098.33
190.298	2088.67
190.374	2077.92
190.45	2094.23
190.526	2104.32
190.601	2099.32
190.677	2099.37
190.753	2126.83
190.828	2131.11
190.904	2147.33
190.98	2160.18
191.055	2171.17
191.131	2158.51
191.207	2181.58
191.282	2193.23
191.358	2185.24
191.433	2168.73
191.509	2182.37
191.585	2178.42
191.66	2178.42
191.736	2183.94
191.811	2173.86
191.887	2192.84
191.963	2216.73
192.038	2219.25
192.114	2218.11
192.189	2221.58
192.265	2215.97
192.34	2193.98
192.416	2193.6
192.491	2187.03
192.567	2193.46
192.642	2195.45
192.718	2202.02
192.793	2187.18
192.869	2181.75
192.944	2183.46
193.02	2193.32
193.095	2196.69
193.171	2203.21
193.246	2203.21
193.322	2205.5
193.397	2206.87
193.473	2192.36
193.548	2174.13
193.624	2179.75
193.699	2176.42
193.775	2192.65
193.85	2199.87
193.925	2208.82
194.001	2209.39
194.076	2203.16
194.152	2189.26
194.227	2183.65
194.302	2169.76
194.378	2174.61
194.453	2173.04
194.529	2184.93
194.604	2169.61
194.679	2165.9
194.755	2148.73
194.83	2162.68
194.905	2155.88
194.981	2165.39
195.056	2156.59
195.131	2161.06
195.207	2160.06
195.282	2153.74
195.357	2135.8
195.433	2147.83
195.508	2136.08
195.583	2142.69
195.659	2156.02
195.734	2163.01
195.809	2160.82
195.884	2169.38
195.96	2169.15
196.035	2184.23
196.11	2178.9
196.185	2190.08
196.261	2192.03
196.336	2219.05
196.411	2201.96
196.486	2209.96
196.561	2204.68
196.637	2213.81
196.712	2231.8
196.787	2235.04
196.862	2250.4
196.937	2258.44
197.013	2268.44
197.088	2281.95
197.163	2304.09
197.238	2319.38
197.313	2321.28
197.388	2334.18
197.464	2362.93
197.539	2376.78
197.614	2366.08
197.689	2382.45
197.764	2395.69
197.839	2416.82
197.914	2412.39
197.989	2435.43
198.065	2449.76
198.14	2497.16
198.215	2525.54
198.29	2535.31
198.365	2548.59
198.44	2560.16
198.515	2588.93
198.59	2598.12
198.665	2620.46
198.74	2624.84
198.815	2625.89
198.89	2648.56
198.965	2678.34
199.04	2676.39
199.115	2691.39
199.19	2739.16
199.265	2739.59
199.34	2752.89
199.415	2789.16
199.49	2812.98
199.565	2818.75
199.64	2842.34
199.715	2840.14
199.79	2845.96
199.865	2856.97
199.94	2854.87
200.015	2885.43
200.09	2891.34
200.165	2900.73
200.24	2908.88
200.315	2952.19
200.39	2971.21
200.464	2976.88
200.539	2981.42
200.614	2997.05
200.689	3022.22
200.764	3027.23
200.839	3044.58
200.914	3049.72
200.989	3035.27
201.063	3048.24
201.138	3036.43
201.213	3036.14
201.288	3020.6
201.363	3025.98
201.438	3023.41
201.512	3035.99
201.587	3017.44
201.662	3024.78
201.737	3035.8
201.812	3042.43
201.886	3009.79
201.961	3020.57
202.036	3005.46
202.111	3001.03
202.186	2972.3
202.26	2952.8
202.335	2930.67
202.41	2924.19
202.485	2907.32
202.559	2891.26
202.634	2863.09
202.709	2871.9
202.784	2851.94
202.858	2850.17
202.933	2831.73
203.008	2825.01
203.082	2810.86
203.157	2810.81
203.232	2764.13
203.306	2747.2
203.381	2716.7
203.456	2694.5
203.53	2669.08
203.605	2650.51
203.68	2628.92
203.754	2624.59
203.829	2609.01
203.904	2590.34
203.978	2579.67
204.053	2582.67
204.127	2566.82
204.202	2565.05
204.277	2547.1
204.351	2540.86
204.426	2532.1
204.5	2523.14
204.575	2487.77
204.65	2498.49
204.724	2488.58
204.799	2497.15
204.873	2488.95
204.948	2487.91
205.022	2475.72
205.097	2466.57
205.171	2481.42
205.246	2488.76
205.32	2485.76
205.395	2485.71
205.469	2478.86
205.544	2482.53
205.618	2465.82
205.693	2480.77
205.767	2471.63
205.842	2495.73
205.916	2489.73
205.991	2479.78
206.065	2484.59
206.14	2501.81
206.214	2496.09
206.289	2492.9
206.363	2506.28
206.438	2507.62
206.512	2515.43
206.586	2535.09
206.661	2539.57
206.735	2517.96
206.81	2515.58
206.884	2531.81
206.958	2518.77
207.033	2532.1
207.107	2544.15
207.181	2577.69
207.256	2570.59
207.33	2590.74
207.405	2601.61
207.479	2624.75
207.553	2637.99
207.628	2623.57
207.702	2638.47
207.776	2634.14
207.851	2642
207.925	2659.25
207.999	2659.77
208.073	2661.73
208.148	2669.64
208.222	2667.59
208.296	2707.68
208.371	2734
208.445	2755.35
208.519	2796.89
208.593	2820.24
208.668	2827.11
208.742	2835.12
208.816	2849.98
208.89	2871.96
208.965	2884.51
209.039	2906.64
209.113	2938.29
209.187	2976.88
209.261	2989.17
209.336	3027.27
209.41	3062.75
209.484	3084.17
209.558	3133.49
209.632	3170.59
209.707	3204.84
209.781	3255.93
209.855	3303.95
209.929	3358.32
210.003	3391.24
210.077	3422.84
210.151	3508.08
210.226	3579.12
210.3	3651.94
210.374	3718.06
210.448	3768.03
210.522	3820.1
210.596	3877.25
210.67	3933.59
210.744	4029.52
210.818	4119.25
210.892	4195.84
210.966	4249.28
211.041	4326.17
211.115	4383.22
211.189	4469.84
211.263	4552.12
211.337	4622.73
211.411	4702.15
211.485	4761.25
211.559	4845.37
211.633	4914.27
211.707	4952.4
211.781	5033.01
211.855	5074.59
211.929	5143.74
212.003	5205.32
212.077	5301.75
212.151	5398.1
212.225	5491.47
212.299	5566.01
212.373	5639.55
212.447	5726.67
212.52	5845.18
212.594	5937.67
212.668	6038.12
212.742	6118.73
212.816	6201.89
212.89	6291.72
212.964	6381.85
213.038	6476.16
213.112	6588.04
213.186	6707.44
213.26	6792.56
213.333	6852.75
213.407	6960.9
213.481	7070.75
213.555	7185.68
213.629	7277.48
213.703	7367.81
213.777	7470.54
213.85	7560.25
213.924	7697.69
213.998	7797.52
214.072	7893.05
214.146	7981.16
214.219	8085.78
214.293	8185.2
214.367	8293.44
214.441	8409.05
214.515	8511.12
214.588	8591.33
214.662	8661.26
214.736	8741.05
214.81	8844.35
214.883	8954.51
214.957	9043.46
215.031	9126.4
215.105	9207.89
215.178	9290.89
215.252	9374.72
215.326	9452.54
215.4	9530.21
215.473	9580.68
215.547	9666.56
215.621	9754.91
215.694	9860.68
215.768	9937.61
215.842	10019.98
215.915	10107.03
215.989	10175.48
216.063	10248.24
216.136	10342.32
216.21	10430.43
216.284	10535.03
216.357	10630.62
216.431	10712.68
216.504	10817.73
216.578	10931.11
216.652	11027.86
216.725	11117.54
216.799	11215.28
216.873	11301.93
216.946	11393.1
217.02	11477.2
217.093	11558.41
217.167	11614.51
217.24	11678.37
217.314	11746.62
217.387	11824.36
217.461	11899.02
217.535	11988.19
217.608	12064.74
217.682	12145.81
217.755	12236.48
217.829	12301.84
217.902	12383.79
217.976	12465.92
218.049	12525.12
218.123	12588.51
218.196	12666.99
218.27	12739.73
218.343	12793.62
218.417	12870.22
218.49	12948.26
218.563	13039.13
218.637	13110.81
218.71	13215.23
218.784	13309.71
218.857	13395.95
218.931	13477.61
219.004	13554.6
219.077	13634.91
219.151	13711.51
219.224	13783.82
219.298	13852.22
219.371	13937.31
219.444	13994.14
219.518	14060.91
219.591	14138.23
219.665	14238.83
219.738	14315.19
219.811	14378.2
219.885	14465.5
219.958	14540.41
220.031	14608.52
220.105	14674.27
220.178	14741.95
220.251	14792.47
220.325	14855.32
220.398	14927.68
220.471	14992.13
220.544	15060.29
220.618	15118.66
220.691	15183.49
220.764	15243.12
220.838	15320.58
220.911	15378.13
220.984	15462.44
221.057	15539.85
221.131	15597.21
221.204	15617.84
221.277	15699.29
221.35	15791.45
221.424	15845.24
221.497	15907.37
221.57	15960.87
221.643	16022.52
221.716	16086.53
221.79	16147.89
221.863	16200.37
221.936	16247.03
222.009	16303.76
222.082	16355.86
222.155	16409.46
222.229	16472.59
222.302	16532.41
222.375	16572.89
222.448	16632.12
222.521	16684.13
222.594	16719.45
222.667	16760.76
222.74	16823.56
222.814	16865.97
222.887	16905.1
222.96	16962.7
223.033	17009.93
223.106	17066.22
223.179	17117.54
223.252	17168.19
223.325	17213.83
223.398	17263.91
223.471	17323.33
223.544	17369.6
223.617	17424.1
223.69	17468.63
223.763	17506.08
223.837	17551.38
223.91	17606.37
223.983	17628.49
224.056	17649.79
224.129	17702.12
224.202	17760
224.275	17799.04
224.348	17822.94
224.42	17837.59
224.493	17851.66
224.566	17898.02
224.639	17943.28
224.712	17982.31
224.785	18013.3
224.858	18049.68
224.931	18067.51
225.004	18082.93
225.077	18114.16
225.15	18117.25
225.223	18148.81
225.296	18197.96
225.369	18210.69
225.442	18232.61
225.514	18281.91
225.587	18320.66
225.66	18353.67
225.733	18379.69
225.806	18406.97
225.879	18434.53
225.952	18456.46
226.025	18506.24
226.097	18535.1
226.17	18558.14
226.243	18551.97
226.316	18575.78
226.389	18594.62
226.461	18634.91
226.534	18675.38
226.607	18701.94
226.68	18757.98
226.753	18778.13
226.825	18785.79
226.898	18832.87
226.971	18864.39
227.044	18882.65
227.117	18907.37
227.189	18927.03
227.262	18965.97
227.335	18996.81
227.407	19022.35
227.48	19062.83
227.553	19088.32
227.626	19109.72
227.698	19129.81
227.771	19169.96
227.844	19186.77
227.916	19210.73
227.989	19218.77
228.062	19228.8
228.134	19264.12
228.207	19275.4
228.28	19295.68
228.352	19309.9
228.425	19326.48
228.498	19346.38
228.57	19356.74
228.643	19385.8
228.716	19412.26
228.788	19415
228.861	19429.27
228.934	19457.36
229.006	19470.61
229.079	19482.03
229.151	19489.65
229.224	19483.67
229.296	19498.32
229.369	19546.8
229.442	19577.31
229.514	19584.2
229.587	19619.96
229.659	19615.18
229.732	19634.07
229.804	19661.01
229.877	19696.63
229.949	19723.76
230.022	19756.58
230.094	19774.69
230.167	19785.83
230.239	19789.2
230.312	19803.71
230.384	19830.16
230.457	19844.43
230.529	19858.35
230.602	19877.87
230.674	19900.86
230.747	19944.23
230.819	19972.28
230.892	19941.82
230.964	19952.57
231.037	19961.43
231.109	19968.52
231.181	20002.54
231.254	20006.59
231.326	20007.79
231.399	20014.73
231.471	20019.36
231.544	19990.78
231.616	20012.13
231.688	20026.93
231.761	20023.79
231.833	20024.56
231.905	20010.3
231.978	20009.72
232.05	20010.49
232.122	20017.24
232.195	20014.2
232.267	20014.83
232.339	20006.35
232.412	20027.65
232.484	20025.96
232.556	20033.29
232.629	20055.89
232.701	20058.01
232.773	20050.68
232.846	20047.07
232.918	20043.36
232.99	20040.66
233.062	20065.72
233.135	20059.89
233.207	20045.38
233.279	20046.59
233.351	20052.51
233.424	20050.49
233.496	20037.29
233.568	20051.12
233.64	20021.19
233.713	20006.78
233.785	20002.88
233.857	20002.44
233.929	19988.08
234.001	19995.07
234.074	20011.12
234.146	19976.08
234.218	19970.01
234.29	19965
234.362	19942.74
234.434	19918.25
234.507	19893.58
234.579	19859.94
234.651	19852.71
234.723	19841.73
234.795	19836.81
234.867	19822.07
234.939	19824.67
235.012	19817.58
235.084	19798.89
235.156	19810.74
235.228	19798.07
235.3	19782.07
235.372	19773.73
235.444	19767.61
235.516	19730.07
235.588	19707.08
235.66	19693.54
235.732	19668.14
235.804	19715.23
235.876	19723.61
235.948	19727.52
236.02	19713.16
236.092	19700.34
236.164	19678.99
236.236	19667.47
236.308	19641.79
236.38	19641.88
236.452	19610.75
236.524	19608.44
236.596	19614.66
236.668	19595.09
236.74	19574.95
236.812	19552.06
236.884	19535.72
236.956	19520.3
237.028	19497.94
237.1	19472.88
237.172	19474.28
237.244	19472.54
237.316	19402.71
237.388	19374.76
237.46	19353.7
237.532	19353.17
237.604	19328.65
237.675	19320.6
237.747	19301.66
237.819	19278.53
237.891	19241.37
237.963	19218.24
238.035	19181.72
238.107	19125.82
238.178	19113.48
238.25	19090.88
238.322	19100.47
238.394	19056.23
238.466	19026.4
238.538	19009
238.609	18993.1
238.681	18948.86
238.753	18907.8
238.825	18893.25
238.897	18865.2
238.968	18857.78
239.04	18827.33
239.112	18824.77
239.184	18783.67
239.255	18756.87
239.327	18741.55
239.399	18721.41
239.471	18707.91
239.542	18684.2
239.614	18679.96
239.686	18632.88
239.758	18621.56
239.829	18576.02
239.901	18564.69
239.973	18539.15
240.044	18524.26
240.116	18491.2
240.188	18465.32
240.259	18445.62
240.331	18412.94
240.403	18394.92
240.474	18342.49
240.546	18301.14
240.618	18250.35
240.689	18220.23
240.761	18195.6
240.833	18178.83
240.904	18137.15
240.976	18101.68
241.048	18080.04
241.119	18052.33
241.191	18028.53
241.262	18017.1
241.334	17987.37
241.405	17956
241.477	17922.17
241.549	17893.93
241.62	17872.97
241.692	17847.28
241.763	17822.32
241.835	17782.51
241.906	17757.45
241.978	17715.19
242.049	17697.21
242.121	17693.16
242.192	17678.95
242.264	17633.84
242.335	17587.52
242.407	17567.28
242.478	17528.68
242.55	17497.74
242.621	17460.44
242.693	17427.38
242.764	17387.04
242.836	17347.53
242.907	17320.68
242.979	17295.67
243.05	17258.18
243.122	17226.75
243.193	17192.34
243.264	17132.78
243.336	17116.24
243.407	17087.18
243.479	17083.09
243.55	17062.17
243.622	17030.85
243.693	16998.7
243.764	16987.37
243.836	16943.81
243.907	16925.25
243.978	16897.83
244.05	16869.63
244.121	16817.53
244.192	16798.59
244.264	16752.47
244.335	16718.73
244.407	16670.1
244.478	16638.53
244.549	16602.68
244.62	16561.23
244.692	16531.54
244.763	16515.97
244.834	16472.4
244.906	16432.83
244.977	16410.28
245.048	16383.77
245.119	16340.78
245.191	16296.77
245.262	16243.56
245.333	16239.61
245.405	16197.2
245.476	16172.09
245.547	16144.18
245.618	16123.94
245.689	16085.52
245.761	16049.28
245.832	16024.45
245.903	16009.03
245.974	15978.86
246.045	15952.11
246.117	15936.68
246.188	15896.29
246.259	15853.73
246.33	15820.96
246.401	15784.03
246.473	15731.11
246.544	15695.97
246.615	15670.28
246.686	15633.12
246.757	15616.49
246.828	15568.29
246.899	15552.72
246.97	15495.12
247.042	15457.23
247.113	15432.89
247.184	15431.01
247.255	15395.34
247.326	15361.12
247.397	15326.61
247.468	15292.05
247.539	15259.66
247.61	15221.72
247.681	15193.91
247.752	15175.59
247.823	15134.62
247.894	15106.8
247.965	15057.44
248.037	15016.42
248.108	14972.46
248.179	14943.25
248.25	14909.94
248.321	14889.36
248.392	14851.66
248.463	14861.45
248.534	14825.01
248.605	14809.39
248.675	14771.55
248.746	14748.17
248.817	14728.31
248.888	14704.84
248.959	14670.03
249.03	14652.44
249.101	14616.62
249.172	14585.29
249.243	14538.24
249.314	14528.5
249.385	14508.35
249.456	14494.62
249.527	14470.71
249.598	14455.62
249.669	14435.03
249.739	14410.83
249.81	14389.62
249.881	14344.74
249.952	14314.86
250.023	14286.22
250.094	14244.86
250.165	14203.46
250.235	14185.81
250.306	14166.14
250.377	14129.75
250.448	14109.5
250.519	14059.32
250.59	14058.89
250.66	14034.83
250.731	14027.94
250.802	13996.84
250.873	13969.27
250.944	13945.5
251.014	13915.62
251.085	13910.99
251.156	13897.54
251.227	13893.3
251.297	13880.76
251.368	13866.35
251.439	13846.68
251.51	13832.36
251.58	13802.14
251.651	13771.72
251.722	13751.57
251.792	13702.83
251.863	13672.75
251.934	13664.41
252.005	13665.91
252.075	13634.04
252.146	13618.42
252.217	13608.06
252.287	13597.89
252.358	13570.12
252.429	13565.2
252.499	13526.25
252.57	13497.04
252.641	13472.6
252.711	13440.93
252.782	13400
252.852	13402.22
252.923	13380.86
252.994	13367.41
253.064	13356.18
253.135	13327.98
253.205	13297.32
253.276	13295.68
253.347	13292.11
253.417	13260.73
253.488	13233.88
253.558	13201.39
253.629	13183.6
253.699	13162.49
253.77	13144.36
253.841	13126.28
253.911	13102.95
253.982	13097.46
254.052	13082.32
254.123	13065.5
254.193	13044.24
254.264	13058.26
254.334	13021.96
254.405	12981.66
254.475	12947.53
254.546	12921.5
254.616	12914.66
254.687	12901.88
254.757	12881.59
254.827	12859.27
254.898	12839.65
254.968	12818.3
255.039	12790.19
255.109	12775.06
255.18	12737.07
255.25	12699.33
255.321	12687.03
255.391	12655.65
255.461	12654.4
255.532	12607.25
255.602	12580.79
255.673	12535.48
255.743	12500.33
255.813	12450.54
255.884	12446.78
255.954	12434.59
256.024	12428.56
256.095	12405.95
256.165	12370.62
256.235	12352.78
256.306	12317.59
256.376	12313.11
256.446	12301.64
256.517	12293.49
256.587	12280.14
256.657	12265.73
256.728	12243.31
256.798	12224.76
256.868	12204.8
256.938	12166.33
257.009	12165.27
257.079	12150.28
257.149	12155.1
257.219	12118.71
257.29	12110.95
257.36	12069.35
257.43	12058.46
257.5	12018.06
257.571	11994.06
257.641	11981.58
257.711	11954.34
257.781	11951.84
257.852	11929.61
257.922	11887.44
257.992	11867.2
258.062	11841.89
258.132	11832.68
258.202	11811.91
258.273	11787.52
258.343	11783.42
258.413	11760.91
258.483	11740.53
258.553	11709.97
258.623	11681.24
258.693	11666.44
258.764	11664.8
258.834	11658.01
258.904	11631.88
258.974	11601.19
259.044	11583.3
259.114	11573.18
259.184	11558.19
259.254	11529.23
259.324	11485.22
259.394	11479.2
259.464	11475.25
259.535	11456.74
259.605	11432.83
259.675	11409.12
259.745	11396.49
259.815	11367.48
259.885	11346.47
259.955	11349.31
260.025	11327.14
260.095	11312.83
260.165	11299.38
260.235	11294.95
260.305	11269.12
260.375	11241.6
260.445	11251.24
260.515	11250.37
260.585	11244.59
260.655	11225.79
260.725	11224.39
260.795	11221.4
260.865	11220.25
260.934	11194.56
261.004	11184.58
261.074	11166.99
261.144	11165.02
261.214	11161.84
261.284	11143.57
261.354	11131
261.424	11106.03
261.494	11107.81
261.564	11095.48
261.634	11087.38
261.703	11051.72
261.773	11050.71
261.843	11046.71
261.913	11027.05
261.983	10989.36
262.053	10979.92
262.123	10965.41
262.192	10933.56
