Data from 20250702_urea_0.5M_MAYP1162681_08-35-00-171.txt Node
Date: Thu Jul 03 08:35:00 BST 2025
User: adleo
Spectrometer: MAYP116268
Trigger mode: 0
Integration Time (sec): 1.000000E0
Scans to average: 1
Electric dark correction enabled: true
Nonlinearity correction enabled: true
Boxcar width: 10
XAxis mode: Wavelengths
Number of Pixels in Spectrum: 2068
>>>>>Begin Spectral Data<<<<<
179.565	1164.41
179.642	1218.71
179.718	1261.66
179.795	1298.47
179.871	1332.37
179.948	1349.81
180.024	1370.54
180.101	1391.02
180.177	1402.72
180.254	1425.33
180.33	1444.6
180.407	1496.58
180.483	1590.13
180.56	1675.5
180.636	1758.2
180.712	1745.18
180.789	1753.45
180.865	1763.57
180.942	1771.88
181.018	1780.77
181.095	1795.89
181.171	1802.54
181.248	1804.25
181.324	1818.52
181.4	1827.21
181.477	1834.92
181.553	1848.32
181.63	1867.05
181.706	1881.02
181.782	1892.14
181.859	1891.81
181.935	1898.89
182.011	1895.33
182.088	1910.49
182.164	1932.13
182.24	1944.54
182.317	1956.09
182.393	1956.04
182.469	1972.82
182.546	1986.47
182.622	1989.51
182.698	1982.52
182.775	1992.32
182.851	2004.21
182.927	1996.55
183.003	1990.09
183.08	1985.05
183.156	1991.85
183.232	1989.23
183.308	1980.86
183.385	1988.33
183.461	2003.59
183.537	2004.3
183.613	2016.05
183.69	2007.2
183.766	1993.65
183.842	2002.26
183.918	2007.01
183.995	2019.09
184.071	2019.04
184.147	2013.62
184.223	2004.35
184.299	2015.72
184.375	2007.01
184.452	2015.25
184.528	2065.33
184.604	2077.79
184.68	2089.91
184.756	2098
184.832	2102.99
184.908	2108.84
184.985	2108.79
185.061	2095.57
185.137	2104.94
185.213	2094.34
185.289	2093.1
185.365	2086.78
185.441	2084.83
185.517	2099.25
185.593	2094.92
185.669	2095.77
185.745	2104.62
185.822	2120.69
185.898	2114.08
185.974	2122.02
186.05	2112.22
186.126	2078.45
186.202	2072.12
186.278	2069.22
186.354	2059.42
186.43	2065.18
186.506	2061.95
186.582	2059.76
186.658	2066.61
186.734	2048.11
186.81	2052.2
186.886	2059.71
186.962	2073.93
187.038	2067.18
187.114	2058.94
187.19	2069.31
187.266	2056.43
187.341	2055.09
187.417	2047.2
187.493	2047.82
187.569	2048.87
187.645	2043.68
187.721	2031.03
187.797	2036.02
187.873	2039.4
187.949	2034.12
188.025	2028.74
188.101	2033.31
188.176	2036.69
188.252	2028.22
188.328	2036.21
188.404	2033.36
188.48	2024.89
188.556	2018.14
188.632	2020.66
188.707	2022.75
188.783	2022.37
188.859	2017.24
188.935	2006.2
189.011	2014.57
189.086	2007.87
189.162	1999.12
189.238	1997.12
189.314	1994.7
189.39	1990.8
189.465	1983.33
189.541	1999.74
189.617	1984.52
189.693	1980.58
189.768	1986.33
189.844	2014.49
189.92	2006.27
189.996	2015.64
190.071	2026.39
190.147	2024.34
190.223	2033.14
190.298	2024.91
190.374	2006.98
190.45	2018.39
190.526	2029.19
190.601	2025.67
190.677	2028.28
190.753	2054.93
190.828	2059.49
190.904	2073.33
190.98	2088.89
191.055	2099.97
191.131	2091.17
191.207	2112.38
191.282	2118.94
191.358	2107.67
191.433	2088.54
191.509	2099.48
191.585	2097.72
191.66	2100.14
191.736	2107.23
191.811	2098
191.887	2116.23
191.963	2142.34
192.038	2145.96
192.114	2145.1
192.189	2146.86
192.265	2143.63
192.34	2124.35
192.416	2122.07
192.491	2118.5
192.567	2119.12
192.642	2121.64
192.718	2123.74
192.793	2111.13
192.869	2107.52
192.944	2110.75
193.02	2119.69
193.095	2123.21
193.171	2126.54
193.246	2127.21
193.322	2124.69
193.397	2123.97
193.473	2105.89
193.548	2086.81
193.624	2096.28
193.699	2094.57
193.775	2109.75
193.85	2110.46
193.925	2119.69
194.001	2118.26
194.076	2112.41
194.152	2103.8
194.227	2096.14
194.302	2082.92
194.378	2085.77
194.453	2083.59
194.529	2097.29
194.604	2084.97
194.679	2079.74
194.755	2063.38
194.83	2075.66
194.905	2075.23
194.981	2084.41
195.056	2077.99
195.131	2084.79
195.207	2080.79
195.282	2073
195.357	2055.53
195.433	2070.94
195.508	2059
195.583	2070.66
195.659	2083.5
195.734	2090.07
195.809	2091.21
195.884	2102.38
195.96	2102.05
196.035	2112.8
196.11	2107.85
196.185	2120.98
196.261	2125.35
196.336	2155.23
196.411	2139
196.486	2143.95
196.561	2138.62
196.637	2147.84
196.712	2164.17
196.787	2170.07
196.862	2184.1
196.937	2194.95
197.013	2199.61
197.088	2210.27
197.163	2228.59
197.238	2244.64
197.313	2244.26
197.388	2256.2
197.464	2286.09
197.539	2299.51
197.614	2296.8
197.689	2311.55
197.764	2327.36
197.839	2347.68
197.914	2342.49
197.989	2363.48
198.065	2377.28
198.14	2426.1
198.215	2450.24
198.29	2457.33
198.365	2470.71
198.44	2482.47
198.515	2509.23
198.59	2524.47
198.665	2550.08
198.74	2558.61
198.815	2561.09
198.89	2583.61
198.965	2613.86
199.04	2610.39
199.115	2624.72
199.19	2667.63
199.265	2665.87
199.34	2673.87
199.415	2705.85
199.49	2724.66
199.565	2736.33
199.64	2758.06
199.715	2755.05
199.79	2763.06
199.865	2773.59
199.94	2770.2
200.015	2800.47
200.09	2802.71
200.165	2808.18
200.24	2814.28
200.315	2854.02
200.39	2869.94
200.464	2874.89
200.539	2877.18
200.614	2890.81
200.689	2913.16
200.764	2920.51
200.839	2941.33
200.914	2948.24
200.989	2936.65
201.063	2951.19
201.138	2935.66
201.213	2938.14
201.288	2919.83
201.363	2926.89
201.438	2924.84
201.512	2941.66
201.587	2926.78
201.662	2930.74
201.737	2943.85
201.812	2952.67
201.886	2915.94
201.961	2924.71
202.036	2917.33
202.111	2913.23
202.186	2887.03
202.26	2870.06
202.335	2846.51
202.41	2837.5
202.485	2819.26
202.559	2802.72
202.634	2778.51
202.709	2787.66
202.784	2768.31
202.858	2768.17
202.933	2747.35
203.008	2740.58
203.082	2720.67
203.157	2718.05
203.232	2680.57
203.306	2658.6
203.381	2628.58
203.456	2610.81
203.53	2587.6
203.605	2565.08
203.68	2539.64
203.754	2532.83
203.829	2519.64
203.904	2501.35
203.978	2490.3
204.053	2492.49
204.127	2480.64
204.202	2479.73
204.277	2461.97
204.351	2454.26
204.426	2445.16
204.5	2437.78
204.575	2405.61
204.65	2417.18
204.724	2409.28
204.799	2415.32
204.873	2410.56
204.948	2407.89
205.022	2396.47
205.097	2389.75
205.171	2401.41
205.246	2409.94
205.32	2410.13
205.395	2410.08
205.469	2401.09
205.544	2405.61
205.618	2392.8
205.693	2403.95
205.767	2390.9
205.842	2412.23
205.916	2406.71
205.991	2399.33
206.065	2407.33
206.14	2421.56
206.214	2413.51
206.289	2409.22
206.363	2423.31
206.438	2429.26
206.512	2435.69
206.586	2454.69
206.661	2460.59
206.735	2439.56
206.81	2443.61
206.884	2458.75
206.958	2446.37
207.033	2466.5
207.107	2476.27
207.181	2506.66
207.256	2498.09
207.33	2515.94
207.405	2529.09
207.479	2549.14
207.553	2559.8
207.628	2544.81
207.702	2559.33
207.776	2555.71
207.851	2558.95
207.925	2574.1
207.999	2573.82
208.073	2578.67
208.148	2582.29
208.222	2575.39
208.296	2613.04
208.371	2632.68
208.445	2645.59
208.519	2677.83
208.593	2690.03
208.668	2691.89
208.742	2697.61
208.816	2710.37
208.89	2732.68
208.965	2739.54
209.039	2757.04
209.113	2784.77
209.187	2815.77
209.261	2825.02
209.336	2859.24
209.41	2894.32
209.484	2909.15
209.558	2944.1
209.632	2970.46
209.707	3000.68
209.781	3041.97
209.855	3075.46
209.929	3108.63
210.003	3136.44
210.077	3160.57
210.151	3233.33
210.226	3291.12
210.3	3347.52
210.374	3400.33
210.448	3435.17
210.522	3476.42
210.596	3518.15
210.67	3557.63
210.744	3635.66
210.818	3700.1
210.892	3756.04
210.966	3781.77
211.041	3839.81
211.115	3879.17
211.189	3944.15
211.263	4003.69
211.337	4053.72
211.411	4112.48
211.485	4158.72
211.559	4219.61
211.633	4268.97
211.707	4289.02
211.781	4343.81
211.855	4358.54
211.929	4401.38
212.003	4435.9
212.077	4498.46
212.151	4566.99
212.225	4633.56
212.299	4683.56
212.373	4728.5
212.447	4787.4
212.52	4883.35
212.594	4944.41
212.668	5016.48
212.742	5066.48
212.816	5122
212.89	5179.72
212.964	5244.43
213.038	5311.44
213.112	5392.64
213.186	5475.06
213.26	5521
213.333	5556.09
213.407	5632.05
213.481	5707.44
213.555	5791.03
213.629	5847.73
213.703	5898.34
213.777	5969.83
213.85	6022.9
213.924	6132.56
213.998	6204.17
214.072	6263.52
214.146	6326.64
214.219	6401.29
214.293	6467.04
214.367	6538.72
214.441	6618.28
214.515	6677.4
214.588	6728.84
214.662	6763.71
214.736	6815.33
214.81	6895.66
214.883	6966.63
214.957	7026.91
215.031	7084.99
215.105	7130.18
215.178	7190.06
215.252	7262.57
215.326	7307.99
215.4	7356.19
215.473	7375.09
215.547	7425.67
215.621	7485.05
215.694	7556.27
215.768	7598.83
215.842	7658.83
215.915	7716.92
215.989	7768.91
216.063	7827.73
216.136	7894.2
216.21	7957.1
216.284	8032.19
216.357	8097.41
216.431	8164.28
216.504	8238.89
216.578	8319.43
216.652	8399.09
216.725	8468.57
216.799	8538.02
216.873	8609.78
216.946	8685.9
217.02	8749.42
217.093	8807.9
217.167	8853.77
217.24	8905.86
217.314	8966.75
217.387	9024.94
217.461	9076.64
217.535	9145.64
217.608	9200.28
217.682	9266.78
217.755	9347.67
217.829	9399.72
217.902	9470.66
217.976	9537.55
218.049	9593.41
218.123	9644.8
218.196	9713.43
218.27	9772.1
218.343	9815.83
218.417	9875.27
218.49	9928.78
218.563	10003.2
218.637	10071.94
218.71	10154.03
218.784	10219.7
218.857	10289.4
218.931	10355.83
219.004	10427.52
219.077	10497.29
219.151	10560.6
219.224	10619
219.298	10681.49
219.371	10757
219.444	10807.45
219.518	10874.86
219.591	10940.5
219.665	11032.73
219.738	11102.32
219.811	11149.93
219.885	11222.75
219.958	11295.23
220.031	11360.29
220.105	11433.79
220.178	11495.67
220.251	11546.28
220.325	11617.32
220.398	11692.27
220.471	11760.28
220.544	11830.31
220.618	11888.59
220.691	11959.82
220.764	12019.21
220.838	12082.3
220.911	12138.27
220.984	12220.59
221.057	12282.73
221.131	12344.09
221.204	12372.24
221.277	12448.79
221.35	12537.77
221.424	12598.12
221.497	12649.36
221.57	12715.89
221.643	12780.05
221.716	12852.45
221.79	12918.83
221.863	12976.1
221.936	13023
222.009	13082.39
222.082	13143.71
222.155	13193.7
222.229	13268.47
222.302	13333.55
222.375	13386.14
222.448	13452.86
222.521	13500.54
222.594	13552.74
222.667	13600.08
222.74	13667.96
222.814	13717.03
222.887	13767.5
222.96	13824.82
223.033	13890.52
223.106	13949.29
223.179	14003.66
223.252	14055.58
223.325	14107.64
223.398	14152.48
223.471	14216.98
223.544	14270.72
223.617	14325.39
223.69	14381.69
223.763	14411.73
223.837	14465.18
223.91	14527.18
223.983	14560.53
224.056	14606.86
224.129	14659.69
224.202	14718.12
224.275	14763.04
224.348	14790.09
224.42	14823.01
224.493	14851.21
224.566	14889.63
224.639	14937.2
224.712	14972.73
224.785	15010.04
224.858	15048.79
224.931	15085.52
225.004	15112.86
225.077	15147.47
225.15	15167.71
225.223	15212.63
225.296	15274.72
225.369	15288.12
225.442	15315.02
225.514	15357.67
225.587	15403.22
225.66	15440.24
225.733	15484.15
225.806	15523.97
225.879	15566.58
225.952	15596.95
226.025	15665.05
226.097	15725.93
226.17	15760.68
226.243	15787.14
226.316	15821.12
226.389	15868.89
226.461	15921.14
226.534	15960.76
226.607	16001.15
226.68	16049.01
226.753	16089.25
226.825	16107.18
226.898	16168.73
226.971	16211.39
227.044	16260.55
227.117	16295.93
227.189	16339.64
227.262	16380.9
227.335	16420.33
227.407	16456.33
227.48	16510.07
227.553	16541.01
227.626	16568
227.698	16606.17
227.771	16644.05
227.844	16678.71
227.916	16712.64
227.989	16729.36
228.062	16763.19
228.134	16822.19
228.207	16861.56
228.28	16881.22
228.352	16919.01
228.425	16954.43
228.498	16994.05
228.57	17006.39
228.643	17048.22
228.716	17083.93
228.788	17110.68
228.861	17136.51
228.934	17181.19
229.006	17203.4
229.079	17237.23
229.151	17252.9
229.224	17268.22
229.296	17305.52
229.369	17358.68
229.442	17388.56
229.514	17411.16
229.587	17458.1
229.659	17455.5
229.732	17487.02
229.804	17523.16
229.877	17570.44
229.949	17609.72
230.022	17648.85
230.094	17683.21
230.167	17710.34
230.239	17719.11
230.312	17739.83
230.384	17785.13
230.457	17798.1
230.529	17831.35
230.602	17848.84
230.674	17884.84
230.747	17921.85
230.819	17954.19
230.892	17948.6
230.964	17978.72
231.037	18010.67
231.109	18022.19
231.181	18062.53
231.254	18079.34
231.326	18100.31
231.399	18122.57
231.471	18125.22
231.544	18122.23
231.616	18158.28
231.688	18180.21
231.761	18201.75
231.833	18223.48
231.905	18227.63
231.978	18250.9
232.05	18254.42
232.122	18278.85
232.195	18288.49
232.267	18320.63
232.339	18328.63
232.412	18355.14
232.484	18359.96
232.556	18367.52
232.629	18410.85
232.701	18432.39
232.773	18440.92
232.846	18443.76
232.918	18448.63
232.99	18471.52
233.062	18497.44
233.135	18499.71
233.207	18489.11
233.279	18500.53
233.351	18518.89
233.424	18526.36
233.496	18528.67
233.568	18567.95
233.64	18556.72
233.713	18564.72
233.785	18565.1
233.857	18574.69
233.929	18564.62
234.001	18593.68
234.074	18628.38
234.146	18599.56
234.218	18595.32
234.29	18606.45
234.362	18609.97
234.434	18600.33
234.507	18591.32
234.579	18576.09
234.651	18581.29
234.723	18594.6
234.795	18601.49
234.867	18596.96
234.939	18602.06
235.012	18602.06
235.084	18598.02
235.156	18607.41
235.228	18593.39
235.3	18585.49
235.372	18589.15
235.444	18604.04
235.516	18570.16
235.588	18553.06
235.66	18563.56
235.732	18544.86
235.804	18595.66
235.876	18599.75
235.948	18606.79
236.02	18601.92
236.092	18598.5
236.164	18580.38
236.236	18568.77
236.308	18557.39
236.38	18554.6
236.452	18541.78
236.524	18548.81
236.596	18560.67
236.668	18561.3
236.74	18560.48
236.812	18555.66
236.884	18548.33
236.956	18538.41
237.028	18525.59
237.1	18511.56
237.172	18502.94
237.244	18514.79
237.316	18454.89
237.388	18434.46
237.46	18413.59
237.532	18415.28
237.604	18399.33
237.675	18410.32
237.747	18408.92
237.819	18383.33
237.891	18362.22
237.963	18339.33
238.035	18317.6
238.107	18264.11
238.178	18255.72
238.25	18241.99
238.322	18246.23
238.394	18213.17
238.466	18192.64
238.538	18185.17
238.609	18167.53
238.681	18142.67
238.753	18113.27
238.825	18100.02
238.897	18090.09
238.968	18092.84
239.04	18063.1
239.112	18072.26
239.184	18040.31
239.255	18010.77
239.327	18008.36
239.399	17990.29
239.471	17976.7
239.542	17961.23
239.614	17955.44
239.686	17913.9
239.758	17894.1
239.829	17862.48
239.901	17851.26
239.973	17834.05
240.044	17818.15
240.116	17805.67
240.188	17779.64
240.259	17766.2
240.331	17740.37
240.403	17716.27
240.474	17678.34
240.546	17645.67
240.618	17596.66
240.689	17575.84
240.761	17553
240.833	17534.59
240.904	17512.95
240.976	17487.6
241.048	17454.92
241.119	17441.72
241.191	17420.27
241.262	17416.47
241.334	17382.2
241.405	17360.76
241.477	17321.38
241.549	17297
241.62	17270.59
241.692	17251.26
241.763	17235.02
241.835	17209.48
241.906	17194.54
241.978	17149.91
242.049	17143.69
242.121	17128.99
242.192	17108.8
242.264	17075.01
242.335	17036.17
242.407	17016.51
242.478	16989.32
242.55	16968.46
242.621	16926
242.693	16899.2
242.764	16868.21
242.836	16838.57
242.907	16816.84
242.979	16799.82
243.05	16776.4
243.122	16745.22
243.193	16712.73
243.264	16655.77
243.336	16627.52
243.407	16603.67
243.479	16591.52
243.55	16563.38
243.622	16541.4
243.693	16510.55
243.764	16498.41
243.836	16462.89
243.907	16432.62
243.978	16405.53
244.05	16381.43
244.121	16338.29
244.192	16316.75
244.264	16267.44
244.335	16245.9
244.407	16204.64
244.478	16183.1
244.549	16146.23
244.62	16103.28
244.692	16066.84
244.763	16053.69
244.834	16009.54
244.906	15969.82
244.977	15956.18
245.048	15939.99
245.119	15898.05
245.191	15859.11
245.262	15805.03
245.333	15795.48
245.405	15762.51
245.476	15739.67
245.547	15706.75
245.618	15689.39
245.689	15655.12
245.761	15630.45
245.832	15596.75
245.903	15571.11
245.974	15542.58
246.045	15507.49
246.117	15502.18
246.188	15472.68
246.259	15433.69
246.33	15410.5
246.401	15381.49
246.473	15324.75
246.544	15287.3
246.615	15270.24
246.686	15234.47
246.757	15228.54
246.828	15182.7
246.899	15162.5
246.97	15112.57
247.042	15084.27
247.113	15067.11
247.184	15065.57
247.255	15027.87
247.326	15002.33
247.397	14968.49
247.468	14934.5
247.539	14905.58
247.61	14859.4
247.681	14842.87
247.752	14829.32
247.823	14796.01
247.894	14766.18
247.965	14735.57
248.037	14697.2
248.108	14649.95
248.179	14629.81
248.25	14596.74
248.321	14572.1
248.392	14536.77
248.463	14533.54
248.534	14505.1
248.605	14476.08
248.675	14434.87
248.746	14420.79
248.817	14395.48
248.888	14375.82
248.959	14337.06
249.03	14325.39
249.101	14317.34
249.172	14278.01
249.243	14231.73
249.314	14219.19
249.385	14192.78
249.456	14174.75
249.527	14149.01
249.598	14135.75
249.669	14103.98
249.739	14078.72
249.81	14060.07
249.881	14022.56
249.952	13994.17
250.023	13959.32
250.094	13919.35
250.165	13890.96
250.235	13857.02
250.306	13832
250.377	13790.55
250.448	13769.48
250.519	13716.45
250.59	13684.15
250.66	13657.69
250.731	13649.49
250.802	13620.81
250.873	13603.17
250.944	13581.14
251.014	13554.43
251.085	13548.31
251.156	13527.1
251.227	13519.62
251.297	13511.14
251.368	13500.2
251.439	13487.42
251.51	13478.75
251.58	13441.77
251.651	13413.67
251.722	13403.64
251.792	13361.31
251.863	13339.53
251.934	13329.02
252.005	13342.71
252.075	13320.48
252.146	13306.65
252.217	13293.01
252.287	13278.11
252.358	13251.79
252.429	13247.69
252.499	13215.63
252.57	13186.71
252.641	13179.67
252.711	13142.75
252.782	13102.93
252.852	13097.14
252.923	13071.26
252.994	13052.21
253.064	13053.13
253.135	13021.07
253.205	12998.46
253.276	12999.77
253.347	12991.52
253.417	12960.62
253.488	12927.26
253.558	12910.59
253.629	12892.07
253.699	12872.36
253.77	12861.37
253.841	12839.82
253.911	12812.15
253.982	12797.45
254.052	12791.37
254.123	12766.55
254.193	12747.36
254.264	12764.67
254.334	12731.21
254.405	12699.69
254.475	12668.64
254.546	12640.92
254.616	12633.02
254.687	12610.89
254.757	12589.97
254.827	12569.97
254.898	12557.43
254.968	12529.48
255.039	12503.88
255.109	12490.43
255.18	12458.42
255.25	12405.06
255.321	12389.15
255.391	12361.73
255.461	12358.21
255.532	12300.51
255.602	12278.38
255.673	12239.63
255.743	12202.65
255.813	12162.89
255.884	12150.4
255.954	12139.89
256.024	12133.24
256.095	12115.5
256.165	12081.76
256.235	12067.2
256.306	12037.32
256.376	12024.45
256.446	12014.47
256.517	11998.81
256.587	11984.54
256.657	11955.62
256.728	11947.38
256.798	11930.99
256.868	11903.51
256.938	11880.47
257.009	11880.14
257.079	11867.7
257.149	11879.99
257.219	11834.01
257.29	11815.69
257.36	11780.9
257.43	11764.46
257.5	11725.66
257.571	11694.47
257.641	11680.59
257.711	11647.43
257.781	11638.27
257.852	11627.86
257.922	11591.14
257.992	11566.89
258.062	11547.32
258.132	11546.6
258.202	11522.74
258.273	11501.63
258.343	11503.9
258.413	11471.46
258.483	11447.56
258.553	11421.92
258.623	11393.53
258.693	11388.42
258.764	11386.35
258.834	11383.26
258.904	11363.89
258.974	11343.31
259.044	11329.38
259.114	11318.97
259.184	11309.38
259.254	11285.86
259.324	11239.6
259.394	11231.79
259.464	11231.07
259.535	11215.55
259.605	11195.55
259.675	11169.19
259.745	11154.1
259.815	11120.9
259.885	11103.79
259.955	11116.51
260.025	11085.62
260.095	11065.34
260.165	11052.61
260.235	11055.07
260.305	11028.57
260.375	11000.09
260.445	11004.52
260.515	11003.85
260.585	10996.95
260.655	10973.39
260.725	10971.7
260.795	10965.58
260.865	10963.08
260.934	10932.91
261.004	10916.91
261.074	10896.19
261.144	10895.37
261.214	10889.78
261.284	10872.29
261.354	10862.36
261.424	10831.61
261.494	10837.64
261.564	10822.46
261.634	10817.59
261.703	10785.31
261.773	10776.2
261.843	10769.79
261.913	10754.85
261.983	10721.12
262.053	10711.19
262.123	10692.69
262.192	10659.98
262.262	10654.58
262.332	10633.33
262.402	10633.09
