Data from 20250702_urea_0.5M_MAYP1162681_04-04-59-483.txt Node
Date: Thu Jul 03 04:04:59 BST 2025
User: adleo
Spectrometer: MAYP116268
Trigger mode: 0
Integration Time (sec): 1.000000E0
Scans to average: 1
Electric dark correction enabled: true
Nonlinearity correction enabled: true
Boxcar width: 10
XAxis mode: Wavelengths
Number of Pixels in Spectrum: 2068
>>>>>Begin Spectral Data<<<<<
179.565	1174.9
179.642	1226.19
179.718	1271.43
179.795	1309.42
179.871	1342.95
179.948	1360.69
180.024	1378.04
180.101	1396.95
180.177	1409.36
180.254	1434.5
180.33	1456.77
180.407	1509.23
180.483	1601.01
180.56	1689.62
180.636	1772.46
180.712	1757.92
180.789	1766.61
180.865	1774.22
180.942	1787.57
181.018	1797.45
181.095	1811.57
181.171	1817.09
181.248	1820.13
181.324	1833.87
181.4	1842.14
181.477	1853.6
181.553	1867.33
181.63	1889.06
181.706	1905.03
181.782	1915.34
181.859	1911.44
181.935	1915.44
182.011	1910.35
182.088	1929.84
182.164	1949.16
182.24	1961.09
182.317	1971.92
182.393	1970.21
182.469	1985.76
182.546	1996.36
182.622	2000.26
182.698	1996.74
182.775	2006.87
182.851	2020.04
182.927	2013.34
183.003	2006.02
183.08	1998.27
183.156	2006.83
183.232	2005.64
183.308	1996.89
183.385	2004.26
183.461	2021.47
183.537	2021.09
183.613	2034.26
183.69	2025.27
183.766	2012.33
183.842	2022.85
183.918	2030.17
183.995	2043.77
184.071	2046.29
184.147	2043.06
184.223	2031.13
184.299	2041.59
184.375	2030.27
184.452	2037.27
184.528	2093.22
184.604	2104.16
184.68	2115.95
184.756	2120.95
184.832	2126.23
184.908	2130.51
184.985	2128.56
185.061	2113.15
185.137	2125.8
185.213	2117.86
185.289	2119.14
185.365	2111.58
185.441	2107.49
185.517	2117.15
185.593	2113.25
185.669	2111.16
185.745	2117.67
185.822	2136.55
185.898	2124.99
185.974	2134.22
186.05	2126.55
186.126	2086.96
186.202	2080.54
186.278	2076.88
186.354	2067.84
186.43	2073.79
186.506	2072.98
186.582	2073.08
186.658	2080.4
186.734	2058.48
186.81	2057.29
186.886	2058.57
186.962	2071.36
187.038	2067.08
187.114	2062.9
187.19	2073.89
187.266	2064.8
187.341	2067.42
187.417	2061.76
187.493	2066.61
187.569	2073.08
187.645	2066.33
187.721	2053.43
187.797	2059.9
187.873	2065.32
187.949	2061.95
188.025	2053.1
188.101	2054.52
188.176	2061.51
188.252	2057.14
188.328	2066.12
188.404	2066.22
188.48	2063.03
188.556	2058.13
188.632	2063.84
188.707	2058.8
188.783	2052.61
188.859	2048.24
188.935	2036.44
189.011	2040.06
189.086	2034.64
189.162	2024.08
189.238	2022.03
189.314	2018.89
189.39	2012.43
189.465	2002.87
189.541	2019.04
189.617	2005.54
189.693	2002.45
189.768	2005.82
189.844	2031.94
189.92	2023.67
189.996	2034.37
190.071	2043.41
190.147	2042.51
190.223	2045.93
190.298	2040.61
190.374	2029.86
190.45	2041.13
190.526	2052.07
190.601	2049.26
190.677	2049.5
190.753	2077.57
190.828	2081.43
190.904	2097.41
190.98	2115.48
191.055	2124.47
191.131	2114.29
191.207	2135.51
191.282	2145.49
191.358	2133.84
191.433	2115.14
191.509	2127.59
191.585	2123.93
191.66	2125.6
191.736	2132.4
191.811	2123.41
191.887	2139.11
191.963	2160.18
192.038	2164.32
192.114	2162.18
192.189	2164.6
192.265	2164.56
192.34	2140.47
192.416	2140.24
192.491	2132.67
192.567	2135.86
192.642	2142.19
192.718	2145.66
192.793	2132.29
192.869	2126.68
192.944	2130.67
193.02	2140.62
193.095	2145.37
193.171	2149.56
193.246	2149.7
193.322	2147.47
193.397	2151.42
193.473	2138.38
193.548	2120.78
193.624	2130.15
193.699	2129.86
193.775	2148.33
193.85	2148.38
193.925	2157.13
194.001	2156.27
194.076	2152.9
194.152	2141
194.227	2133.72
194.302	2123.31
194.378	2128.97
194.453	2128.39
194.529	2139.19
194.604	2124.97
194.679	2116.84
194.755	2099.62
194.83	2110
194.905	2108.47
194.981	2112.85
195.056	2104.1
195.131	2111.09
195.207	2106.43
195.282	2097.3
195.357	2074.7
195.433	2086.4
195.508	2077.74
195.583	2085.3
195.659	2098.29
195.734	2106.66
195.809	2105
195.884	2113.46
195.96	2114.61
196.035	2128.92
196.11	2126.78
196.185	2137.63
196.261	2143.81
196.336	2174.64
196.411	2159.17
196.486	2165.74
196.561	2158.79
196.637	2170.73
196.712	2187.91
196.787	2190.15
196.862	2206.46
196.937	2217.78
197.013	2226.16
197.088	2235.48
197.163	2255.81
197.238	2272.91
197.313	2270.72
197.388	2285.18
197.464	2311.98
197.539	2320.4
197.614	2313.55
197.689	2323.55
197.764	2342.35
197.839	2360.06
197.914	2354.39
197.989	2377.67
198.065	2389.57
198.14	2441
198.215	2466.81
198.29	2475.24
198.365	2489.85
198.44	2500.52
198.515	2527.85
198.59	2540.52
198.665	2567.9
198.74	2577.09
198.815	2575.71
198.89	2597.52
198.965	2625.58
199.04	2622.58
199.115	2638.53
199.19	2677.73
199.265	2680.87
199.34	2687.49
199.415	2722.95
199.49	2741.24
199.565	2750.72
199.64	2774.21
199.715	2771.63
199.79	2777.54
199.865	2785.74
199.94	2783.12
200.015	2810.9
200.09	2816.34
200.165	2826.53
200.24	2829.82
200.315	2869.08
200.39	2886.05
200.464	2893.58
200.539	2896.77
200.614	2914.4
200.689	2936.95
200.764	2946.11
200.839	2963.4
200.914	2967.88
200.989	2957.67
201.063	2974.21
201.138	2958.59
201.213	2957.02
201.288	2936.85
201.363	2943.62
201.438	2943
201.512	2958.63
201.587	2942.9
201.662	2946.62
201.737	2957.15
201.812	2964.73
201.886	2932.05
201.961	2943.55
202.036	2931.21
202.111	2925.96
202.186	2897.86
202.26	2880.26
202.335	2858.76
202.41	2854.43
202.485	2838.99
202.559	2819.79
202.634	2793.05
202.709	2798.86
202.784	2781.28
202.858	2779.75
202.933	2761.46
203.008	2756.02
203.082	2738.87
203.157	2738.49
203.232	2697.58
203.306	2678.85
203.381	2645.98
203.456	2621.59
203.53	2598.03
203.605	2579.8
203.68	2555.98
203.754	2549.03
203.829	2536.69
203.904	2515.79
203.978	2505.88
204.053	2510.12
204.127	2496.78
204.202	2497.17
204.277	2482.69
204.351	2476.22
204.426	2470.6
204.5	2461.65
204.575	2427.8
204.65	2435.61
204.724	2427.32
204.799	2435.6
204.873	2431.17
204.948	2433.08
205.022	2421.8
205.097	2410.65
205.171	2421.88
205.246	2430.36
205.32	2431.46
205.395	2429.84
205.469	2422.84
205.544	2426.89
205.618	2409.8
205.693	2418.99
205.767	2403.99
205.842	2426.85
205.916	2421.19
205.991	2410.62
206.065	2419.14
206.14	2433.98
206.214	2431.51
206.289	2426.27
206.363	2437.79
206.438	2440.79
206.512	2446.74
206.586	2470.26
206.661	2480.02
206.735	2462.56
206.81	2467.18
206.884	2478.27
206.958	2466.28
207.033	2481.89
207.107	2489.18
207.181	2523.42
207.256	2518.99
207.33	2540.42
207.405	2554.58
207.479	2575.43
207.553	2585.05
207.628	2568.44
207.702	2581.29
207.776	2576.01
207.851	2580.01
207.925	2600.11
207.999	2600.02
208.073	2603.88
208.148	2606.78
208.222	2600.35
208.296	2637.06
208.371	2659.52
208.445	2679.53
208.519	2716.01
208.593	2738.45
208.668	2740.93
208.742	2749.51
208.816	2764.56
208.89	2788.4
208.965	2797.7
209.039	2816
209.113	2849.51
209.187	2883.32
209.261	2895.57
209.336	2934.66
209.41	2975.28
209.484	2993.17
209.558	3035.9
209.632	3072.52
209.707	3108.47
209.781	3156.69
209.855	3199.21
209.929	3237.79
210.003	3271.23
210.077	3302.44
210.151	3381.39
210.226	3448.04
210.3	3509.33
210.374	3565.97
210.448	3605.27
210.522	3651.65
210.596	3704.9
210.67	3751.41
210.744	3843.62
210.818	3923.52
210.892	3989.62
210.966	4028.18
211.041	4091.93
211.115	4138.73
211.189	4213.41
211.263	4284.75
211.337	4342.7
211.411	4409.15
211.485	4464.56
211.559	4535.49
211.633	4596.18
211.707	4628.6
211.781	4701.44
211.855	4736.05
211.929	4797.68
212.003	4850.8
212.077	4932.27
212.151	5016.05
212.225	5103.8
212.299	5163.96
212.373	5229.74
212.447	5302.74
212.52	5414.07
212.594	5495.23
212.668	5585.72
212.742	5654.77
212.816	5731.89
212.89	5809.85
212.964	5895.16
213.038	5987.53
213.112	6088.05
213.186	6189.04
213.26	6251.88
213.333	6300.45
213.407	6393.78
213.481	6483.76
213.555	6585.83
213.629	6660.41
213.703	6732.93
213.777	6819.59
213.85	6897.42
213.924	7023.08
213.998	7111.79
214.072	7194.76
214.146	7275.01
214.219	7364.75
214.293	7448.76
214.367	7539.72
214.441	7638.31
214.515	7716.6
214.588	7779.74
214.662	7836.2
214.736	7900.39
214.81	8002.17
214.883	8103.93
214.957	8182.62
215.031	8262.46
215.105	8326.71
215.178	8404.32
215.252	8483.76
215.326	8550.98
215.4	8617.29
215.473	8651.23
215.547	8720.64
215.621	8796.85
215.694	8885.19
215.768	8948.49
215.842	9020.21
215.915	9088.82
215.989	9147.42
216.063	9221.52
216.136	9304.24
216.21	9388.02
216.284	9481.34
216.357	9560.08
216.431	9633.72
216.504	9720.84
216.578	9818.38
216.652	9908.77
216.725	9991.04
216.799	10079.19
216.873	10157.18
216.946	10239.31
217.02	10313.11
217.093	10382.97
217.167	10434.33
217.24	10495.66
217.314	10565.67
217.387	10633.45
217.461	10707.8
217.535	10804.03
217.608	10868.07
217.682	10944.21
217.755	11026.95
217.829	11098.46
217.902	11169.59
217.976	11242.85
218.049	11310.17
218.123	11376.54
218.196	11451.14
218.27	11510.57
218.343	11562.05
218.417	11632.32
218.49	11698.06
218.563	11788.14
218.637	11869.84
218.71	11965.52
218.784	12041.82
218.857	12124.63
218.931	12205.8
219.004	12274.97
219.077	12346.41
219.151	12416.44
219.224	12482.1
219.298	12540.04
219.371	12617.07
219.444	12675.64
219.518	12732.66
219.591	12807.62
219.665	12899.31
219.738	12971.86
219.811	13038.38
219.885	13125.97
219.958	13201.41
220.031	13268.85
220.105	13334.61
220.178	13395.93
220.251	13451.85
220.325	13523.63
220.398	13588.03
220.471	13660.34
220.544	13730.29
220.618	13785.24
220.691	13856.54
220.764	13913.95
220.838	13988.82
220.911	14036.83
220.984	14117.62
221.057	14194.51
221.131	14253.37
221.204	14284.17
221.277	14370.7
221.35	14454.19
221.424	14503.41
221.497	14558.03
221.57	14617.75
221.643	14679.89
221.716	14749.45
221.79	14802.13
221.863	14860.03
221.936	14915.27
222.009	14966.75
222.082	15025.41
222.155	15076.07
222.229	15137.48
222.302	15196.05
222.375	15242.33
222.448	15312.46
222.521	15369.34
222.594	15421.83
222.667	15460.1
222.74	15515.15
222.814	15557.76
222.887	15610.63
222.96	15678.16
223.033	15740.82
223.106	15802.76
223.179	15856.89
223.252	15902.87
223.325	15947.74
223.398	15994.93
223.471	16046.16
223.544	16096.29
223.617	16145.21
223.69	16195.97
223.763	16240.16
223.837	16293.95
223.91	16353.77
223.983	16379.21
224.056	16404.52
224.129	16448.38
224.202	16505.3
224.275	16546.99
224.348	16569.64
224.42	16588.49
224.493	16597.45
224.566	16622.46
224.639	16662.95
224.712	16694.9
224.785	16733.12
224.858	16769.46
224.931	16796.26
225.004	16824.5
225.077	16859.54
225.15	16869.27
225.223	16905.37
225.296	16959.68
225.369	16985.47
225.442	17004.94
225.514	17044.17
225.587	17093.04
225.66	17133.91
225.733	17172.32
225.806	17212.17
225.879	17242.97
225.952	17279.16
226.025	17337.77
226.097	17392.22
226.17	17424.8
226.243	17437.72
226.316	17465.28
226.389	17505.57
226.461	17552.95
226.534	17599.84
226.607	17628.9
226.68	17688.56
226.753	17724.65
226.825	17741.14
226.898	17781.81
226.971	17822.1
227.044	17870.58
227.117	17894.43
227.189	17922.48
227.262	17963.68
227.335	17995.68
227.407	18026.82
227.48	18053.27
227.553	18076.69
227.626	18098.38
227.698	18130.52
227.771	18165.12
227.844	18187.72
227.916	18214.28
227.989	18225.89
228.062	18238.18
228.134	18286.9
228.207	18302.61
228.28	18313.65
228.352	18341.02
228.425	18369.11
228.498	18393.5
228.57	18395.86
228.643	18434.56
228.716	18455.37
228.788	18458.22
228.861	18473.25
228.934	18512.67
229.006	18541.15
229.079	18561.39
229.151	18573.97
229.224	18573.73
229.296	18606.26
229.369	18649.82
229.442	18686.2
229.514	18693.29
229.587	18729.86
229.659	18730.2
229.732	18758.97
229.804	18789.67
229.877	18828.17
229.949	18848.84
230.022	18882.53
230.094	18902.58
230.167	18924.07
230.239	18939.25
230.312	18958.52
230.384	19004.21
230.457	19018.52
230.529	19037.31
230.602	19056.98
230.674	19079.29
230.747	19119.62
230.819	19144.44
230.892	19139.19
230.964	19149.4
231.037	19181.02
231.109	19184.82
231.181	19209.88
231.254	19224.58
231.326	19238.22
231.399	19239.76
231.471	19248.39
231.544	19242.31
231.616	19272.05
231.688	19283.56
231.761	19285.44
231.833	19296.53
231.905	19281.2
231.978	19284.38
232.05	19290.26
232.122	19306.16
232.195	19308.96
232.267	19324.62
232.339	19322.31
232.412	19335.75
232.484	19346.11
232.556	19337.3
232.629	19370.6
232.701	19373.82
232.773	19369.39
232.846	19374.4
232.918	19384.47
232.99	19395.99
233.062	19412.71
233.135	19407.51
233.207	19391.46
233.279	19405.68
233.351	19418.3
233.424	19418.74
233.496	19420.95
233.568	19443.31
233.64	19426.4
233.713	19429.15
233.785	19413.1
233.857	19417.29
233.929	19407.85
234.001	19427.36
234.074	19447.99
234.146	19422.54
234.218	19421.48
234.29	19413.2
234.362	19399.65
234.434	19368.81
234.507	19347.42
234.579	19326.94
234.651	19327.95
234.723	19335.95
234.795	19336.19
234.867	19318.94
234.939	19326.45
235.012	19317.2
235.084	19303.9
235.156	19306.74
235.228	19291.95
235.3	19286.02
235.372	19278.5
235.444	19279.66
235.516	19230.89
235.588	19219.04
235.66	19214.94
235.732	19193.59
235.804	19235.09
235.876	19233.16
235.948	19241.35
236.02	19237.21
236.092	19222.27
236.164	19203.23
236.236	19183.57
236.308	19159.67
236.38	19157.4
236.452	19136.06
236.524	19131.43
236.596	19143.28
236.668	19138.27
236.74	19130.8
236.812	19129.21
236.884	19118.66
236.956	19099.34
237.028	19087.38
237.1	19067.05
237.172	19063.48
237.244	19069.75
237.316	19029.36
237.388	19005.65
237.46	18987.29
237.532	18986.43
237.604	18964.6
237.675	18965.46
237.747	18960.07
237.819	18937.42
237.891	18918.67
237.963	18893.95
238.035	18876.46
238.107	18819.11
238.178	18814.44
238.25	18789.52
238.322	18780.27
238.394	18743.6
238.466	18726.3
238.538	18709.53
238.609	18697.38
238.681	18663.8
238.753	18634.21
238.825	18604.09
238.897	18584.33
238.968	18574.21
239.04	18537.97
239.112	18548.48
239.184	18506.26
239.255	18477.73
239.327	18462.07
239.399	18438.99
239.471	18419.81
239.542	18391.28
239.614	18388.58
239.686	18331.24
239.758	18321.26
239.829	18288.88
239.901	18275.67
239.973	18245.12
240.044	18225.31
240.116	18201.46
240.188	18168.88
240.259	18135.1
240.331	18106.96
240.403	18089.66
240.474	18047.34
240.546	18016.21
240.618	17963.93
240.689	17934.53
240.761	17906.87
240.833	17896.51
240.904	17867.01
240.976	17846.72
241.048	17822.73
241.119	17795.84
241.191	17773.96
241.262	17756.51
241.334	17716.22
241.405	17685.43
241.477	17661.67
241.549	17630.87
241.62	17603.74
241.692	17582.01
241.763	17568.03
241.835	17533.04
241.906	17511.12
241.978	17471.41
242.049	17454.01
242.121	17434.49
242.192	17423.98
242.264	17386.34
242.335	17331.55
242.407	17308.18
242.478	17264.85
242.55	17239.36
242.621	17200.9
242.693	17176.56
242.764	17141.28
242.836	17119.55
242.907	17099.11
242.979	17072.12
243.05	17046.2
243.122	17012.99
243.193	16974.63
243.264	16919.3
243.336	16897.8
243.407	16870.81
243.479	16849.75
243.55	16823.82
243.622	16800.5
243.693	16768.69
243.764	16747.72
243.836	16718.18
243.907	16684.35
243.978	16657.4
244.05	16628.2
244.121	16577.45
244.192	16553.64
244.264	16508.72
244.335	16472.04
244.407	16414.3
244.478	16387.36
244.549	16355.6
244.62	16311.06
244.692	16285.95
244.763	16266.34
244.834	16225.85
244.906	16188.01
244.977	16167.96
245.048	16151.58
245.119	16116.59
245.191	16082.41
245.262	16037.3
245.333	16024
245.405	15998.02
245.476	15976.04
245.547	15955.07
245.618	15942.97
245.689	15913.86
245.761	15884.94
245.832	15855.4
245.903	15848.6
245.974	15818.14
246.045	15787.63
246.117	15778.95
246.188	15727.38
246.259	15691.61
246.33	15667.75
246.401	15633.48
246.473	15584.07
246.544	15540.6
246.615	15516.79
246.686	15478.03
246.757	15458.56
246.828	15410.26
246.899	15390.45
246.97	15341.91
247.042	15292.89
247.113	15272.45
247.184	15263.58
247.255	15229.12
247.326	15202.56
247.397	15168.34
247.468	15142.36
247.539	15109.05
247.61	15062.29
247.681	15055.54
247.752	15039.54
247.823	14997.07
247.894	14973.16
247.965	14939.66
248.037	14905.87
248.108	14860.41
248.179	14825.32
248.25	14795.53
248.321	14784.35
248.392	14744.19
248.463	14741.59
248.534	14723.27
248.605	14692.76
248.675	14642.87
248.746	14623.59
248.817	14603.58
248.888	14575.96
248.959	14531.52
249.03	14511.32
249.101	14487.27
249.172	14457.14
249.243	14410.38
249.314	14398.33
249.385	14372.44
249.456	14354.27
249.527	14326.98
249.598	14305.53
249.669	14277.91
249.739	14255.06
249.81	14228.3
249.881	14185.45
249.952	14156.53
250.023	14122.83
250.094	14092.17
250.165	14070.24
250.235	14039.68
250.306	14012.44
250.377	13983.56
250.448	13962.98
250.519	13919.21
250.59	13910.44
250.66	13878.96
250.731	13865.46
250.802	13836.53
250.873	13811.37
250.944	13790.4
251.014	13758.3
251.085	13752.13
251.156	13735.16
251.227	13713.61
251.297	13694.71
251.368	13677.79
251.439	13659.33
251.51	13647.08
251.58	13606.98
251.651	13573.42
251.722	13557.56
251.792	13514.51
251.863	13485.45
251.934	13480.82
252.005	13483.76
252.075	13457.15
252.146	13446.4
252.217	13436.85
252.287	13427.31
252.358	13403.74
252.429	13396.26
252.499	13367.77
252.57	13349.74
252.641	13341.31
252.711	13329.06
252.782	13291.66
252.852	13291.8
252.923	13263.07
252.994	13235.21
253.064	13226.91
253.135	13192.21
253.205	13160.92
253.276	13159.62
253.347	13156.73
253.417	13121.78
253.488	13096.13
253.558	13066.77
253.629	13039.01
253.699	13017.46
253.77	12999.77
253.841	12980.82
253.911	12960.33
253.982	12945.25
254.052	12928.86
254.123	12901.62
254.193	12877.03
254.264	12895.11
254.334	12862.72
254.405	12823.33
254.475	12789.2
254.546	12761.97
254.616	12763.99
254.687	12757.24
254.757	12735.99
254.827	12709.67
254.898	12691.15
254.968	12670.86
255.039	12643.19
255.109	12631.19
255.18	12591.85
255.25	12543.41
255.321	12518.58
255.391	12476.21
255.461	12472.93
255.532	12421.55
255.602	12399.85
255.673	12352.81
255.743	12325.19
255.813	12281.47
255.884	12276.98
255.954	12271.49
256.024	12272.12
256.095	12246.09
256.165	12207.23
256.235	12189.83
256.306	12162.07
256.376	12147.61
256.446	12131.22
256.517	12118.97
256.587	12105.24
256.657	12099.07
256.728	12087.11
256.798	12071.98
256.868	12056.12
256.938	12023.68
257.009	12017.27
257.079	12003.68
257.149	12014.18
257.219	11971.24
257.29	11957.02
257.36	11922.17
257.43	11908.77
257.5	11862.01
257.571	11837.58
257.641	11824.76
257.711	11795.74
257.781	11779.35
257.852	11772.31
257.922	11732.98
257.992	11715.05
258.062	11693.65
258.132	11681.36
258.202	11658.42
258.273	11634.9
258.343	11635
258.413	11617.45
258.483	11597.3
258.553	11565.45
258.623	11541.88
258.693	11523.66
258.764	11525.78
258.834	11529.63
258.904	11512.67
258.974	11494.84
259.044	11479.66
259.114	11468.33
259.184	11450.35
259.254	11433
259.324	11389.62
259.394	11380.32
259.464	11377.05
259.535	11360.66
259.605	11336.56
259.675	11308.85
259.745	11302.2
259.815	11265.09
259.885	11237.72
259.955	11248.56
260.025	11226.49
260.095	11203.41
260.165	11189.48
260.235	11181.96
260.305	11149.19
260.375	11119.5
260.445	11120.61
260.515	11114.88
260.585	11107.5
260.655	11094.59
260.725	11092.18
260.795	11080.71
260.865	11090.01
260.934	11061.82
261.004	11050.68
261.074	11032.47
261.144	11035.55
261.214	11021.24
261.284	11013.14
261.354	11007.31
261.424	10979.6
261.494	10985.87
261.564	10969.82
261.634	10961.72
261.703	10929.39
261.773	10919.22
261.843	10909.29
261.913	10890.89
261.983	10857.06
262.053	10853.25
262.123	10831.91
262.192	10797.21
262.262	10796.54
