Data from 20250702_urea_0.5M_MAYP1162681_09-24-59-941.txt Node
Date: Thu Jul 03 09:24:59 BST 2025
User: adleo
Spectrometer: MAYP116268
Trigger mode: 0
Integration Time (sec): 1.000000E0
Scans to average: 1
Electric dark correction enabled: true
Nonlinearity correction enabled: true
Boxcar width: 10
XAxis mode: Wavelengths
Number of Pixels in Spectrum: 2068
>>>>>Begin Spectral Data<<<<<
179.565	1172.79
179.642	1227.44
179.718	1268.92
179.795	1309.54
179.871	1341.42
179.948	1358.71
180.024	1380.95
180.101	1404.44
180.177	1417.89
180.254	1442.27
180.33	1465.99
180.407	1518.35
180.483	1610.85
180.56	1697.89
180.636	1779.69
180.712	1768.47
180.789	1778.21
180.865	1790.23
180.942	1798.07
181.018	1809.81
181.095	1823.17
181.171	1830.16
181.248	1832.72
181.324	1848.22
181.4	1852.69
181.477	1865.95
181.553	1879.78
181.63	1899.47
181.706	1914.78
181.782	1922.9
181.859	1921.24
181.935	1923.57
182.011	1916.91
182.088	1933.79
182.164	1954.2
182.24	1969.07
182.317	1977.87
182.393	1975.97
182.469	1988.14
182.546	1999.31
182.622	2003.45
182.698	1998.84
182.775	2009.58
182.851	2023.13
182.927	2016.67
183.003	2011.58
183.08	2004.12
183.156	2010.39
183.232	2005.78
183.308	1995.46
183.385	2004.63
183.461	2020.52
183.537	2022.71
183.613	2039.68
183.69	2033.5
183.766	2020.04
183.842	2026.32
183.918	2032.74
183.995	2047.81
184.071	2054.38
184.147	2052.43
184.223	2039.21
184.299	2052.1
184.375	2044.83
184.452	2051.77
184.528	2098.24
184.604	2110.13
184.68	2124.11
184.756	2132.39
184.832	2139.09
184.908	2144.04
184.985	2142.71
185.061	2130.25
185.137	2141.19
185.213	2127.4
185.289	2126.06
185.365	2122.12
185.441	2119.17
185.517	2132.06
185.593	2127.4
185.669	2122.98
185.745	2129.21
185.822	2149.94
185.898	2140.57
185.974	2146.32
186.05	2140.13
186.126	2108.08
186.202	2102.09
186.278	2095.19
186.354	2088.39
186.43	2094.24
186.506	2092.39
186.582	2094.81
186.658	2099.99
186.734	2079.16
186.81	2082.3
186.886	2086.39
186.962	2097.76
187.038	2094.67
187.114	2087.48
187.19	2093.28
187.266	2083.63
187.341	2086.63
187.417	2078.88
187.493	2080.83
187.569	2085.44
187.645	2075.69
187.721	2064.37
187.797	2071.83
187.873	2075.88
187.949	2068.98
188.025	2062.32
188.101	2064.93
188.176	2066.98
188.252	2062.32
188.328	2070.35
188.404	2069.36
188.48	2063.13
188.556	2057.89
188.632	2056.99
188.707	2053.8
188.783	2052.71
188.859	2047.62
188.935	2034.92
189.011	2038.96
189.086	2031.93
189.162	2022.03
189.238	2020.51
189.314	2018.23
189.39	2012.67
189.465	2006.2
189.541	2022.51
189.617	2005.3
189.693	2000.83
189.768	2003.4
189.844	2028.28
189.92	2020.01
189.996	2029.05
190.071	2038.75
190.147	2037.08
190.223	2047.45
190.298	2042.6
190.374	2029.85
190.45	2041.55
190.526	2052.35
190.601	2048.45
190.677	2052.54
190.753	2083.09
190.828	2086.56
190.904	2103.12
190.98	2116.01
191.055	2126.23
191.131	2117.67
191.207	2141.31
191.282	2149.44
191.358	2142.16
191.433	2125.55
191.509	2137.3
191.585	2136.39
191.66	2140.96
191.736	2147.38
191.811	2139.63
191.887	2154.19
191.963	2176.55
192.038	2182.11
192.114	2182.11
192.189	2190.01
192.265	2185.06
192.34	2161.07
192.416	2160.79
192.491	2155.41
192.567	2159.88
192.642	2164.07
192.718	2162.45
192.793	2149.89
192.869	2146.71
192.944	2149.32
193.02	2159.84
193.095	2163.88
193.171	2166.59
193.246	2166.59
193.322	2164.93
193.397	2163.31
193.473	2150.94
193.548	2131.24
193.624	2136.48
193.699	2136.62
193.775	2149.99
193.85	2150.71
193.925	2156.18
194.001	2155.08
194.076	2149.04
194.152	2139.14
194.227	2131.44
194.302	2122.07
194.378	2126.26
194.453	2125.64
194.529	2138.15
194.604	2120.36
194.679	2115.84
194.755	2098.05
194.83	2107.72
194.905	2105.05
194.981	2114.9
195.056	2106.48
195.131	2116.76
195.207	2114.66
195.282	2104.1
195.357	2085.54
195.433	2101.81
195.508	2094.58
195.583	2101.48
195.659	2113.94
195.734	2119.08
195.809	2119.89
195.884	2131.4
195.96	2131.4
196.035	2145.86
196.11	2140.86
196.185	2152.99
196.261	2155.32
196.336	2190.53
196.411	2176.92
196.486	2182.29
196.561	2178.2
196.637	2187.95
196.712	2200.33
196.787	2204.23
196.862	2218.59
196.937	2226.68
197.013	2230.11
197.088	2238.39
197.163	2258.85
197.238	2272.18
197.313	2274.56
197.388	2286.08
197.464	2317.17
197.539	2325.78
197.614	2317.07
197.689	2329.78
197.764	2345.73
197.839	2364.86
197.914	2355.82
197.989	2376.47
198.065	2390.32
198.14	2438.34
198.215	2464.14
198.29	2474.52
198.365	2488.24
198.44	2499.14
198.515	2526.23
198.59	2543.52
198.665	2570.66
198.74	2579.86
198.815	2585.95
198.89	2606.34
198.965	2633.73
199.04	2626.77
199.115	2644.68
199.19	2685.88
199.265	2687.64
199.34	2698.93
199.415	2732.1
199.49	2751.44
199.565	2762.39
199.64	2785.26
199.715	2779.21
199.79	2787.35
199.865	2794.64
199.94	2793.74
200.015	2823.19
200.09	2828.86
200.165	2831.39
200.24	2836.96
200.315	2875.98
200.39	2890.28
200.464	2899.29
200.539	2898.76
200.614	2915.2
200.689	2938.47
200.764	2945.76
200.839	2964.92
200.914	2967.92
200.989	2959.19
201.063	2974.45
201.138	2957.73
201.213	2959.82
201.288	2943
201.363	2948.82
201.438	2951.25
201.512	2967.07
201.587	2951.91
201.662	2956.91
201.737	2972.02
201.812	2981.13
201.886	2947.69
201.961	2955.65
202.036	2941.6
202.111	2941.74
202.186	2913.11
202.26	2895.23
202.335	2872.59
202.41	2863.29
202.485	2848.05
202.559	2828.84
202.634	2802.54
202.709	2811.16
202.784	2792.81
202.858	2794.62
202.933	2774.89
203.008	2766.55
203.082	2746.02
203.157	2747.45
203.232	2706.44
203.306	2685.23
203.381	2650.59
203.456	2629.68
203.53	2607.51
203.605	2588.7
203.68	2568.21
203.754	2561.22
203.829	2546.17
203.904	2525.83
203.978	2516.31
204.053	2522.07
204.127	2507.31
204.202	2506.79
204.277	2489.27
204.351	2481.31
204.426	2472.31
204.5	2465.12
204.575	2433.37
204.65	2445.09
204.724	2434.47
204.799	2441.7
204.873	2438.79
204.948	2440.08
205.022	2429.42
205.097	2420.03
205.171	2435.41
205.246	2443.32
205.32	2442.7
205.395	2444.32
205.469	2435.94
205.544	2440.94
205.618	2423.28
205.693	2437.32
205.767	2425.09
205.842	2446.76
205.916	2439.09
205.991	2430.38
206.065	2435.62
206.14	2448.22
206.214	2438.55
206.289	2433.22
206.363	2444.93
206.438	2445.98
206.512	2452.6
206.586	2471.31
206.661	2481.12
206.735	2458.7
206.81	2455.32
206.884	2470.27
206.958	2457.22
207.033	2479.55
207.107	2489.27
207.181	2522.8
207.256	2517.56
207.33	2536.42
207.405	2548.86
207.479	2572.95
207.553	2581.47
207.628	2567.57
207.702	2583.05
207.776	2582.81
207.851	2587.19
207.925	2606.11
207.999	2606.97
208.073	2608.63
208.148	2611.97
208.222	2603.82
208.296	2639.05
208.371	2659.31
208.445	2674.08
208.519	2710.9
208.593	2724.33
208.668	2725.67
208.742	2731.06
208.816	2738.25
208.89	2762.37
208.965	2772.24
209.039	2786.87
209.113	2811.46
209.187	2842.56
209.261	2850.71
209.336	2880.54
209.41	2914.34
209.484	2928.41
209.558	2962.36
209.632	2990.43
209.707	3019.32
209.781	3060.42
209.855	3092.33
209.929	3127.46
210.003	3155.17
210.077	3171.63
210.151	3241.58
210.226	3300.29
210.3	3352.91
210.374	3406.15
210.448	3437.28
210.522	3471.36
210.596	3511.85
210.67	3555.62
210.744	3634.76
210.818	3697.48
210.892	3754.6
210.966	3780.15
211.041	3830.26
211.115	3865.89
211.189	3927.13
211.263	3982.12
211.337	4028
211.411	4083.73
211.485	4125.91
211.559	4181.82
211.633	4230.51
211.707	4244.1
211.781	4292.57
211.855	4304.34
211.929	4343.83
212.003	4371.46
212.077	4437.11
212.151	4500.18
212.225	4560.1
212.299	4600.75
212.373	4647.55
212.447	4699.46
212.52	4785.91
212.594	4844.08
212.668	4914.55
212.742	4964.7
212.816	5022.31
212.89	5078.11
212.964	5143.86
213.038	5214.84
213.112	5293.05
213.186	5372.92
213.26	5414.59
213.333	5441.38
213.407	5513.97
213.481	5584.74
213.555	5665.33
213.629	5719.15
213.703	5775.07
213.777	5844.58
213.85	5901.29
213.924	6005.85
213.998	6076.59
214.072	6140.81
214.146	6199.64
214.219	6270.44
214.293	6335.8
214.367	6407.18
214.441	6487.4
214.515	6544.16
214.588	6588.92
214.662	6623.54
214.736	6672.85
214.81	6755.22
214.883	6832.42
214.957	6891.77
215.031	6944.31
215.105	6995.06
215.178	7053.49
215.252	7108.88
215.326	7153.72
215.4	7197.01
215.473	7219.7
215.547	7268.11
215.621	7319.4
215.694	7394.93
215.768	7429.97
215.842	7479.53
215.915	7528.19
215.989	7569.78
216.063	7621.19
216.136	7685.2
216.21	7751.21
216.284	7821.71
216.357	7894.29
216.431	7957.34
216.504	8030.89
216.578	8123.73
216.652	8200.35
216.725	8260.68
216.799	8335.06
216.873	8402.28
216.946	8476.95
217.02	8531.27
217.093	8588.68
217.167	8636.9
217.24	8686.53
217.314	8750.72
217.387	8809.77
217.461	8868.78
217.535	8943.2
217.608	9001.97
217.682	9059.41
217.755	9133.36
217.829	9189.06
217.902	9240.97
217.976	9302.02
218.049	9353.01
218.123	9398.76
218.196	9468.11
218.27	9520.55
218.343	9572.52
218.417	9636.48
218.49	9694.8
218.563	9770.56
218.637	9841.22
218.71	9924.41
218.784	9988.57
218.857	10056.05
218.931	10123.97
219.004	10191.74
219.077	10257.85
219.151	10320.09
219.224	10379.01
219.298	10434.42
219.371	10508.66
219.444	10561.95
219.518	10628.3
219.591	10691.61
219.665	10774.73
219.738	10836.65
219.811	10898.13
219.885	10966.76
219.958	11023.38
220.031	11083.42
220.105	11145.2
220.178	11203.71
220.251	11255.76
220.325	11322.7
220.398	11390.9
220.471	11459.33
220.544	11531.43
220.618	11586.48
220.691	11646.77
220.764	11710.15
220.838	11778.74
220.911	11824.91
220.984	11910.66
221.057	11973.8
221.131	12041.52
221.204	12070.88
221.277	12146.36
221.35	12232.89
221.424	12287.16
221.497	12355.71
221.57	12419.14
221.643	12487.74
221.716	12557.05
221.79	12611.43
221.863	12665.56
221.936	12728.66
222.009	12780.87
222.082	12838.47
222.155	12890.44
222.229	12968.58
222.302	13034.43
222.375	13082.15
222.448	13158.03
222.521	13207.05
222.594	13256.23
222.667	13297.59
222.74	13368.64
222.814	13418.58
222.887	13468.67
222.96	13541.56
223.033	13600.42
223.106	13659.47
223.179	13717.75
223.252	13771.79
223.325	13831.86
223.398	13891.34
223.471	13937.77
223.544	13994.51
223.617	14051.2
223.69	14105.96
223.763	14139.51
223.837	14194.32
223.91	14262.48
223.983	14288.95
224.056	14324.47
224.129	14377.79
224.202	14440.26
224.275	14480.71
224.348	14513.1
224.42	14558.03
224.493	14578.47
224.566	14625.66
224.639	14671.98
224.712	14710.74
224.785	14747.91
224.858	14782.08
224.931	14809.41
225.004	14853.95
225.077	14900.47
225.15	14916.38
225.223	14959.33
225.296	15031.15
225.369	15058.24
225.442	15085.04
225.514	15134.26
225.587	15193.83
225.66	15242.66
225.733	15289.71
225.806	15335.02
225.879	15377.05
225.952	15404.19
226.025	15471.14
226.097	15522.52
226.17	15561.56
226.243	15582.15
226.316	15622.73
226.389	15674.21
226.461	15726.6
226.534	15760.68
226.607	15790.47
226.68	15853.03
226.753	15887.54
226.825	15893.09
226.898	15940.71
226.971	15984.23
227.044	16033.68
227.117	16062.36
227.189	16098.75
227.262	16140.83
227.335	16181.27
227.407	16212.02
227.48	16250.77
227.553	16283.35
227.626	16305.13
227.698	16343.98
227.771	16384.66
227.844	16411.6
227.916	16446.88
227.989	16466.88
228.062	16500.24
228.134	16563.62
228.207	16592.29
228.28	16627.96
228.352	16667
228.425	16704.54
228.498	16743.96
228.57	16771.05
228.643	16817.03
228.716	16845.7
228.788	16867.92
228.861	16896.69
228.934	16940.02
229.006	16968.65
229.079	16992.8
229.151	17012.55
229.224	17027.21
229.296	17065.62
229.369	17121.47
229.442	17164.7
229.514	17191.93
229.587	17242.68
229.659	17251.98
229.732	17283.31
229.804	17322.68
229.877	17378.83
229.949	17422.05
230.022	17469.04
230.094	17484.03
230.167	17510.44
230.239	17536.32
230.312	17564.9
230.384	17622.34
230.457	17652.51
230.529	17691.06
230.602	17716.85
230.674	17761.23
230.747	17794.92
230.819	17834.72
230.892	17829.71
230.964	17845.13
231.037	17874.63
231.109	17887.4
231.181	17922.14
231.254	17934.67
231.326	17952.02
231.399	17964.55
231.471	17971.59
231.544	17972.74
231.616	18020.26
231.688	18037.51
231.761	18048.98
231.833	18062.48
231.905	18054.38
231.978	18077.46
232.05	18085.9
232.122	18109.66
232.195	18115.49
232.267	18148.69
232.339	18154.04
232.412	18186.18
232.484	18204.5
232.556	18217.7
232.629	18261.75
232.701	18285.26
232.773	18301.6
232.846	18308.63
232.918	18317.84
232.99	18336.92
233.062	18351.09
233.135	18350.37
233.207	18350.99
233.279	18370.7
233.351	18389.69
233.424	18387.14
233.496	18381.4
233.568	18410.89
233.64	18406.51
233.713	18417.79
233.785	18425.35
233.857	18436.15
233.929	18431.23
234.001	18448.43
234.074	18470.94
234.146	18447.57
234.218	18441.01
234.29	18441.59
234.362	18451.76
234.434	18438.46
234.507	18426.6
234.579	18410.22
234.651	18414.56
234.723	18432.48
234.795	18445.54
234.867	18451.71
234.939	18478.31
235.012	18481.54
235.084	18486.46
235.156	18497.11
235.228	18492.58
235.3	18478.17
235.372	18475.18
235.444	18492.53
235.516	18466.89
235.588	18458.7
235.66	18462.65
235.732	18451.28
235.804	18511.76
235.876	18513.92
235.948	18526.65
236.02	18529.2
236.092	18532.96
236.164	18529.59
236.236	18515.27
236.308	18493.06
236.38	18481.83
236.452	18464.24
236.524	18467.76
236.596	18470.41
236.668	18464.34
236.74	18452.53
236.812	18454.07
236.884	18452.68
236.956	18446.46
237.028	18434.99
237.1	18419.81
237.172	18423.57
237.244	18434.75
237.316	18380.87
237.388	18367.81
237.46	18355.43
237.532	18346.46
237.604	18322.8
237.675	18320.59
237.747	18323.38
237.819	18306.37
237.891	18299.67
237.963	18269.02
238.035	18248.01
238.107	18195.39
238.178	18202.52
238.25	18187.19
238.322	18197.89
238.394	18170.71
238.466	18142.71
238.538	18138.57
238.609	18127.97
238.681	18089.41
238.753	18057.9
238.825	18054.19
238.897	18032.6
238.968	18032.74
239.04	18015.88
239.112	18028.31
239.184	17999.49
239.255	17969.61
239.327	17954.43
239.399	17937.57
239.471	17936.99
239.542	17922.67
239.614	17924.84
239.686	17867.11
239.758	17855.3
239.829	17817.95
239.901	17802.82
239.973	17779.88
240.044	17756.65
240.116	17736.41
240.188	17714.05
240.259	17694.1
240.331	17658.39
240.403	17643.16
240.474	17602.97
240.546	17568.61
240.618	17521.62
240.689	17494.44
240.761	17476.61
240.833	17471.07
240.904	17443.41
240.976	17410.06
241.048	17383.31
241.119	17367.36
241.191	17353.86
241.262	17349.43
241.334	17321.48
241.405	17303.94
241.477	17281.53
241.549	17261.57
241.62	17238.54
241.692	17221.62
241.763	17209.14
241.835	17183.69
241.906	17158.1
241.978	17120.13
242.049	17103.45
242.121	17092.27
242.192	17078.68
242.264	17036.51
242.335	16991.78
242.407	16968.89
242.478	16945.32
242.55	16930.96
242.621	16898.04
242.693	16867.39
242.764	16834.72
242.836	16803.1
242.907	16773.03
242.979	16749.75
243.05	16719.39
243.122	16696.2
243.193	16674.66
243.264	16625.6
243.336	16601.35
243.407	16580.24
243.479	16568.15
243.55	16555.47
243.622	16533.11
243.693	16502.12
243.764	16498.89
243.836	16475.9
243.907	16444.23
243.978	16411.27
244.05	16383.46
244.121	16329.28
244.192	16315.98
244.264	16273.66
244.335	16251.2
244.407	16211.25
244.478	16176.93
244.549	16145.6
244.62	16107.62
244.692	16072.72
244.763	16059.76
244.834	16016.81
244.906	15983.56
244.977	15958.69
245.048	15944.37
245.119	15904.66
245.191	15862.67
245.262	15806.62
245.333	15786.23
245.405	15757.26
245.476	15738.56
245.547	15714.41
245.618	15703.23
245.689	15671.03
245.761	15640.47
245.832	15615.7
245.903	15593.91
245.974	15577.33
246.045	15548.99
246.117	15543.64
246.188	15503.48
246.259	15451.86
246.33	15428.67
246.401	15394.11
246.473	15352.66
246.544	15303.83
246.615	15290.14
246.686	15261.7
246.757	15254.96
246.828	15216.15
246.899	15199.28
246.97	15153.54
247.042	15112.08
247.113	15098.73
247.184	15080.7
247.255	15057.42
247.326	15021.51
247.397	14992.3
247.468	14959.71
247.539	14935.03
247.61	14885
247.681	14866.68
247.752	14862.2
247.823	14812.11
247.894	14786.66
247.965	14747.76
248.037	14716.91
248.108	14670.35
248.179	14644.84
248.25	14607.25
248.321	14588.93
248.392	14547.91
248.463	14546.51
248.534	14512.91
248.605	14482.78
248.675	14458.05
248.746	14431.01
248.817	14414.86
248.888	14388.54
248.959	14338.26
249.03	14309.68
249.101	14279.55
249.172	14249.66
249.243	14194.51
249.314	14193.55
249.385	14165.44
249.456	14146.89
249.527	14122.59
249.598	14097.57
249.669	14066.62
249.739	14047.05
249.81	14022.27
249.881	13990.99
249.952	13962.4
250.023	13944.27
250.094	13904.02
250.165	13871.82
250.235	13843.33
250.306	13814.07
250.377	13785.68
250.448	13778.16
250.519	13735.88
250.59	13730.91
250.66	13704.16
250.731	13703.73
250.802	13682.9
250.873	13666.8
250.944	13651.18
251.014	13618.69
251.085	13619.32
251.156	13606.25
251.227	13592.66
251.297	13578.34
251.368	13563.01
251.439	13541.7
251.51	13521.94
251.58	13494.46
251.651	13453.44
251.722	13437.05
251.792	13393.37
251.863	13367.68
251.934	13352.49
252.005	13360.21
252.075	13331.72
252.146	13318.6
252.217	13299.51
252.287	13274.93
252.358	13247.55
252.429	13240.6
252.499	13206.96
252.57	13179.77
252.641	13160.2
252.711	13134.79
252.782	13097.05
252.852	13093.77
252.923	13071.26
252.994	13050.19
253.064	13034.86
253.135	13011.58
253.205	12982.12
253.276	12976.63
253.347	12967.23
253.417	12935.41
253.488	12907.02
253.558	12882.1
253.629	12858.33
253.699	12845.17
253.77	12832.93
253.841	12800.29
253.911	12777.49
253.982	12763.32
254.052	12758.54
254.123	12744.95
254.193	12713.28
254.264	12732.37
254.334	12695.73
254.405	12660.25
254.475	12622.85
254.546	12596.53
254.616	12595.81
254.687	12588
254.757	12573.34
254.827	12543.89
254.898	12529.77
254.968	12508.41
255.039	12477.75
255.109	12465.75
255.18	12430.42
255.25	12383.76
255.321	12381.25
255.391	12342.83
255.461	12344.47
255.532	12292.12
255.602	12263.68
255.673	12229.94
255.743	12197.21
255.813	12151.95
255.884	12150.02
255.954	12147.9
256.024	12147.41
256.095	12118.59
256.165	12085.91
256.235	12068.46
256.306	12042.77
256.376	12029.99
256.446	12017.85
256.517	12006.13
256.587	11989.17
256.657	11971.91
256.728	11963.09
256.798	11938.6
256.868	11916.87
256.938	11885.68
257.009	11880.81
257.079	11873.87
257.149	11877.1
257.219	11833.72
257.29	11833.43
257.36	11794.73
257.43	11780.31
257.5	11740.16
257.571	11716.79
257.641	11702.18
257.711	11671.29
257.781	11663.82
257.852	11657.17
257.922	11621.31
257.992	11602.85
258.062	11585.98
258.132	11580.19
258.202	11550.26
258.273	11533.49
258.343	11533.83
258.413	11510.6
258.483	11488.86
258.553	11450.26
258.623	11426.11
258.693	11413.24
258.764	11406.01
258.834	11398.83
258.904	11384.23
258.974	11360.9
259.044	11342.44
259.114	11335.6
259.184	11322.88
259.254	11303.79
259.324	11255.02
259.394	11237.28
259.464	11232.37
259.535	11208.22
259.605	11176.9
259.675	11154.83
259.745	11139.89
259.815	11108.61
259.885	11085.91
259.955	11095.31
260.025	11076.18
260.095	11059.94
260.165	11052.32
260.235	11046.98
260.305	11018.69
260.375	10985.97
260.445	10990.3
260.515	10988.33
260.585	10975.6
260.655	10958.4
260.725	10952.18
260.795	10949.2
260.865	10955.32
260.934	10933.92
261.004	10928.19
261.074	10914.02
261.144	10915.66
261.214	10913.58
261.284	10891.76
261.354	10885.3
261.424	10855.52
261.494	10858.41
261.564	10838.27
261.634	10828.24
261.703	10788.44
261.773	10785.45
261.843	10777.21
261.913	10759.05
261.983	10728.83
262.053	10720.74
262.123	10701.42
262.192	10670.24
262.262	10662.68
