Data from 20250702_urea_0.5M_MAYP1162681_16-54-59-714.txt Node
Date: Wed Jul 02 16:54:59 BST 2025
User: adleo
Spectrometer: MAYP116268
Trigger mode: 0
Integration Time (sec): 1.000000E0
Scans to average: 1
Electric dark correction enabled: true
Nonlinearity correction enabled: true
Boxcar width: 10
XAxis mode: Wavelengths
Number of Pixels in Spectrum: 2068
>>>>>Begin Spectral Data<<<<<
179.565	1132.39
179.642	1181.04
179.718	1221.21
179.795	1259.7
179.871	1290.13
179.948	1305.16
180.024	1321.48
180.101	1341.63
180.177	1355.89
180.254	1377.14
180.33	1395.24
180.407	1445.18
180.483	1533.78
180.56	1617.2
180.636	1692.49
180.712	1677.57
180.789	1686.55
180.865	1696.57
180.942	1702.75
181.018	1713.34
181.095	1724.94
181.171	1727.6
181.248	1731.12
181.324	1744.62
181.4	1748.47
181.477	1760.16
181.553	1774.65
181.63	1793.99
181.706	1809.54
181.782	1817.61
181.859	1815.14
181.935	1822.46
182.011	1813.57
182.088	1830.97
182.164	1849.66
182.24	1865.96
182.317	1874.84
182.393	1870.8
182.469	1885.87
182.546	1901.8
182.622	1906.93
182.698	1901.46
182.775	1913.35
182.851	1926.99
182.927	1922.38
183.003	1918.39
183.08	1910.21
183.156	1917.25
183.232	1918.58
183.308	1906.17
183.385	1912.54
183.461	1929.89
183.537	1930.08
183.613	1944.3
183.69	1933.74
183.766	1922.95
183.842	1930.89
183.918	1938.07
183.995	1952.71
184.071	1955.85
184.147	1948.1
184.223	1937.36
184.299	1949.77
184.375	1940.21
184.452	1945.3
184.528	1997.48
184.604	2010.12
184.68	2021.39
184.756	2027.05
184.832	2025.77
184.908	2031.56
184.985	2030.23
185.061	2017.02
185.137	2028.62
185.213	2017.83
185.289	2020.92
185.365	2014.45
185.441	2011.17
185.517	2022.25
185.593	2020.26
185.669	2018.07
185.745	2027.1
185.822	2041.32
185.898	2035.61
185.974	2042.17
186.05	2033.13
186.126	1993.84
186.202	1985.42
186.278	1982.48
186.354	1975.34
186.43	1985.76
186.506	1984.48
186.582	1984.19
186.658	1992.13
186.734	1971.69
186.81	1973.87
186.886	1977.15
186.962	1987.28
187.038	1984.38
187.114	1976.48
187.19	1982.33
187.266	1972.44
187.341	1974.25
187.417	1966.69
187.493	1964.36
187.569	1968.78
187.645	1962.7
187.721	1948.34
187.797	1956.23
187.873	1959.46
187.949	1954.19
188.025	1946.38
188.101	1949.86
188.176	1956.94
188.252	1951
188.328	1956.51
188.404	1957.98
188.48	1950.09
188.556	1943.53
188.632	1944.34
188.707	1946.86
188.783	1944.05
188.859	1938.54
188.935	1929.79
189.011	1939.01
189.086	1932.12
189.162	1924.75
189.238	1923.33
189.314	1922.99
189.39	1917.43
189.465	1910.2
189.541	1926.89
189.617	1913.63
189.693	1906.88
189.768	1909.21
189.844	1931.71
189.92	1925.77
189.996	1931.14
190.071	1941.74
190.147	1942.65
190.223	1949.35
190.298	1942.36
190.374	1928.67
190.45	1942.07
190.526	1947.78
190.601	1939.41
190.677	1942.83
190.753	1969.05
190.828	1971.62
190.904	1985.36
190.98	1998.72
191.055	2010.09
191.131	1999.43
191.207	2019.59
191.282	2031.19
191.358	2021.92
191.433	2008.03
191.509	2020.39
191.585	2020.72
191.66	2023.81
191.736	2031.04
191.811	2025.19
191.887	2037.51
191.963	2059.43
192.038	2063.9
192.114	2063.85
192.189	2070.7
192.265	2067.61
192.34	2047.29
192.416	2048.67
192.491	2045.24
192.567	2049.62
192.642	2049.76
192.718	2049.43
192.793	2037.45
192.869	2033.31
192.944	2036.11
193.02	2041.39
193.095	2043.39
193.171	2046.67
193.246	2046.58
193.322	2044.53
193.397	2043.68
193.473	2032.12
193.548	2016.38
193.624	2022.61
193.699	2023.84
193.775	2039.88
193.85	2038.74
193.925	2047.73
194.001	2048.25
194.076	2044.06
194.152	2032.27
194.227	2027.75
194.302	2020.1
194.378	2022
194.453	2018
194.529	2029.04
194.604	2016.72
194.679	2012.39
194.755	1995.57
194.83	2008.79
194.905	2004.85
194.981	2012.17
195.056	2006.56
195.131	2010.98
195.207	2008.75
195.282	1998
195.357	1978.45
195.433	1995.71
195.508	1980.59
195.583	1985.34
195.659	1995.52
195.734	2004.84
195.809	2003.75
195.884	2010.64
195.96	2011.4
196.035	2025.86
196.11	2020.86
196.185	2032.7
196.261	2036.22
196.336	2066.23
196.411	2049.86
196.486	2056.05
196.561	2050.2
196.637	2058.47
196.712	2072.79
196.787	2074.03
196.862	2087.72
196.937	2098.99
197.013	2103.99
197.088	2113.5
197.163	2135.01
197.238	2152.48
197.313	2150.15
197.388	2165.46
197.464	2195.59
197.539	2208.57
197.614	2203.86
197.689	2214.9
197.764	2231.42
197.839	2249.64
197.914	2241.79
197.989	2262.58
198.065	2275.28
198.14	2323.09
198.215	2347.84
198.29	2360.79
198.365	2373.26
198.44	2386.2
198.515	2411.24
198.59	2426.05
198.665	2453.42
198.74	2458.9
198.815	2459.66
198.89	2480.03
198.965	2506.42
199.04	2502.9
199.115	2518.32
199.19	2557.27
199.265	2560.27
199.34	2570.08
199.415	2601.33
199.49	2627.28
199.565	2635.62
199.64	2659.19
199.715	2656.47
199.79	2665
199.865	2674
199.94	2670.34
200.015	2695.25
200.09	2700.35
200.165	2704.69
200.24	2709.26
200.315	2747.98
200.39	2762.6
200.464	2772.04
200.539	2771.56
200.614	2786.66
200.689	2806.77
200.764	2815.88
200.839	2837.74
200.914	2839.74
200.989	2833.26
201.063	2840.45
201.138	2826.17
201.213	2827.83
201.288	2810.2
201.363	2812.25
201.438	2810.68
201.512	2828.97
201.587	2820.2
201.662	2823.97
201.737	2836.12
201.812	2844.79
201.886	2812.65
201.961	2820.28
202.036	2805.32
202.111	2803.32
202.186	2779.22
202.26	2764.3
202.335	2742.52
202.41	2735.8
202.485	2718.99
202.559	2695.84
202.634	2671.5
202.709	2679.07
202.784	2659.01
202.858	2658.59
202.933	2643.1
203.008	2637.86
203.082	2618.34
203.157	2615.53
203.232	2573.77
203.306	2556.24
203.381	2529.04
203.456	2507.75
203.53	2489.02
203.605	2473.27
203.68	2452.03
203.754	2442.27
203.829	2428.37
203.904	2407.66
203.978	2392.8
204.053	2400.66
204.127	2390.81
204.202	2392.19
204.277	2375.53
204.351	2368.96
204.426	2361.34
204.5	2353.63
204.575	2321.55
204.65	2331.46
204.724	2325.31
204.799	2333.21
204.873	2330.97
204.948	2326.12
205.022	2314.46
205.097	2303.79
205.171	2315.4
205.246	2321.78
205.32	2321.88
205.395	2317.12
205.469	2310.65
205.544	2315.6
205.618	2296.75
205.693	2310.56
205.767	2296.85
205.842	2318.18
205.916	2312.23
205.991	2302.95
206.065	2305.9
206.14	2319.69
206.214	2316.22
206.289	2306.84
206.363	2319.64
206.438	2318.35
206.512	2328.54
206.586	2346.62
206.661	2354.86
206.735	2337.4
206.81	2341.68
206.884	2355.58
206.958	2348.2
207.033	2366
207.107	2375.24
207.181	2406.81
207.256	2401.9
207.33	2422.94
207.405	2440.1
207.479	2461.85
207.553	2474.47
207.628	2463.95
207.702	2478.85
207.776	2479.71
207.851	2488.75
207.925	2512.38
207.999	2522.05
208.073	2526.29
208.148	2544.53
208.222	2546.63
208.296	2589.29
208.371	2615.31
208.445	2641.75
208.519	2683.57
208.593	2710.77
208.668	2727.98
208.742	2753.06
208.816	2773.93
208.89	2814.5
208.965	2839.26
209.039	2874.59
209.113	2921.74
209.187	2976.91
209.261	3008.37
209.336	3059.96
209.41	3119.64
209.484	3158.53
209.558	3217.6
209.632	3279.23
209.707	3335.21
209.781	3405.46
209.855	3471.79
209.929	3543.89
210.003	3610.79
210.077	3671.3
210.151	3783.21
210.226	3884.93
210.3	3981.59
210.374	4076.9
210.448	4160.06
210.522	4247.45
210.596	4342.77
210.67	4435.24
210.744	4571.74
210.818	4696.32
210.892	4813.7
210.966	4911.89
211.041	5035.02
211.115	5143.55
211.189	5277.18
211.263	5406.51
211.337	5535.1
211.411	5667.92
211.485	5786.2
211.559	5921.52
211.633	6059
211.707	6157.88
211.781	6294.91
211.855	6396.49
211.929	6527.26
212.003	6646.02
212.077	6799.82
212.151	6957.2
212.225	7117.48
212.299	7249.87
212.373	7386.64
212.447	7536.1
212.52	7712.26
212.594	7869.04
212.668	8034.57
212.742	8176.85
212.816	8333.93
212.89	8486.02
212.964	8650.57
213.038	8822.55
213.112	9001.72
213.186	9180.79
213.26	9327.64
213.333	9455.68
213.407	9627.36
213.481	9797.47
213.555	9983.34
213.629	10144.28
213.703	10306.15
213.777	10478.14
213.85	10634.15
213.924	10847.59
213.998	11021.26
214.072	11195.03
214.146	11352.86
214.219	11520.71
214.293	11685.91
214.367	11855.75
214.441	12037.51
214.515	12193.77
214.588	12343.58
214.662	12476.13
214.736	12620.69
214.81	12790.07
214.883	12956.65
214.957	13112.3
215.031	13264.67
215.105	13391.11
215.178	13532.79
215.252	13671.14
215.326	13801.48
215.4	13936.03
215.473	14045.69
215.547	14181.34
215.621	14314.67
215.694	14464.44
215.768	14589.77
215.842	14718.72
215.915	14850.85
215.989	14967.79
216.063	15095.62
216.136	15219.02
216.21	15359.96
216.284	15505.48
216.357	15645.35
216.431	15778.29
216.504	15912.48
216.578	16067.97
216.652	16218.01
216.725	16341.11
216.799	16483.1
216.873	16606.15
216.946	16733
217.02	16833.16
217.093	16947.23
217.167	17043.81
217.24	17144.44
217.314	17256.01
217.387	17371.39
217.461	17478.28
217.535	17592.6
217.608	17692.45
217.682	17806.23
217.755	17913.56
217.829	18001.12
217.902	18095.67
217.976	18185.89
218.049	18276.97
218.123	18362.7
218.196	18462.65
218.27	18553.58
218.343	18624.9
218.417	18710.97
218.49	18797.38
218.563	18898.48
218.637	18982.62
218.71	19083.48
218.784	19171.04
218.857	19259.04
218.931	19341.25
219.004	19416.57
219.077	19506.93
219.151	19583.5
219.224	19640.32
219.298	19712.12
219.371	19803.73
219.444	19868.07
219.518	19948.26
219.591	20033.85
219.665	20125.85
219.738	20189.36
219.811	20257.07
219.885	20335.43
219.958	20420.59
220.031	20489.46
220.105	20572.98
220.178	20646.86
220.251	20702.96
220.325	20769.61
220.398	20841.66
220.471	20905.62
220.544	20961.04
220.618	21008.56
220.691	21063.99
220.764	21140.04
220.838	21192.72
220.911	21234.31
220.984	21312.87
221.057	21364.16
221.131	21398.13
221.204	21412.4
221.277	21484.61
221.35	21555.08
221.424	21589.59
221.497	21624.82
221.57	21672.49
221.643	21701.17
221.716	21736.02
221.79	21775.16
221.863	21818.54
221.936	21839.13
222.009	21873.88
222.082	21920.64
222.155	21949.03
222.229	22008.03
222.302	22043.27
222.375	22083.71
222.448	22130.57
222.521	22162.05
222.594	22192.03
222.667	22216.18
222.74	22257.01
222.814	22271.71
222.887	22294.32
222.96	22342
223.033	22377.1
223.106	22405.11
223.179	22441.99
223.252	22475.78
223.325	22488.08
223.398	22504.9
223.471	22530.79
223.544	22555.28
223.617	22577.17
223.69	22599.53
223.763	22601.8
223.837	22626.15
223.91	22643.36
223.983	22634.39
224.056	22635.69
224.129	22653.34
224.202	22679.76
224.275	22694.36
224.348	22688.34
224.42	22681.15
224.493	22665.63
224.566	22671.08
224.639	22675.66
224.712	22671.46
224.785	22668.33
224.858	22676.72
224.931	22686.7
225.004	22692.15
225.077	22690.12
225.15	22667.46
225.223	22678.89
225.296	22702.13
225.369	22685.4
225.442	22682.6
225.514	22685.74
225.587	22691.91
225.66	22697.21
225.733	22696.54
225.806	22703.05
225.879	22719.15
225.952	22722.14
226.025	22740.36
226.097	22757.19
226.17	22754.01
226.243	22741.38
226.316	22752.9
226.389	22759.65
226.461	22759.6
226.534	22761.29
226.607	22764.52
226.68	22789.64
226.753	22785.88
226.825	22772.47
226.898	22778.4
226.971	22774.74
227.044	22791.61
227.117	22783.61
227.189	22777.58
227.262	22786.89
227.335	22777.1
227.407	22768.61
227.48	22758.92
227.553	22746.44
227.626	22729.27
227.698	22727.15
227.771	22725.9
227.844	22698.95
227.916	22691.42
227.989	22663.08
228.062	22654.45
228.134	22671.08
228.207	22656.66
228.28	22631.88
228.352	22612.89
228.425	22607.92
228.498	22606.19
228.57	22573.21
228.643	22571.23
228.716	22566.37
228.788	22550.36
228.861	22543.51
228.934	22534.59
229.006	22525.77
229.079	22518.73
229.151	22510.97
229.224	22486.63
229.296	22476.89
229.369	22497.71
229.442	22509.72
229.514	22499.11
229.587	22506.78
229.659	22475.83
229.732	22470.57
229.804	22464.69
229.877	22476.21
229.949	22471.15
230.022	22482.34
230.094	22476.41
230.167	22476.36
230.239	22458.62
230.312	22446.13
230.384	22448.69
230.457	22435.19
230.529	22427.19
230.602	22416.63
230.674	22394.41
230.747	22398.07
230.819	22401.06
230.892	22350.92
230.964	22324.94
231.037	22327.64
231.109	22301.51
231.181	22290.18
231.254	22265.16
231.326	22256
231.399	22239.95
231.471	22225.29
231.544	22182.24
231.616	22173.03
231.688	22154.18
231.761	22132.97
231.833	22111.86
231.905	22064.71
231.978	22055.94
232.05	22041.19
232.122	22015.93
232.195	21986.05
232.267	21978.43
232.339	21954.47
232.412	21953.89
232.484	21936.35
232.556	21899.81
232.629	21899.52
232.701	21883.61
232.773	21866.79
232.846	21844.95
232.918	21820.8
232.99	21794.97
233.062	21783.69
233.135	21773.66
233.207	21733.22
233.279	21715.34
233.351	21693.21
233.424	21677.45
233.496	21643.28
233.568	21629.49
233.64	21615.47
233.713	21595.32
233.785	21567.46
233.857	21547.21
233.929	21514.25
234.001	21493.47
234.074	21480.89
234.146	21434.47
234.218	21411.39
234.29	21391
234.362	21356.39
234.434	21313.93
234.507	21274.12
234.579	21233.2
234.651	21203.12
234.723	21186.21
234.795	21163.7
234.867	21143.26
234.939	21129.28
235.012	21106.15
235.084	21085.57
235.156	21048.12
235.228	21023.11
235.3	20989.18
235.372	20950.57
235.444	20927.87
235.516	20887.53
235.588	20866.95
235.66	20827.29
235.732	20780.64
235.804	20803.87
235.876	20787.29
235.948	20772.06
236.02	20749.26
236.092	20718.71
236.164	20677.5
236.236	20645.55
236.308	20609.36
236.38	20585.65
236.452	20547.24
236.524	20517.31
236.596	20488.2
236.668	20467.62
236.74	20435.77
236.812	20401.79
236.884	20382.08
236.956	20359.43
237.028	20311.96
237.1	20265.94
237.172	20260.64
237.244	20249.46
237.316	20167.33
237.388	20122.37
237.46	20076.59
237.532	20057.5
237.604	20015
237.675	20008.93
237.747	19983.87
237.819	19950.62
237.891	19907.2
237.963	19862.04
238.035	19822.52
238.107	19765.95
238.178	19742.14
238.25	19701.08
238.322	19696.75
238.394	19644.22
238.466	19601.33
238.538	19576.22
238.609	19546.3
238.681	19490.06
238.753	19446.5
238.825	19423.7
238.897	19397.82
238.968	19387.27
239.04	19342.16
239.112	19330.69
239.184	19275.52
239.255	19241.78
239.327	19208.39
239.399	19177.11
239.471	19152.15
239.542	19127.29
239.614	19108.11
239.686	19050.23
239.758	19031.44
239.829	18978.62
239.901	18961.7
239.973	18928.12
240.044	18897.03
240.116	18865.42
240.188	18839.01
240.259	18805.91
240.331	18761.33
240.403	18733.29
240.474	18674.69
240.546	18634.69
240.618	18585.44
240.689	18538.69
240.761	18495.23
240.833	18470.7
240.904	18426.12
240.976	18388.73
241.048	18347.86
241.119	18321.07
241.191	18297.07
241.262	18272.4
241.334	18232.64
241.405	18191.05
241.477	18148.11
241.549	18114.91
241.62	18082.33
241.692	18050.62
241.763	18023.88
241.835	17982.29
241.906	17945.18
241.978	17902.24
242.049	17872.56
242.121	17843.45
242.192	17829.33
242.264	17780.41
242.335	17734.44
242.407	17710.49
242.478	17669.38
242.55	17641.57
242.621	17590.63
242.693	17550.73
242.764	17515.21
242.836	17480.27
242.907	17452.95
242.979	17423.31
243.05	17390.49
243.122	17355.02
243.193	17319.5
243.264	17259.02
243.336	17233.52
243.407	17203.11
243.479	17186.44
243.55	17157.86
243.622	17132.46
243.693	17092.32
243.764	17076.51
243.836	17036.8
243.907	17000.8
243.978	16968.22
244.05	16934
244.121	16883.63
244.192	16850.76
244.264	16797.36
244.335	16762.09
244.407	16710.85
244.478	16684.68
244.549	16649.74
244.62	16608.82
244.692	16572.34
244.763	16555.9
244.834	16512.33
244.906	16473.34
244.977	16442.55
245.048	16421.53
245.119	16381.87
245.191	16339.5
245.262	16290.29
245.333	16272.6
245.405	16236.07
245.476	16208.26
245.547	16178.81
245.618	16163.53
245.689	16133.94
245.761	16108.1
245.832	16076.77
245.903	16049.73
245.974	16009.54
246.045	15976.28
246.117	15953.63
246.188	15910.82
246.259	15871.01
246.33	15840.98
246.401	15804.93
246.473	15755.28
246.544	15715.42
246.615	15683.56
246.686	15643.99
246.757	15621.43
246.828	15572.65
246.899	15553.03
246.97	15502.42
247.042	15459.14
247.113	15427.76
247.184	15413.11
247.255	15372.71
247.326	15336.61
247.397	15308.8
247.468	15277.66
247.539	15244.93
247.61	15211.62
247.681	15182.46
247.752	15164.67
247.823	15128.43
247.894	15102.4
247.965	15064.99
248.037	15026.72
248.108	14984.64
248.179	14955.13
248.25	14921.87
248.321	14905.73
248.392	14870.1
248.463	14866.58
248.534	14834.87
248.605	14817.27
248.675	14782.04
248.746	14765.79
248.817	14740.68
248.888	14709.97
248.959	14666.44
249.03	14643.83
249.101	14613.27
249.172	14583.67
249.243	14531.61
249.314	14511.08
249.385	14475.84
249.456	14458.92
249.527	14426.62
249.598	14406.47
249.669	14373.11
249.739	14349.59
249.81	14320.91
249.881	14281.14
249.952	14250.58
250.023	14227.53
250.094	14184.34
250.165	14145.34
250.235	14105.57
250.306	14081.42
250.377	14048.88
250.448	14027.14
250.519	13985.64
250.59	13969.92
250.66	13945.05
250.731	13940.03
250.802	13906.67
250.873	13885.99
250.944	13862.13
251.014	13838.03
251.085	13841.26
251.156	13835.14
251.227	13819.37
251.297	13807.85
251.368	13791.7
251.439	13774.06
251.51	13750.97
251.58	13714.57
251.651	13688.44
251.722	13677.69
251.792	13630.5
251.863	13601.09
251.934	13590.63
252.005	13591.31
252.075	13564.55
252.146	13550.62
252.217	13531.87
252.287	13517.65
252.358	13488.92
252.429	13477.2
252.499	13441.92
252.57	13412.37
252.641	13395.11
252.711	13369.12
252.782	13320.63
252.852	13311.71
252.923	13286.35
252.994	13272.13
253.064	13261.19
253.135	13231.74
253.205	13197.99
253.276	13204.98
253.347	13202.86
253.417	13176.59
253.488	13146.84
253.558	13118.02
253.629	13091.02
253.699	13066.19
253.77	13051.11
253.841	13033.66
253.911	13012.73
253.982	12995.67
254.052	12971.81
254.123	12952.43
254.193	12935.51
254.264	12950.5
254.334	12915.5
254.405	12880.6
254.475	12845.46
254.546	12820.05
254.616	12812.25
254.687	12798.94
254.757	12780.77
254.827	12755.75
254.898	12735.5
254.968	12709.62
255.039	12681.46
255.109	12667.05
255.18	12632.34
255.25	12589.78
255.321	12572.86
255.391	12539.84
255.461	12539.31
255.532	12493.23
255.602	12459.34
255.673	12411.33
255.743	12379.61
255.813	12341.86
255.884	12336.08
255.954	12324.8
256.024	12322.63
256.095	12294.58
256.165	12257.08
256.235	12236.44
256.306	12206.85
256.376	12201.01
256.446	12188.14
256.517	12178.99
256.587	12168.72
256.657	12155.75
256.728	12140.91
256.798	12122.06
256.868	12091.5
256.938	12062.87
257.009	12058.1
257.079	12048.02
257.149	12062.96
257.219	12024.4
257.29	12015.29
257.36	11969.89
257.43	11954.03
257.5	11914.79
257.571	11897.54
257.641	11892.67
257.711	11863.36
257.781	11845.58
257.852	11822.15
257.922	11780.94
257.992	11757.47
258.062	11733.95
258.132	11723.87
258.202	11700.83
258.273	11679.48
258.343	11683.34
258.413	11659.48
258.483	11638.22
258.553	11609.02
258.623	11573.45
258.693	11558.7
258.764	11548.58
258.834	11551.08
258.904	11533.34
258.974	11505.97
259.044	11481.82
259.114	11461.44
259.184	11446.64
259.254	11431.6
259.324	11398.11
259.394	11394.59
259.464	11393
259.535	11373.72
259.605	11351.94
259.675	11329.72
259.745	11314.63
259.815	11285.33
259.885	11264.37
259.955	11273.04
260.025	11249.62
260.095	11232.51
260.165	11222.39
260.235	11218.15
260.305	11194.63
260.375	11166.92
260.445	11172.99
260.515	11169.52
260.585	11168.42
260.655	11154.15
260.725	11150.73
260.795	11142.97
260.865	11137.96
260.934	11113.33
261.004	11100.03
261.074	11078.68
261.144	11077
261.214	11066.92
261.284	11049.14
261.354	11034.35
261.424	11007.65
261.494	11003.07
261.564	10984.71
261.634	10979.94
261.703	10938.98
261.773	10925.25
261.843	10915.61
261.913	10894.07
261.983	10865.01
262.053	10850.51
262.123	10820.77
