Data from 20250702_urea_0.5M_MAYP1162681_23-54-59-664.txt Node
Date: Wed Jul 02 23:54:59 BST 2025
User: adleo
Spectrometer: MAYP116268
Trigger mode: 0
Integration Time (sec): 1.000000E0
Scans to average: 1
Electric dark correction enabled: true
Nonlinearity correction enabled: true
Boxcar width: 10
XAxis mode: Wavelengths
Number of Pixels in Spectrum: 2068
>>>>>Begin Spectral Data<<<<<
179.565	1222.52
179.642	1280.5
179.718	1326.64
179.795	1367.48
179.871	1399.01
179.948	1416
180.024	1436.21
180.101	1460.11
180.177	1474.82
180.254	1498.39
180.33	1521.62
180.407	1575.65
180.483	1672.14
180.56	1762.79
180.636	1847.25
180.712	1833.7
180.789	1846.05
180.865	1857.37
180.942	1864.64
181.018	1876.14
181.095	1889.22
181.171	1893.59
181.248	1893.35
181.324	1906.95
181.4	1914.42
181.477	1924.88
181.553	1937.71
181.63	1960.54
181.706	1976.09
181.782	1983.26
181.859	1980.36
181.935	1985.93
182.011	1981.84
182.088	2000.39
182.164	2019.13
182.24	2033.15
182.317	2041.09
182.393	2038.34
182.469	2051.65
182.546	2066.06
182.622	2070.82
182.698	2067.06
182.775	2079.9
182.851	2095.41
182.927	2086.7
183.003	2081.9
183.08	2077.48
183.156	2087.8
183.232	2082.85
183.308	2070.01
183.385	2079.9
183.461	2098.07
183.537	2099.83
183.613	2112.62
183.69	2100.92
183.766	2091.88
183.842	2098.87
183.918	2106.01
183.995	2121.7
184.071	2124.46
184.147	2119.94
184.223	2112.38
184.299	2120.9
184.375	2109.62
184.452	2114
184.528	2171.58
184.604	2180.81
184.68	2193.61
184.756	2202.79
184.832	2205.88
184.908	2210.64
184.985	2210.45
185.061	2195.18
185.137	2203.93
185.213	2192.85
185.289	2194.8
185.365	2189.33
185.441	2190.09
185.517	2203.7
185.593	2199.61
185.669	2198.09
185.745	2208.7
185.822	2223.97
185.898	2221.44
185.974	2230.1
186.05	2222.2
186.126	2184.36
186.202	2179.18
186.278	2173.71
186.354	2164.1
186.43	2171.38
186.506	2170.76
186.582	2167.81
186.658	2176.85
186.734	2154.4
186.81	2156.87
186.886	2160.86
186.962	2170.85
187.038	2164.15
187.114	2153.63
187.19	2160.48
187.266	2150.25
187.341	2152.16
187.417	2144.69
187.493	2143.55
187.569	2148.26
187.645	2143.12
187.721	2127.27
187.797	2136.46
187.873	2142.31
187.949	2136.6
188.025	2133.65
188.101	2138.36
188.176	2145.21
188.252	2138.74
188.328	2146.49
188.404	2146.68
188.48	2140.92
188.556	2134.17
188.632	2134.55
188.707	2138.69
188.783	2134.5
188.859	2130.03
188.935	2117.23
189.011	2123.75
189.086	2113.67
189.162	2104.63
189.238	2103.01
189.314	2101.54
189.39	2092.36
189.465	2084.36
189.541	2099.44
189.617	2080.04
189.693	2074.57
189.768	2078.38
189.844	2104.5
189.92	2098.46
189.996	2109.36
190.071	2123.91
190.147	2123.44
190.223	2134.57
190.298	2127.01
190.374	2114.69
190.45	2125.58
190.526	2133.09
190.601	2127.67
190.677	2132.76
190.753	2158.13
190.828	2164.07
190.904	2179.06
190.98	2193.43
191.055	2206.51
191.131	2200.99
191.207	2223.83
191.282	2233.05
191.358	2221.92
191.433	2204.45
191.509	2216.25
191.585	2212.82
191.66	2210.63
191.736	2216.39
191.811	2208.87
191.887	2225.81
191.963	2250.79
192.038	2258.84
192.114	2262.79
192.189	2268.26
192.265	2264.78
192.34	2243.7
192.416	2241.13
192.491	2238.13
192.567	2241.6
192.642	2241.27
192.718	2236.32
192.793	2223
192.869	2218.58
192.944	2223.76
193.02	2232.28
193.095	2238.18
193.171	2243.94
193.246	2241.94
193.322	2239.04
193.397	2237.37
193.473	2218.81
193.548	2199.3
193.624	2202.39
193.699	2196.82
193.775	2214.39
193.85	2213.67
193.925	2224.1
194.001	2223.38
194.076	2214.87
194.152	2204.87
194.227	2197.02
194.302	2191.5
194.378	2198.07
194.453	2194.22
194.529	2205.4
194.604	2191.12
194.679	2184.32
194.755	2165.06
194.83	2179.34
194.905	2178.86
194.981	2188.28
195.056	2183.67
195.131	2190.28
195.207	2188.61
195.282	2182.62
195.357	2161.11
195.433	2178.42
195.508	2164.82
195.583	2173.14
195.659	2187.18
195.734	2194.36
195.809	2193.08
195.884	2198.88
195.96	2198.07
196.035	2213.58
196.11	2206.92
196.185	2218.72
196.261	2220.91
196.336	2250.93
196.411	2236.37
196.486	2244.45
196.561	2237.27
196.637	2244.97
196.712	2260.49
196.787	2266.35
196.862	2278.77
196.937	2289
197.013	2292.52
197.088	2303.08
197.163	2323.7
197.238	2341.89
197.313	2344.46
197.388	2362.26
197.464	2394.12
197.539	2407.3
197.614	2401.73
197.689	2416.73
197.764	2436.25
197.839	2457.91
197.914	2453.1
197.989	2476.58
198.065	2489.38
198.14	2539.98
198.215	2567.93
198.29	2579.65
198.365	2590.79
198.44	2605.6
198.515	2636.04
198.59	2653.52
198.665	2680.05
198.74	2689.2
198.815	2690.01
198.89	2709.63
198.965	2739.47
199.04	2734.42
199.115	2748.76
199.19	2792.97
199.265	2795.06
199.34	2804.59
199.415	2838.68
199.49	2861.93
199.565	2869.65
199.64	2892.05
199.715	2890.47
199.79	2896.14
199.865	2904.49
199.94	2904.53
200.015	2933.23
200.09	2935.57
200.165	2939.62
200.24	2945.44
200.315	2986.18
200.39	3001.92
200.464	3007.73
200.539	3008.02
200.614	3024.13
200.689	3047.11
200.764	3051.98
200.839	3073.8
200.914	3076
200.989	3064.55
201.063	3077.37
201.138	3062.08
201.213	3063.7
201.288	3045.44
201.363	3049.83
201.438	3052.02
201.512	3066.79
201.587	3047.53
201.662	3053.78
201.737	3067.51
201.812	3078.57
201.886	3046.6
201.961	3058.29
202.036	3048.37
202.111	3043.08
202.186	3013.68
202.26	2994.47
202.335	2971.44
202.41	2963.95
202.485	2949.56
202.559	2928.82
202.634	2899.7
202.709	2909.56
202.784	2891.35
202.858	2890.78
202.933	2873.39
203.008	2866.57
203.082	2847.7
203.157	2850.94
203.232	2807.4
203.306	2785.71
203.381	2752.77
203.456	2725.37
203.53	2703.05
203.605	2681.95
203.68	2659.32
203.754	2654.84
203.829	2642.12
203.904	2625.07
203.978	2609.54
204.053	2613.92
204.127	2600.92
204.202	2601.54
204.277	2582.39
204.351	2573.73
204.426	2564.2
204.5	2557.1
204.575	2517.96
204.65	2527.16
204.724	2517.72
204.799	2524.91
204.873	2522.86
204.948	2520.19
205.022	2508.1
205.097	2495.29
205.171	2509.28
205.246	2519
205.32	2518.57
205.395	2518.76
205.469	2507.34
205.544	2516.34
205.618	2496.49
205.693	2513.11
205.767	2502.3
205.842	2525.02
205.916	2518.21
205.991	2508.78
206.065	2513.35
206.14	2531.05
206.214	2526.24
206.289	2517.14
206.363	2530.48
206.438	2532.62
206.512	2540.96
206.586	2561.62
206.661	2572.2
206.735	2549.97
206.81	2551.59
206.884	2565.11
206.958	2552.3
207.033	2570.06
207.107	2576.2
207.181	2610.13
207.256	2603.65
207.33	2622.41
207.405	2637.81
207.479	2661.06
207.553	2672.44
207.628	2661.58
207.702	2679.06
207.776	2676.49
207.851	2685.01
207.925	2704.46
207.999	2706.99
208.073	2710.04
208.148	2719.85
208.222	2713.08
208.296	2755.61
208.371	2778.55
208.445	2796.23
208.519	2838.45
208.593	2864.14
208.668	2874.91
208.742	2890.41
208.816	2907
208.89	2936.85
208.965	2949.59
209.039	2974.63
209.113	3009.96
209.187	3045.55
209.261	3060.09
209.336	3104.2
209.41	3148.47
209.484	3174.05
209.558	3222.57
209.632	3264.07
209.707	3305.24
209.781	3361.17
209.855	3408.38
209.929	3459.07
210.003	3505.65
210.077	3544.14
210.151	3631.93
210.226	3704.46
210.3	3777.17
210.374	3844.17
210.448	3894.68
210.522	3952.22
210.596	4013.45
210.67	4076.78
210.744	4183.74
210.818	4276.56
210.892	4357.26
210.966	4415.69
211.041	4494.48
211.115	4560.16
211.189	4652.75
211.263	4736.4
211.337	4811.97
211.411	4900.84
211.485	4971.98
211.559	5063.14
211.633	5141.04
211.707	5191.32
211.781	5285.43
211.855	5335.23
211.929	5418.26
212.003	5490.26
212.077	5595.42
212.151	5700.54
212.225	5799.66
212.299	5882.26
212.373	5966.06
212.447	6060.65
212.52	6189.59
212.594	6294.71
212.668	6411.69
212.742	6504.26
212.816	6607.3
212.89	6709.52
212.964	6811.26
213.038	6926.19
213.112	7046.98
213.186	7172.85
213.26	7262.05
213.333	7321.88
213.407	7437.5
213.481	7550.58
213.555	7677.84
213.629	7775.94
213.703	7874.97
213.777	7997.48
213.85	8090.65
213.924	8235.46
213.998	8344.1
214.072	8448.82
214.146	8547.71
214.219	8649.88
214.293	8755.56
214.367	8866.6
214.441	8989.78
214.515	9094.06
214.588	9180.24
214.662	9256.98
214.736	9352.03
214.81	9478.41
214.883	9606.23
214.957	9702.63
215.031	9798.46
215.105	9885.43
215.178	9979.11
215.252	10079.45
215.326	10156.14
215.4	10245.83
215.473	10303.17
215.547	10398.61
215.621	10487.8
215.694	10600.5
215.768	10681.11
215.842	10771.79
215.915	10868.89
215.989	10946.77
216.063	11039.73
216.136	11146.23
216.21	11253.07
216.284	11355.24
216.357	11443.05
216.431	11536.41
216.504	11651.16
216.578	11773.49
216.652	11877.78
216.725	11984.35
216.799	12080.61
216.873	12175.42
216.946	12281.51
217.02	12369.72
217.093	12451.66
217.167	12524.59
217.24	12592.9
217.314	12684.82
217.387	12768.12
217.461	12839.03
217.535	12939.78
217.608	13015.61
217.682	13090.76
217.755	13178.01
217.829	13256.83
217.902	13348.71
217.976	13422.18
218.049	13482.87
218.123	13545.78
218.196	13635.68
218.27	13702.3
218.343	13772.54
218.417	13850.39
218.49	13911.47
218.563	14005.47
218.637	14091.04
218.71	14192.22
218.784	14283.86
218.857	14372.36
218.931	14454.5
219.004	14538.04
219.077	14618.49
219.151	14694.22
219.224	14772.75
219.298	14847.51
219.371	14930.42
219.444	14987.83
219.518	15066.4
219.591	15152.88
219.665	15250.01
219.738	15317.54
219.811	15379.77
219.885	15456.79
219.958	15540.37
220.031	15619.67
220.105	15695.58
220.178	15766
220.251	15827.17
220.325	15898.07
220.398	15963.28
220.471	16031.73
220.544	16103.35
220.618	16157.72
220.691	16227.51
220.764	16290.6
220.838	16359.81
220.911	16412.97
220.984	16494.42
221.057	16561.71
221.131	16617.18
221.204	16643.74
221.277	16723.21
221.35	16819.75
221.424	16877.97
221.497	16931.17
221.57	16992.04
221.643	17053.59
221.716	17119.52
221.79	17173.49
221.863	17223.18
221.936	17276.82
222.009	17324.92
222.082	17384.25
222.155	17425.93
222.229	17501.16
222.302	17558.8
222.375	17606.41
222.448	17664.92
222.521	17710.6
222.594	17754.32
222.667	17796.1
222.74	17863.04
222.814	17899.9
222.887	17927.32
222.96	17984.53
223.033	18041.78
223.106	18082.26
223.179	18124.86
223.252	18164.47
223.325	18206.49
223.398	18254.68
223.471	18294.87
223.544	18348.75
223.617	18389.23
223.69	18429.57
223.763	18443.83
223.837	18481.37
223.91	18519.63
223.983	18541.37
224.056	18566.96
224.129	18610.67
224.202	18660.4
224.275	18685.94
224.348	18714.52
224.42	18744.83
224.493	18746.37
224.566	18775.62
224.639	18817.5
224.712	18843.47
224.785	18870.99
224.858	18898.5
224.931	18918.79
225.004	18945.49
225.077	18976.91
225.15	18977.92
225.223	19018.74
225.296	19078.2
225.369	19099.84
225.442	19118.78
225.514	19150.73
225.587	19182.73
225.66	19203.74
225.733	19229.28
225.806	19258.63
225.879	19282.29
225.952	19299.39
226.025	19354.67
226.097	19394.04
226.17	19413.27
226.243	19423.82
226.316	19444.16
226.389	19477.46
226.461	19495.43
226.534	19517.74
226.607	19533.07
226.68	19577.02
226.753	19600.1
226.825	19591.52
226.898	19617.11
226.971	19643.95
227.044	19674.36
227.117	19697.64
227.189	19734.99
227.262	19767.47
227.335	19792.86
227.407	19808.57
227.48	19828.14
227.553	19840.81
227.626	19844.38
227.698	19865.15
227.771	19887.51
227.844	19894.4
227.916	19901.97
227.989	19921.58
228.062	19942.25
228.134	19981.43
228.207	20001.96
228.28	20012.47
228.352	20035.12
228.425	20052.76
228.498	20071.02
228.57	20076.71
228.643	20107.07
228.716	20109.91
228.788	20112.37
228.861	20112.27
228.934	20134.58
229.006	20145.52
229.079	20160.27
229.151	20163.55
229.224	20159.74
229.296	20170.87
229.369	20218.01
229.442	20251.26
229.514	20254.97
229.587	20274.34
229.659	20264.66
229.732	20266.68
229.804	20280.8
229.877	20317.04
229.949	20332.46
230.022	20362.44
230.094	20372.17
230.167	20376.37
230.239	20373.23
230.312	20375.98
230.384	20404.99
230.457	20412.37
230.529	20418.39
230.602	20421.38
230.674	20445.86
230.747	20469.47
230.819	20501.19
230.892	20467.26
230.964	20464.75
231.037	20473.86
231.109	20477.52
231.181	20493.86
231.254	20497.18
231.326	20499.26
231.399	20486.53
231.471	20486.34
231.544	20460.32
231.616	20472.32
231.688	20485.28
231.761	20493.86
231.833	20497.62
231.905	20486.73
231.978	20496.75
232.05	20497.33
232.122	20503.59
232.195	20485.42
232.267	20501.23
232.339	20490.58
232.412	20504.27
232.484	20500.8
232.556	20493.28
232.629	20510.73
232.701	20506.49
232.773	20510.73
232.846	20506.34
232.918	20500.85
232.99	20508.8
233.062	20515.93
233.135	20511.16
233.207	20496.36
233.279	20495.74
233.351	20496.08
233.424	20492.94
233.496	20477.52
233.568	20496.32
233.64	20480.94
233.713	20476.08
233.785	20459.59
233.857	20452.22
233.929	20433.57
234.001	20443.11
234.074	20455.74
234.146	20421.52
234.218	20408.17
234.29	20389.42
234.362	20368.89
234.434	20339.79
234.507	20305.76
234.579	20277.09
234.651	20266
234.723	20244.61
234.795	20234.97
234.867	20211.6
234.939	20210.73
235.012	20204.22
235.084	20193.72
235.156	20172.99
235.228	20151.74
235.3	20135.45
235.372	20114.59
235.444	20105.48
235.516	20061.72
235.588	20045.29
235.66	20028.13
235.732	20012.42
235.804	20051.55
235.876	20046.3
235.948	20049.48
236.02	20040.23
236.092	20022.25
236.164	19999.99
236.236	19993.34
236.308	19975.55
236.38	19960.86
236.452	19917.97
236.524	19900.43
236.596	19893.49
236.668	19888.43
236.74	19873.15
236.812	19858.11
236.884	19849.05
236.956	19840.81
237.028	19815.13
237.1	19786.07
237.172	19789.39
237.244	19784.09
237.316	19725.88
237.388	19699.57
237.46	19668.34
237.532	19652.1
237.604	19631.14
237.675	19622.85
237.747	19596.63
237.819	19562.56
237.891	19544.15
237.963	19524.92
238.035	19489.75
238.107	19423.97
238.178	19415.2
238.25	19384.26
238.322	19380.4
238.394	19338.91
238.466	19300.26
238.538	19283.64
238.609	19261.18
238.681	19208.46
238.753	19171.11
238.825	19150.2
238.897	19131.84
238.968	19120.95
239.04	19082.06
239.112	19075.99
239.184	19032.33
239.255	19002.5
239.327	18986.69
239.399	18961.97
239.471	18945.01
239.542	18922.21
239.614	18920.04
239.686	18863.86
239.758	18853.16
239.829	18808.82
239.901	18800.87
239.973	18769.74
240.044	18745.12
240.116	18716.01
240.188	18686.85
240.259	18656.3
240.331	18612.35
240.403	18581.66
240.474	18531.06
240.546	18500.79
240.618	18456.7
240.689	18421.23
240.761	18395.26
240.833	18374.1
240.904	18338.44
240.976	18306.01
241.048	18277.09
241.119	18256.08
241.191	18241.43
241.262	18235.22
241.334	18199.36
241.405	18157.68
241.477	18128.04
241.549	18086.98
241.62	18057.54
241.692	18039.85
241.763	18024.72
241.835	18001.35
241.906	17973.4
241.978	17937.11
242.049	17919.04
242.121	17904.96
242.192	17893.06
242.264	17837.49
242.335	17785.74
242.407	17762.99
242.478	17717.21
242.55	17688.05
242.621	17638.51
242.693	17595.14
242.764	17542.13
242.836	17510.37
242.907	17489.5
242.979	17466.56
243.05	17450.22
243.122	17419.62
243.193	17377.89
243.264	17311.81
243.336	17280.58
243.407	17257.07
243.479	17251.33
243.55	17229.98
243.622	17192.01
243.693	17160.63
243.764	17156.54
243.836	17116
243.907	17077.26
243.978	17053.69
244.05	17018.46
244.121	16973.25
244.192	16954.55
244.264	16910.16
244.335	16874.4
244.407	16813.39
244.478	16785.97
244.549	16743.75
244.62	16704.27
244.692	16675.84
244.763	16664.51
244.834	16620.08
244.906	16574.77
244.977	16543.4
245.048	16523.49
245.119	16491.25
245.191	16448.79
245.262	16388.83
245.333	16375.58
245.405	16344.68
245.476	16308.73
245.547	16283.52
245.618	16263.32
245.689	16233.25
245.761	16205.87
245.832	16172.81
245.903	16163.51
245.974	16134.35
246.045	16102.05
246.117	16089.38
246.188	16042.05
246.259	15992.88
246.33	15964.97
246.401	15932.58
246.473	15884.58
246.544	15835.08
246.615	15808.14
246.686	15766.83
246.757	15751.5
246.828	15719.21
246.899	15706.43
246.97	15668.06
247.042	15629.99
247.113	15603.96
247.184	15581.69
247.255	15539.03
247.326	15520.23
247.397	15478.68
247.468	15445.52
247.539	15414.91
247.61	15369.41
247.681	15347.05
247.752	15338.76
247.823	15298.7
247.894	15276.62
247.965	15233.05
248.037	15200.8
248.108	15154
248.179	15127.63
248.25	15096.3
248.321	15068.63
248.392	15031.51
248.463	15033.78
248.534	15010.01
248.605	14986.88
248.675	14967.55
248.746	14956.46
248.817	14929.18
248.888	14905.22
248.959	14868.78
249.03	14844.63
249.101	14814.6
249.172	14787.17
249.243	14724.79
249.314	14715.2
249.385	14688.25
249.456	14676.2
249.527	14643.04
249.598	14626.84
249.669	14600.47
249.739	14575.98
249.81	14547.25
249.881	14505.12
249.952	14464.15
250.023	14432.53
250.094	14388.37
250.165	14346.19
250.235	14315.77
250.306	14294.81
250.377	14265.54
250.448	14244.29
250.519	14205.29
250.59	14194.78
250.66	14167.64
250.731	14169.47
250.802	14134.42
250.873	14108.78
250.944	14077.73
251.014	14052.52
251.085	14050.88
251.156	14031.7
251.227	14023.65
251.297	14018.87
251.368	14003.26
251.439	13995.88
251.51	13978.77
251.58	13949.99
251.651	13913.25
251.722	13898.02
251.792	13849.04
251.863	13815.73
251.934	13801.03
252.005	13800.6
252.075	13770.61
252.146	13756.58
252.217	13742.7
252.287	13725.59
252.358	13702.06
252.429	13708.09
252.499	13672.22
252.57	13641.27
252.641	13625.66
252.711	13596.97
252.782	13542.26
252.852	13534.88
252.923	13508.18
252.994	13486.48
253.064	13479.44
253.135	13443.05
253.205	13410.12
253.276	13403.42
253.347	13404.48
253.417	13376.57
253.488	13348.23
253.558	13319.88
253.629	13299.2
253.699	13277.56
253.77	13271.24
253.841	13237.83
253.911	13212.86
253.982	13198.74
254.052	13187.36
254.123	13168.46
254.193	13147.35
254.264	13172.8
254.334	13144.41
254.405	13107.1
254.475	13072.1
254.546	13044.29
254.616	13048.05
254.687	13030.69
254.757	13014.4
254.827	12986.73
254.898	12966.91
254.968	12945.56
255.039	12919.62
255.109	12903.52
255.18	12867.18
255.25	12817.53
255.321	12811.79
255.391	12769.75
255.461	12767.01
255.532	12714.51
255.602	12683.32
255.673	12638.44
255.743	12607.78
255.813	12560.3
255.884	12553.79
255.954	12540.68
256.024	12536.78
256.095	12516
256.165	12487.03
256.235	12470.4
256.306	12444.27
256.376	12426.15
256.446	12417.95
256.517	12411.54
256.587	12401.47
256.657	12386.96
256.728	12367.73
256.798	12347.62
256.868	12327.52
256.938	12296.58
257.009	12293.44
257.079	12287.32
257.149	12302.8
257.219	12261.1
257.29	12247.07
257.36	12197.81
257.43	12190.63
257.5	12152.65
257.571	12127.77
257.641	12105.99
257.711	12077.5
257.781	12053.45
257.852	12044.82
257.922	12004.47
257.992	11974.39
258.062	11945.23
258.132	11936.7
258.202	11921.42
258.273	11904.12
258.343	11896.26
258.413	11876.11
258.483	11854.52
258.553	11826.61
258.623	11789.93
258.693	11777.98
258.764	11775.61
258.834	11784.34
258.904	11761.97
258.974	11736.14
259.044	11716.81
259.114	11714.79
259.184	11694.69
259.254	11681.39
259.324	11639.6
259.394	11626.63
259.464	11632.66
259.535	11616.12
259.605	11591.64
259.675	11560.8
259.745	11539.78
259.815	11513.75
259.885	11487.34
259.955	11501.08
260.025	11472.02
260.095	11456.07
260.165	11443.01
260.235	11441.99
260.305	11412.06
260.375	11387.39
260.445	11393.7
260.515	11395.87
260.585	11387.58
260.655	11366.04
260.725	11356.4
260.795	11347.19
260.865	11347.29
260.934	11314.71
261.004	11308.69
261.074	11291.91
261.144	11297.02
261.214	11290.52
261.284	11273.5
261.354	11269.79
261.424	11232.54
261.494	11236.2
261.564	11219.04
261.634	11209.69
261.703	11171.57
261.773	11161.21
261.843	11149.98
261.913	11129.6
261.983	11085.89
262.053	11069.93
262.123	11060.92
262.192	11025.89
