Data from 20250702_urea_0.5M_MAYP1162681_20-24-59-688.txt Node
Date: Wed Jul 02 20:24:59 BST 2025
User: adleo
Spectrometer: MAYP116268
Trigger mode: 0
Integration Time (sec): 1.000000E0
Scans to average: 1
Electric dark correction enabled: true
Nonlinearity correction enabled: true
Boxcar width: 10
XAxis mode: Wavelengths
Number of Pixels in Spectrum: 2068
>>>>>Begin Spectral Data<<<<<
179.565	1208.85
179.642	1263.03
179.718	1309.27
179.795	1346.61
179.871	1379.71
179.948	1398.07
180.024	1417.73
180.101	1443.3
180.177	1457.73
180.254	1480.54
180.33	1503.46
180.407	1557.92
180.483	1653.22
180.56	1743.2
180.636	1828.28
180.712	1816.3
180.789	1825.76
180.865	1838.49
180.942	1844.86
181.018	1855.41
181.095	1868.92
181.171	1877.76
181.248	1879.09
181.324	1891.88
181.4	1899.01
181.477	1908
181.553	1919.69
181.63	1941.9
181.706	1955.07
181.782	1962.29
181.859	1959.82
181.935	1964.53
182.011	1959.54
182.088	1977.65
182.164	1996.4
182.24	2009.71
182.317	2017.65
182.393	2014.84
182.469	2028.06
182.546	2044.47
182.622	2051.27
182.698	2046.99
182.775	2057.93
182.851	2070.39
182.927	2063.92
183.003	2059.21
183.08	2055.31
183.156	2064.16
183.232	2059.16
183.308	2045.47
183.385	2055.59
183.461	2074.67
183.537	2075.43
183.613	2089.41
183.69	2079.04
183.766	2069.43
183.842	2075.99
183.918	2080.85
183.995	2094.97
184.071	2098.63
184.147	2092.5
184.223	2078.38
184.299	2091.37
184.375	2079.76
184.452	2088.85
184.528	2146.24
184.604	2158.08
184.68	2170.45
184.756	2179.44
184.832	2184.77
184.908	2191.81
184.985	2189.71
185.061	2174.3
185.137	2182.01
185.213	2170.45
185.289	2172.59
185.365	2167.45
185.441	2165.6
185.517	2176.64
185.593	2174.45
185.669	2168.79
185.745	2181.16
185.822	2198.23
185.898	2188.14
185.974	2195.8
186.05	2189.23
186.126	2145.63
186.202	2139.69
186.278	2132.65
186.354	2122.85
186.43	2130.79
186.506	2128.84
186.582	2127.7
186.658	2134.22
186.734	2115.72
186.81	2118.86
186.886	2121.19
186.962	2131.56
187.038	2127.42
187.114	2123.18
187.19	2130.41
187.266	2124.23
187.341	2124.14
187.417	2117.86
187.493	2116.48
187.569	2121.9
187.645	2114.81
187.721	2105.39
187.797	2110.44
187.873	2117.52
187.949	2111.91
188.025	2104.49
188.101	2110.19
188.176	2116.19
188.252	2108.72
188.328	2115.28
188.404	2116.14
188.48	2112.76
188.556	2105.2
188.632	2104.06
188.707	2103.91
188.783	2099.49
188.859	2094.21
188.935	2081.7
189.011	2087.12
189.086	2081.32
189.162	2070.81
189.238	2066.57
189.314	2065.24
189.39	2060.63
189.465	2054.78
189.541	2070.57
189.617	2055.3
189.693	2048.5
189.768	2051.93
189.844	2080.05
189.92	2073.82
189.996	2079.1
190.071	2086
190.147	2084.14
190.223	2093.71
190.298	2088.28
190.374	2076.58
190.45	2091.04
190.526	2097.46
190.601	2094.56
190.677	2097.98
190.753	2126.73
190.828	2130.06
190.904	2144
190.98	2161.46
191.055	2166.88
191.131	2159.79
191.207	2180.44
191.282	2191.28
191.358	2181.15
191.433	2169.01
191.509	2182.23
191.585	2182.09
191.66	2184.94
191.736	2193.74
191.811	2185.37
191.887	2200.03
191.963	2223.24
192.038	2226.24
192.114	2227
192.189	2230.52
192.265	2226.48
192.34	2201.49
192.416	2202.11
192.491	2195.92
192.567	2197.3
192.642	2204.49
192.718	2203.11
192.793	2190.41
192.869	2183.46
192.944	2184.56
193.02	2190.17
193.095	2190.08
193.171	2195.07
193.246	2197.26
193.322	2196.03
193.397	2195.83
193.473	2179.65
193.548	2159.86
193.624	2168.76
193.699	2167.52
193.775	2183.18
193.85	2184.7
193.925	2196.36
194.001	2193.03
194.076	2187.28
194.152	2176.71
194.227	2165.05
194.302	2156.54
194.378	2159.44
194.453	2158.54
194.529	2172.43
194.604	2156.3
194.679	2153.68
194.755	2133.14
194.83	2143.51
194.905	2138.52
194.981	2149.42
195.056	2144.61
195.131	2152.75
195.207	2147.7
195.282	2139.95
195.357	2118.72
195.433	2134.61
195.508	2125.33
195.583	2136.7
195.659	2148.98
195.734	2155.21
195.809	2156.31
195.884	2163.72
195.96	2166.82
196.035	2182.28
196.11	2178.57
196.185	2191.41
196.261	2196.6
196.336	2230.38
196.411	2214.62
196.486	2223.33
196.561	2217.38
196.637	2225.94
196.712	2242.03
196.787	2245.65
196.862	2261.02
196.937	2271.77
197.013	2276.62
197.088	2287.19
197.163	2307.09
197.238	2326.66
197.313	2327.38
197.388	2344.13
197.464	2373.93
197.539	2386.11
197.614	2378.45
197.689	2391.59
197.764	2410.4
197.839	2428.87
197.914	2421.54
197.989	2443.72
198.065	2456.62
198.14	2507.26
198.215	2532.21
198.29	2542.36
198.365	2554.26
198.44	2565.74
198.515	2595.65
198.59	2610.32
198.665	2636.47
198.74	2647.9
198.815	2649.48
198.89	2672.43
198.965	2703.07
199.04	2699.07
199.115	2713.74
199.19	2755.32
199.265	2759.99
199.34	2771.19
199.415	2804.08
199.49	2823.99
199.565	2838.05
199.64	2857.73
199.715	2856.63
199.79	2865.88
199.865	2873.07
199.94	2868.74
200.015	2897.86
200.09	2900.1
200.165	2908.39
200.24	2913.16
200.315	2951.47
200.39	2965.78
200.464	2972.5
200.539	2971.45
200.614	2989.08
200.689	3012.25
200.764	3021.03
200.839	3035.42
200.914	3034.99
200.989	3023.26
201.063	3039.04
201.138	3020.03
201.213	3026.23
201.288	3003.87
201.363	3008.39
201.438	3007.87
201.512	3027.98
201.587	3010
201.662	3014.44
201.737	3029.13
201.812	3039.86
201.886	3007.26
201.961	3012.65
202.036	2998.98
202.111	2996.16
202.186	2966.67
202.26	2944.5
202.335	2924.14
202.41	2919.33
202.485	2903.22
202.559	2887.68
202.634	2860.95
202.709	2868.42
202.784	2847.07
202.858	2847.41
202.933	2828.2
203.008	2822.39
203.082	2803.8
203.157	2803.23
203.232	2762.89
203.306	2739.38
203.381	2701.87
203.456	2676.15
203.53	2657.88
203.605	2638.65
203.68	2612.82
203.754	2605.63
203.829	2593.77
203.904	2573.58
203.978	2561.14
204.053	2563.62
204.127	2548
204.202	2549.29
204.277	2531.72
204.351	2524
204.426	2516.67
204.5	2508.62
204.575	2471.25
204.65	2479.44
204.724	2471.34
204.799	2480.05
204.873	2476.29
204.948	2478.19
205.022	2465.68
205.097	2458.43
205.171	2472.57
205.246	2481.24
205.32	2481.91
205.395	2483.62
205.469	2472.15
205.544	2477.87
205.618	2463.82
205.693	2478.06
205.767	2463.92
205.842	2487.21
205.916	2480.35
205.991	2469.54
206.065	2476.78
206.14	2497.53
206.214	2494.38
206.289	2489.95
206.363	2503.67
206.438	2505.62
206.512	2510.48
206.586	2532.52
206.661	2539.81
206.735	2518.39
206.81	2522.97
206.884	2543.73
206.958	2533.25
207.033	2552.2
207.107	2563.16
207.181	2596.84
207.256	2589.27
207.33	2611.65
207.405	2624.66
207.479	2649.86
207.553	2661.24
207.628	2647.19
207.702	2661.48
207.776	2660.1
207.851	2669.63
207.925	2687.26
207.999	2691.17
208.073	2697.17
208.148	2706.75
208.222	2703.17
208.296	2743.99
208.371	2763.87
208.445	2780.31
208.519	2820.57
208.593	2844.93
208.668	2856.8
208.742	2874.5
208.816	2895.61
208.89	2924.7
208.965	2943.97
209.039	2972.16
209.113	3010.59
209.187	3056.43
209.261	3076.98
209.336	3123.53
209.41	3171.42
209.484	3206.12
209.558	3259.66
209.632	3308.94
209.707	3356.85
209.781	3416.37
209.855	3473.52
209.929	3540.27
210.003	3592.93
210.077	3640.45
210.151	3737.34
210.226	3818.34
210.3	3901.22
210.374	3980.13
210.448	4043.65
210.522	4117.68
210.596	4193.9
210.67	4275.43
210.744	4391.19
210.818	4496.82
210.892	4590.62
210.966	4663.91
211.041	4760.18
211.115	4839.73
211.189	4947.55
211.263	5052.08
211.337	5149.98
211.411	5258.22
211.485	5346.42
211.559	5454.04
211.633	5554.46
211.707	5629.81
211.781	5741.78
211.855	5814.41
211.929	5916.59
212.003	6013.74
212.077	6137.33
212.151	6263.13
212.225	6390.01
212.299	6495.44
212.373	6603.46
212.447	6717.38
212.52	6873.78
212.594	7001.2
212.668	7142.59
212.742	7258.41
212.816	7385.49
212.89	7504.97
212.964	7635.09
213.038	7770.03
213.112	7917.96
213.186	8068.76
213.26	8183.12
213.333	8276.06
213.407	8413.39
213.481	8554.77
213.555	8704.93
213.629	8826.22
213.703	8952.73
213.777	9085.8
213.85	9204.91
213.924	9381.81
213.998	9525.84
214.072	9655.02
214.146	9777.83
214.219	9915.35
214.293	10050.35
214.367	10192.26
214.441	10348.39
214.515	10480.74
214.588	10596.46
214.662	10696.25
214.736	10817.67
214.81	10954.45
214.883	11102.85
214.957	11226.2
215.031	11346.67
215.105	11454.04
215.178	11579.78
215.252	11705.09
215.326	11812.71
215.4	11931.57
215.473	12010.62
215.547	12113.67
215.621	12220.92
215.694	12358.59
215.768	12448.78
215.842	12557.09
215.915	12656.78
215.989	12751.02
216.063	12855.62
216.136	12976.33
216.21	13094.91
216.284	13217.83
216.357	13338.01
216.431	13438.95
216.504	13566.84
216.578	13702.73
216.652	13825.56
216.725	13931.66
216.799	14050.01
216.873	14157.75
216.946	14266.11
217.02	14361.32
217.093	14466.74
217.167	14555.83
217.24	14634.78
217.314	14738.62
217.387	14828.18
217.461	14924.4
217.535	15027.94
217.608	15102.56
217.682	15192.65
217.755	15298.74
217.829	15377.89
217.902	15462.72
217.976	15562.3
218.049	15641.02
218.123	15715.58
218.196	15810.49
218.27	15893.58
218.343	15959.47
218.417	16046.13
218.49	16126.57
218.563	16230.97
218.637	16325.73
218.71	16429.16
218.784	16524.1
218.857	16621.56
218.931	16710.24
219.004	16794.73
219.077	16883.89
219.151	16978.98
219.224	17054.98
219.298	17123.08
219.371	17210.99
219.444	17284.43
219.518	17358.07
219.591	17434.41
219.665	17529.88
219.738	17599.47
219.811	17661.11
219.885	17746.6
219.958	17824.24
220.031	17897.11
220.105	17968.19
220.178	18033.53
220.251	18089.97
220.325	18153.96
220.398	18216.76
220.471	18283.65
220.544	18350.05
220.618	18396.56
220.691	18460.94
220.764	18528.93
220.838	18600.79
220.911	18653.41
220.984	18722.75
221.057	18784.2
221.131	18843.62
221.204	18872.87
221.277	18950.4
221.35	19027.32
221.424	19071.46
221.497	19119.21
221.57	19173.76
221.643	19235.01
221.716	19289.37
221.79	19336.74
221.863	19388.88
221.936	19428.35
222.009	19476.98
222.082	19533.7
222.155	19596.15
222.229	19653.26
222.302	19695.37
222.375	19736.43
222.448	19791.8
222.521	19834.26
222.594	19875.27
222.667	19906.59
222.74	19961.24
222.814	19992.57
222.887	20030.97
222.96	20079.5
223.033	20137.96
223.106	20178.49
223.179	20226.06
223.252	20263.69
223.325	20305.33
223.398	20346.54
223.471	20391.16
223.544	20427.98
223.617	20452.75
223.69	20476.41
223.763	20489.81
223.837	20531.64
223.91	20568.08
223.983	20579.5
224.056	20600.22
224.129	20627.35
224.202	20670.44
224.275	20685.52
224.348	20697.81
224.42	20711.11
224.493	20712.08
224.566	20722.68
224.639	20744.47
224.712	20751.45
224.785	20765.67
224.858	20776.66
224.931	20788.18
225.004	20793.72
225.077	20814.64
225.15	20815.55
225.223	20821.72
225.296	20861.43
225.369	20858.3
225.442	20867.7
225.514	20895.12
225.587	20915.99
225.66	20940.38
225.733	20961.59
225.806	20988.62
225.879	21002.7
225.952	21017.06
226.025	21060
226.097	21089.64
226.17	21106.46
226.243	21096.34
226.316	21105.4
226.389	21121.79
226.461	21134.13
226.534	21150.66
226.607	21154.66
226.68	21188.83
226.753	21207.92
226.825	21200.69
226.898	21229.41
226.971	21241.75
227.044	21249.32
227.117	21261.85
227.189	21271.2
227.262	21282.14
227.335	21289.52
227.407	21299.64
227.48	21313.04
227.553	21313.95
227.626	21313.76
227.698	21320.56
227.771	21333.28
227.844	21334.82
227.916	21348.08
227.989	21343.35
228.062	21350.44
228.134	21381.04
228.207	21376.46
228.28	21388.27
228.352	21395.84
228.425	21399.36
228.498	21400.76
228.57	21382.25
228.643	21396.9
228.716	21404.85
228.788	21391.26
228.861	21389.14
228.934	21399.7
229.006	21395.36
229.079	21385.96
229.151	21375.98
229.224	21362.39
229.296	21368.95
229.369	21398.69
229.442	21411.07
229.514	21399.75
229.587	21408.04
229.659	21379.6
229.732	21375.79
229.804	21377.96
229.877	21402.69
229.949	21405.29
230.022	21428.09
230.094	21441.15
230.167	21441.73
230.239	21418.69
230.312	21424.09
230.384	21444.96
230.457	21446.45
230.529	21451.27
230.602	21455.32
230.674	21461.11
230.747	21480.67
230.819	21505.16
230.892	21459.18
230.964	21461.49
231.037	21462.41
231.109	21456.14
231.181	21476.82
231.254	21473.11
231.326	21461.4
231.399	21443.47
231.471	21429.2
231.544	21397.48
231.616	21406.69
231.688	21398.01
231.761	21389.67
231.833	21376.08
231.905	21341.38
231.978	21329.86
232.05	21312.99
232.122	21305.18
232.195	21291.98
232.267	21281.95
232.339	21246.48
232.412	21262
232.484	21240.98
232.556	21229.75
232.629	21240.11
232.701	21221.36
232.773	21214.62
232.846	21199.82
232.918	21187.34
232.99	21179.29
233.062	21175.24
233.135	21160.1
233.207	21136.78
233.279	21139.14
233.351	21131.14
233.424	21106.9
233.496	21086.94
233.568	21096.39
233.64	21074.99
233.713	21046.65
233.785	21027.23
233.857	21014.94
233.929	20986.7
234.001	20982.84
234.074	20987.13
234.146	20957.83
234.218	20946.21
234.29	20932.38
234.362	20903.27
234.434	20872.71
234.507	20834.64
234.579	20799.55
234.651	20768.52
234.723	20754.01
234.795	20731.26
234.867	20716.27
234.939	20718.35
235.012	20696.08
235.084	20675.07
235.156	20662.49
235.228	20646.92
235.3	20613.52
235.372	20591.02
235.444	20577.48
235.516	20528.94
235.588	20501.52
235.66	20474.29
235.732	20443.83
235.804	20471.16
235.876	20461.76
235.948	20462
236.02	20455.35
236.092	20428.85
236.164	20400.37
236.236	20375.74
236.308	20338.78
236.38	20309.24
236.452	20271.98
236.524	20251.45
236.596	20236.56
236.668	20216.71
236.74	20196.76
236.812	20191.74
236.884	20180.71
236.956	20152.66
237.028	20122.97
237.1	20083.27
237.172	20070.35
237.244	20059.31
237.316	19992.42
237.388	19959.84
237.46	19918.25
237.532	19894.69
237.604	19869.58
237.675	19870.74
237.747	19845.58
237.819	19825.25
237.891	19797.2
237.963	19759.61
238.035	19720.96
238.107	19655.09
238.178	19633.74
238.25	19600.2
238.322	19591.81
238.394	19550.61
238.466	19522.76
238.538	19500.64
238.609	19481.84
238.681	19434.91
238.753	19396.74
238.825	19365.8
238.897	19344.4
238.968	19325.03
239.04	19286.58
239.112	19279.01
239.184	19232.65
239.255	19202.1
239.327	19172.03
239.399	19137.24
239.471	19123.74
239.542	19116.18
239.614	19109.77
239.686	19051.41
239.758	19027.75
239.829	18975.37
239.901	18948.91
239.973	18916.43
240.044	18887.37
240.116	18858.65
240.188	18828.58
240.259	18796.25
240.331	18756.01
240.403	18716.97
240.474	18672.49
240.546	18629.56
240.618	18577.27
240.689	18539.06
240.761	18508.6
240.833	18486.91
240.904	18453.57
240.976	18421.47
241.048	18381.71
241.119	18345.62
241.191	18326.25
241.262	18302.97
241.334	18263.7
241.405	18223.99
241.477	18180.95
241.549	18150.59
241.62	18116.04
241.692	18079.17
241.763	18053.1
241.835	18021.1
241.906	17995.03
241.978	17947.76
242.049	17930.89
242.121	17915.95
242.192	17890.89
242.264	17849.98
242.335	17798.12
242.407	17777.79
242.478	17740.39
242.55	17702.85
242.621	17662.56
242.693	17623.77
242.764	17589.55
242.836	17557.41
242.907	17526.08
242.979	17511.53
243.05	17482.22
243.122	17454.18
243.193	17412.87
243.264	17359.24
243.336	17323.33
243.407	17296.78
243.479	17283.96
243.55	17267.14
243.622	17237.98
243.693	17213.36
243.764	17186.75
243.836	17144.39
243.907	17107.42
243.978	17065.98
244.05	17045.54
244.121	16998.79
244.192	16970.12
244.264	16920.57
244.335	16885.3
244.407	16838.3
244.478	16809.15
244.549	16766.54
244.62	16722.2
244.692	16700.47
244.763	16680.61
244.834	16643.64
244.906	16599.88
244.977	16569.47
245.048	16546.1
245.119	16499.25
245.191	16450.52
245.262	16397.55
245.333	16394.37
245.405	16355.91
245.476	16331.09
245.547	16294.56
245.618	16273.78
245.689	16243.27
245.761	16211.99
245.832	16178.45
245.903	16156.71
245.974	16122.01
246.045	16087.69
246.117	16073.62
246.188	16028.26
246.259	15984.35
246.33	15955.05
246.401	15931.43
246.473	15887.76
246.544	15835.42
246.615	15813.39
246.686	15768.47
246.757	15750.73
246.828	15695.68
246.899	15683.2
246.97	15637.89
247.042	15598.95
247.113	15572.77
247.184	15566.99
247.255	15530.5
247.326	15497.39
247.397	15463.69
247.468	15428.22
247.539	15398.04
247.61	15347.43
247.681	15333.16
247.752	15319.09
247.823	15279.37
247.894	15246.35
247.965	15194.82
248.037	15164.84
248.108	15113.65
248.179	15092.87
248.25	15065.11
248.321	15055.81
248.392	15008.33
248.463	14999.36
248.534	14963.88
248.605	14948.89
248.675	14902.52
248.746	14884.45
248.817	14871.33
248.888	14847.86
248.959	14804.67
249.03	14791.32
249.101	14769.72
249.172	14737.18
249.243	14678.47
249.314	14665.65
249.385	14637.69
249.456	14621.88
249.527	14589.24
249.598	14575.84
249.669	14552.12
249.739	14531.64
249.81	14497.56
249.881	14458.32
249.952	14434.26
250.023	14407.85
250.094	14355.54
250.165	14317.94
250.235	14288.88
250.306	14256.63
250.377	14221.58
250.448	14194.2
250.519	14140.02
250.59	14126.28
250.66	14095.09
250.731	14087.13
250.802	14061.39
250.873	14041.82
250.944	14023.65
251.014	13993.13
251.085	13991.2
251.156	13967.25
251.227	13943.05
251.297	13937.5
251.368	13929.98
251.439	13913.83
251.51	13903.81
251.58	13871.6
251.651	13846.73
251.722	13832.27
251.792	13792.59
251.863	13770.61
251.934	13766.37
252.005	13776.64
252.075	13743.71
252.146	13730.46
252.217	13717.83
252.287	13698.98
252.358	13670.54
252.429	13660.8
252.499	13623.49
252.57	13594.8
252.641	13582.51
252.711	13554.94
252.782	13511.31
252.852	13502.63
252.923	13470.43
252.994	13446.95
253.064	13441.65
253.135	13417.16
253.205	13381.73
253.276	13378.6
253.347	13365.29
253.417	13332.7
253.488	13297.71
253.558	13278.66
253.629	13254.42
253.699	13237.25
253.77	13221.49
253.841	13195.6
253.911	13175.6
253.982	13168.46
254.052	13158.53
254.123	13138.33
254.193	13120.35
254.264	13137.32
254.334	13102.95
254.405	13076.68
254.475	13039.17
254.546	13011.79
254.616	12999.94
254.687	12984.32
254.757	12964.21
254.827	12938.14
254.898	12925.99
254.968	12902.51
255.039	12872.05
255.109	12859.9
255.18	12825.82
255.25	12778.58
255.321	12764.16
255.391	12722.27
255.461	12719.28
255.532	12667.27
255.602	12645.29
255.673	12609.33
255.743	12577.65
255.813	12537.4
255.884	12529.02
255.954	12522.85
256.024	12524.34
256.095	12505.64
256.165	12479.75
256.235	12464.57
256.306	12437.28
256.376	12426.25
256.446	12416.03
256.517	12397.9
256.587	12387.15
256.657	12369.51
256.728	12360.74
256.798	12340.25
256.868	12325.4
256.938	12292.34
257.009	12279.8
257.079	12262.79
257.149	12268.04
257.219	12220.95
257.29	12207.69
257.36	12164.36
257.43	12151.83
257.5	12107.96
257.571	12075.47
257.641	12066.31
257.711	12038.65
257.781	12032.86
257.852	12016.86
257.922	11975.16
257.992	11960.27
258.062	11925.37
258.132	11915.44
258.202	11890.57
258.273	11869.94
258.343	11870.52
258.413	11848.44
258.483	11835.29
258.553	11798.94
258.623	11764.29
258.693	11755.66
258.764	11747.56
258.834	11741.63
258.904	11717.92
258.974	11694.74
259.044	11672.18
259.114	11651.84
259.184	11628.56
259.254	11601.28
259.324	11555.4
259.394	11543.83
259.464	11537.85
259.535	11524.07
259.605	11502.43
259.675	11473.85
259.745	11462.09
259.815	11426.33
259.885	11406.9
259.955	11409.22
260.025	11389.6
260.095	11380.35
260.165	11364.11
260.235	11362.95
260.305	11338.18
260.375	11316.59
260.445	11312.59
260.515	11316.64
260.585	11307.82
260.655	11293.94
260.725	11286.8
260.795	11290.03
260.865	11292.25
260.934	11266.61
261.004	11258.32
261.074	11238.75
261.144	11242.51
261.214	11240.63
261.284	11223.57
261.354	11213.02
261.424	11185.5
261.494	11188.73
261.564	11168.73
261.634	11156.15
261.703	11118.17
261.773	11103.91
261.843	11088.1
261.913	11071.53
261.983	11031.96
262.053	11026.61
262.123	11005.22
