Data from 24HourExp_27052025_FLMS018081_05-48-20-053.txt Node
Date: Wed May 28 05:48:20 BST 2025
User: adleo
Spectrometer: FLMS01808
Trigger mode: 0
Integration Time (sec): 4.000000E-1
Scans to average: 10
Electric dark correction enabled: true
Nonlinearity correction enabled: true
Boxcar width: 10
XAxis mode: Wavelengths
Number of Pixels in Spectrum: 2048
>>>>>Begin Spectral Data<<<<<
178.471	-137.81
178.857	-128.1
179.244	-119.04
179.631	-110.65
180.017	-101.59
180.404	-91.86
180.79	-80.19
181.176	-71.31
181.563	-62.37
181.949	-52.08
182.335	-42.66
182.722	-27.28
183.108	-9.44
183.494	17.14
183.88	70.91
184.266	124.17
184.653	181.46
185.039	237.25
185.425	292.09
185.811	344.56
186.197	398.16
186.582	449.22
186.968	501.12
187.354	553
187.74	602.51
188.126	652.19
188.511	700.65
188.897	747.44
189.283	795.1
189.668	841.43
190.054	886.2
190.439	932.77
190.825	977.24
191.21	1018.71
191.596	1050.56
191.981	1057.73
192.366	1063.13
192.752	1063.84
193.137	1067.25
193.522	1067.01
193.908	1070.72
194.293	1073.85
194.678	1078.17
195.063	1079.71
195.448	1080.04
195.833	1081.63
196.218	1081.51
196.603	1080.66
196.988	1080.61
197.373	1081.3
197.757	1080.2
198.142	1080.86
198.527	1077.96
198.912	1077.35
199.296	1078.55
199.681	1078.96
200.066	1079.21
200.45	1078.61
200.835	1077.97
201.219	1076.22
201.604	1076.81
201.988	1077.43
202.372	1077.43
202.757	1076.45
203.141	1076.85
203.525	1078.4
203.91	1078.01
204.294	1077.76
204.678	1078.7
205.062	1078.71
205.446	1079.5
205.83	1079.69
206.214	1079.92
206.598	1079.36
206.982	1080.22
207.366	1079.9
207.75	1080.3
208.134	1081.31
208.517	1081.79
208.901	1082.9
209.285	1084.48
209.669	1086.16
210.052	1085.34
210.436	1085.73
210.819	1087.55
211.203	1087.19
211.586	1087.32
211.97	1088.09
212.353	1089.99
212.737	1090.88
213.12	1093.47
213.503	1093.53
213.886	1095.44
214.27	1096.33
214.653	1099.76
215.036	1101.8
215.419	1105.11
215.802	1106.39
216.185	1107.03
216.568	1110.61
216.951	1112.31
217.334	1113.23
217.717	1117.02
218.1	1119.43
218.482	1123.27
218.865	1126.07
219.248	1130.22
219.631	1133
220.013	1137.86
220.396	1145.03
220.778	1151.76
221.161	1156.57
221.544	1162.86
221.926	1171.79
222.308	1179.59
222.691	1187.42
223.073	1195.82
223.455	1203.58
223.838	1213.52
224.22	1225.01
224.602	1235.3
224.984	1246.94
225.366	1259.65
225.749	1273.06
226.131	1284.87
226.513	1298.77
226.895	1314.84
227.276	1328.76
227.658	1344.85
228.04	1360.75
228.422	1375.99
228.804	1390.79
229.186	1406.26
229.567	1424.09
229.949	1440.28
230.331	1456.57
230.712	1475.65
231.094	1491.37
231.475	1509.51
231.857	1529.92
232.238	1548.06
232.62	1567.75
233.001	1586.82
233.382	1607.65
233.763	1625.8
234.145	1646.98
234.526	1665.64
234.907	1684.28
235.288	1704.39
235.669	1723.97
236.05	1744.47
236.431	1762.1
236.812	1782.64
237.193	1803.1
237.574	1822.12
237.955	1843.85
238.336	1866.14
238.717	1884.32
239.097	1910.05
239.478	1932.24
239.859	1954.4
240.239	1977.94
240.62	2001.1
241.001	2022.64
241.381	2045.93
241.762	2067.88
242.142	2090.7
242.522	2115.33
242.903	2138.78
243.283	2164.84
243.663	2191.2
244.044	2219.67
244.424	2248.24
244.804	2275.55
245.184	2306.11
245.564	2334.64
245.944	2364.58
246.324	2395.5
246.704	2428.34
247.084	2454.99
247.464	2484.75
247.844	2514.27
248.224	2541.26
248.604	2571.43
248.983	2603.28
249.363	2634.54
249.743	2665.21
250.122	2696.37
250.502	2725.88
250.882	2757.72
251.261	2787.94
251.641	2820.25
252.02	2849.82
252.399	2883.76
252.779	2919.71
253.158	2953.12
253.537	2991.86
253.917	3034.8
254.296	3071.23
254.675	3108.33
255.054	3150.8
255.433	3192.52
255.812	3232.33
256.191	3275.77
256.57	3317.18
256.949	3360.5
257.328	3402.36
257.707	3448.38
258.086	3493.04
258.465	3542.12
258.843	3591.85
259.222	3643.83
259.601	3696.92
259.979	3750.86
260.358	3804.8
260.736	3855.59
261.115	3911.22
261.493	3965.34
261.872	4014.9
262.25	4071.54
262.629	4127.71
263.007	4185.29
263.385	4243.89
263.763	4303.96
264.142	4365.97
264.52	4428.96
264.898	4496.41
265.276	4562.41
265.654	4631.28
266.032	4703.65
266.41	4774.31
266.788	4843.49
267.166	4919.37
267.544	4991.2
267.921	5069.38
268.299	5145.98
268.677	5228.33
269.055	5309.32
269.432	5392.66
269.81	5479.02
270.188	5566.57
270.565	5657.9
270.943	5747.61
271.32	5838.75
271.697	5935.58
272.075	6033.06
272.452	6130.76
272.829	6224.89
273.207	6326.61
273.584	6431.11
273.961	6535.22
274.338	6645.33
274.715	6763.16
275.092	6881.13
275.469	6999.56
275.846	7118.47
276.223	7240.79
276.6	7363.07
276.977	7489.57
277.354	7615.39
277.731	7741.78
278.108	7870.1
278.484	7997.2
278.861	8129.45
279.238	8270.38
279.614	8406.91
279.991	8548.51
280.367	8692.35
280.744	8840.51
281.12	8987.38
281.497	9132.79
281.873	9286.14
282.249	9437.58
282.625	9580.33
283.002	9723.83
283.378	9878.18
283.754	10027.41
284.13	10186.45
284.506	10345.82
284.882	10502.86
285.258	10657.47
285.634	10814.02
286.01	10976.84
286.386	11141.23
286.762	11306.53
287.138	11464.41
287.513	11630.61
287.889	11792.73
288.265	11958.46
288.641	12115.67
289.016	12280.32
289.392	12444.95
289.767	12607.17
290.143	12770.95
290.518	12937.31
290.894	13101.59
291.269	13256.05
291.644	13419.62
292.02	13569.63
292.395	13725.42
292.77	13881.09
293.145	14035.8
293.52	14191.89
293.895	14340.43
294.27	14494.88
294.646	14646.29
295.02	14795.76
295.395	14947.73
295.77	15104.07
296.145	15253.89
296.52	15414.78
296.895	15568.81
297.269	15722.38
297.644	15872.72
298.019	16024.27
298.393	16178.08
298.768	16328.92
299.143	16485.33
299.517	16636.65
299.891	16792.24
300.266	16949.03
300.64	17108.63
301.015	17274.03
301.389	17441.94
301.763	17616.53
302.137	17783.54
302.512	17963.87
302.886	18145.77
303.26	18329.3
303.634	18512.66
304.008	18694.11
304.382	18878.15
304.756	19063.48
305.13	19249.6
305.504	19434.89
305.877	19627.37
306.251	19834.8
306.625	20045.18
306.999	20254.31
307.372	20463.26
307.746	20680.4
308.119	20894.49
308.493	21105.03
308.866	21316.66
309.24	21528.5
309.613	21733.53
309.987	21951
310.36	22144.15
310.733	22353.36
311.107	22570.96
311.48	22781.27
311.853	23011.37
312.226	23235.91
312.599	23464.07
312.972	23691.66
313.345	23919.6
313.718	24146.07
314.091	24360.84
314.464	24580.93
314.837	24802.85
315.21	25017.14
315.582	25235.23
315.955	25443.89
316.328	25663.6
316.7	25879.9
317.073	26100.51
317.446	26323.77
317.818	26550.02
318.191	26782.14
318.563	27004.97
318.936	27211.96
319.308	27420.36
319.68	27618.18
320.053	27811.91
320.425	27997.98
320.797	28180.27
321.169	28344.73
321.541	28490.35
321.913	28625.62
322.285	28748.07
322.657	28871.81
323.029	29021.38
323.401	29161.33
323.773	29329.28
324.145	29501.35
324.517	29688.96
324.889	29863.75
325.26	30067.61
325.632	30271.63
326.004	30508.43
326.375	30765.24
326.747	31035.77
327.118	31338.6
327.49	31631.59
327.861	31942.41
328.233	32247.18
328.604	32554.59
328.975	32867.17
329.346	33177.14
329.718	33485.56
330.089	33786.15
330.46	34084.44
330.831	34356.75
331.202	34624.11
331.573	34867.06
331.944	35092.79
332.315	35326.67
332.686	35544.92
333.057	35741.23
333.428	35924.87
333.799	36096.38
334.169	36244.89
334.54	36383.33
334.911	36493.63
335.281	36624.55
335.652	36747.37
336.022	36889.45
336.393	37036.49
336.763	37203.91
337.134	37394.17
337.504	37600.56
337.874	37803.16
338.245	38005.7
338.615	38220.94
338.985	38445.5
339.355	38664.79
339.726	38885.59
340.096	39098.24
340.466	39349.63
340.836	39589.76
341.206	39839.04
341.576	40079.9
341.945	40319.59
342.315	40556.52
342.685	40804.17
343.055	41044.52
343.425	41280.4
343.794	41505.47
344.164	41737.77
344.533	41967.48
344.903	42188.94
345.273	42414.32
345.642	42642.92
346.011	42873.99
346.381	43107.01
346.75	43332.19
347.12	43579.55
347.489	43836.64
347.858	44080.05
348.227	44293.73
348.596	44514.84
348.965	44747.19
349.334	44981.32
349.704	45222.27
350.072	45470.3
350.441	45707.15
350.81	45947.57
351.179	46183.17
351.548	46423.25
351.917	46645.05
352.285	46842.99
352.654	47046.27
353.023	47251.9
353.391	47456.97
353.76	47665.39
354.129	47851.24
354.497	48081.58
354.865	48301.99
355.234	48526.97
355.602	48744.65
355.971	48990.59
356.339	49209.63
356.707	49425.54
357.075	49639.36
357.443	49860.14
357.811	50065.6
358.18	50269.33
358.548	50477.53
358.916	50687.21
359.284	50899.19
359.651	51109.8
360.019	51328.54
360.387	51537.96
360.755	51739.34
361.123	51962.49
361.49	52190.24
361.858	52406.55
362.226	52606.04
362.593	52810.29
362.961	52990.18
363.328	53194.71
363.696	53357.75
364.063	53576.7
364.43	53780.31
364.798	53991.21
365.165	54173.57
365.532	54361.94
365.899	54557.37
366.267	54724.01
366.634	54876.52
367.001	55037.13
367.368	55175.5
367.735	55356.67
368.102	55535.65
368.469	55729.47
368.835	55910.7
369.202	56074.49
369.569	56265.65
369.936	56452.9
370.303	56633.69
370.669	56834.87
371.036	56996.24
371.402	57197.78
371.769	57372.11
372.135	57525.86
372.502	57652.26
372.868	57791.96
373.235	57930.81
373.601	58056.87
373.967	58229.39
374.333	58409.32
374.7	58592.09
375.066	58797.4
375.432	58983.05
375.798	59159.96
376.164	59318.53
376.53	59460.04
376.896	59626.69
377.262	59802.44
377.628	59933.04
377.993	60075.86
378.359	60216.11
378.725	60371.7
379.091	60521.17
379.456	60655.23
379.822	60785.85
380.187	60934.29
380.553	61126.11
380.918	61325.84
381.284	61505.67
381.649	61671.7
382.015	61813.94
382.38	61937.79
382.745	62108.64
383.11	62249.52
383.476	62391.32
383.841	62524.5
384.206	62683.21
384.571	62801.64
384.936	62928.08
385.301	63100.19
385.666	63234.61
386.031	63383.45
386.396	63544.46
386.76	63701.13
387.125	63891.17
387.49	64093.55
387.855	64286.76
388.219	64449.65
388.584	64609.14
388.948	64794.72
389.313	64965.27
389.677	65170.34
390.042	65402.78
390.406	65551.34
390.771	65742.98
391.135	65924.2
391.499	66149.35
391.863	66376.14
392.227	66616.99
392.592	66816.51
392.956	67012.72
393.32	67211.02
393.684	67425.46
394.048	67594.08
394.412	67764.9
394.775	67907.95
395.139	68049.89
395.503	68206.15
395.867	68357.39
396.231	68507.81
396.594	68608.17
396.958	68743.73
397.321	68891.63
397.685	69007.8
398.048	69149.22
398.412	69289.9
398.775	69425.68
399.139	69556.31
399.502	69669.05
399.865	69811.06
400.228	70005.19
400.592	70131.51
400.955	70328.03
401.318	70464.97
401.681	70631.21
402.044	70781.95
402.407	70938.45
402.77	71095.67
403.133	71289.63
403.496	71432.26
403.859	71581.44
404.221	71825.23
404.584	72058.46
404.947	72302.4
405.309	72506.07
405.672	72738.87
406.034	72957.29
406.397	73209.02
406.759	73429.68
407.122	73606.14
407.484	73773
407.847	73965.93
408.209	74216.41
408.571	74440.58
408.933	74700.13
409.296	74949.48
409.658	75183.22
410.02	75463.05
410.382	75776.56
410.744	76030.71
411.106	76319.25
411.468	76597.64
411.83	76834.42
412.191	77033.15
412.553	77210.9
412.915	77434.27
413.277	77643.53
413.638	77840.45
414	78009.58
414.361	78185.88
414.723	78420.98
415.084	78638.64
415.446	78799.54
415.807	78936.74
416.169	79046.44
416.53	79136.4
416.891	79246.29
417.252	79372.69
417.614	79446.79
417.975	79488.56
418.336	79536.36
418.697	79588.35
419.058	79633.36
419.419	79671.84
419.78	79712.34
420.141	79740.82
420.501	79766.93
420.862	79786.11
421.223	79802.04
421.584	79834.81
421.944	79854.24
422.305	79865.15
422.666	79873.62
423.026	79878.49
423.387	79890.06
423.747	79898.35
424.107	79910.88
424.468	79918.3
424.828	79924.57
425.188	79928.12
425.549	79935.06
425.909	79942.59
426.269	79943.7
426.629	79948.6
426.989	79952.63
427.349	79958.76
427.709	79965.22
428.069	79966.37
428.429	79971.91
428.789	79979.44
429.149	79985.47
429.508	79987.79
429.868	79990.53
430.228	79995.52
430.587	79999.32
430.947	80006.2
431.306	80012.55
431.666	80015.25
432.025	80018.5
432.385	80019.57
432.744	80022.27
433.103	80023.45
433.463	80024.82
433.822	80030.14
434.181	80035.39
434.54	80037.27
434.899	80039.68
435.258	80041.01
435.618	80043.08
435.976	80047.22
436.335	80046.33
436.694	80047.11
437.053	80049.48
437.412	80050.99
437.771	80051.66
438.129	80052.4
438.488	80052.25
438.847	80053.88
439.205	80054.66
439.564	80055.25
439.922	80056.8
440.281	80057.87
440.639	80059.65
440.997	80059.65
441.356	80059.8
441.714	80059.46
442.072	80059.46
442.431	80058.95
442.789	80058.98
443.147	80059.5
443.505	80058.58
443.863	80059.43
444.221	80059.06
444.579	80059.39
444.937	80058.95
445.294	80059.72
445.652	80061.24
446.01	80060.2
446.368	80059.65
446.725	80058.61
447.083	80059.83
447.441	80059.91
447.798	80059.91
448.156	80060.8
448.513	80060.94
448.87	80062.13
449.228	80061.13
449.585	80061.17
449.942	80060.94
450.3	80061.83
450.657	80060.35
451.014	80060.57
451.371	80060.91
451.728	80059.94
452.085	80060.09
452.442	80061.05
452.799	80060.28
453.156	80060.02
453.513	80060.98
453.869	80062.9
454.226	80064.24
454.583	80063.16
454.939	80063.05
455.296	80064.13
455.653	80064.94
456.009	80066.68
456.366	80067.34
456.722	80068.08
457.078	80069.67
457.435	80070.01
457.791	80070.6
458.147	80072.04
458.503	80073.04
458.86	80073.41
459.216	80073.67
459.572	80073.08
459.928	80072.78
460.284	80073.86
460.64	80073.82
460.996	80072.82
461.351	80071.71
461.707	80072.26
462.063	80073.41
462.419	80073.45
462.774	80072.01
463.13	80070.86
463.486	80071.86
463.841	80071.12
464.197	80071.67
464.552	80072.41
464.908	80072.56
465.263	80071.64
465.618	80071.56
465.974	80070.6
466.329	80071.19
466.684	80070.9
467.039	80073.04
467.394	80075.82
467.749	80076.11
468.104	80075.08
468.459	80077.48
468.814	80077.67
469.169	80077.85
469.524	80077.41
469.879	80079.11
470.233	80079.96
470.588	80080.48
470.943	80079.52
471.297	80080.26
471.652	80081.41
472.006	80081.63
472.361	80082.33
472.715	80084.18
473.07	80085.51
473.424	80088.33
473.778	80087.81
474.133	80090.58
474.487	80090.58
474.841	80089.47
475.195	80089.95
475.549	80092.32
475.903	80091.88
476.257	80092.77
476.611	80093.32
476.965	80094.84
477.319	80094.65
477.673	80095.88
478.026	80096.17
478.38	80096.54
478.734	80096.84
479.087	80097.32
479.441	80096.84
479.795	80096.69
480.148	80098.21
480.502	80099.87
480.855	80098.47
481.208	80100.06
481.562	80099.32
481.915	80099.8
482.268	80099.58
482.621	80099.43
482.974	80098.98
483.328	80099.8
483.681	80101.5
484.034	80101.84
484.387	80102.09
484.739	80102.95
485.092	80102.76
485.445	80104.24
485.798	80103.54
486.151	80104.17
486.503	80105.54
486.856	80108.02
487.209	80109.24
487.561	80107.32
487.914	80105.02
488.266	80103.69
488.618	80103.1
488.971	80103.61
489.323	80102.98
489.675	80104.43
490.028	80103.58
490.38	80104.91
490.732	80105.09
491.084	80104.65
491.436	80105.98
491.788	80105.58
492.14	80106.28
492.492	80106.17
492.844	80106.32
493.196	80107.54
493.548	80107.91
493.899	80107.09
494.251	80105.43
494.603	80104.98
494.954	80105.65
495.306	80107.17
495.657	80107.65
496.009	80108.2
496.36	80108.87
496.712	80108.72
497.063	80108.98
497.414	80111.24
497.765	80111.94
498.117	80111.24
498.468	80110.5
498.819	80109.5
499.17	80109.65
499.521	80108.98
499.872	80110.28
500.223	80109.05
500.574	80109.24
500.924	80109.68
501.275	80110.02
501.626	80108.09
501.977	80106.61
502.327	80104.91
502.678	80104.09
503.029	80105.72
503.379	80105.09
503.73	80104.61
504.08	80104.43
504.43	80103.8
504.781	80104.24
505.131	80103.09
505.481	80103.28
505.831	80103.43
506.182	80102.95
506.532	80103.02
506.882	80103.5
507.232	80102.91
507.582	80103.13
507.932	80103.24
508.281	80102.91
508.631	80101.02
508.981	80104.35
509.331	80106.98
509.681	80108.98
510.03	80109.17
510.38	80109.98
510.729	80110.72
511.079	80110.61
511.428	80110.87
511.778	80110.68
512.127	80108.54
512.476	80107.61
512.826	80107.91
513.175	80108.43
513.524	80109.09
513.873	80109.31
514.222	80109.72
514.571	80109.91
514.92	80110.24
515.269	80110.17
515.618	80110.02
515.967	80111.24
516.316	80109.87
516.665	80109.39
517.014	80108.05
517.362	80107.94
517.711	80106.8
518.059	80107.28
518.408	80107.43
518.757	80107.28
519.105	80108.72
519.453	80110.24
519.802	80112.2
520.15	80112.65
520.498	80113.13
520.847	80111.72
521.195	80111.31
521.543	80111.39
521.891	80111.2
522.239	80110.42
522.587	80110.68
522.935	80111.16
523.283	80111.87
523.631	80110.61
523.979	80110.42
524.326	80111.5
524.674	80112.72
525.022	80112.87
525.369	80112.05
525.717	80113.05
526.064	80115.31
526.412	80114.02
526.759	80113.79
527.107	80114.65
527.454	80113.57
527.801	80114.13
528.149	80115.31
528.496	80115.79
528.843	80115.83
529.19	80116.02
529.537	80117.98
529.884	80118.05
530.231	80118.53
530.578	80118.09
530.925	80119.05
531.272	80119.16
531.619	80119.68
531.966	80119.24
532.312	80119.27
532.659	80119.46
533.006	80117.79
533.352	80115.72
533.699	80115.76
534.045	80115.79
534.392	80115.76
534.738	80117.01
535.084	80115.46
535.431	80114.83
535.777	80114.72
536.123	80114.27
536.469	80113.68
536.815	80112.39
537.161	80112.39
537.507	80112.28
537.853	80111.53
538.199	80110.68
538.545	80110.24
538.891	80108.98
539.237	80109.42
539.582	80109.35
539.928	80108.98
540.274	80111.31
540.619	80112.76
540.965	80112.87
541.31	80112.5
541.656	80109.46
542.001	80107.87
542.347	80107.46
542.692	80107.06
543.037	80106.46
543.382	80104.58
543.728	80104.87
544.073	80105.65
544.418	80105.2
544.763	80104.24
545.108	80105.09
545.453	80106.46
545.798	80106.72
546.142	80106.32
546.487	80105.87
546.832	80105.24
547.177	80106.06
547.521	80103.46
547.866	80103.72
548.211	80104.65
548.555	80104.54
548.9	80106.35
549.244	80106.54
549.588	80106.83
549.933	80106.94
550.277	80106.91
550.621	80109.54
550.965	80110.35
551.31	80109.28
551.654	80110.35
551.998	80111.65
552.342	80110.31
552.686	80109.87
553.03	80110.35
553.373	80112.91
553.717	80112.68
554.061	80111.91
554.405	80112.05
554.748	80112.46
555.092	80113.42
555.436	80113.72
555.779	80113.09
556.123	80112.31
556.466	80113.65
556.81	80113.28
557.153	80114.79
557.496	80114.87
557.839	80112.72
558.183	80112.02
558.526	80112.43
558.869	80112.13
559.212	80110.06
559.555	80111.2
559.898	80113.09
560.241	80112.46
560.584	80111.2
560.927	80113.61
561.269	80115.17
561.612	80114.87
561.955	80116.83
562.297	80114.35
562.64	80113.13
562.983	80114.09
563.325	80114.46
563.668	80115.31
564.01	80116.79
564.352	80115.13
564.695	80113.43
565.037	80114.46
565.379	80115.05
565.721	80115.42
566.063	80114.87
566.406	80115.83
566.748	80116.98
567.09	80116.31
567.431	80115.46
567.773	80115.72
568.115	80114.87
568.457	80114.72
568.799	80114.24
569.14	80112.17
569.482	80114.54
569.824	80114.79
570.165	80113.65
570.507	80112.2
570.848	80112.54
571.19	80111.13
571.531	80112.09
571.872	80114.13
572.214	80114.02
572.555	80114.68
572.896	80114.5
573.237	80113.02
573.578	80113.57
573.919	80112.68
574.26	80111.24
574.601	80111.28
574.942	80110.5
575.283	80108.94
575.624	80106.91
575.964	80106.13
576.305	80105.69
576.646	80103.35
576.986	80102.69
577.327	80103.06
577.667	80103.02
578.008	80101.8
578.348	80101.43
578.689	80099.62
579.029	80098.84
579.369	80098.17
579.71	80095.25
580.05	80094.28
580.39	80095.47
580.73	80095.06
581.07	80095.84
581.41	80095.28
581.75	80094.95
582.09	80095.69
582.43	80094.47
582.769	80096.14
583.109	80097.02
583.449	80097.62
583.789	80097.76
584.128	80097.84
584.468	80096.69
584.807	80098.69
585.147	80097.58
585.486	80097.69
