Data from 24HourExp_27052025_FLMS018081_23-58-20-820.txt Node
Date: Tue May 27 23:58:20 BST 2025
User: adleo
Spectrometer: FLMS01808
Trigger mode: 0
Integration Time (sec): 4.000000E-1
Scans to average: 10
Electric dark correction enabled: true
Nonlinearity correction enabled: true
Boxcar width: 10
XAxis mode: Wavelengths
Number of Pixels in Spectrum: 2048
>>>>>Begin Spectral Data<<<<<
178.471	-122.33
178.857	-115.63
179.244	-109.42
179.631	-102.98
180.017	-95.97
180.404	-89.2
180.79	-78.14
181.176	-68.02
181.563	-59.67
181.949	-47.11
182.335	-36.95
182.722	-22.5
183.108	-3.28
183.494	21.68
183.88	76.37
184.266	129.01
184.653	186.98
185.039	241.65
185.425	296.88
185.811	350.87
186.197	405.39
186.582	456.28
186.968	507.66
187.354	559.85
187.74	612.44
188.126	662.85
188.511	714.7
188.897	762.46
189.283	809.79
189.668	856.96
190.054	899.14
190.439	944.01
190.825	988.33
191.21	1026.48
191.596	1059.49
191.981	1067.05
192.366	1071.91
192.752	1071.27
193.137	1075.86
193.522	1077.2
193.908	1079.79
194.293	1081.87
194.678	1085.77
195.063	1088.39
195.448	1091.51
195.833	1092.6
196.218	1093.45
196.603	1092.62
196.988	1092.16
197.373	1091.58
197.757	1091.27
198.142	1091.03
198.527	1088.68
198.912	1089.37
199.296	1089.77
199.681	1090.11
200.066	1089.12
200.45	1087.4
200.835	1088.54
201.219	1088.03
201.604	1086.7
201.988	1087.16
202.372	1088.41
202.757	1087.48
203.141	1088.9
203.525	1088.14
203.91	1088.23
204.294	1088.97
204.678	1088.38
205.062	1087.46
205.446	1087.71
205.83	1090.8
206.214	1092.28
206.598	1094.62
206.982	1095.78
207.366	1097.91
207.75	1097.1
208.134	1098.64
208.517	1101.1
208.901	1100.45
209.285	1100.01
209.669	1099.86
210.052	1099.75
210.436	1098.34
210.819	1099.76
211.203	1099.78
211.586	1099.14
211.97	1099.05
212.353	1098.41
212.737	1101.81
213.12	1104.79
213.503	1105.29
213.886	1102.98
214.27	1103.96
214.653	1105.42
215.036	1105.87
215.419	1106.55
215.802	1110.6
216.185	1112.94
216.568	1116.87
216.951	1120.37
217.334	1124.59
217.717	1129.33
218.1	1131.96
218.482	1137.59
218.865	1140.8
219.248	1146.7
219.631	1152.58
220.013	1157.61
220.396	1165.33
220.778	1169.16
221.161	1174.39
221.544	1181.81
221.926	1190.73
222.308	1199.13
222.691	1206.27
223.073	1215.03
223.455	1224.82
223.838	1233
224.22	1243
224.602	1253.67
224.984	1264.7
225.366	1275.07
225.749	1288.82
226.131	1301.97
226.513	1314.33
226.895	1328.86
227.276	1340.66
227.658	1356.74
228.04	1373.17
228.422	1388.09
228.804	1405.17
229.186	1422.04
229.567	1440.46
229.949	1456.98
230.331	1473.35
230.712	1491.53
231.094	1509.47
231.475	1527.57
231.857	1547.83
232.238	1565.48
232.62	1582.84
233.001	1602.95
233.382	1624.68
233.763	1645.19
234.145	1664.52
234.526	1683.74
234.907	1702.16
235.288	1722.59
235.669	1740.94
236.05	1759.75
236.431	1779.54
236.812	1799.9
237.193	1819.94
237.574	1838.69
237.955	1861.32
238.336	1884.04
238.717	1907.24
239.097	1932.09
239.478	1955.32
239.859	1977.7
240.239	2001.62
240.62	2026.32
241.001	2051.61
241.381	2075.57
241.762	2096.81
242.142	2121.94
242.522	2147.22
242.903	2175.14
243.283	2202.13
243.663	2229.27
244.044	2257.6
244.424	2288.13
244.804	2316.28
245.184	2347.31
245.564	2377.82
245.944	2409.44
246.324	2442.11
246.704	2472.6
247.084	2499.45
247.464	2529.77
247.844	2563.84
248.224	2597.96
248.604	2629.01
248.983	2658.74
249.363	2690.74
249.743	2724.85
250.122	2756.68
250.502	2787.56
250.882	2817.31
251.261	2848.57
251.641	2881.48
252.02	2913.95
252.399	2948.58
252.779	2985.69
253.158	3021
253.537	3062.93
253.917	3104.85
254.296	3141.71
254.675	3182.37
255.054	3225.53
255.433	3269.19
255.812	3307.77
256.191	3348.18
256.57	3391.49
256.949	3437.26
257.328	3480.95
257.707	3528.63
258.086	3580.71
258.465	3631.09
258.843	3685.24
259.222	3738.92
259.601	3794.93
259.979	3852.31
260.358	3905.69
260.736	3960.5
261.115	4017.9
261.493	4070.49
261.872	4123.74
262.25	4183.36
262.629	4240.53
263.007	4299.45
263.385	4359.55
263.763	4421.31
264.142	4489.43
264.52	4555.78
264.898	4620.82
265.276	4689.98
265.654	4757.01
266.032	4824.9
266.41	4896.29
266.788	4966.9
267.166	5043.62
267.544	5116.62
267.921	5191.12
268.299	5273.46
268.677	5355.43
269.055	5437.33
269.432	5523.09
269.81	5608.93
270.188	5693.83
270.565	5783.95
270.943	5875.44
271.32	5965.83
271.697	6065.18
272.075	6157.47
272.452	6253.48
272.829	6351.62
273.207	6453.59
273.584	6559.14
273.961	6663.11
274.338	6778.81
274.715	6901.01
275.092	7019.98
275.469	7144.32
275.846	7270.81
276.223	7393.48
276.6	7516.16
276.977	7643.56
277.354	7772.84
277.731	7901.32
278.108	8034.39
278.484	8167.97
278.861	8299.55
279.238	8443.33
279.614	8579.63
279.991	8724.68
280.367	8869.78
280.744	9021.12
281.12	9171.95
281.497	9317.92
281.873	9467.96
282.249	9616.63
282.625	9759.36
283.002	9901.49
283.378	10049.93
283.754	10200.9
284.13	10358.33
284.506	10517.45
284.882	10674.84
285.258	10829.97
285.634	10988.32
286.01	11151.39
286.386	11314.48
286.762	11485.35
287.138	11649.04
287.513	11815.33
287.889	11980.21
288.265	12143.41
288.641	12301.34
289.016	12463.35
289.392	12628.97
289.767	12795.73
290.143	12961.43
290.518	13126.26
290.894	13297.24
291.269	13456.45
291.644	13616.21
292.02	13767.59
292.395	13922.36
292.77	14077.48
293.145	14235.16
293.52	14391.11
293.895	14537.27
294.27	14696.54
294.646	14845.3
295.02	14993.52
295.395	15146.09
295.77	15301.1
296.145	15456.53
296.52	15615.93
296.895	15771.93
297.269	15930.15
297.644	16084.4
298.019	16236.63
298.393	16392.15
298.768	16540.51
299.143	16697
299.517	16847.18
299.891	17003.95
300.266	17164.91
300.64	17329.77
301.015	17490.96
301.389	17665.66
301.763	17846.59
302.137	18010.26
302.512	18193.87
302.886	18373.36
303.26	18564.46
303.634	18739.64
304.008	18918.87
304.382	19100.81
304.756	19283.75
305.13	19469.42
305.504	19651.45
305.877	19842.4
306.251	20047.21
306.625	20252.52
306.999	20459.77
307.372	20678.57
307.746	20898.07
308.119	21116.9
308.493	21327.88
308.866	21542.8
309.24	21748.48
309.613	21954.09
309.987	22165.17
310.36	22360.48
310.733	22575.9
311.107	22793.51
311.48	23014.14
311.853	23241.5
312.226	23465.47
312.599	23699.28
312.972	23927.9
313.345	24159.67
313.718	24390.48
314.091	24613.21
314.464	24850.5
314.837	25075.6
315.21	25286.62
315.582	25507.42
315.955	25721.81
316.328	25948.35
316.7	26164.51
317.073	26394.85
317.446	26619.38
317.818	26852.51
318.191	27086.97
318.563	27303.12
318.936	27510.68
319.308	27720.38
319.68	27931.31
320.053	28137.41
320.425	28322.23
320.797	28503.76
321.169	28678.27
321.541	28825.3
321.913	28956.94
322.285	29073.67
322.657	29198.2
323.029	29344.32
323.401	29485.92
323.773	29645.84
324.145	29816.93
324.517	30005.21
324.889	30185.19
325.26	30387.82
325.632	30604.9
326.004	30839.47
326.375	31100.43
326.747	31373.12
327.118	31677.78
327.49	31965.5
327.861	32274.66
328.233	32586.41
328.604	32904.26
328.975	33213.77
329.346	33535.6
329.718	33847.07
330.089	34151.39
330.46	34456.17
330.831	34727.2
331.202	34992.49
331.573	35241.39
331.944	35470.98
332.315	35705.28
332.686	35920.01
333.057	36126.06
333.428	36302.1
333.799	36479.47
334.169	36634.75
334.54	36775.83
334.911	36895.19
335.281	37027.14
335.652	37147.94
336.022	37284.1
336.393	37422.58
336.763	37585.79
337.134	37762.43
337.504	37962.25
337.874	38169.3
338.245	38379.2
338.615	38605.5
338.985	38835.32
339.355	39057.8
339.726	39283.59
340.096	39502.69
340.466	39757.28
340.836	39997.87
341.206	40249.91
341.576	40496.4
341.945	40740.69
342.315	40975.78
342.685	41221.02
343.055	41474.62
343.425	41717.9
343.794	41952.13
344.164	42190.59
344.533	42433.15
344.903	42671.46
345.273	42905.25
345.642	43134.25
346.011	43360.77
346.381	43593.52
346.75	43820.39
347.12	44069.11
347.489	44317.88
347.858	44564.12
348.227	44772.76
348.596	44992.26
348.965	45231.2
349.334	45461.66
349.704	45706.91
350.072	45956.05
350.441	46192.91
350.81	46430.46
351.179	46656.62
351.548	46889.39
351.917	47116.04
352.285	47308.09
352.654	47513.33
353.023	47726.59
353.391	47924.82
353.76	48140.08
354.129	48331.55
354.497	48566.86
354.865	48787.02
355.234	49020.78
355.602	49237.67
355.971	49489.13
356.339	49710.07
356.707	49926.39
357.075	50145.23
357.443	50356.26
357.811	50566.94
358.18	50775.78
358.548	50980.57
358.916	51201.05
359.284	51426.07
359.651	51633.11
360.019	51850.54
360.387	52050.06
360.755	52252.7
361.123	52480.03
361.49	52700.45
361.858	52911.75
362.226	53106.6
362.593	53306.93
362.961	53485.36
363.328	53692.74
363.696	53862.5
364.063	54084.52
364.43	54288.11
364.798	54498.45
365.165	54677.93
365.532	54860.7
365.899	55048.63
366.267	55218.5
366.634	55363.99
367.001	55519.59
367.368	55663.75
367.735	55851.32
368.102	56026.97
368.469	56217.29
368.835	56404.16
369.202	56567.1
369.569	56772.13
369.936	56962.3
370.303	57153.96
370.669	57353.05
371.036	57514.99
371.402	57716.88
371.769	57902.45
372.135	58053.29
372.502	58185.75
372.868	58341.16
373.235	58484.23
373.601	58617.22
373.967	58786.81
374.333	58978.53
374.7	59165.56
375.066	59370.11
375.432	59552.99
375.798	59734.05
376.164	59900.16
376.53	60038.25
376.896	60215.03
377.262	60385.3
377.628	60513.87
377.993	60653.86
378.359	60808.64
378.725	60975.49
379.091	61121.63
379.456	61239.39
379.822	61373.15
380.187	61517.63
380.553	61703.46
380.918	61904.56
381.284	62090.92
381.649	62268.29
382.015	62405.79
382.38	62530.6
382.745	62698.21
383.11	62849.52
383.476	62994.52
383.841	63127.06
384.206	63293.94
384.571	63407.26
384.936	63531.25
385.301	63705.2
385.666	63837.66
386.031	63981.02
386.396	64128.4
386.76	64285.27
387.125	64491.56
387.49	64690.61
387.855	64891.15
388.219	65064.5
388.584	65237.19
388.948	65421.36
389.313	65582
389.677	65797.64
390.042	66032.3
390.406	66187.75
390.771	66374.16
391.135	66563.74
391.499	66790.49
391.863	67016.71
392.227	67266.86
392.592	67473.44
392.956	67673.49
393.32	67880.48
393.684	68099.38
394.048	68280.71
394.412	68449.23
394.775	68588.77
395.139	68742.72
395.503	68897.94
395.867	69048.18
396.231	69185.54
396.594	69299.28
396.958	69448.04
397.321	69599.51
397.685	69725.9
398.048	69872.11
398.412	70015.12
398.775	70144.98
399.139	70275.09
399.502	70393.86
399.865	70535.41
400.228	70730.64
400.592	70870.11
400.955	71067.84
401.318	71207.68
401.681	71370.32
402.044	71525.28
402.407	71681.89
402.77	71839.11
403.133	72028.5
403.496	72175.3
403.859	72330.81
404.221	72561.72
404.584	72796.65
404.947	73043.57
405.309	73255.37
405.672	73494.33
406.034	73723.04
406.397	73983.28
406.759	74206.38
407.122	74393.87
407.484	74564.68
407.847	74753.57
408.209	74997.89
408.571	75223.29
408.933	75479.41
409.296	75741.26
409.658	75994.25
410.02	76266.04
410.382	76565.3
410.744	76814.11
411.106	77087.43
411.468	77357.6
411.83	77581.89
412.191	77763.62
412.553	77916.6
412.915	78102.76
413.277	78281.96
413.638	78447.22
414	78592.59
414.361	78744.44
414.723	78934.8
415.084	79118.59
415.446	79251.54
415.807	79358.3
416.169	79437.32
416.53	79493.88
416.891	79560.3
417.252	79639.21
417.614	79687.49
417.975	79708.55
418.336	79736.69
418.697	79766.4
419.058	79790.14
419.419	79808.9
419.78	79830.41
420.141	79844.52
420.501	79857.6
420.862	79868.36
421.223	79876.07
421.584	79896.22
421.944	79906.69
422.305	79913.7
422.666	79917.28
423.026	79919.86
423.387	79926.13
423.747	79932.07
424.107	79939.71
424.468	79945.8
424.828	79949.12
425.188	79951.63
425.549	79956.14
425.909	79957.87
426.269	79956.17
426.629	79958.94
426.989	79962.3
427.349	79964.3
427.709	79967.11
428.069	79968.92
428.429	79971.91
428.789	79976.23
429.149	79980.07
429.508	79982.7
429.868	79985.87
430.228	79990.34
430.587	79993.41
430.947	79996.88
431.306	79999.1
431.666	80001.91
432.025	80004.16
432.385	80007.68
432.744	80009.93
433.103	80012.18
433.463	80012.44
433.822	80019.94
434.181	80021.94
434.54	80024.12
434.899	80027.08
435.258	80028.11
435.618	80029.41
435.976	80031.7
436.335	80033.22
436.694	80035.32
437.053	80036.54
437.412	80036.32
437.771	80037.1
438.129	80037.73
438.488	80039.35
438.847	80041.72
439.205	80041.98
439.564	80042.68
439.922	80040.72
440.281	80042.39
440.639	80044.79
440.997	80047.23
441.356	80046.49
441.714	80047.67
442.072	80049.19
442.431	80049.71
442.789	80050.86
443.147	80051
443.505	80050.49
443.863	80050.04
444.221	80049.04
444.579	80048.75
444.937	80048.49
445.294	80048.23
445.652	80048.82
446.01	80048.89
446.368	80048.82
446.725	80049.45
447.083	80049.38
447.441	80050.97
447.798	80051.22
448.156	80050.56
448.513	80049.89
448.87	80050.15
449.228	80050.93
449.585	80049.49
449.942	80049.89
450.3	80049.45
450.657	80050.08
451.014	80052.56
451.371	80055.44
451.728	80057.7
452.085	80058.11
452.442	80058.99
452.799	80059.18
453.156	80060.14
453.513	80061.55
453.869	80063.21
454.226	80063.32
454.583	80063.51
454.939	80064.47
455.296	80064.73
455.653	80062.95
456.009	80064.95
456.366	80066.02
456.722	80065.65
457.078	80065.62
457.435	80065.21
457.791	80067.21
458.147	80068.13
458.503	80067.47
458.86	80066.28
459.216	80065.99
459.572	80066.21
459.928	80068.58
460.284	80069.46
460.64	80070.35
460.996	80070.09
461.351	80068.76
461.707	80068.91
462.063	80070.2
462.419	80069.06
462.774	80069.46
463.13	80072.94
463.486	80071.79
463.841	80072.24
464.197	80073.72
464.552	80074.9
464.908	80075.01
465.263	80075.9
465.618	80075.16
465.974	80074.86
466.329	80075.12
466.684	80074.83
467.039	80076.2
467.394	80075.38
467.749	80075.97
468.104	80073.98
468.459	80073.53
468.814	80073.42
469.169	80073.35
469.524	80072.68
469.879	80074.24
470.233	80074.12
470.588	80072.83
470.943	80074.05
471.297	80072.2
471.652	80071.42
472.006	80070.61
472.361	80071.9
472.715	80072.31
473.07	80073.57
473.424	80074.83
473.778	80075.31
474.133	80075.49
474.487	80073.87
474.841	80074.64
475.195	80075.86
475.549	80077.86
475.903	80080.27
476.257	80080.49
476.611	80082.45
476.965	80083.56
477.319	80085.12
477.673	80086.34
478.026	80086.82
478.38	80085.89
478.734	80088.22
479.087	80089.59
479.441	80091.44
479.795	80091.11
480.148	80089.67
480.502	80089.22
480.855	80089.59
481.208	80090.3
481.562	80090.81
481.915	80093.52
482.268	80093.89
482.621	80092.18
482.974	80093.29
483.328	80092.18
483.681	80093.44
484.034	80094.29
484.387	80094.26
484.739	80093.4
485.092	80092.44
485.445	80093.11
485.798	80094.11
486.151	80094.14
486.503	80095.18
486.856	80095.03
487.209	80095.74
487.561	80097.51
487.914	80098.18
488.266	80099.22
488.618	80099.03
488.971	80099.85
489.323	80099.99
489.675	80102.1
490.028	80102.59
490.38	80102.73
490.732	80103.21
491.084	80103.66
491.436	80105.88
491.788	80106.51
492.14	80106.99
492.492	80107.47
492.844	80109.14
493.196	80110.88
493.548	80111.99
493.899	80111.06
494.251	80112.47
494.603	80113.47
494.954	80112.14
495.306	80111.77
495.657	80109.84
496.009	80108.99
496.36	80108.95
496.712	80109.4
497.063	80108.58
497.414	80110.58
497.765	80110.55
498.117	80111.14
498.468	80109.88
498.819	80108.88
499.17	80109.18
499.521	80108.14
499.872	80108.84
500.223	80107.55
500.574	80106.58
500.924	80105.77
501.275	80105.73
501.626	80104.33
501.977	80103.99
502.327	80104.18
502.678	80105.4
503.029	80108.43
503.379	80108.62
503.73	80109.18
504.08	80108.18
504.43	80107.36
504.781	80106.21
505.131	80106.25
505.481	80105.62
505.831	80106.29
506.182	80105.25
506.532	80104.66
506.882	80105.03
507.232	80105.92
507.582	80106.29
507.932	80107.14
508.281	80106.18
508.631	80106.44
508.981	80106.51
509.331	80106.44
509.681	80107.14
510.03	80105.14
510.38	80102.07
510.729	80102.4
511.079	80101.29
511.428	80099.73
511.778	80100.51
512.127	80101.22
512.476	80101.36
512.826	80101.07
513.175	80101.62
513.524	80101.29
513.873	80101.47
514.222	80101.36
514.571	80099.51
514.92	80099.88
515.269	80100.55
515.618	80101.92
515.967	80102.22
516.316	80102.18
516.665	80102.07
517.014	80101.03
517.362	80103.1
517.711	80103.99
518.059	80104.99
518.408	80104.55
518.757	80107.29
519.105	80106.44
519.453	80106.06
519.802	80106.18
520.15	80106.1
520.498	80105.84
520.847	80103.77
521.195	80102.4
521.543	80103.62
521.891	80103.4
522.239	80101.88
522.587	80098.74
522.935	80098.33
523.283	80097.55
523.631	80099.11
523.979	80098.03
524.326	80099.22
524.674	80098.48
525.022	80098.81
525.369	80097.37
525.717	80098.22
526.064	80097.18
526.412	80097.33
526.759	80097.11
527.107	80095.55
527.454	80096.03
527.801	80095.48
528.149	80098.11
528.496	80099.99
528.843	80099.59
529.19	80099.44
529.537	80099.51
529.884	80101.66
530.231	80101.14
530.578	80100.81
530.925	80100.59
531.272	80099.73
531.619	80098.48
531.966	80098.07
532.312	80098.29
532.659	80099.7
533.006	80099.51
533.352	80099.25
533.699	80099.44
534.045	80098.88
534.392	80100.4
534.738	80101.44
535.084	80101.77
535.431	80101.96
535.777	80102.29
536.123	80101.47
536.469	80101.7
536.815	80102.18
537.161	80100.96
537.507	80101.73
537.853	80101.51
538.199	80101.1
538.545	80103.77
538.891	80102.4
539.237	80103.25
539.582	80103.59
539.928	80103.92
540.274	80104.58
540.619	80104.88
540.965	80103.44
541.31	80103.92
541.656	80103.4
542.001	80103.77
542.347	80104.03
542.692	80101.96
543.037	80101.22
543.382	80100.66
543.728	80101.44
544.073	80101.62
544.418	80101.99
544.763	80100.85
545.108	80102.44
545.453	80102.18
545.798	80100.92
546.142	80103.55
546.487	80103.73
546.832	80103.14
547.177	80102.36
547.521	80102.21
547.866	80102.55
548.211	80102.73
548.555	80103.03
548.9	80103.21
549.244	80100.92
549.588	80101.1
549.933	80102.14
550.277	80102.73
550.621	80103.55
550.965	80103.1
551.31	80102.62
551.654	80103.55
551.998	80102.99
552.342	80101.96
552.686	80102.77
553.03	80103.18
553.373	80104.33
553.717	80103.96
554.061	80103.58
554.405	80103.07
554.748	80103.73
555.092	80103.55
555.436	80103.07
555.779	80103.36
556.123	80102.62
556.466	80103.96
556.81	80101.62
557.153	80103.51
557.496	80103.03
557.839	80105.1
558.183	80105.59
558.526	80106.18
558.869	80106.73
559.212	80109.36
559.555	80110.14
559.898	80109.95
560.241	80109.69
560.584	80108.88
560.927	80109.36
561.269	80110.18
561.612	80110.06
561.955	80109.21
562.297	80109.29
562.64	80113.03
562.983	80113.14
563.325	80112.92
563.668	80111.47
564.01	80112.77
564.352	80108.29
564.695	80107.59
565.037	80106.07
565.379	80106.03
565.721	80106.1
566.063	80104.22
566.406	80102.99
566.748	80103.44
567.09	80103.18
567.431	80102.44
567.773	80100.14
568.115	80098.7
568.457	80097.59
568.799	80096
569.14	80094.63
569.482	80093.74
569.824	80091.22
570.165	80089.96
570.507	80091.22
570.848	80092.04
571.19	80092.11
571.531	80096.26
571.872	80099.03
572.214	80097.85
572.555	80097.92
572.896	80096.59
573.237	80096.63
573.578	80095
573.919	80093.44
574.26	80093.15
574.601	80093.22
574.942	80094.15
575.283	80094.22
575.624	80092.74
575.964	80093.18
576.305	80093.07
576.646	80092.85
576.986	80092.33
577.327	80092.89
577.667	80090.63
578.008	80090.78
578.348	80091.67
578.689	80088.85
579.029	80086.56
579.369	80087.85
579.71	80087.93
580.05	80088.45
580.39	80087.22
580.73	80088.08
581.07	80087.78
581.41	80087.56
581.75	80087.67
582.09	80087.08
582.43	80086.3
582.769	80087.11
583.109	80086.3
583.449	80085.3
583.789	80085.41
584.128	80084.52
584.468	80082.67
584.807	80081.64
585.147	80080.71
585.486	80077.83
585.825	80078.53
