Data from 24HourExp_27052025_FLMS018081_06-48-19-991.txt Node
Date: Wed May 28 06:48:19 BST 2025
User: adleo
Spectrometer: FLMS01808
Trigger mode: 0
Integration Time (sec): 4.000000E-1
Scans to average: 10
Electric dark correction enabled: true
Nonlinearity correction enabled: true
Boxcar width: 10
XAxis mode: Wavelengths
Number of Pixels in Spectrum: 2048
>>>>>Begin Spectral Data<<<<<
178.471	-130.58
178.857	-122.56
179.244	-114.81
179.631	-105.21
180.017	-97.01
180.404	-90.03
180.79	-79.41
181.176	-70.66
181.563	-62.13
181.949	-51.26
182.335	-41.46
182.722	-25.02
183.108	-5.53
183.494	21.69
183.88	72.29
184.266	125.93
184.653	179.89
185.039	233.06
185.425	287.1
185.811	340.84
186.197	394.04
186.582	445.59
186.968	497.8
187.354	549
187.74	598.53
188.126	649.06
188.511	698.07
188.897	746.06
189.283	792.89
189.668	841.39
190.054	882.85
190.439	927.92
190.825	970.83
191.21	1012.37
191.596	1044.98
191.981	1056.08
192.366	1060.42
192.752	1063.34
193.137	1067.14
193.522	1068.75
193.908	1071.97
194.293	1075.1
194.678	1078.3
195.063	1079.95
195.448	1082.46
195.833	1082.26
196.218	1081.63
196.603	1083.8
196.988	1082.03
197.373	1083.13
197.757	1081.26
198.142	1084.86
198.527	1083.82
198.912	1083.72
199.296	1082.47
199.681	1081.87
200.066	1078.07
200.45	1077.4
200.835	1076.6
201.219	1076.85
201.604	1077.1
201.988	1076.77
202.372	1077.62
202.757	1077.93
203.141	1077.32
203.525	1077.7
203.91	1079.46
204.294	1081.4
204.678	1080.75
205.062	1082.09
205.446	1082.06
205.83	1083.91
206.214	1082.45
206.598	1083.64
206.982	1084.97
207.366	1085.31
207.75	1086.45
208.134	1089.81
208.517	1091.19
208.901	1093.03
209.285	1095.15
209.669	1094.47
210.052	1095.13
210.436	1094.19
210.819	1093.99
211.203	1094.43
211.586	1093.61
211.97	1092.91
212.353	1092.23
212.737	1093.57
213.12	1095.3
213.503	1095.47
213.886	1096.55
214.27	1099.14
214.653	1099.64
215.036	1100.27
215.419	1101.53
215.802	1104.34
216.185	1105.56
216.568	1110.26
216.951	1112.41
217.334	1113.99
217.717	1118.41
218.1	1120.01
218.482	1125.28
218.865	1129.38
219.248	1133.95
219.631	1138.41
220.013	1143.83
220.396	1150.38
220.778	1156.88
221.161	1162.24
221.544	1168.76
221.926	1176.24
222.308	1183.89
222.691	1191.02
223.073	1201.25
223.455	1210.03
223.838	1218.53
224.22	1228.43
224.602	1236.13
224.984	1248.31
225.366	1262.28
225.749	1277.26
226.131	1289.28
226.513	1303
226.895	1316.39
227.276	1331.02
227.658	1347.23
228.04	1361.69
228.422	1377.42
228.804	1393.81
229.186	1410.79
229.567	1429.13
229.949	1444.97
230.331	1461.92
230.712	1481.67
231.094	1500.17
231.475	1521.01
231.857	1540.77
232.238	1559.95
232.62	1578.53
233.001	1596.6
233.382	1615.86
233.763	1634.02
234.145	1654.41
234.526	1672.02
234.907	1692.3
235.288	1710.67
235.669	1730.48
236.05	1752.14
236.431	1770.91
236.812	1789.86
237.193	1809.74
237.574	1829.46
237.955	1850.56
238.336	1872.82
238.717	1894.32
239.097	1917.47
239.478	1937.01
239.859	1957.66
240.239	1983.27
240.62	2008.45
241.001	2030.21
241.381	2053.95
241.762	2076.32
242.142	2099.78
242.522	2123.55
242.903	2147.61
243.283	2173.79
243.663	2198.69
244.044	2226.87
244.424	2255.57
244.804	2283.67
245.184	2312.68
245.564	2341.11
245.944	2372.72
246.324	2401.33
246.704	2431.03
247.084	2458.18
247.464	2489.8
247.844	2520.39
248.224	2550.02
248.604	2581.58
248.983	2613.18
249.363	2644.56
249.743	2675.06
250.122	2705.95
250.502	2734.69
250.882	2765.4
251.261	2799.36
251.641	2833.48
252.02	2865.15
252.399	2897.39
252.779	2933.9
253.158	2967.85
253.537	3007.59
253.917	3047.64
254.296	3085.14
254.675	3123.73
255.054	3163.51
255.433	3204.71
255.812	3246.35
256.191	3286.41
256.57	3327.15
256.949	3368.27
257.328	3411.81
257.707	3455.45
258.086	3503.98
258.465	3554.22
258.843	3603.98
259.222	3651.73
259.601	3704.56
259.979	3758.18
260.358	3812.32
260.736	3863.7
261.115	3921.44
261.493	3972.87
261.872	4024.49
262.25	4082.15
262.629	4137.37
263.007	4195.81
263.385	4254.98
263.763	4314.48
264.142	4377.06
264.52	4441.11
264.898	4508.05
265.276	4571.76
265.654	4641.77
266.032	4709.52
266.41	4782.02
266.788	4853.22
267.166	4932.53
267.544	5003.1
267.921	5077.94
268.299	5157.71
268.677	5237.41
269.055	5316.11
269.432	5400.46
269.81	5487.54
270.188	5576.12
270.565	5662.67
270.943	5756.21
271.32	5846.49
271.697	5941.58
272.075	6038.2
272.452	6132.2
272.829	6231.17
273.207	6334.02
273.584	6436.61
273.961	6543.52
274.338	6653.06
274.715	6768.72
275.092	6885.98
275.469	7009.85
275.846	7133.42
276.223	7253.75
276.6	7375.58
276.977	7500.65
277.354	7627.85
277.731	7750.48
278.108	7876.01
278.484	8009.94
278.861	8137.42
279.238	8277.83
279.614	8415.86
279.991	8554.38
280.367	8704.17
280.744	8853.99
281.12	9005.06
281.497	9152.71
281.873	9304.49
282.249	9454.89
282.625	9607.3
283.002	9752.13
283.378	9898.55
283.754	10047.74
284.13	10203.18
284.506	10362.78
284.882	10520.59
285.258	10677.69
285.634	10836.68
286.01	10996.8
286.386	11155.65
286.762	11325.61
287.138	11486.17
287.513	11653.57
287.889	11817.41
288.265	11978.9
288.641	12137.94
289.016	12296.95
289.392	12464.74
289.767	12623.59
290.143	12788.07
290.518	12946.3
290.894	13107.76
291.269	13268.78
291.644	13427.81
292.02	13581.28
292.395	13733.75
292.77	13891.05
293.145	14043.17
293.52	14198.13
293.895	14353.34
294.27	14512.19
294.646	14661.81
295.02	14807.44
295.395	14958.32
295.77	15115.23
296.145	15269.33
296.52	15423.68
296.895	15579.51
297.269	15733.69
297.644	15891.29
298.019	16047.14
298.393	16204.32
298.768	16356.17
299.143	16509.43
299.517	16659.79
299.891	16821.86
300.266	16988.59
300.64	17145.31
301.015	17317.21
301.389	17490.64
301.763	17667.56
302.137	17833.41
302.512	18016.47
302.886	18198.79
303.26	18386.97
303.634	18571.57
304.008	18748.1
304.382	18931.76
304.756	19115.15
305.13	19305.43
305.504	19484.82
305.877	19675.01
306.251	19878.18
306.625	20085
306.999	20301.22
307.372	20512.88
307.746	20731.59
308.119	20940.97
308.493	21155.82
308.866	21361.39
309.24	21574.5
309.613	21776.04
309.987	21989.04
310.36	22185.88
310.733	22394.1
311.107	22604.9
311.48	22814.37
311.853	23045.63
312.226	23272.63
312.599	23503.1
312.972	23726.64
313.345	23965.58
313.718	24196.19
314.091	24416.65
314.464	24646.43
314.837	24865.36
315.21	25081.73
315.582	25295.46
315.955	25505.65
316.328	25725.45
316.7	25943.76
317.073	26161.36
317.446	26389.86
317.818	26616.02
318.191	26843.79
318.563	27071.39
318.936	27277.75
319.308	27484.29
319.68	27688.99
320.053	27888
320.425	28070.39
320.797	28252.85
321.169	28408.68
321.541	28550.96
321.913	28684.14
322.285	28800.36
322.657	28926.72
323.029	29072.48
323.401	29214.86
323.773	29383.01
324.145	29556.78
324.517	29750.05
324.889	29929.72
325.26	30126.88
325.632	30345.46
326.004	30579.59
326.375	30837.29
326.747	31111.54
327.118	31414.67
327.49	31701.29
327.861	32004.3
328.233	32315.39
328.604	32621.59
328.975	32937.29
329.346	33246.92
329.718	33552.14
330.089	33857.93
330.46	34151.28
330.831	34427.31
331.202	34686.71
331.573	34931.12
331.944	35159.59
332.315	35379.05
332.686	35595.69
333.057	35798.05
333.428	35976.68
333.799	36149.1
334.169	36303.45
334.54	36445.83
334.911	36562.43
335.281	36688.51
335.652	36813.78
336.022	36947.91
336.393	37091.42
336.763	37256.6
337.134	37443.39
337.504	37644.49
337.874	37850.72
338.245	38056.84
338.615	38273.48
338.985	38504.86
339.355	38729.38
339.726	38949.27
340.096	39173.61
340.466	39429.29
340.836	39672.21
341.206	39918.65
341.576	40164.33
341.945	40402.41
342.315	40636.98
342.685	40884.56
343.055	41133.73
343.425	41376.41
343.794	41598.92
344.164	41838.38
344.533	42075.27
344.903	42305.74
345.273	42540.15
345.642	42767.22
346.011	42999.88
346.381	43235.68
346.75	43462.25
347.12	43704.82
347.489	43959.49
347.858	44202.68
348.227	44408.57
348.596	44623.83
348.965	44862.27
349.334	45089.8
349.704	45327.84
350.072	45572.89
350.441	45805.6
350.81	46045.53
351.179	46275.23
351.548	46523.76
351.917	46740.3
352.285	46929.46
352.654	47136.63
353.023	47340.82
353.391	47543.1
353.76	47756
354.129	47939.16
354.497	48177.14
354.865	48398.08
355.234	48629.23
355.602	48850.68
355.971	49096.12
356.339	49315.46
356.707	49527.35
357.075	49752.19
357.443	49976.55
357.811	50188.02
358.18	50391.1
358.548	50598.73
358.916	50811.09
359.284	51024.94
359.651	51243.66
360.019	51468.43
360.387	51670.79
360.755	51876.06
361.123	52098.88
361.49	52318.49
361.858	52542.63
362.226	52732.32
362.593	52926.49
362.961	53100.17
363.328	53297.15
363.696	53466.44
364.063	53691.64
364.43	53900.66
364.798	54110.66
365.165	54290.94
365.532	54475.6
365.899	54664.99
366.267	54833.91
366.634	54979
367.001	55135.46
367.368	55275.89
367.735	55456.72
368.102	55630.09
368.469	55820.16
368.835	55995.59
369.202	56153.65
369.569	56339.03
369.936	56529.69
370.303	56720.78
370.669	56923.62
371.036	57088.97
371.402	57290.59
371.769	57462.11
372.135	57611.74
372.502	57736.41
372.868	57877.97
373.235	58023.44
373.601	58162.31
373.967	58334.63
374.333	58521.65
374.7	58711.25
375.066	58912.3
375.432	59098.03
375.798	59279.79
376.164	59446.65
376.53	59601.64
376.896	59772.93
377.262	59948.52
377.628	60077.56
377.993	60227.73
378.359	60375.86
378.725	60527.66
379.091	60681.13
379.456	60819.37
379.822	60955.56
380.187	61094.95
380.553	61280.31
380.918	61468.87
381.284	61650.69
381.649	61820.72
382.015	61964.19
382.38	62086.42
382.745	62253.67
383.11	62401.52
383.476	62547.64
383.841	62676.21
384.206	62830.97
384.571	62954.88
384.936	63086.48
385.301	63258.03
385.666	63387.13
386.031	63533.41
386.396	63704.7
386.76	63855.8
387.125	64047.08
387.49	64248.84
387.855	64450.5
388.219	64616.84
388.584	64781.93
388.948	64973.9
389.313	65138.98
389.677	65341.17
390.042	65574.18
390.406	65724.8
390.771	65913.16
391.135	66095.01
391.499	66329.65
391.863	66561.74
392.227	66802.58
392.592	67002.22
392.956	67195.91
393.32	67397.17
393.684	67613.39
394.048	67780.09
394.412	67961.71
394.775	68106.66
395.139	68248.28
395.503	68403.94
395.867	68555.62
396.231	68703.35
396.594	68804.84
396.958	68938.29
397.321	69095.64
397.685	69216.7
398.048	69359.21
398.412	69488.91
398.775	69625.27
399.139	69744.85
399.502	69848.94
399.865	69986.99
400.228	70182.45
400.592	70321.64
400.955	70515.3
401.318	70649.74
401.681	70810.32
402.044	70946.65
402.407	71104.58
402.77	71264.67
403.133	71461.29
403.496	71603.18
403.859	71767.03
404.221	71999.45
404.584	72237.55
404.947	72482.71
405.309	72696.08
405.672	72930.89
406.034	73163.51
406.397	73412.93
406.759	73637.47
407.122	73827.91
407.484	74000.89
407.847	74187.34
408.209	74427.5
408.571	74654.78
408.933	74910.95
409.296	75167.26
409.658	75411.55
410.02	75674.15
410.382	75977.05
410.744	76224.74
411.106	76515
411.468	76785.11
411.83	77024.55
412.191	77224.61
412.553	77393.72
412.915	77598.53
413.277	77803.89
413.638	77991.94
414	78157.67
414.361	78329.97
414.723	78545.95
415.084	78755.27
415.446	78912.64
415.807	79048.11
416.169	79150.02
416.53	79237.42
416.891	79335.99
417.252	79449.46
417.614	79525.6
417.975	79566.02
418.336	79612.73
418.697	79659.93
419.058	79700.23
419.419	79730.44
419.78	79761.95
420.141	79788.4
420.501	79812.43
420.862	79828.66
421.223	79841.69
421.584	79871.89
421.944	79887.69
422.305	79898.97
422.666	79906.87
423.026	79909.41
423.387	79917.63
423.747	79925.27
424.107	79934.01
424.468	79943.16
424.828	79949.92
425.188	79955.83
425.549	79961.59
425.909	79966.87
426.269	79963.96
426.629	79968.87
426.989	79973.3
427.349	79979.88
427.709	79983.02
428.069	79984.72
428.429	79989.89
428.789	79995.58
429.149	79998.39
429.508	80001.97
429.868	80005.96
430.228	80009.51
430.587	80014.83
430.947	80019.71
431.306	80023.74
431.666	80028.44
432.025	80029.55
432.385	80030.54
432.744	80030.84
433.103	80033.98
433.463	80035.83
433.822	80046.4
434.181	80049.02
434.54	80052.24
434.899	80053.68
435.258	80055.13
435.618	80055.05
435.976	80057.79
436.335	80058.68
436.694	80061.23
437.053	80061.3
437.412	80063.12
437.771	80064.52
438.129	80064.74
438.488	80064.71
438.847	80066.56
439.205	80066.59
439.564	80067.3
439.922	80068.41
440.281	80069.37
440.639	80068.81
440.997	80069.44
441.356	80069.55
441.714	80069.63
442.072	80067.78
442.431	80068.04
442.789	80070.81
443.147	80072.96
443.505	80072.77
443.863	80073.55
444.221	80073.59
444.579	80074.66
444.937	80074.88
445.294	80074.92
445.652	80076.14
446.01	80076.95
446.368	80077.84
446.725	80078.51
447.083	80079.8
447.441	80081.95
447.798	80083.21
448.156	80085.98
448.513	80085.09
448.87	80083.87
449.228	80085.02
449.585	80086.91
449.942	80086.72
450.3	80086.65
450.657	80087.2
451.014	80085.72
451.371	80086.46
451.728	80085.8
452.085	80084.95
452.442	80083.47
452.799	80083.36
453.156	80084.98
453.513	80084.98
453.869	80085.43
454.226	80084.87
454.583	80083.65
454.939	80080.88
455.296	80081.25
455.653	80080.95
456.009	80083.17
456.366	80084.13
456.722	80082.47
457.078	80082.91
457.435	80084.36
457.791	80082.21
458.147	80083.36
458.503	80085.21
458.86	80086.65
459.216	80088.28
459.572	80088.32
459.928	80088.65
460.284	80091.46
460.64	80089.28
460.996	80090.43
461.351	80090.05
461.707	80090.61
462.063	80091.24
462.419	80092.31
462.774	80091.98
463.13	80091.79
463.486	80090.79
463.841	80090.91
464.197	80091.79
464.552	80091.61
464.908	80090.35
465.263	80092.61
465.618	80090.35
465.974	80091.2
466.329	80090.65
466.684	80090.24
467.039	80091.68
467.394	80092.68
467.749	80090.98
468.104	80091.64
468.459	80092.16
468.814	80093.42
469.169	80093.64
469.524	80094.98
469.879	80096.09
470.233	80096.42
470.588	80096.57
470.943	80096.79
471.297	80097.31
471.652	80098.71
472.006	80100.23
472.361	80101.93
472.715	80101.16
473.07	80101.86
473.424	80101.93
473.778	80102.56
474.133	80104.64
474.487	80106.71
474.841	80107.38
475.195	80108.34
475.549	80109.12
475.903	80109.6
476.257	80109.19
476.611	80108.82
476.965	80108.75
477.319	80111.71
477.673	80114.08
478.026	80115.08
478.38	80117.15
478.734	80117.23
479.087	80118.67
479.441	80119.26
479.795	80119.52
480.148	80121.15
480.502	80122.3
480.855	80123.71
481.208	80123.48
481.562	80121.93
481.915	80120.49
482.268	80120.71
482.621	80120.82
482.974	80122.3
483.328	80123.08
483.681	80122.89
484.034	80126.11
484.387	80125.86
484.739	80122.63
485.092	80121.71
485.445	80124.08
485.798	80123.45
486.151	80123.82
486.503	80122.93
486.856	80123.52
487.209	80124.71
487.561	80125.04
487.914	80126.56
488.266	80125.34
488.618	80125.3
488.971	80127
489.323	80128.89
489.675	80131.75
490.028	80132.78
490.38	80131.93
490.732	80131.15
491.084	80133.41
491.436	80132.23
491.788	80133.74
492.14	80135.45
492.492	80135.52
492.844	80133.52
493.196	80134.74
493.548	80135.48
493.899	80136.56
494.251	80135.82
494.603	80135.63
494.954	80134.67
495.306	80133.74
495.657	80134.45
496.009	80135.59
496.36	80135
496.712	80133.56
497.063	80131.33
497.414	80129.71
497.765	80130.82
498.117	80132.45
498.468	80130.82
498.819	80130.7
499.17	80129.19
499.521	80128.37
499.872	80128.19
500.223	80128.71
500.574	80129.11
500.924	80129.22
501.275	80128.41
501.626	80128.08
501.977	80127.3
502.327	80129.19
502.678	80129.67
503.029	80130.74
503.379	80128.74
503.73	80128.56
504.08	80127.26
504.43	80126.97
504.781	80127.37
505.131	80125.52
505.481	80123.85
505.831	80121.93
506.182	80122.23
506.532	80123.6
506.882	80125.11
507.232	80123.56
507.582	80122.6
507.932	80121.08
508.281	80122.15
508.631	80121.93
508.981	80122.97
509.331	80123.49
509.681	80122.15
510.03	80121.67
510.38	80118.93
510.729	80119
511.079	80118.6
511.428	80121.26
511.778	80121.63
512.127	80121.34
512.476	80121.93
512.826	80122.56
513.175	80125.48
513.524	80124.11
513.873	80124.56
514.222	80123.67
514.571	80125.71
514.92	80125.56
515.269	80125.22
515.618	80123.45
515.967	80124.22
516.316	80123.63
516.665	80123.22
517.014	80123.11
517.362	80123.71
517.711	80125.52
518.059	80126.48
518.408	80128.48
518.757	80126.78
519.105	80127.15
519.453	80127.3
519.802	80125.78
520.15	80127.04
520.498	80125.97
520.847	80125.85
521.195	80125
521.543	80125.11
521.891	80124.78
522.239	80124.41
522.587	80126.11
522.935	80129.34
523.283	80128.71
523.631	80128.37
523.979	80129.6
524.326	80129.34
524.674	80128.89
525.022	80127.56
525.369	80127.93
525.717	80126.71
526.064	80127
526.412	80126.08
526.759	80127.19
527.107	80130.52
527.454	80129.74
527.801	80130.11
528.149	80131.56
528.496	80131.56
528.843	80131.97
529.19	80132.63
529.537	80132.48
529.884	80131.26
530.231	80128.85
530.578	80128.19
530.925	80127.78
531.272	80127.52
531.619	80127.52
531.966	80127.37
532.312	80127.78
532.659	80127.89
533.006	80128.74
533.352	80129.59
533.699	80129.82
534.045	80130.52
534.392	80128.11
534.738	80127.37
535.084	80127.82
535.431	80128.56
535.777	80129.04
536.123	80128.56
536.469	80128.52
536.815	80128.34
537.161	80129.45
537.507	80126.93
537.853	80128.52
538.199	80129.71
538.545	80128.52
538.891	80129.19
539.237	80129.19
539.582	80128.56
539.928	80129.97
540.274	80129.49
540.619	80129.97
540.965	80130.41
541.31	80129.04
541.656	80129.04
542.001	80129.49
542.347	80128.37
542.692	80127.6
543.037	80127.71
543.382	80128.19
543.728	80128
544.073	80129.74
544.418	80129.23
544.763	80133.11
545.108	80131.67
545.453	80130.34
545.798	80129.67
546.142	80130.34
546.487	80129.85
546.832	80131.78
547.177	80129.89
547.521	80128.93
547.866	80127.63
548.211	80126
548.555	80125.48
548.9	80124.89
549.244	80124.26
549.588	80122.93
549.933	80122.15
550.277	80120.34
550.621	80119.63
550.965	80119.08
551.31	80117.6
551.654	80118.04
551.998	80117.41
552.342	80118.08
552.686	80118.74
553.03	80120.15
553.373	80119.15
553.717	80119.34
554.061	80117.89
554.405	80118.19
554.748	80117.41
555.092	80117.82
555.436	80119.78
555.779	80120.34
556.123	80122.19
556.466	80122.45
556.81	80124.26
557.153	80126.41
557.496	80127.56
557.839	80128.22
558.183	80127.08
558.526	80127.45
558.869	80126.45
559.212	80125.3
559.555	80123.89
559.898	80123.3
560.241	80122.34
560.584	80125.11
560.927	80125.82
561.269	80127.34
561.612	80128.34
561.955	80127.93
562.297	80127.56
562.64	80127.04
562.983	80125.82
563.325	80125.97
563.668	80125.93
564.01	80125.71
564.352	80122.23
564.695	80123.19
565.037	80123.04
565.379	80124.78
565.721	80124.67
566.063	80123.52
566.406	80124.23
566.748	80124.6
567.09	80122.52
567.431	80123.15
567.773	80119.26
568.115	80117.97
568.457	80116.75
568.799	80116.86
569.14	80119.37
569.482	80119.75
569.824	80120.23
570.165	80121
570.507	80121
570.848	80120.56
571.19	80120.75
571.531	80121.23
571.872	80121.74
572.214	80121.34
572.555	80120.82
572.896	80120.41
573.237	80121.04
573.578	80121.6
573.919	80123.45
574.26	80126.74
574.601	80126.63
574.942	80127.89
575.283	80128.52
575.624	80128.63
575.964	80127.37
576.305	80126.41
576.646	80126.15
576.986	80124.71
577.327	80124.85
577.667	80124.37
578.008	80124.67
578.348	80125.52
578.689	80126.19
579.029	80123.78
579.369	80124.08
579.71	80124.3
580.05	80123.67
580.39	80124.45
580.73	80121.04
581.07	80119.97
581.41	80119.48
581.75	80119.26
582.09	80118.45
582.43	80117.12
582.769	80117.19
583.109	80116.74
583.449	80116.37
583.789	80115.97
584.128	80115.97
584.468	80116.08
584.807	80114.75
585.147	80113.93
585.486	80111.67
