Data from 24HourExp_27052025_FLMS018081_19-58-19-064.txt Node
Date: Tue May 27 19:58:19 BST 2025
User: adleo
Spectrometer: FLMS01808
Trigger mode: 0
Integration Time (sec): 4.000000E-1
Scans to average: 10
Electric dark correction enabled: true
Nonlinearity correction enabled: true
Boxcar width: 10
XAxis mode: Wavelengths
Number of Pixels in Spectrum: 2048
>>>>>Begin Spectral Data<<<<<
178.471	-124.93
178.857	-119
179.244	-112.36
179.631	-104.15
180.017	-94.77
180.404	-86.95
180.79	-75.91
181.176	-68
181.563	-59.58
181.949	-48.37
182.335	-38.23
182.722	-22.92
183.108	-5.14
183.494	20.39
183.88	73.88
184.266	129.94
184.653	185.87
185.039	241.62
185.425	298.79
185.811	352.96
186.197	405.7
186.582	458.44
186.968	512.17
187.354	565.13
187.74	615.31
188.126	664.94
188.511	715.52
188.897	762.38
189.283	812.65
189.668	859.93
190.054	903.72
190.439	949.8
190.825	994.63
191.21	1036.66
191.596	1072.01
191.981	1080.09
192.366	1083.81
192.752	1086.77
193.137	1089.14
193.522	1090.62
193.908	1091.35
194.293	1094.01
194.678	1095.85
195.063	1097.72
195.448	1099.48
195.833	1100.87
196.218	1101.83
196.603	1101.98
196.988	1101.52
197.373	1101.98
197.757	1101.24
198.142	1102.57
198.527	1099.58
198.912	1098.88
199.296	1098.34
199.681	1096.23
200.066	1095.13
200.45	1093.85
200.835	1093.16
201.219	1093.17
201.604	1092.31
201.988	1093.32
202.372	1093.76
202.757	1093.98
203.141	1094.42
203.525	1094.38
203.91	1094.92
204.294	1094.06
204.678	1094.21
205.062	1094.09
205.446	1092.54
205.83	1095.08
206.214	1094.7
206.598	1096.45
206.982	1096.31
207.366	1097.45
207.75	1098.07
208.134	1099.53
208.517	1102.28
208.901	1101.92
209.285	1103.18
209.669	1103.62
210.052	1103.55
210.436	1104.44
210.819	1105.22
211.203	1105.07
211.586	1104.66
211.97	1106.04
212.353	1108.46
212.737	1110.39
213.12	1114.61
213.503	1116.44
213.886	1117.14
214.27	1118.3
214.653	1118.49
215.036	1121.03
215.419	1122.55
215.802	1126.06
216.185	1127.67
216.568	1131.19
216.951	1133.06
217.334	1134.56
217.717	1138.52
218.1	1141.59
218.482	1144.48
218.865	1148.57
219.248	1152.12
219.631	1157.67
220.013	1161.54
220.396	1170.08
220.778	1175.64
221.161	1180.69
221.544	1186.98
221.926	1193.24
222.308	1202.8
222.691	1212.96
223.073	1222.2
223.455	1231.7
223.838	1239.23
224.22	1248.76
224.602	1257.31
224.984	1270.5
225.366	1283.66
225.749	1298.1
226.131	1311.24
226.513	1326.76
226.895	1341.77
227.276	1357.11
227.658	1372.55
228.04	1388.27
228.422	1400.89
228.804	1416.82
229.186	1432.23
229.567	1450.52
229.949	1466.74
230.331	1482.72
230.712	1500.23
231.094	1517.07
231.475	1535.92
231.857	1555.94
232.238	1574.34
232.62	1593.89
233.001	1613.01
233.382	1632.66
233.763	1650.55
234.145	1672.62
234.526	1692.82
234.907	1712.63
235.288	1731.88
235.669	1752.02
236.05	1773.26
236.431	1794.32
236.812	1816.2
237.193	1838.39
237.574	1858.7
237.955	1883.06
238.336	1906.26
238.717	1927.83
239.097	1951.86
239.478	1975.14
239.859	1998.84
240.239	2024.06
240.62	2050.14
241.001	2073.25
241.381	2099.73
241.762	2124.96
242.142	2149.14
242.522	2172.55
242.903	2199.11
243.283	2227.46
243.663	2255.67
244.044	2283.69
244.424	2311.07
244.804	2339.15
245.184	2368.51
245.564	2397.36
245.944	2430.67
246.324	2461.74
246.704	2493.91
247.084	2525.89
247.464	2557.2
247.844	2590.07
248.224	2623.6
248.604	2654.9
248.983	2687.32
249.363	2719.66
249.743	2752.09
250.122	2784.75
250.502	2817.32
250.882	2850.5
251.261	2884.08
251.641	2915.68
252.02	2950.14
252.399	2986.59
252.779	3025.48
253.158	3067.13
253.537	3109.19
253.917	3151.82
254.296	3192.92
254.675	3234.66
255.054	3276.54
255.433	3321.3
255.812	3362.66
256.191	3405.02
256.57	3448.3
256.949	3496.41
257.328	3543.23
257.707	3590.48
258.086	3639.16
258.465	3688.24
258.843	3741.36
259.222	3792.33
259.601	3849.33
259.979	3904.94
260.358	3963.37
260.736	4017.86
261.115	4074.08
261.493	4129.17
261.872	4181.77
262.25	4239.82
262.629	4299.65
263.007	4359.42
263.385	4421.2
263.763	4485.6
264.142	4551.46
264.52	4617.5
264.898	4683.29
265.276	4750.67
265.654	4821.04
266.032	4892.27
266.41	4965.13
266.788	5037.52
267.166	5116.57
267.544	5191.78
267.921	5270.9
268.299	5349.39
268.677	5429.79
269.055	5510.55
269.432	5596.86
269.81	5684.57
270.188	5773.1
270.565	5863.93
270.943	5958.23
271.32	6049.13
271.697	6145.25
272.075	6243.65
272.452	6341.15
272.829	6440.8
273.207	6543.1
273.584	6649.79
273.961	6756.56
274.338	6871.88
274.715	6990.38
275.092	7113.06
275.469	7236.99
275.846	7358.72
276.223	7485.83
276.6	7612.35
276.977	7742.7
277.354	7871.45
277.731	8000.17
278.108	8133.79
278.484	8265.54
278.861	8398.36
279.238	8539.74
279.614	8679.87
279.991	8819.83
280.367	8968.01
280.744	9121.78
281.12	9276.4
281.497	9423.08
281.873	9580.76
282.249	9730.56
282.625	9877.41
283.002	10021.52
283.378	10168.71
283.754	10323.83
284.13	10476.8
284.506	10639.72
284.882	10796.71
285.258	10951.29
285.634	11110.16
286.01	11270.73
286.386	11434.24
286.762	11600.23
287.138	11764.56
287.513	11928.35
287.889	12097.9
288.265	12260.15
288.641	12416.43
289.016	12577.06
289.392	12742.94
289.767	12901.39
290.143	13065.75
290.518	13225.73
290.894	13391.13
291.269	13552.74
291.644	13708.7
292.02	13864.34
292.395	14015.15
292.77	14168.8
293.145	14329.13
293.52	14487.42
293.895	14636.08
294.27	14786.42
294.646	14940.27
295.02	15089.86
295.395	15244.31
295.77	15397.17
296.145	15552.62
296.52	15712.09
296.895	15865.38
297.269	16023.05
297.644	16177.22
298.019	16330.35
298.393	16489.68
298.768	16645.85
299.143	16801.95
299.517	16955.47
299.891	17112.57
300.266	17272.3
300.64	17434.18
301.015	17598.02
301.389	17769.54
301.763	17946.98
302.137	18120.22
302.512	18300.4
302.886	18481.75
303.26	18664.27
303.634	18847.61
304.008	19028.22
304.382	19211.12
304.756	19397.68
305.13	19584.21
305.504	19771.17
305.877	19972.47
306.251	20182.92
306.625	20387.83
306.999	20595.69
307.372	20815.17
307.746	21035.36
308.119	21253.67
308.493	21469.87
308.866	21678.58
309.24	21893.27
309.613	22103.19
309.987	22315.23
310.36	22513.62
310.733	22724.89
311.107	22953.65
311.48	23169.83
311.853	23403.98
312.226	23626.23
312.599	23859.45
312.972	24087.02
313.345	24315.66
313.718	24542.6
314.091	24756.07
314.464	24988.14
314.837	25216.11
315.21	25430.95
315.582	25651.96
315.955	25867.28
316.328	26084.7
316.7	26310.86
317.073	26531.99
317.446	26759.89
317.818	26997.9
318.191	27233.14
318.563	27459.8
318.936	27662.13
319.308	27873.48
319.68	28074.95
320.053	28283.19
320.425	28468.99
320.797	28653.75
321.169	28822.31
321.541	28966.68
321.913	29105.93
322.285	29226.13
322.657	29354.88
323.029	29507.21
323.401	29649.71
323.773	29814.23
324.145	29993.72
324.517	30184.28
324.889	30364.98
325.26	30566.83
325.632	30782.08
326.004	31019.81
326.375	31277.92
326.747	31559.68
327.118	31864.44
327.49	32157.85
327.861	32470.93
328.233	32784.08
328.604	33102.89
328.975	33423.87
329.346	33739.23
329.718	34051.54
330.089	34355
330.46	34655.2
330.831	34926.8
331.202	35194.66
331.573	35448.25
331.944	35680.69
332.315	35904.86
332.686	36127.55
333.057	36327.83
333.428	36508.7
333.799	36680.82
334.169	36841.77
334.54	36981.52
334.911	37101.35
335.281	37235.28
335.652	37356.02
336.022	37497.72
336.393	37643.99
336.763	37813.69
337.134	38003.13
337.504	38208.81
337.874	38415.51
338.245	38626.78
338.615	38845.69
338.985	39073.27
339.355	39295.28
339.726	39519.11
340.096	39748.29
340.466	40003.9
340.836	40254.17
341.206	40501.74
341.576	40748.82
341.945	40988.06
342.315	41223.9
342.685	41468.57
343.055	41719.64
343.425	41961.85
343.794	42192.35
344.164	42428.16
344.533	42656.22
344.903	42883.28
345.273	43119.1
345.642	43349.83
346.011	43580.35
346.381	43818.7
346.75	44048.74
347.12	44300.38
347.489	44549.18
347.858	44797.22
348.227	45005.92
348.596	45229.35
348.965	45467.57
349.334	45701.49
349.704	45946.11
350.072	46192.02
350.441	46431.04
350.81	46665.27
351.179	46900.83
351.548	47133.01
351.917	47352.34
352.285	47556.3
352.654	47768.17
353.023	47975.8
353.391	48180.3
353.76	48392.05
354.129	48579.22
354.497	48815.95
354.865	49033.55
355.234	49268.85
355.602	49486.4
355.971	49733.64
356.339	49948.55
356.707	50164.48
357.075	50379.68
357.443	50604.07
357.811	50817.76
358.18	51024.18
358.548	51239.45
358.916	51451.37
359.284	51674.05
359.651	51892.58
360.019	52103.8
360.387	52306.18
360.755	52512.5
361.123	52740.55
361.49	52966.06
361.858	53185.31
362.226	53383.7
362.593	53586.53
362.961	53767.04
363.328	53966.32
363.696	54133.82
364.063	54346.79
364.43	54553.81
364.798	54772.3
365.165	54944
365.532	55133.7
365.899	55318.39
366.267	55487.54
366.634	55637.82
367.001	55799.17
367.368	55935.96
367.735	56124.32
368.102	56307.69
368.469	56494.5
368.835	56671.6
369.202	56836.64
369.569	57033.74
369.936	57226.16
370.303	57409.99
370.669	57608.89
371.036	57776.22
371.402	57986.69
371.769	58176.84
372.135	58325.34
372.502	58448.56
372.868	58599.41
373.235	58740
373.601	58880.85
373.967	59049.06
374.333	59238.4
374.7	59427.69
375.066	59632.1
375.432	59818.16
375.798	59994.73
376.164	60166.05
376.53	60316.32
376.896	60493.88
377.262	60674.48
377.628	60796.79
377.993	60951.63
378.359	61108.02
378.725	61266.31
379.091	61415.09
379.456	61548.79
379.822	61688.19
380.187	61839.85
380.553	62027.85
380.918	62225.38
381.284	62409.19
381.649	62591.41
382.015	62732.69
382.38	62855.4
382.745	63035.21
383.11	63190.88
383.476	63337.81
383.841	63458.95
384.206	63623.2
384.571	63739.63
384.936	63864.59
385.301	64049.83
385.666	64179.46
386.031	64331.53
386.396	64498.48
386.76	64653.59
387.125	64849.21
387.49	65057.68
387.855	65252.64
388.219	65421
388.584	65594.36
388.948	65793.29
389.313	65953.17
389.677	66163.27
390.042	66396.87
390.406	66551.16
390.771	66739.81
391.135	66932.7
391.499	67179.54
391.863	67413.33
392.227	67662.33
392.592	67866.31
392.956	68052.98
393.32	68254.78
393.684	68474.55
394.048	68651.64
394.412	68832.82
394.775	68977.6
395.139	69127.56
395.503	69294.4
395.867	69454.18
396.231	69597.03
396.594	69697.24
396.958	69835.23
397.321	69991.83
397.685	70122.43
398.048	70264.08
398.412	70409.22
398.775	70542.52
399.139	70663.77
399.502	70766.76
399.865	70900.98
400.228	71094.7
400.592	71240.39
400.955	71444.92
401.318	71580.7
401.681	71739.56
402.044	71876.2
402.407	72034.94
402.77	72193.03
403.133	72387.57
403.496	72529.41
403.859	72686.58
404.221	72929.84
404.584	73180.32
404.947	73435.2
405.309	73654.85
405.672	73898.49
406.034	74120.07
406.397	74373.07
406.759	74601.82
407.122	74798.92
407.484	74979.3
407.847	75166.84
408.209	75409.65
408.571	75631.1
408.933	75885.95
409.296	76152.35
409.658	76417.18
410.02	76685.71
410.382	76971.03
410.744	77204.1
411.106	77473.7
411.468	77729.93
411.83	77936.33
412.191	78101.07
412.553	78232.82
412.915	78398.73
413.277	78560.09
413.638	78712.51
414	78845.67
414.361	78976.74
414.723	79151.67
415.084	79315.17
415.446	79433.02
415.807	79525.03
416.169	79585.92
416.53	79627.77
416.891	79673.73
417.252	79729.87
417.614	79760.95
417.975	79774.38
418.336	79791.78
418.697	79810.98
419.058	79828.27
419.419	79840.68
419.78	79855.3
420.141	79865.65
420.501	79873.51
420.862	79878.89
421.223	79883.8
421.584	79900.1
421.944	79907.74
422.305	79912.05
422.666	79914.67
423.026	79916.44
423.387	79922.68
423.747	79928.06
424.107	79934.01
424.468	79938.73
424.828	79941.98
425.188	79945.45
425.549	79949.33
425.909	79953.31
426.269	79952.87
426.629	79955.86
426.989	79958.41
427.349	79960.77
427.709	79963.4
428.069	79964.91
428.429	79969.93
428.789	79973.44
429.149	79977.36
429.508	79979.94
429.868	79983.01
430.228	79986.48
430.587	79988.85
430.947	79991.18
431.306	79994.5
431.666	79997.05
432.025	79999.82
432.385	80001.34
432.744	80002.67
433.103	80006.4
433.463	80008.06
433.822	80012.94
434.181	80015.16
434.54	80016.27
434.899	80017.71
435.258	80020.66
435.618	80022.96
435.976	80022.66
436.335	80024.73
436.694	80025.03
437.053	80026.84
437.412	80027.21
437.771	80026.54
438.129	80027.43
438.488	80027.8
438.847	80027.87
439.205	80027.36
439.564	80027.24
439.922	80027.02
440.281	80027.43
440.639	80029.02
440.997	80028.35
441.356	80029.24
441.714	80030.43
442.072	80029.06
442.431	80029.39
442.789	80027.8
443.147	80027.21
443.505	80027.65
443.863	80025.62
444.221	80025.55
444.579	80025.84
444.937	80026.1
445.294	80028.69
445.652	80029.95
446.01	80031.02
446.368	80031.39
446.725	80032.05
447.083	80033.16
447.441	80034.6
447.798	80035.71
448.156	80034.27
448.513	80035.45
448.87	80035.23
449.228	80035.05
449.585	80036.42
449.942	80036.82
450.3	80038.56
450.657	80039.26
451.014	80039.67
451.371	80041.11
451.728	80041.41
452.085	80041.85
452.442	80042.37
452.799	80041.63
453.156	80039.71
453.513	80040.45
453.869	80041.93
454.226	80043.33
454.583	80043.11
454.939	80042.55
455.296	80042.15
455.653	80042.37
456.009	80042.18
456.366	80042.3
456.722	80042.37
457.078	80043.85
457.435	80044.85
457.791	80044.81
458.147	80043.92
458.503	80043.77
458.86	80044.66
459.216	80045.99
459.572	80046.77
459.928	80047.62
460.284	80048.32
460.64	80050.84
460.996	80049.58
461.351	80047.14
461.707	80045.66
462.063	80046.7
462.419	80047.14
462.774	80046.59
463.13	80047.14
463.486	80046.33
463.841	80046.55
464.197	80046.55
464.552	80046.99
464.908	80045.92
465.263	80045.62
465.618	80046.55
465.974	80048.62
466.329	80049.03
466.684	80047.73
467.039	80046.1
467.394	80045.62
467.749	80045
468.104	80045.11
468.459	80046.55
468.814	80048.8
469.169	80050.02
469.524	80048.77
469.879	80049.43
470.233	80051.58
470.588	80052.28
470.943	80054.98
471.297	80055.94
471.652	80056.13
472.006	80056.16
472.361	80057.27
472.715	80057.39
473.07	80058.2
473.424	80056.46
473.778	80056.79
474.133	80059.27
474.487	80061.71
474.841	80062.97
475.195	80063.86
475.549	80064.53
475.903	80066.26
476.257	80065.89
476.611	80067.37
476.965	80068.34
477.319	80068.89
477.673	80069.74
478.026	80070.37
478.38	80072.11
478.734	80071.41
479.087	80073.26
479.441	80073.55
479.795	80074.44
480.148	80076.29
480.502	80076.96
480.855	80078.77
481.208	80079.77
481.562	80079.62
481.915	80080.03
482.268	80081.55
482.621	80081.58
482.974	80082.95
483.328	80083.69
483.681	80085.21
484.034	80084.77
484.387	80087.43
484.739	80087.69
485.092	80087.8
485.445	80089.54
485.798	80088.25
486.151	80088.54
486.503	80089.95
486.856	80092.28
487.209	80093.65
487.561	80093.09
487.914	80092.13
488.266	80093.09
488.618	80092.17
488.971	80091.24
489.323	80091.24
489.675	80090.28
490.028	80091.02
490.38	80090.02
490.732	80089.36
491.084	80090.43
491.436	80091.1
491.788	80089.13
492.14	80088.91
492.492	80090.1
492.844	80089.62
493.196	80090.1
493.548	80090.69
493.899	80088.5
494.251	80086.91
494.603	80086.32
494.954	80088.36
495.306	80090.17
495.657	80090.8
496.009	80092.17
496.36	80093.06
496.712	80092.13
497.063	80090.72
497.414	80090.98
497.765	80091.98
498.117	80092.02
498.468	80091.35
498.819	80091.17
499.17	80092.09
499.521	80093.02
499.872	80092.39
500.223	80093.5
500.574	80094.83
500.924	80096.28
501.275	80098.35
501.626	80097.68
501.977	80097.61
502.327	80095.68
502.678	80096.35
503.029	80095.31
503.379	80094.54
503.73	80094.61
504.08	80095.76
504.43	80098.27
504.781	80098.16
505.131	80096.72
505.481	80095.98
505.831	80094.68
506.182	80095.39
506.532	80094.13
506.882	80094.43
507.232	80094.54
507.582	80093.5
507.932	80091.46
508.281	80091.35
508.631	80089.58
508.981	80090.76
509.331	80090.61
509.681	80090.65
510.03	80089.76
510.38	80089.1
510.729	80089.17
511.079	80088.1
511.428	80087.8
511.778	80087.99
512.127	80088.54
512.476	80088.36
512.826	80088.58
513.175	80089.76
513.524	80089.02
513.873	80089.39
514.222	80087.84
514.571	80086.99
514.92	80087.13
515.269	80086.99
515.618	80086.28
515.967	80086.43
516.316	80085.99
516.665	80083.36
517.014	80083.03
517.362	80083.51
517.711	80083.51
518.059	80084.1
518.408	80086.36
518.757	80086.91
519.105	80084.62
519.453	80084.14
519.802	80085.99
520.15	80086.76
520.498	80085.91
520.847	80084.84
521.195	80085.4
521.543	80086.58
521.891	80086.28
522.239	80084.91
522.587	80085.21
522.935	80087.06
523.283	80088.47
523.631	80088.32
523.979	80090.84
524.326	80091.06
524.674	80090.43
525.022	80090.76
525.369	80090.28
525.717	80089.21
526.064	80087.95
526.412	80089.47
526.759	80090.43
527.107	80089.32
527.454	80088.32
527.801	80089.32
528.149	80091.54
528.496	80091.72
528.843	80091.5
529.19	80091.09
529.537	80090.46
529.884	80091.28
530.231	80091.06
530.578	80090.61
530.925	80090.5
531.272	80090.72
531.619	80090.5
531.966	80090.21
532.312	80089.72
532.659	80091.02
533.006	80091.2
533.352	80090.09
533.699	80089.47
534.045	80087.02
534.392	80085.58
534.738	80086.99
535.084	80086.47
535.431	80084.95
535.777	80085.99
536.123	80086.65
536.469	80086.62
536.815	80087.39
537.161	80089.02
537.507	80086.95
537.853	80085.21
538.199	80085.69
538.545	80085.95
538.891	80087.28
539.237	80088.39
539.582	80089.02
539.928	80088.17
540.274	80088.65
540.619	80090.1
540.965	80090.95
541.31	80092.35
541.656	80093.87
542.001	80093.61
542.347	80092.98
542.692	80093.5
543.037	80091.43
543.382	80090.69
543.728	80091.5
544.073	80091.95
544.418	80090.72
544.763	80091.02
545.108	80093.13
545.453	80092.83
545.798	80092.13
546.142	80091.5
546.487	80091.09
546.832	80092.02
547.177	80092.02
547.521	80090.28
547.866	80090.98
548.211	80089.06
548.555	80088.17
548.9	80088.06
549.244	80086.8
549.588	80087.47
549.933	80088.1
550.277	80089.24
550.621	80088.47
550.965	80088.5
551.31	80087.84
551.654	80086.58
551.998	80085.88
552.342	80084.25
552.686	80085.1
553.03	80083.8
553.373	80083.77
553.717	80082.06
554.061	80081.06
554.405	80079.73
554.748	80080.14
555.092	80079.62
555.436	80080.81
555.779	80080.07
556.123	80080.03
556.466	80081.29
556.81	80080.32
557.153	80081.21
557.496	80081.58
557.839	80081.84
558.183	80080.84
558.526	80081.29
558.869	80082.36
559.212	80084.1
559.555	80085.14
559.898	80085.95
560.241	80087.91
560.584	80087.02
560.927	80088.91
561.269	80088.28
561.612	80089.61
561.955	80089.5
562.297	80088.95
562.64	80090.02
562.983	80091.65
563.325	80091.39
563.668	80090.54
564.01	80091.35
564.352	80088.69
564.695	80088.21
565.037	80087.84
565.379	80088.84
565.721	80088.21
566.063	80086.87
566.406	80086.73
566.748	80087.17
567.09	80084.8
567.431	80083.95
567.773	80084.62
568.115	80084.84
568.457	80085.39
568.799	80086.8
569.14	80089.69
569.482	80089.98
569.824	80087.76
570.165	80087.95
570.507	80088.65
570.848	80089.02
571.19	80088.13
571.531	80088.43
571.872	80089.28
572.214	80088.91
572.555	80087.95
572.896	80087.02
573.237	80086.43
573.578	80084.21
573.919	80083.51
574.26	80084.58
574.601	80085.32
574.942	80084.25
575.283	80082.4
575.624	80082.03
575.964	80079.88
576.305	80077.51
576.646	80077.29
576.986	80077.77
577.327	80077.7
577.667	80076.4
578.008	80076.66
578.348	80077.62
578.689	80078.4
579.029	80076.44
579.369	80076.4
579.71	80077.73
580.05	80079.14
580.39	80079.14
580.73	80079.21
581.07	80078.47
581.41	80077.81
581.75	80077.25
582.09	80076.29
582.43	80075.26
582.769	80075.88
583.109	80075.07
583.449	80074.07
583.789	80073.26
584.128	80072.59
584.468	80072.48
584.807	80073.44
585.147	80071.93
585.486	80069.56
585.825	80069.26
