Data from 24HourExp_27052025_FLMS018081_22-08-18-952.txt Node
Date: Tue May 27 22:08:18 BST 2025
User: adleo
Spectrometer: FLMS01808
Trigger mode: 0
Integration Time (sec): 4.000000E-1
Scans to average: 10
Electric dark correction enabled: true
Nonlinearity correction enabled: true
Boxcar width: 10
XAxis mode: Wavelengths
Number of Pixels in Spectrum: 2048
>>>>>Begin Spectral Data<<<<<
178.471	-137.16
178.857	-130.65
179.244	-122.94
179.631	-115.05
180.017	-104.86
180.404	-94.53
180.79	-81.33
181.176	-72.98
181.563	-64.07
181.949	-53.36
182.335	-43.46
182.722	-27.97
183.108	-9.07
183.494	17.73
183.88	72.48
184.266	127.6
184.653	184.99
185.039	240.76
185.425	297.75
185.811	351.65
186.197	405.41
186.582	454.95
186.968	508.02
187.354	561.17
187.74	613.66
188.126	663.35
188.511	711.8
188.897	758.68
189.283	806.7
189.668	854.08
190.054	898.05
190.439	943.34
190.825	987.73
191.21	1029.81
191.596	1063.62
191.981	1071.65
192.366	1075.51
192.752	1073.63
193.137	1076.27
193.522	1079.19
193.908	1081.46
194.293	1083.8
194.678	1087.82
195.063	1090.27
195.448	1091.57
195.833	1092.07
196.218	1093.01
196.603	1093.48
196.988	1092.98
197.373	1093.49
197.757	1093.2
198.142	1095.72
198.527	1094.36
198.912	1095.07
199.296	1094.37
199.681	1093.01
200.066	1092.04
200.45	1090.44
200.835	1092.83
201.219	1090.66
201.604	1089.83
201.988	1091.23
202.372	1092.16
202.757	1092.02
203.141	1092.63
203.525	1092.78
203.91	1092.51
204.294	1093.44
204.678	1092.75
205.062	1092.64
205.446	1093.36
205.83	1094.79
206.214	1093.05
206.598	1094.47
206.982	1095.45
207.366	1095.64
207.75	1096.34
208.134	1096.8
208.517	1098
208.901	1097.66
209.285	1100.42
209.669	1100.51
210.052	1101.09
210.436	1099.55
210.819	1100.05
211.203	1099.49
211.586	1097.96
211.97	1098.11
212.353	1096.72
212.737	1098.16
213.12	1100.07
213.503	1099.71
213.886	1100.74
214.27	1102.42
214.653	1104.59
215.036	1104.71
215.419	1107.26
215.802	1110.29
216.185	1113.3
216.568	1117.89
216.951	1119.28
217.334	1118.69
217.717	1123.87
218.1	1125.75
218.482	1129.94
218.865	1133.29
219.248	1137.8
219.631	1143.71
220.013	1148.82
220.396	1159.05
220.778	1164.56
221.161	1170.88
221.544	1178.5
221.926	1185.88
222.308	1193.25
222.691	1200.22
223.073	1210.24
223.455	1218.76
223.838	1228.42
224.22	1238.01
224.602	1248.73
224.984	1260.66
225.366	1275.05
225.749	1289.83
226.131	1303.78
226.513	1316.69
226.895	1331.28
227.276	1346.03
227.658	1360.36
228.04	1375.87
228.422	1387.49
228.804	1404.53
229.186	1418.9
229.567	1435.88
229.949	1450.7
230.331	1467.79
230.712	1486
231.094	1503.99
231.475	1523.31
231.857	1541.59
232.238	1562.08
232.62	1579.89
233.001	1601.14
233.382	1622.98
233.763	1639.25
234.145	1659.72
234.526	1680.91
234.907	1699.6
235.288	1717.86
235.669	1739.11
236.05	1759.95
236.431	1781.01
236.812	1801.62
237.193	1825.19
237.574	1846.97
237.955	1870.13
238.336	1893.51
238.717	1914.89
239.097	1938.23
239.478	1960.93
239.859	1984.99
240.239	2009.52
240.62	2034.03
241.001	2057.42
241.381	2080.66
241.762	2105.11
242.142	2130.7
242.522	2154.87
242.903	2180.74
243.283	2209.22
243.663	2236.76
244.044	2266.23
244.424	2294.74
244.804	2323.3
245.184	2352.97
245.564	2384.92
245.944	2418.2
246.324	2450.94
246.704	2482.23
247.084	2510.65
247.464	2538.93
247.844	2570.27
248.224	2602.27
248.604	2635.39
248.983	2667.41
249.363	2700.69
249.743	2734.15
250.122	2763.22
250.502	2795.35
250.882	2828.45
251.261	2863.43
251.641	2896.38
252.02	2929.04
252.399	2964.65
252.779	3003.03
253.158	3037.73
253.537	3076.07
253.917	3119.87
254.296	3160.9
254.675	3203.85
255.054	3247.98
255.433	3297.22
255.812	3339.31
256.191	3380.22
256.57	3423.44
256.949	3468.66
257.328	3515.49
257.707	3563.13
258.086	3612.96
258.465	3664.05
258.843	3716.81
259.222	3766.9
259.601	3821.07
259.979	3877.76
260.358	3932.14
260.736	3985.25
261.115	4043.84
261.493	4097.63
261.872	4150.77
262.25	4205.59
262.629	4264.05
263.007	4324.19
263.385	4381.95
263.763	4446.22
264.142	4512.78
264.52	4580.1
264.898	4645.96
265.276	4712.32
265.654	4780.17
266.032	4853.62
266.41	4924.41
266.788	4997.7
267.166	5075.76
267.544	5151.68
267.921	5230.4
268.299	5310.84
268.677	5393.52
269.055	5475.86
269.432	5562.16
269.81	5648.07
270.188	5738.6
270.565	5828.38
270.943	5922.68
271.32	6014.05
271.697	6110.28
272.075	6204.85
272.452	6299.04
272.829	6400.05
273.207	6501.55
273.584	6609.15
273.961	6713.71
274.338	6826.7
274.715	6945.21
275.092	7063.57
275.469	7187.53
275.846	7310.7
276.223	7434.56
276.6	7558.75
276.977	7688.12
277.354	7816.49
277.731	7942.17
278.108	8072.79
278.484	8205.08
278.861	8336.57
279.238	8478.22
279.614	8616.94
279.991	8761.37
280.367	8909.85
280.744	9058.06
281.12	9210.71
281.497	9357.84
281.873	9513.25
282.249	9664.14
282.625	9808.52
283.002	9954.55
283.378	10104
283.754	10252.66
284.13	10405.39
284.506	10564.88
284.882	10719.8
285.258	10874.64
285.634	11032.6
286.01	11193.84
286.386	11354.98
286.762	11520.47
287.138	11684.91
287.513	11850.18
287.889	12011.83
288.265	12171.03
288.641	12336.82
289.016	12492.84
289.392	12657.13
289.767	12816.22
290.143	12979.81
290.518	13142.64
290.894	13310.63
291.269	13467.54
291.644	13627.16
292.02	13779.74
292.395	13934.48
292.77	14092.68
293.145	14249.81
293.52	14407.83
293.895	14557.41
294.27	14708.43
294.646	14861.89
295.02	15010.34
295.395	15164.42
295.77	15324.79
296.145	15481.9
296.52	15635.24
296.895	15790.99
297.269	15948.25
297.644	16103.48
298.019	16256.21
298.393	16410.74
298.768	16562.91
299.143	16717.68
299.517	16868.02
299.891	17033.08
300.266	17191.78
300.64	17352.36
301.015	17519.29
301.389	17691.02
301.763	17867.7
302.137	18044.66
302.512	18226.94
302.886	18407.29
303.26	18590.8
303.634	18770.75
304.008	18954.56
304.382	19134.82
304.756	19324.22
305.13	19515.02
305.504	19698.13
305.877	19890.82
306.251	20104.42
306.625	20312.27
306.999	20523.24
307.372	20738.6
307.746	20957.71
308.119	21172.65
308.493	21381.64
308.866	21587.6
309.24	21803.66
309.613	22009.73
309.987	22217.12
310.36	22407.3
310.733	22615.4
311.107	22831.08
311.48	23050.37
311.853	23276.34
312.226	23504.73
312.599	23733.09
312.972	23948.73
313.345	24179.24
313.718	24412.66
314.091	24627.36
314.464	24855.66
314.837	25085.35
315.21	25302.5
315.582	25520.85
315.955	25738.81
316.328	25960.56
316.7	26183.3
317.073	26403.28
317.446	26634.11
317.818	26867.58
318.191	27110.01
318.563	27335.15
318.936	27542.15
319.308	27746.5
319.68	27955.78
320.053	28160.41
320.425	28353.05
320.797	28541.5
321.169	28709.11
321.541	28853.88
321.913	28991.61
322.285	29108.6
322.657	29234.16
323.029	29386.04
323.401	29528.12
323.773	29691.3
324.145	29869.78
324.517	30059.79
324.889	30239.89
325.26	30442.04
325.632	30654.38
326.004	30889.78
326.375	31145.34
326.747	31423.53
327.118	31731.65
327.49	32018.94
327.861	32326.76
328.233	32636.12
328.604	32949.61
328.975	33267.74
329.346	33585.23
329.718	33891.85
330.089	34197.64
330.46	34491.24
330.831	34766.99
331.202	35032.79
331.573	35283.66
331.944	35512.34
332.315	35739.36
332.686	35965.05
333.057	36162.95
333.428	36348.46
333.799	36512.28
334.169	36672.5
334.54	36823.04
334.911	36943.03
335.281	37077.12
335.652	37204.65
336.022	37341.16
336.393	37489.57
336.763	37653.3
337.134	37835.4
337.504	38040.11
337.874	38249.16
338.245	38461.38
338.615	38681.71
338.985	38913.09
339.355	39132.44
339.726	39358.08
340.096	39585.74
340.466	39829.96
340.836	40074.51
341.206	40321.16
341.576	40578.92
341.945	40826.46
342.315	41051.76
342.685	41293.97
343.055	41538.52
343.425	41779.21
343.794	42010.8
344.164	42245.87
344.533	42488.59
344.903	42724.85
345.273	42962.01
345.642	43194.77
346.011	43421.56
346.381	43652.59
346.75	43879.21
347.12	44129.6
347.489	44380.48
347.858	44624.56
348.227	44844.43
348.596	45067.36
348.965	45308.63
349.334	45529.57
349.704	45761.24
350.072	46013.3
350.441	46240.41
350.81	46481.79
351.179	46709.11
351.548	46948.44
351.917	47171.31
352.285	47364.18
352.654	47569.35
353.023	47773.14
353.391	47968.73
353.76	48186.36
354.129	48376.65
354.497	48609.54
354.865	48826.77
355.234	49062.15
355.602	49286.16
355.971	49531.63
356.339	49747.75
356.707	49958.98
357.075	50186.24
357.443	50405.55
357.811	50621.27
358.18	50836.95
358.548	51048.7
358.916	51265.71
359.284	51479.8
359.651	51696.87
360.019	51917.31
360.387	52122.1
360.755	52325.55
361.123	52557.75
361.49	52777.45
361.858	52990.99
362.226	53183.34
362.593	53388.23
362.961	53564.99
363.328	53761.01
363.696	53923.78
364.063	54149.96
364.43	54353
364.798	54563.72
365.165	54747.76
365.532	54927.52
365.899	55118.68
366.267	55289.11
366.634	55438.32
367.001	55607.37
367.368	55741.13
367.735	55922.26
368.102	56099.2
368.469	56293.34
368.835	56466.63
369.202	56626.86
369.569	56829.3
369.936	57021.29
370.303	57208.68
370.669	57415.61
371.036	57580.79
371.402	57789.88
371.769	57967.95
372.135	58123.53
372.502	58252.77
372.868	58401.16
373.235	58546.05
373.601	58680.08
373.967	58847.6
374.333	59034.44
374.7	59215.74
375.066	59422.16
375.432	59606.62
375.798	59792.54
376.164	59960.31
376.53	60108.09
376.896	60280.86
377.262	60452.02
377.628	60586.51
377.993	60735.2
378.359	60874.7
378.725	61031.44
379.091	61174.62
379.456	61303.08
379.822	61433.21
380.187	61584.9
380.553	61768.25
380.918	61966.11
381.284	62146.28
381.649	62319.68
382.015	62459.84
382.38	62580.84
382.745	62750.88
383.11	62904.04
383.476	63039.24
383.841	63172.75
384.206	63338.05
384.571	63465.06
384.936	63596.32
385.301	63769.59
385.666	63904.17
386.031	64062.07
386.396	64238.78
386.76	64391.79
387.125	64586.03
387.49	64791.39
387.855	64980.08
388.219	65157.41
388.584	65332.58
388.948	65527.22
389.313	65697.18
389.677	65904.11
390.042	66141.75
390.406	66294.51
390.771	66483.88
391.135	66674.58
391.499	66905.07
391.863	67138.47
392.227	67383.17
392.592	67586.39
392.956	67787.1
393.32	67986.07
393.684	68206.28
394.048	68373.18
394.412	68558.77
394.775	68710.71
395.139	68861.28
395.503	69025.41
395.867	69172.59
396.231	69313.97
396.594	69414.8
396.958	69554.83
397.321	69721.61
397.685	69847.53
398.048	69996.97
398.412	70136.64
398.775	70270.76
399.139	70393.52
399.502	70501.98
399.865	70638.48
400.228	70839.32
400.592	70966.06
400.955	71157.58
401.318	71295.28
401.681	71460.46
402.044	71598.87
402.407	71755.84
402.77	71914.49
403.133	72102.93
403.496	72256.44
403.859	72414.35
404.221	72665.5
404.584	72895.48
404.947	73130.64
405.309	73338.1
405.672	73573.96
406.034	73799.76
406.397	74062.11
406.759	74292.84
407.122	74485.38
407.484	74663.67
407.847	74835.72
408.209	75085.26
408.571	75311.87
408.933	75562.69
409.296	75817.78
409.658	76080.12
410.02	76349.57
410.382	76650.35
410.744	76897.88
411.106	77170.86
411.468	77430.77
411.83	77642.43
412.191	77830.01
412.553	77983.14
412.915	78170.98
413.277	78347.73
413.638	78509.98
414	78648.22
414.361	78790.29
414.723	78975.3
415.084	79152.92
415.446	79287.35
415.807	79393.29
416.169	79471.69
416.53	79525.29
416.891	79588.21
417.252	79657.76
417.614	79699.51
417.975	79715.66
418.336	79738.59
418.697	79763.42
419.058	79783.52
419.419	79798.13
419.78	79814.24
420.141	79827.01
420.501	79837.51
420.862	79848.78
421.223	79856.37
421.584	79873.33
421.944	79881.7
422.305	79887.64
422.666	79891.66
423.026	79893.5
423.387	79900.06
423.747	79905.82
424.107	79913.6
424.468	79918.36
424.828	79921.49
425.188	79923.93
425.549	79928.51
425.909	79931.91
426.269	79930.28
426.629	79933.75
426.989	79936.48
427.349	79942.06
427.709	79943.61
428.069	79945.97
428.429	79948.56
428.789	79954.02
429.149	79957.46
429.508	79961.22
429.868	79964.88
430.228	79967.35
430.587	79969.86
430.947	79974.93
431.306	79978.95
431.666	79980.69
432.025	79984.05
432.385	79986.97
432.744	79987.89
433.103	79990.89
433.463	79991.96
433.822	79998.42
434.181	80001.23
434.54	80005.74
434.899	80005.15
435.258	80007.47
435.618	80009.25
435.976	80011.09
436.335	80011.28
436.694	80011.72
437.053	80012.94
437.412	80013.39
437.771	80015.05
438.129	80017.04
438.488	80016.3
438.847	80016.3
439.205	80016.82
439.564	80016.56
439.922	80016.27
440.281	80016.86
440.639	80015.68
440.997	80016.05
441.356	80017.38
441.714	80017.6
442.072	80016.75
442.431	80016.64
442.789	80017.41
443.147	80018.19
443.505	80020.04
443.863	80020.33
444.221	80022.03
444.579	80021.89
444.937	80021.63
445.294	80022.4
445.652	80023.33
446.01	80024.7
446.368	80026.92
446.725	80026.73
447.083	80027.69
447.441	80029.65
447.798	80030.76
448.156	80032.54
448.513	80032.42
448.87	80031.39
449.228	80032.5
449.585	80031.24
449.942	80033.05
450.3	80031.68
450.657	80030.83
451.014	80030.17
451.371	80029.39
451.728	80028.54
452.085	80029.54
452.442	80029.32
452.799	80029.13
453.156	80028.95
453.513	80028.1
453.869	80027.88
454.226	80029.39
454.583	80028.51
454.939	80028.54
455.296	80028.51
455.653	80029.43
456.009	80030.39
456.366	80028.84
456.722	80028.76
457.078	80030.47
457.435	80031.46
457.791	80034.02
458.147	80034.94
458.503	80035.42
458.86	80037.23
459.216	80038.05
459.572	80038.49
459.928	80040.08
460.284	80040.26
460.64	80040.71
460.996	80041.74
461.351	80041.19
461.707	80041.23
462.063	80043.44
462.419	80043.63
462.774	80044.26
463.13	80043.59
463.486	80043.55
463.841	80044.55
464.197	80046
464.552	80047.14
464.908	80046.62
465.263	80046.74
465.618	80048.03
465.974	80049.18
466.329	80050.66
466.684	80053.17
467.039	80051.36
467.394	80050.51
467.749	80050.66
468.104	80052.03
468.459	80051.58
468.814	80052.8
469.169	80053.62
469.524	80053.14
469.879	80053.43
470.233	80054.61
470.588	80055.58
470.943	80057.43
471.297	80059.64
471.652	80060.75
472.006	80060.79
472.361	80061.75
472.715	80062.6
473.07	80062.23
473.424	80062.38
473.778	80062.12
474.133	80059.05
474.487	80061.24
474.841	80063.23
475.195	80064.68
475.549	80063.49
475.903	80064.68
476.257	80063.01
476.611	80063.2
476.965	80063.53
477.319	80064.08
477.673	80064.19
478.026	80063.82
478.38	80062.6
478.734	80062.9
479.087	80061.35
479.441	80061.94
479.795	80062.27
480.148	80062.35
480.502	80062.97
480.855	80062.86
481.208	80062.05
481.562	80063.68
481.915	80064.53
482.268	80064.19
482.621	80064.82
482.974	80065.42
483.328	80065.3
483.681	80066.56
484.034	80066.27
484.387	80066.82
484.739	80065.9
485.092	80064.64
485.445	80066.12
485.798	80067.26
486.151	80067.86
486.503	80069.3
486.856	80068.63
487.209	80068.45
487.561	80068.63
487.914	80069.67
488.266	80069.48
488.618	80070.08
488.971	80070.3
489.323	80069.97
489.675	80070.26
490.028	80069.63
490.38	80070.78
490.732	80071.78
491.084	80072.15
491.436	80072.41
491.788	80072.78
492.14	80074.78
492.492	80075.77
492.844	80075.48
493.196	80074.63
493.548	80073.59
493.899	80072.11
494.251	80072.74
494.603	80071.52
494.954	80071.48
495.306	80072
495.657	80072.96
496.009	80073.93
496.36	80074.18
496.712	80073.67
497.063	80074.04
497.414	80073.96
497.765	80072.37
498.117	80071.19
498.468	80070.78
498.819	80072
499.17	80072.96
499.521	80071.15
499.872	80073.52
500.223	80073.67
500.574	80075.37
500.924	80074.74
501.275	80076.33
501.626	80074.93
501.977	80076.85
502.327	80076.52
502.678	80075.96
503.029	80075.04
503.379	80072.85
503.73	80073.63
504.08	80073.15
504.43	80072.48
504.781	80073
505.131	80074.96
505.481	80077.22
505.831	80077.29
506.182	80076.29
506.532	80073.19
506.882	80073.41
507.232	80071.11
507.582	80069.89
507.932	80069.45
508.281	80071.11
508.631	80070.71
508.981	80072.74
509.331	80072.22
509.681	80072.93
510.03	80071.15
510.38	80073.19
510.729	80075.15
511.079	80074.63
511.428	80074.63
511.778	80074.85
512.127	80075.18
512.476	80074.92
512.826	80074.18
513.175	80074.59
513.524	80074.22
513.873	80075.26
514.222	80074.92
514.571	80076.18
514.92	80077.4
515.269	80077.29
515.618	80077.29
515.967	80077.4
516.316	80075.26
516.665	80075
517.014	80074.3
517.362	80074.52
517.711	80073.37
518.059	80074.22
518.408	80073.7
518.757	80074.37
519.105	80073.96
519.453	80073.93
519.802	80074.85
520.15	80074.44
520.498	80073.85
520.847	80074.89
521.195	80076.33
521.543	80077.81
521.891	80076.11
522.239	80075
522.587	80073.78
522.935	80074.52
523.283	80074.59
523.631	80074.52
523.979	80074.55
524.326	80073.85
524.674	80073.7
525.022	80072.3
525.369	80071.11
525.717	80072.59
526.064	80072.89
526.412	80073.96
526.759	80074.33
527.107	80072.3
527.454	80072.41
527.801	80072.85
528.149	80073.48
528.496	80072.19
528.843	80071.74
529.19	80073.37
529.537	80073.52
529.884	80075.41
530.231	80074.78
530.578	80074.85
530.925	80076.18
531.272	80076.66
531.619	80077.44
531.966	80078.96
532.312	80079.25
532.659	80079.22
533.006	80078.81
533.352	80078.81
533.699	80078.81
534.045	80078.7
534.392	80078.33
534.738	80076.52
535.084	80078.14
535.431	80078
535.777	80079.62
536.123	80079.92
536.469	80079.77
536.815	80079.81
537.161	80078.81
537.507	80076.18
537.853	80075.11
538.199	80075.33
538.545	80075
538.891	80075.59
539.237	80076.44
539.582	80077.59
539.928	80078.74
540.274	80077.18
540.619	80075.56
540.965	80074.45
541.31	80073.74
541.656	80075.59
542.001	80076.26
542.347	80074.96
542.692	80073.22
543.037	80072.11
543.382	80071.04
543.728	80070.08
544.073	80070.67
544.418	80070.41
544.763	80073.7
545.108	80074.41
545.453	80073.89
545.798	80074.15
546.142	80074
546.487	80075.07
546.832	80073.63
547.177	80072.3
547.521	80071.08
547.866	80073.11
548.211	80074.33
548.555	80073.41
548.9	80071.15
549.244	80072.63
549.588	80071.37
549.933	80072.11
550.277	80072.45
550.621	80072.3
550.965	80073.11
551.31	80073.52
551.654	80073.15
551.998	80071.6
552.342	80071.56
552.686	80071.45
553.03	80071.41
553.373	80071.86
553.717	80070.04
554.061	80070.89
554.405	80069.93
554.748	80070.45
555.092	80069.63
555.436	80069.93
555.779	80071.82
556.123	80073.89
556.466	80073.52
556.81	80075.33
557.153	80075.89
557.496	80075.11
557.839	80076.48
558.183	80075.81
558.526	80075.29
558.869	80076.55
559.212	80075.81
559.555	80076.4
559.898	80075.44
560.241	80074.52
560.584	80073.96
560.927	80072.89
561.269	80073.7
561.612	80074.67
561.955	80076.44
562.297	80077
562.64	80076.22
562.983	80075.7
563.325	80075.74
563.668	80074.55
564.01	80074.11
564.352	80074.04
564.695	80075.11
565.037	80074.11
565.379	80074.63
565.721	80074.44
566.063	80073.37
566.406	80075.11
566.748	80074.29
567.09	80076.66
567.431	80076.88
567.773	80075.81
568.115	80074.89
568.457	80075.07
568.799	80075.48
569.14	80075.22
569.482	80074.67
569.824	80074.85
570.165	80073.04
570.507	80072.96
570.848	80072.45
571.19	80071.08
571.531	80070.85
571.872	80070
572.214	80070.78
572.555	80070.08
572.896	80068.67
573.237	80069.04
573.578	80067.56
573.919	80067.15
574.26	80065.93
574.601	80065.9
574.942	80065.86
575.283	80065.38
575.624	80064.38
575.964	80064.19
576.305	80064.56
576.646	80064.12
576.986	80063.16
577.327	80064.27
577.667	80062.42
578.008	80062.38
578.348	80062.86
578.689	80062.12
579.029	80063.01
579.369	80061.94
579.71	80060.38
580.05	80060.57
580.39	80060.09
580.73	80059.24
581.07	80059.79
581.41	80057.98
581.75	80057.5
582.09	80057.61
582.43	80058.65
582.769	80058.94
583.109	80057.09
583.449	80057.46
583.789	80055.5
584.128	80056.06
584.468	80055.72
584.807	80055.21
585.147	80054.61
585.486	80053.84
585.825	80054.02
