Data from 24HourExp_27052025_FLMS018081_03-48-22-237.txt Node
Date: Wed May 28 03:48:22 BST 2025
User: adleo
Spectrometer: FLMS01808
Trigger mode: 0
Integration Time (sec): 4.000000E-1
Scans to average: 10
Electric dark correction enabled: true
Nonlinearity correction enabled: true
Boxcar width: 10
XAxis mode: Wavelengths
Number of Pixels in Spectrum: 2048
>>>>>Begin Spectral Data<<<<<
178.471	-128.99
178.857	-123.08
179.244	-116.18
179.631	-107.85
180.017	-100.04
180.404	-90.29
180.79	-79.49
181.176	-69.63
181.563	-61.16
181.949	-50.44
182.335	-39.6
182.722	-26.04
183.108	-8.04
183.494	19.01
183.88	73.61
184.266	127.65
184.653	184.03
185.039	238.34
185.425	295.46
185.811	350.78
186.197	405.07
186.582	455.58
186.968	507.73
187.354	560.01
187.74	609.69
188.126	660.07
188.511	706.97
188.897	753.36
189.283	799.36
189.668	844.33
190.054	887.19
190.439	931.08
190.825	976.95
191.21	1017.63
191.596	1048.31
191.981	1055.75
192.366	1060.78
192.752	1061.08
193.137	1065.74
193.522	1065.43
193.908	1065.73
194.293	1068.46
194.678	1073.3
195.063	1074.96
195.448	1078.35
195.833	1081.03
196.218	1080.89
196.603	1082.39
196.988	1080.53
197.373	1082.48
197.757	1084.61
198.142	1085.58
198.527	1083.8
198.912	1083.08
199.296	1083.2
199.681	1084.42
200.066	1082.45
200.45	1081.46
200.835	1082.68
201.219	1080.86
201.604	1081.07
201.988	1083.08
202.372	1083.29
202.757	1080.61
203.141	1082.14
203.525	1081.07
203.91	1079.88
204.294	1081.83
204.678	1081.73
205.062	1082.69
205.446	1081.05
205.83	1082.21
206.214	1082.69
206.598	1085.97
206.982	1086.22
207.366	1087.14
207.75	1086.41
208.134	1088.57
208.517	1089.82
208.901	1091
209.285	1092.43
209.669	1095.09
210.052	1092.97
210.436	1091.52
210.819	1092.92
211.203	1091.61
211.586	1091.01
211.97	1091.37
212.353	1091.06
212.737	1094.05
213.12	1098.43
213.503	1099.07
213.886	1099.89
214.27	1101.83
214.653	1101.57
215.036	1103.75
215.419	1105.23
215.802	1108.83
216.185	1109.51
216.568	1112.93
216.951	1114.62
217.334	1115.78
217.717	1118.21
218.1	1121.49
218.482	1124.69
218.865	1128.64
219.248	1135.78
219.631	1140.83
220.013	1145.97
220.396	1152.41
220.778	1156.74
221.161	1160.65
221.544	1168.75
221.926	1175.65
222.308	1184.43
222.691	1193.82
223.073	1201.86
223.455	1210.9
223.838	1219.99
224.22	1230.67
224.602	1238.7
224.984	1248.92
225.366	1263.36
225.749	1278.51
226.131	1292.46
226.513	1305.69
226.895	1319.35
227.276	1331.3
227.658	1347.24
228.04	1363.35
228.422	1380.03
228.804	1396.69
229.186	1412.65
229.567	1429.59
229.949	1445.67
230.331	1462.93
230.712	1479.34
231.094	1495.7
231.475	1513.72
231.857	1531.36
232.238	1549.92
232.62	1569.81
233.001	1590.75
233.382	1609.82
233.763	1627.28
234.145	1646.67
234.526	1666.94
234.907	1687.51
235.288	1707.83
235.669	1725.96
236.05	1746.08
236.431	1763.68
236.812	1783.57
237.193	1806.23
237.574	1826.98
237.955	1848.59
238.336	1868.03
238.717	1889.82
239.097	1914.94
239.478	1937.34
239.859	1961.96
240.239	1986.79
240.62	2011.79
241.001	2035.26
241.381	2057.03
241.762	2077.48
242.142	2101
242.522	2123.39
242.903	2146.65
243.283	2171.03
243.663	2196.72
244.044	2224.11
244.424	2252.58
244.804	2279.55
245.184	2308.45
245.564	2337.36
245.944	2367.5
246.324	2397.61
246.704	2428.92
247.084	2455.26
247.464	2487.12
247.844	2517.53
248.224	2548.12
248.604	2577.79
248.983	2606.56
249.363	2640.25
249.743	2672.36
250.122	2702.22
250.502	2736.24
250.882	2769.63
251.261	2803.93
251.641	2837.11
252.02	2870.23
252.399	2902.69
252.779	2939.73
253.158	2973.96
253.537	3010.3
253.917	3054.86
254.296	3094.37
254.675	3133.09
255.054	3175.01
255.433	3214.32
255.812	3252.58
256.191	3293.18
256.57	3335.83
256.949	3381.59
257.328	3422.22
257.707	3466.86
258.086	3514.75
258.465	3560.98
258.843	3610.86
259.222	3662.29
259.601	3715.37
259.979	3770.48
260.358	3824.85
260.736	3878.37
261.115	3936.07
261.493	3991.04
261.872	4040.45
262.25	4096.8
262.629	4152.65
263.007	4212.24
263.385	4272.68
263.763	4337.09
264.142	4399.37
264.52	4463.09
264.898	4527.74
265.276	4597.93
265.654	4669.33
266.032	4736.8
266.41	4805.28
266.788	4876.54
267.166	4949.49
267.544	5023.47
267.921	5095.45
268.299	5171.58
268.677	5251.26
269.055	5332.65
269.432	5418.48
269.81	5503.34
270.188	5588.9
270.565	5678.98
270.943	5769.59
271.32	5861.47
271.697	5953.83
272.075	6051.58
272.452	6145.64
272.829	6243
273.207	6340.41
273.584	6441.81
273.961	6548.82
274.338	6664.92
274.715	6779.31
275.092	6894.75
275.469	7015.34
275.846	7138.1
276.223	7259.97
276.6	7378.15
276.977	7501.84
277.354	7623.93
277.731	7752.4
278.108	7883.53
278.484	8010.97
278.861	8141.69
279.238	8281.54
279.614	8417.03
279.991	8553.81
280.367	8699.39
280.744	8851.53
281.12	9002.11
281.497	9149.58
281.873	9302.63
282.249	9452.58
282.625	9600.05
283.002	9747.86
283.378	9894.07
283.754	10043.9
284.13	10199.32
284.506	10359.99
284.882	10516.38
285.258	10671.13
285.634	10824.6
286.01	10985.28
286.386	11150.21
286.762	11316.6
287.138	11478.13
287.513	11646.36
287.889	11812.61
288.265	11973.81
288.641	12129.55
289.016	12290.43
289.392	12455.5
289.767	12617.13
290.143	12779.1
290.518	12938.26
290.894	13100.73
291.269	13267.15
291.644	13425.36
292.02	13578.62
292.395	13728.78
292.77	13883.35
293.145	14039.33
293.52	14199.73
293.895	14345.1
294.27	14496.19
294.646	14646.89
295.02	14793.56
295.395	14944.6
295.77	15100.77
296.145	15257.47
296.52	15410.64
296.895	15562.9
297.269	15713.8
297.644	15867.05
298.019	16017.01
298.393	16172.83
298.768	16325.33
299.143	16474.18
299.517	16627.48
299.891	16785.69
300.266	16948.4
300.64	17108.52
301.015	17269.77
301.389	17436.15
301.763	17614.99
302.137	17779.35
302.512	17959.02
302.886	18130.75
303.26	18310.68
303.634	18487.62
304.008	18659.77
304.382	18839.73
304.756	19021.36
305.13	19205.24
305.504	19384.45
305.877	19570.19
306.251	19769.83
306.625	19971.58
306.999	20181.54
307.372	20396.27
307.746	20615.69
308.119	20825.54
308.493	21035.35
308.866	21251.09
309.24	21459.58
309.613	21664.29
309.987	21877.22
310.36	22070.86
310.733	22282.63
311.107	22494.57
311.48	22708.27
311.853	22938.67
312.226	23161.97
312.599	23394.86
312.972	23620.16
313.345	23848.28
313.718	24081.57
314.091	24298.24
314.464	24524.55
314.837	24749.42
315.21	24955.99
315.582	25170.32
315.955	25384.45
316.328	25602.91
316.7	25818.23
317.073	26037.45
317.446	26257.47
317.818	26493.62
318.191	26724.57
318.563	26947.63
318.936	27156.35
319.308	27364.68
319.68	27567.57
320.053	27767.69
320.425	27952.53
320.797	28136.69
321.169	28298.88
321.541	28448.01
321.913	28587.79
322.285	28709.73
322.657	28830.17
323.029	28975.38
323.401	29113.93
323.773	29278.02
324.145	29450.57
324.517	29639.62
324.889	29813.41
325.26	30017.83
325.632	30224.5
326.004	30458.1
326.375	30716.83
326.747	30996.68
327.118	31293.57
327.49	31581.21
327.861	31894.01
328.233	32199.83
328.604	32507.04
328.975	32825.36
329.346	33131.11
329.718	33436.75
330.089	33738.12
330.46	34026.43
330.831	34299.85
331.202	34559.18
331.573	34805.68
331.944	35032.22
332.315	35256.88
332.686	35481.17
333.057	35677.64
333.428	35858.17
333.799	36025.52
334.169	36179.13
334.54	36314.15
334.911	36437.09
335.281	36564.61
335.652	36681.04
336.022	36814.89
336.393	36961.88
336.763	37127.53
337.134	37311.24
337.504	37510.48
337.874	37712.76
338.245	37927.28
338.615	38149.25
338.985	38375.69
339.355	38596.22
339.726	38822.44
340.096	39042.65
340.466	39293.65
340.836	39534.41
341.206	39776.15
341.576	40028.11
341.945	40268.49
342.315	40499.28
342.685	40745.35
343.055	40996.01
343.425	41234.94
343.794	41461.73
344.164	41691.93
344.533	41924.1
344.903	42158.79
345.273	42392.76
345.642	42626.94
346.011	42850.65
346.381	43083.95
346.75	43312.37
347.12	43554.98
347.489	43803.63
347.858	44049.61
348.227	44255.16
348.596	44475.71
348.965	44714.92
349.334	44932.63
349.704	45173.53
350.072	45415.56
350.441	45638.75
350.81	45879.54
351.179	46109.48
351.548	46354.2
351.917	46569.98
352.285	46767.52
352.654	46969.67
353.023	47175.73
353.391	47374.42
353.76	47592.09
354.129	47774.51
354.497	48008.21
354.865	48228.2
355.234	48457.97
355.602	48671.23
355.971	48918.98
356.339	49134.53
356.707	49349.28
357.075	49572.59
357.443	49788.76
357.811	50006.09
358.18	50217.5
358.548	50425.13
358.916	50644.75
359.284	50856.58
359.651	51074.89
360.019	51288.26
360.387	51487.28
360.755	51688.07
361.123	51911.25
361.49	52131.98
361.858	52349.4
362.226	52545.09
362.593	52747.76
362.961	52927.02
363.328	53124.98
363.696	53294.14
364.063	53515.1
364.43	53715.81
364.798	53930.92
365.165	54113.35
365.532	54302.72
365.899	54498.89
366.267	54659.67
366.634	54797.09
367.001	54953.74
367.368	55092.23
367.735	55275.86
368.102	55451.18
368.469	55643.87
368.835	55826.75
369.202	55984.32
369.569	56171.69
369.936	56357.93
370.303	56540.47
370.669	56735.9
371.036	56903.31
371.402	57105.23
371.769	57280.06
372.135	57428.45
372.502	57547.59
372.868	57689.5
373.235	57832.74
373.601	57961.62
373.967	58140.85
374.333	58332.66
374.7	58514.22
375.066	58724.57
375.432	58906.85
375.798	59089.39
376.164	59250.19
376.53	59384.96
376.896	59559.3
377.262	59742.1
377.628	59875.5
377.993	60021.2
378.359	60168.84
378.725	60325.15
379.091	60470.52
379.456	60600.41
379.822	60737.44
380.187	60891.23
380.553	61079.41
380.918	61265.37
381.284	61446.78
381.649	61610.46
382.015	61745.82
382.38	61871.89
382.745	62032.85
383.11	62178.55
383.476	62319.55
383.841	62453.82
384.206	62622.91
384.571	62730.87
384.936	62852.29
385.301	63018.26
385.666	63151.47
386.031	63293.31
386.396	63457.82
386.76	63607.21
387.125	63797.61
387.49	63997.19
387.855	64187.32
388.219	64343.28
388.584	64520.86
388.948	64705
389.313	64871.42
389.677	65074.96
390.042	65313.86
390.406	65460.91
390.771	65650.03
391.135	65835.66
391.499	66060.81
391.863	66283.51
392.227	66525.8
392.592	66725.95
392.956	66918.76
393.32	67120.84
393.684	67337.23
394.048	67505.59
394.412	67691.28
394.775	67841.9
395.139	67994.58
395.503	68155.52
395.867	68311.13
396.231	68443.01
396.594	68549.83
396.958	68685.87
397.321	68847.25
397.685	68958.52
398.048	69108.97
398.412	69242.74
398.775	69375.22
399.139	69499.91
399.502	69618.92
399.865	69767.89
400.228	69962.33
400.592	70102.4
400.955	70292.86
401.318	70437.97
401.681	70595.25
402.044	70730.89
402.407	70891.38
402.77	71039.71
403.133	71228.56
403.496	71371.96
403.859	71527.2
404.221	71756.88
404.584	71992.53
404.947	72227.81
405.309	72436.24
405.672	72661.71
406.034	72888.49
406.397	73138.56
406.759	73354.9
407.122	73526.13
407.484	73693.44
407.847	73875.44
408.209	74121.4
408.571	74346.48
408.933	74600.61
409.296	74850.83
409.658	75087.33
410.02	75351.63
410.382	75664.61
410.744	75918.79
411.106	76205.94
411.468	76483.57
411.83	76726.78
412.191	76928.63
412.553	77107.64
412.915	77326.58
413.277	77539.6
413.638	77735.29
414	77907.08
414.361	78092.7
414.723	78325.88
415.084	78545.96
415.446	78721.17
415.807	78862.82
416.169	78975.92
416.53	79067.5
416.891	79183.07
417.252	79316.85
417.614	79400.84
417.975	79446.15
418.336	79500.08
418.697	79558.39
419.058	79609.57
419.419	79646.98
419.78	79687.42
420.141	79721.13
420.501	79748.01
420.862	79772.53
421.223	79793.13
421.584	79828.91
421.944	79848.7
422.305	79861.7
422.666	79870.29
423.026	79873.69
423.387	79883.48
423.747	79893.1
424.107	79904.71
424.468	79914.01
424.828	79919.69
425.188	79925.23
425.549	79932.61
425.909	79938.04
426.269	79937.59
426.629	79942.58
426.989	79947.27
427.349	79950.74
427.709	79953.99
428.069	79959.08
428.429	79965.1
428.789	79970.72
429.149	79977.26
429.508	79982.21
429.868	79985.09
430.228	79988.97
430.587	79993.07
430.947	79999.28
431.306	80005.52
431.666	80008.03
432.025	80010.66
432.385	80014.21
432.744	80014.69
433.103	80016.87
433.463	80019.46
433.822	80027.62
434.181	80032.2
434.54	80035.49
434.899	80037.71
435.258	80041.7
435.618	80043.29
435.976	80044.81
436.335	80045.14
436.694	80044.77
437.053	80045.85
437.412	80047.29
437.771	80049.29
438.129	80050.02
438.488	80050.73
438.847	80051.47
439.205	80052.58
439.564	80053.43
439.922	80053.76
440.281	80055.05
440.639	80057.09
440.997	80056.87
441.356	80056.72
441.714	80055.76
442.072	80055.72
442.431	80057.68
442.789	80058.53
443.147	80058.24
443.505	80057.79
443.863	80057.83
444.221	80058.31
444.579	80058.42
444.937	80057.61
445.294	80057.83
445.652	80058.64
446.01	80059.86
446.368	80059.12
446.725	80059.49
447.083	80060.09
447.441	80059.05
447.798	80059.24
448.156	80059.12
448.513	80059.42
448.87	80059.83
449.228	80058.98
449.585	80059.61
449.942	80058.09
450.3	80057.09
450.657	80056.9
451.014	80058.42
451.371	80059.42
451.728	80059.72
452.085	80061.53
452.442	80063.34
452.799	80063.97
453.156	80064.38
453.513	80063.9
453.869	80063.27
454.226	80063.12
454.583	80062.23
454.939	80063.45
455.296	80064.41
455.653	80064.97
456.009	80065.82
456.366	80067.08
456.722	80068.56
457.078	80067
457.435	80067.19
457.791	80066.45
458.147	80068
458.503	80068
458.86	80069.19
459.216	80069.41
459.572	80067.74
459.928	80066.71
460.284	80066.41
460.64	80066.3
460.996	80065.93
461.351	80067.49
461.707	80069.11
462.063	80070.63
462.419	80069.93
462.774	80072
463.13	80071.33
463.486	80070.71
463.841	80070.56
464.197	80070.41
464.552	80073.26
464.908	80074.18
465.263	80075.33
465.618	80075.4
465.974	80076.59
466.329	80076.03
466.684	80076.7
467.039	80078.25
467.394	80079.99
467.749	80080.81
468.104	80081.32
468.459	80082.36
468.814	80083.54
469.169	80083.03
469.524	80084.25
469.879	80086.06
470.233	80084.02
470.588	80084.91
470.943	80085.84
471.297	80086.28
471.652	80087.02
472.006	80086.58
472.361	80087.32
472.715	80087.28
473.07	80088.28
473.424	80088.39
473.778	80088.87
474.133	80087.61
474.487	80088.73
474.841	80089.24
475.195	80089.17
475.549	80090.95
475.903	80092.43
476.257	80092.46
476.611	80093.87
476.965	80094.17
477.319	80094.65
477.673	80096.76
478.026	80097.16
478.38	80097.94
478.734	80098.24
479.087	80099.61
479.441	80100.87
479.795	80102.09
480.148	80103.72
480.502	80104.2
480.855	80105.79
481.208	80105.9
481.562	80108.42
481.915	80108.38
482.268	80107.75
482.621	80109.2
482.974	80108.97
483.328	80109.49
483.681	80109.42
484.034	80107.9
484.387	80108.79
484.739	80107.9
485.092	80108.49
485.445	80107.86
485.798	80107.9
486.151	80107.9
486.503	80107.79
486.856	80107.49
487.209	80107.01
487.561	80107.64
487.914	80106.05
488.266	80103.05
488.618	80103.72
488.971	80103.53
489.323	80104.38
489.675	80106.9
490.028	80105.12
490.38	80105.01
490.732	80103.87
491.084	80104.72
491.436	80105.86
491.788	80105.31
492.14	80106.94
492.492	80105.16
492.844	80106.38
493.196	80106.79
493.548	80108.6
493.899	80108.46
494.251	80107.12
494.603	80107.6
494.954	80106.46
495.306	80107.12
495.657	80110.79
496.009	80110.2
496.36	80109.27
496.712	80108.6
497.063	80106.68
497.414	80108.53
497.765	80108.12
498.117	80108.34
498.468	80108.46
498.819	80109.68
499.17	80109.75
499.521	80109.09
499.872	80111.34
500.223	80110.64
500.574	80110.27
500.924	80108.38
501.275	80108.79
501.626	80110.6
501.977	80110.71
502.327	80110.2
502.678	80111.94
503.029	80110.45
503.379	80110.38
503.73	80110.86
504.08	80110.9
504.43	80112.12
504.781	80110.34
505.131	80110.9
505.481	80110.57
505.831	80108.86
506.182	80107.2
506.532	80107.42
506.882	80106.97
507.232	80104.2
507.582	80104.27
507.932	80105.64
508.281	80106.46
508.631	80106.09
508.981	80106.16
509.331	80106.57
509.681	80107.83
510.03	80106.68
510.38	80107.05
510.729	80108.49
511.079	80109.01
511.428	80107.97
511.778	80108.31
512.127	80108.79
512.476	80110.68
512.826	80111.05
513.175	80112.9
513.524	80113.34
513.873	80112.6
514.222	80113.23
514.571	80115.23
514.92	80117.08
515.269	80116.79
515.618	80117.79
515.967	80118.12
516.316	80117.53
516.665	80118.6
517.014	80117.01
517.362	80116.64
517.711	80116.16
518.059	80116.42
518.408	80116.23
518.757	80117.3
519.105	80117.82
519.453	80118.49
519.802	80117.19
520.15	80118.27
520.498	80118.01
520.847	80117.01
521.195	80116.45
521.543	80115.93
521.891	80115.38
522.239	80114.49
522.587	80114.79
522.935	80114.23
523.283	80114.49
523.631	80114.31
523.979	80113.27
524.326	80115.42
524.674	80115.64
525.022	80116.67
525.369	80116.9
525.717	80119.49
526.064	80119.67
526.412	80119.01
526.759	80118.97
527.107	80117.53
527.454	80118.71
527.801	80119.27
528.149	80121.16
528.496	80122.71
528.843	80124.12
529.19	80123.56
529.537	80122.9
529.884	80122.56
530.231	80123.08
530.578	80123.75
530.925	80125.04
531.272	80124.93
531.619	80123.56
531.966	80123.23
532.312	80121.86
532.659	80121.19
533.006	80118.97
533.352	80118.08
533.699	80117.3
534.045	80116.49
534.392	80117.56
534.738	80114.75
535.084	80115.19
535.431	80114.16
535.777	80113.79
536.123	80112.6
536.469	80112.27
536.815	80112.27
537.161	80112.56
537.507	80113.42
537.853	80112.71
538.199	80110.86
538.545	80110.94
538.891	80112.53
539.237	80113.97
539.582	80115.53
539.928	80114.64
540.274	80115.27
540.619	80115.01
540.965	80115.56
541.31	80115.9
541.656	80117.9
542.001	80120.6
542.347	80118.64
542.692	80117.38
543.037	80115.64
543.382	80116.31
543.728	80117.19
544.073	80117.23
544.418	80115.38
544.763	80115.68
545.108	80115.08
545.453	80115.34
545.798	80115.49
546.142	80113.9
546.487	80113.53
546.832	80112.6
547.177	80112.38
547.521	80111.83
547.866	80113.9
548.211	80113.64
548.555	80114.34
548.9	80113.53
549.244	80111.49
549.588	80112.38
549.933	80113.49
550.277	80115.27
550.621	80114.6
550.965	80114.19
551.31	80115.08
551.654	80115.97
551.998	80114.42
552.342	80115.38
552.686	80116.45
553.03	80116.34
553.373	80116.19
553.717	80115.64
554.061	80115.23
554.405	80115.56
554.748	80114.79
555.092	80114.75
555.436	80114.19
555.779	80113.42
556.123	80112.45
556.466	80112.6
556.81	80111.12
557.153	80111.97
557.496	80111.08
557.839	80110.68
558.183	80112.16
558.526	80110.2
558.869	80111.01
559.212	80110.64
559.555	80108.6
559.898	80108.83
560.241	80109.31
560.584	80109.57
560.927	80109.94
561.269	80109.71
561.612	80110.46
561.955	80111.16
562.297	80108.71
562.64	80108.79
562.983	80109.53
563.325	80109.9
563.668	80108.6
564.01	80109.46
564.352	80108.9
564.695	80109.01
565.037	80109.16
565.379	80109.05
565.721	80109.6
566.063	80108.01
566.406	80108.57
566.748	80108.57
567.09	80107.46
567.431	80106.72
567.773	80106.6
568.115	80106.09
568.457	80107.64
568.799	80106.72
569.14	80106.83
569.482	80107.6
569.824	80107.6
570.165	80106.27
570.507	80105.86
570.848	80107.34
571.19	80105.9
571.531	80105.12
571.872	80106.2
572.214	80106.49
572.555	80105.49
572.896	80105.2
573.237	80104.98
573.578	80102.42
573.919	80103.53
574.26	80103.35
574.601	80102.79
574.942	80101.64
575.283	80100.79
575.624	80099.53
575.964	80099.02
576.305	80097.9
576.646	80097.65
576.986	80097.61
577.327	80097.72
577.667	80097.16
578.008	80096.5
578.348	80098.5
578.689	80099.87
579.029	80098.61
579.369	80098.05
579.71	80097.57
580.05	80098.31
580.39	80098.64
580.73	80100.2
581.07	80099.24
581.41	80100.13
581.75	80099.5
582.09	80099.79
582.43	80100.87
582.769	80099.09
583.109	80098.02
583.449	80098.5
583.789	80098.68
584.128	80099.53
584.468	80100.24
584.807	80100.42
585.147	80099.61
585.486	80099.13
585.825	80097.24
