Data from 24HourExp_27052025_FLMS018081_20-18-18-963.txt Node
Date: Tue May 27 20:18:18 BST 2025
User: adleo
Spectrometer: FLMS01808
Trigger mode: 0
Integration Time (sec): 4.000000E-1
Scans to average: 10
Electric dark correction enabled: true
Nonlinearity correction enabled: true
Boxcar width: 10
XAxis mode: Wavelengths
Number of Pixels in Spectrum: 2048
>>>>>Begin Spectral Data<<<<<
178.471	-127.03
178.857	-118.96
179.244	-112.64
179.631	-106.23
180.017	-99.78
180.404	-91.25
180.79	-80.77
181.176	-71.04
181.563	-62.25
181.949	-49.69
182.335	-38.67
182.722	-22.27
183.108	-3.25
183.494	23.33
183.88	78.48
184.266	130.86
184.653	187.92
185.039	241.89
185.425	297.84
185.811	354.88
186.197	407.6
186.582	460.03
186.968	513.05
187.354	564.9
187.74	616.24
188.126	667.39
188.511	718.08
188.897	766.79
189.283	815.52
189.668	862.36
190.054	906.26
190.439	952.15
190.825	996.09
191.21	1036.41
191.596	1070.43
191.981	1076.52
192.366	1081.31
192.752	1081.86
193.137	1086.2
193.522	1086.14
193.908	1086.2
194.293	1089.85
194.678	1091.97
195.063	1093.57
195.448	1096.75
195.833	1098.94
196.218	1099.07
196.603	1098.31
196.988	1096.62
197.373	1095.19
197.757	1095.91
198.142	1094.62
198.527	1091.76
198.912	1091.41
199.296	1090.9
199.681	1089.5
200.066	1090.73
200.45	1090.25
200.835	1090.24
201.219	1089.35
201.604	1091.04
201.988	1091.97
202.372	1092.01
202.757	1091.98
203.141	1090.53
203.525	1089.99
203.91	1089.88
204.294	1090.87
204.678	1090.41
205.062	1091.17
205.446	1091.25
205.83	1093.04
206.214	1094.04
206.598	1095.49
206.982	1097.51
207.366	1098.25
207.75	1099.17
208.134	1098.66
208.517	1102.44
208.901	1103.36
209.285	1103.08
209.669	1102.84
210.052	1103.77
210.436	1102.81
210.819	1103.36
211.203	1104.04
211.586	1103.89
211.97	1104.95
212.353	1105.62
212.737	1107.57
213.12	1110.53
213.503	1113.34
213.886	1112.55
214.27	1113.68
214.653	1114.33
215.036	1115.07
215.419	1117.9
215.802	1120.43
216.185	1122.13
216.568	1122.78
216.951	1126.42
217.334	1129.38
217.717	1132.74
218.1	1134.45
218.482	1140.54
218.865	1144.38
219.248	1150.15
219.631	1155.59
220.013	1158.47
220.396	1166.06
220.778	1172.33
221.161	1175.72
221.544	1179.94
221.926	1189.13
222.308	1195.13
222.691	1202.51
223.073	1209.93
223.455	1218.03
223.838	1227.5
224.22	1237.58
224.602	1247.94
224.984	1260.35
225.366	1273.56
225.749	1288.81
226.131	1302.79
226.513	1314.83
226.895	1329.63
227.276	1343.68
227.658	1358.23
228.04	1374.44
228.422	1389.77
228.804	1407.45
229.186	1425.16
229.567	1445.55
229.949	1460.84
230.331	1479.82
230.712	1499.37
231.094	1518.87
231.475	1538.42
231.857	1557.7
232.238	1578.7
232.62	1599.06
233.001	1617.49
233.382	1639.03
233.763	1656.95
234.145	1678.62
234.526	1698.96
234.907	1719.75
235.288	1739.65
235.669	1760.44
236.05	1781.98
236.431	1801.83
236.812	1822.3
237.193	1844.4
237.574	1865.69
237.955	1889.42
238.336	1913.48
238.717	1936.23
239.097	1960.21
239.478	1984.58
239.859	2006.64
240.239	2031.93
240.62	2056.83
241.001	2082.1
241.381	2105.42
241.762	2130.97
242.142	2154.83
242.522	2182.14
242.903	2206.57
243.283	2235.66
243.663	2262.6
244.044	2293.52
244.424	2324.41
244.804	2354.3
245.184	2386.78
245.564	2416.05
245.944	2445.99
246.324	2477.12
246.704	2508.41
247.084	2536.68
247.464	2568.19
247.844	2601.44
248.224	2632.3
248.604	2666.7
248.983	2698.41
249.363	2732.31
249.743	2764.56
250.122	2797.17
250.502	2829.17
250.882	2865.48
251.261	2897.36
251.641	2931.92
252.02	2965.54
252.399	2999.21
252.779	3036.34
253.158	3070.92
253.537	3111.53
253.917	3156.36
254.296	3196.05
254.675	3238.19
255.054	3282.69
255.433	3327.58
255.812	3368.97
256.191	3409.92
256.57	3452.34
256.949	3498.02
257.328	3543.53
257.707	3592.53
258.086	3641.39
258.465	3690.93
258.843	3742.59
259.222	3794.23
259.601	3851.75
259.979	3906.58
260.358	3960.51
260.736	4016.66
261.115	4076.17
261.493	4131.76
261.872	4186.1
262.25	4243.53
262.629	4300.98
263.007	4361.01
263.385	4420.58
263.763	4484.55
264.142	4549.18
264.52	4615.22
264.898	4683.87
265.276	4752.54
265.654	4823.01
266.032	4894.15
266.41	4965.25
266.788	5037.02
267.166	5118.33
267.544	5193.7
267.921	5270.78
268.299	5352.31
268.677	5432.28
269.055	5513.97
269.432	5601.77
269.81	5687.64
270.188	5775.6
270.565	5866.4
270.943	5958.47
271.32	6049.21
271.697	6148.42
272.075	6247.2
272.452	6346.3
272.829	6444.67
273.207	6546.25
273.584	6651.97
273.961	6759.42
274.338	6874.45
274.715	6995.1
275.092	7111.92
275.469	7233.39
275.846	7357.31
276.223	7484.99
276.6	7611.48
276.977	7740.97
277.354	7866.5
277.731	7996.53
278.108	8129.87
278.484	8263.06
278.861	8400.69
279.238	8545.66
279.614	8684.33
279.991	8826.07
280.367	8970.29
280.744	9120.8
281.12	9274.56
281.497	9422.05
281.873	9576.57
282.249	9727.07
282.625	9871.86
283.002	10021.3
283.378	10170.65
283.754	10323.47
284.13	10475.5
284.506	10631.68
284.882	10789.47
285.258	10948.58
285.634	11106.29
286.01	11273.74
286.386	11435.64
286.762	11601.91
287.138	11767.91
287.513	11933.2
287.889	12100.93
288.265	12263.72
288.641	12422
289.016	12581.07
289.392	12746.78
289.767	12911.88
290.143	13081.21
290.518	13242.88
290.894	13406.88
291.269	13565.45
291.644	13725.31
292.02	13881.02
292.395	14037.61
292.77	14196.48
293.145	14356.56
293.52	14515.18
293.895	14663.02
294.27	14819.08
294.646	14974.05
295.02	15119.33
295.395	15273.7
295.77	15430.98
296.145	15591.48
296.52	15750.33
296.895	15911.61
297.269	16069.43
297.644	16223.32
298.019	16373.02
298.393	16530.98
298.768	16686.01
299.143	16846.65
299.517	16995.68
299.891	17156.02
300.266	17318.95
300.64	17476.92
301.015	17636.57
301.389	17808.8
301.763	17986.61
302.137	18154.75
302.512	18330.68
302.886	18513.6
303.26	18698.12
303.634	18874.98
304.008	19053.94
304.382	19239.98
304.756	19422.58
305.13	19613.91
305.504	19798.13
305.877	19993.74
306.251	20203.66
306.625	20412.35
306.999	20623.14
307.372	20847.55
307.746	21072.82
308.119	21289.33
308.493	21503.56
308.866	21717.2
309.24	21934.55
309.613	22142.96
309.987	22358.51
310.36	22558.64
310.733	22765.96
311.107	22986.22
311.48	23211.8
311.853	23442.79
312.226	23669.68
312.599	23902.74
312.972	24125.69
313.345	24360.63
313.718	24592.36
314.091	24809.22
314.464	25036.77
314.837	25264.52
315.21	25482.68
315.582	25698.81
315.955	25913.02
316.328	26138.12
316.7	26361.07
317.073	26579.61
317.446	26801.98
317.818	27038.77
318.191	27276.43
318.563	27506.95
318.936	27721.43
319.308	27925.93
319.68	28131.27
320.053	28329.81
320.425	28517.31
320.797	28706.42
321.169	28871.31
321.541	29020.97
321.913	29163.06
322.285	29281.75
322.657	29401.96
323.029	29548.76
323.401	29696.81
323.773	29866.08
324.145	30038.81
324.517	30233.87
324.889	30412.34
325.26	30622.3
325.632	30840.58
326.004	31079.58
326.375	31334.75
326.747	31608.09
327.118	31915.75
327.49	32211.15
327.861	32527.18
328.233	32840.14
328.604	33154.73
328.975	33472.65
329.346	33783.5
329.718	34096.91
330.089	34407.77
330.46	34710.73
330.831	34982.62
331.202	35239.17
331.573	35488.36
331.944	35721.16
332.315	35947.44
332.686	36177.21
333.057	36380.97
333.428	36562.63
333.799	36730.19
334.169	36892.14
334.54	37031.92
334.911	37151.2
335.281	37283.16
335.652	37408.83
336.022	37543.88
336.393	37688.47
336.763	37858.41
337.134	38050.04
337.504	38246.12
337.874	38454.64
338.245	38669.54
338.615	38895.53
338.985	39128.19
339.355	39352.68
339.726	39579.91
340.096	39803.92
340.466	40049.89
340.836	40292.67
341.206	40540.56
341.576	40791.85
341.945	41036.24
342.315	41276.06
342.685	41524.52
343.055	41772.77
343.425	42013.04
343.794	42248.96
344.164	42484.99
344.533	42726.64
344.903	42958.57
345.273	43199.46
345.642	43424.67
346.011	43658.61
346.381	43893.43
346.75	44129.77
347.12	44373.84
347.489	44625.5
347.858	44869.79
348.227	45083.65
348.596	45310.83
348.965	45555.11
349.334	45788.6
349.704	46033.53
350.072	46279.04
350.441	46513.46
350.81	46755.47
351.179	46991.03
351.548	47233.83
351.917	47454.42
352.285	47641.16
352.654	47851.85
353.023	48057.75
353.391	48264.44
353.76	48475
354.129	48661.44
354.497	48893.37
354.865	49115.27
355.234	49346.67
355.602	49568.76
355.971	49822.77
356.339	50033.65
356.707	50241.91
357.075	50460.14
357.443	50674.8
357.811	50891
358.18	51101.82
358.548	51311.54
358.916	51525.09
359.284	51739.17
359.651	51954.27
360.019	52179.22
360.387	52374.23
360.755	52573.97
361.123	52804.26
361.49	53024.49
361.858	53240.51
362.226	53435.23
362.593	53638.68
362.961	53824.84
363.328	54024.58
363.696	54189.13
364.063	54416.7
364.43	54622.71
364.798	54833.39
365.165	55018.15
365.532	55201.18
365.899	55389.14
366.267	55558.35
366.634	55710.15
367.001	55873.15
367.368	56014
367.735	56196.78
368.102	56380.08
368.469	56581.74
368.835	56756.89
369.202	56924.24
369.569	57121.3
369.936	57314.75
370.303	57503.26
370.669	57704.58
371.036	57874.91
371.402	58082.24
371.769	58255.93
372.135	58408.71
372.502	58542.1
372.868	58682.87
373.235	58831.67
373.601	58969.44
373.967	59137.86
374.333	59318.87
374.7	59506.91
375.066	59715.93
375.432	59908.29
375.798	60089.56
376.164	60257.87
376.53	60408.71
376.896	60580.22
377.262	60759.86
377.628	60884.52
377.993	61035
378.359	61177.05
378.725	61329.62
379.091	61485.76
379.456	61622.56
379.822	61758.39
380.187	61909.54
380.553	62107.59
380.918	62301.66
381.284	62483.71
381.649	62665.09
382.015	62811.39
382.38	62934.6
382.745	63106.7
383.11	63255.94
383.476	63402.25
383.841	63535.44
384.206	63695.76
384.571	63817.67
384.936	63949.17
385.301	64132.45
385.666	64265.09
386.031	64416.26
386.396	64581.56
386.76	64724.09
387.125	64923.4
387.49	65126.37
387.855	65322.19
388.219	65493.58
388.584	65673.55
388.948	65871.17
389.313	66036.91
389.677	66250.89
390.042	66486.13
390.406	66640.02
390.771	66832.55
391.135	67021.79
391.499	67252.24
391.863	67495.15
392.227	67740.98
392.592	67937.08
392.956	68133.09
393.32	68336.76
393.684	68564.39
394.048	68744.37
394.412	68931.65
394.775	69076.93
395.139	69231.64
395.503	69392.85
395.867	69548.26
396.231	69694.33
396.594	69793.1
396.958	69937.09
397.321	70096.31
397.685	70223.43
398.048	70374.84
398.412	70511.84
398.775	70645.23
399.139	70765.88
399.502	70877.14
399.865	71013.06
400.228	71218.2
400.592	71360.19
400.955	71562.99
401.318	71692.83
401.681	71859.16
402.044	72004.14
402.407	72163.84
402.77	72326.42
403.133	72518.14
403.496	72650.28
403.859	72800.61
404.221	73047.39
404.584	73283.49
404.947	73520.42
405.309	73740.03
405.672	73977.6
406.034	74203.29
406.397	74463.11
406.759	74697.28
407.122	74887.14
407.484	75072.37
407.847	75257.77
408.209	75506.52
408.571	75725.46
408.933	75983.07
409.296	76240.26
409.658	76498.37
410.02	76762.21
410.382	77043.37
410.744	77274.9
411.106	77549.75
411.468	77802.13
411.83	78007.01
412.191	78172.45
412.553	78313.28
412.915	78476.48
413.277	78634.53
413.638	78782.04
414	78908.9
414.361	79035.27
414.723	79199.72
415.084	79355.46
415.446	79464.98
415.807	79544.97
416.169	79604.24
416.53	79646.03
416.891	79690.34
417.252	79742.39
417.614	79771.76
417.975	79783.29
418.336	79799.76
418.697	79818.57
419.058	79833.66
419.419	79844.16
419.78	79858.27
420.141	79868.4
420.501	79874.37
420.862	79879.94
421.223	79883.66
421.584	79898.87
421.944	79906.29
422.305	79910.79
422.666	79915.4
423.026	79918.21
423.387	79923.66
423.747	79927.02
424.107	79930.97
424.468	79936.98
424.828	79938.46
425.188	79939.05
425.549	79943.33
425.909	79947.43
426.269	79944.11
426.629	79947.47
426.989	79948.69
427.349	79950.57
427.709	79950.79
428.069	79953.34
428.429	79955.74
428.789	79960.17
429.149	79961.43
429.508	79963.61
429.868	79965.97
430.228	79968.45
430.587	79970
430.947	79972.92
431.306	79978.38
431.666	79981.19
432.025	79982.34
432.385	79984.44
432.744	79986.92
433.103	79987.77
433.463	79989.13
433.822	79994.56
434.181	79996.19
434.54	79998.66
434.899	79999.77
435.258	80002.25
435.618	80005.31
435.976	80007.97
436.335	80009.08
436.694	80012.26
437.053	80012.52
437.412	80013.19
437.771	80014.07
438.129	80015.15
438.488	80016.59
438.847	80016.25
439.205	80017.62
439.564	80018.21
439.922	80019.4
440.281	80019.29
440.639	80019.47
440.997	80019.17
441.356	80020.65
441.714	80020.58
442.072	80020.02
442.431	80019.43
442.789	80020.14
443.147	80019.43
443.505	80019.8
443.863	80019.95
444.221	80018.43
444.579	80017.14
444.937	80016.44
445.294	80016.51
445.652	80017.03
446.01	80018.44
446.368	80016.77
446.725	80016.66
447.083	80017.47
447.441	80017.22
447.798	80018.8
448.156	80021.25
448.513	80021.73
448.87	80022.1
449.228	80022.43
449.585	80023.28
449.942	80024.2
450.3	80024.5
450.657	80023.72
451.014	80024.83
451.371	80024.91
451.728	80024.72
452.085	80026.35
452.442	80027.49
452.799	80027.46
453.156	80026.83
453.513	80025.76
453.869	80027.86
454.226	80028.19
454.583	80029.05
454.939	80029.93
455.296	80031.12
455.653	80031.56
456.009	80033.04
456.366	80032.23
456.722	80032.71
457.078	80032.67
457.435	80032.37
457.791	80033.22
458.147	80034.52
458.503	80034.22
458.86	80034.04
459.216	80034.26
459.572	80034.41
459.928	80035.52
460.284	80036
460.64	80036.88
460.996	80037.51
461.351	80038.55
461.707	80039.73
462.063	80040.18
462.419	80041.43
462.774	80042.36
463.13	80040.32
463.486	80040.29
463.841	80041.47
464.197	80042.36
464.552	80043.13
464.908	80044.95
465.263	80045.54
465.618	80045.32
465.974	80045.98
466.329	80047.31
466.684	80047.46
467.039	80049.05
467.394	80049.94
467.749	80051.38
468.104	80052.68
468.459	80053.34
468.814	80053.6
469.169	80053.34
469.524	80053.64
469.879	80053.75
470.233	80051.83
470.588	80052.53
470.943	80053.3
471.297	80052.16
471.652	80052.2
472.006	80053.64
472.361	80053.64
472.715	80053.97
473.07	80055.45
473.424	80054.3
473.778	80054.19
474.133	80056.49
474.487	80057.89
474.841	80056.89
475.195	80056.45
475.549	80057.52
475.903	80057.52
476.257	80057.08
476.611	80057.74
476.965	80057.6
477.319	80058.71
477.673	80060.11
478.026	80062.59
478.38	80063.15
478.734	80064.18
479.087	80065.11
479.441	80065.11
479.795	80065.4
480.148	80068.03
480.502	80068.18
480.855	80070.43
481.208	80072.4
481.562	80073.8
481.915	80072.99
482.268	80073.32
482.621	80075.54
482.974	80075.84
483.328	80076.84
483.681	80077.98
484.034	80077.09
484.387	80078.17
484.739	80077.13
485.092	80078.76
485.445	80078.69
485.798	80079.24
486.151	80080.91
486.503	80082.24
486.856	80083.13
487.209	80083.9
487.561	80082.27
487.914	80082.72
488.266	80082.57
488.618	80082.31
488.971	80081.42
489.323	80081.5
489.675	80083.98
490.028	80082.5
490.38	80081.98
490.732	80081.83
491.084	80082.94
491.436	80083.42
491.788	80083.27
492.14	80084.68
492.492	80084.35
492.844	80084.49
493.196	80084.09
493.548	80083.38
493.899	80082.98
494.251	80082.98
494.603	80083.75
494.954	80082.13
495.306	80080.05
495.657	80080.05
496.009	80080.46
496.36	80080.13
496.712	80081.09
497.063	80079.46
497.414	80080.05
497.765	80079.68
498.117	80078.87
498.468	80077.87
498.819	80077.43
499.17	80077.24
499.521	80075.98
499.872	80075.32
500.223	80074.65
500.574	80073.84
500.924	80074.69
501.275	80074.61
501.626	80073.39
501.977	80073.73
502.327	80074.98
502.678	80076.72
503.029	80076.65
503.379	80074.69
503.73	80074.8
504.08	80072.91
504.43	80073.13
504.781	80071.76
505.131	80072.32
505.481	80072.17
505.831	80071.51
506.182	80073.02
506.532	80072.28
506.882	80071.73
507.232	80072.28
507.582	80071.25
507.932	80072.76
508.281	80071.88
508.631	80072.58
508.981	80073.47
509.331	80072.91
509.681	80073.65
510.03	80073.13
510.38	80073.58
510.729	80075.47
511.079	80075.65
511.428	80074.54
511.778	80074.58
512.127	80075.58
512.476	80074.39
512.826	80075.35
513.175	80075.13
513.524	80075.98
513.873	80076.35
514.222	80077.09
514.571	80077.43
514.92	80079.35
515.269	80076.98
515.618	80077.65
515.967	80077.24
516.316	80076.54
516.665	80075.61
517.014	80075.95
517.362	80078.43
517.711	80079.32
518.059	80077.13
518.408	80077.17
518.757	80078.61
519.105	80079.28
519.453	80079.94
519.802	80081.35
520.15	80082.9
520.498	80083.16
520.847	80081.57
521.195	80083.16
521.543	80083.46
521.891	80083.68
522.239	80084.2
522.587	80086.12
522.935	80086.72
523.283	80085.57
523.631	80085.68
523.979	80086.16
524.326	80085.01
524.674	80084.2
525.022	80083.31
525.369	80086.75
525.717	80086.53
526.064	80086.31
526.412	80086.49
526.759	80085.64
527.107	80083.61
527.454	80080.09
527.801	80079.94
528.149	80080.13
528.496	80078.54
528.843	80079.32
529.19	80077.65
529.537	80076.65
529.884	80076.69
530.231	80077.5
530.578	80077.87
530.925	80078.13
531.272	80078.02
531.619	80079.54
531.966	80079.02
532.312	80079.06
532.659	80075.84
533.006	80076.13
533.352	80075.54
533.699	80075.54
534.045	80075.91
534.392	80077.8
534.738	80078.06
535.084	80078.72
535.431	80078.46
535.777	80078.91
536.123	80078.09
536.469	80078.8
536.815	80077.83
537.161	80078.57
537.507	80074.95
537.853	80074.91
538.199	80075.02
538.545	80075.02
538.891	80073.5
539.237	80073.1
539.582	80072.99
539.928	80072.69
540.274	80071.51
540.619	80072.91
540.965	80072.73
541.31	80072.32
541.656	80071.73
542.001	80074.95
542.347	80074.61
542.692	80073.58
543.037	80072.25
543.382	80071.91
543.728	80071.77
544.073	80070.95
544.418	80070.66
544.763	80071.17
545.108	80071.66
545.453	80071.03
545.798	80071.36
546.142	80070.84
546.487	80069.88
546.832	80068.03
547.177	80069.77
547.521	80071.36
547.866	80070.73
548.211	80069.21
548.555	80069.62
548.9	80069.29
549.244	80067.21
549.588	80067.58
549.933	80068.84
550.277	80070.17
550.621	80070.21
550.965	80070.58
551.31	80072.58
551.654	80071.54
551.998	80074.47
552.342	80073.58
552.686	80074.5
553.03	80074.69
553.373	80075.32
553.717	80075.43
554.061	80076.13
554.405	80076.39
554.748	80076.13
555.092	80077.13
555.436	80076.8
555.779	80076.21
556.123	80076.43
556.466	80076.28
556.81	80075.95
557.153	80075.69
557.496	80075.21
557.839	80075.65
558.183	80073.76
558.526	80072.14
558.869	80073.32
559.212	80071.21
559.555	80070.43
559.898	80069.03
560.241	80068.92
560.584	80069.36
560.927	80069.84
561.269	80069.47
561.612	80069.32
561.955	80069.4
562.297	80068.66
562.64	80070.29
562.983	80071.17
563.325	80071.73
563.668	80072.14
564.01	80072.84
564.352	80072.28
564.695	80072.76
565.037	80073.47
565.379	80074.39
565.721	80073.8
566.063	80072.51
566.406	80072.65
566.748	80072.73
567.09	80072.76
567.431	80071.58
567.773	80069.43
568.115	80067.62
568.457	80068.84
568.799	80068.07
569.14	80067.77
569.482	80066.99
569.824	80068.18
570.165	80067.29
570.507	80066.4
570.848	80065.85
571.19	80064.18
571.531	80064.66
571.872	80065.55
572.214	80063.92
572.555	80064.66
572.896	80064.96
573.237	80064.18
573.578	80061.74
573.919	80061.26
574.26	80063.04
574.601	80063.48
574.942	80063.33
575.283	80065.7
575.624	80065.18
575.964	80065.29
576.305	80062.96
576.646	80062.78
576.986	80061.15
577.327	80061.26
577.667	80061.56
578.008	80061.81
578.348	80062.81
578.689	80062.41
579.029	80058.6
579.369	80059.15
579.71	80058.15
580.05	80058.86
580.39	80059.3
580.73	80062.44
581.07	80062.96
581.41	80061.59
581.75	80061.55
582.09	80061.41
582.43	80060.11
582.769	80060.04
583.109	80059.45
583.449	80060.59
583.789	80060.56
584.128	80059.78
584.468	80059
584.807	80059.15
585.147	80059.41
585.486	80058.11
