Data from 24HourExp_27052025_FLMS018081_23-28-18-727.txt Node
Date: Tue May 27 23:28:18 BST 2025
User: adleo
Spectrometer: FLMS01808
Trigger mode: 0
Integration Time (sec): 4.000000E-1
Scans to average: 10
Electric dark correction enabled: true
Nonlinearity correction enabled: true
Boxcar width: 10
XAxis mode: Wavelengths
Number of Pixels in Spectrum: 2048
>>>>>Begin Spectral Data<<<<<
178.471	-128.44
178.857	-120.62
179.244	-113.11
179.631	-104.92
180.017	-96.38
180.404	-88.25
180.79	-77.38
181.176	-69.63
181.563	-60.9
181.949	-49.7
182.335	-39.36
182.722	-23.94
183.108	-5.9
183.494	19.75
183.88	72.89
184.266	127.38
184.653	183.56
185.039	237.13
185.425	291.92
185.811	346.58
186.197	398.24
186.582	450.78
186.968	503.3
187.354	554.5
187.74	604.3
188.126	653.36
188.511	703.51
188.897	750.63
189.283	799.35
189.668	845.24
190.054	888.62
190.439	933.97
190.825	976.99
191.21	1019.82
191.596	1052.99
191.981	1061.53
192.366	1065.6
192.752	1067.51
193.137	1071.86
193.522	1073.47
193.908	1073.25
194.293	1079.33
194.678	1082.46
195.063	1083.49
195.448	1085.91
195.833	1086.39
196.218	1088.24
196.603	1088.07
196.988	1087.7
197.373	1087.87
197.757	1088.22
198.142	1088.89
198.527	1086.45
198.912	1086.05
199.296	1085.38
199.681	1083.37
200.066	1081.74
200.45	1081.13
200.835	1082.25
201.219	1080.18
201.604	1080.21
201.988	1082.22
202.372	1082.12
202.757	1081.92
203.141	1083.06
203.525	1082.32
203.91	1083.37
204.294	1083.72
204.678	1083.99
205.062	1084.71
205.446	1084.81
205.83	1085.63
206.214	1084.53
206.598	1084.46
206.982	1085.9
207.366	1085.95
207.75	1087.53
208.134	1090.31
208.517	1092.85
208.901	1092.39
209.285	1095.07
209.669	1096.54
210.052	1095.29
210.436	1095.73
210.819	1097.69
211.203	1098.35
211.586	1098.81
211.97	1098.94
212.353	1099.61
212.737	1101.03
213.12	1102.41
213.503	1102.39
213.886	1103.8
214.27	1106.09
214.653	1109.58
215.036	1110.94
215.419	1112.23
215.802	1115.32
216.185	1116.78
216.568	1119.22
216.951	1121.57
217.334	1124.45
217.717	1127.08
218.1	1130.62
218.482	1132.41
218.865	1134.3
219.248	1136.91
219.631	1142.05
220.013	1148.86
220.396	1156.85
220.778	1162.83
221.161	1167.12
221.544	1174.95
221.926	1183.32
222.308	1191.85
222.691	1199.73
223.073	1207.26
223.455	1215.56
223.838	1226.01
224.22	1235.17
224.602	1244.87
224.984	1256.24
225.366	1265.9
225.749	1280.78
226.131	1294.01
226.513	1308.23
226.895	1323.75
227.276	1338.58
227.658	1354.37
228.04	1369.41
228.422	1382.79
228.804	1397.97
229.186	1416.91
229.567	1435.7
229.949	1451.56
230.331	1469.16
230.712	1487.18
231.094	1506.25
231.475	1525.47
231.857	1543.96
232.238	1562.94
232.62	1582.54
233.001	1604
233.382	1626.57
233.763	1643.55
234.145	1665.56
234.526	1687.21
234.907	1705.34
235.288	1725.22
235.669	1745.62
236.05	1764.76
236.431	1783.21
236.812	1803.76
237.193	1824.51
237.574	1844.17
237.955	1867.76
238.336	1888.2
238.717	1910.07
239.097	1933.86
239.478	1956.69
239.859	1979.3
240.239	2003.54
240.62	2027
241.001	2047.97
241.381	2071.71
241.762	2094.43
242.142	2116.77
242.522	2139.11
242.903	2167.13
243.283	2194.65
243.663	2221.58
244.044	2251.6
244.424	2283.76
244.804	2313.26
245.184	2341.94
245.564	2371.84
245.944	2402.67
246.324	2436.44
246.704	2467.28
247.084	2496.05
247.464	2526.17
247.844	2559.3
248.224	2591.42
248.604	2624.63
248.983	2658.03
249.363	2689.53
249.743	2724.06
250.122	2756.77
250.502	2790.38
250.882	2820.32
251.261	2852.45
251.641	2884.26
252.02	2917.65
252.399	2950.61
252.779	2985.41
253.158	3024.39
253.537	3064.68
253.917	3106.58
254.296	3146.61
254.675	3190.03
255.054	3234.13
255.433	3279.58
255.812	3319.34
256.191	3361.69
256.57	3407.32
256.949	3452.83
257.328	3499.06
257.707	3543.66
258.086	3590.4
258.465	3639.9
258.843	3694.72
259.222	3746.47
259.601	3802.81
259.979	3857.38
260.358	3912.58
260.736	3967.98
261.115	4021.17
261.493	4074.02
261.872	4127.1
262.25	4182.96
262.629	4237.79
263.007	4295.73
263.385	4356.24
263.763	4419.8
264.142	4484.88
264.52	4546.62
264.898	4611.27
265.276	4677.48
265.654	4749.65
266.032	4823.46
266.41	4894.8
266.788	4964.51
267.166	5043.26
267.544	5117.83
267.921	5195.59
268.299	5277.53
268.677	5358.47
269.055	5444.97
269.432	5530.2
269.81	5614.72
270.188	5702.74
270.565	5794.33
270.943	5888.29
271.32	5977.41
271.697	6072.09
272.075	6167.68
272.452	6266.07
272.829	6367.34
273.207	6467.94
273.584	6573.68
273.961	6678.06
274.338	6790.64
274.715	6909.52
275.092	7022.64
275.469	7141.53
275.846	7263.34
276.223	7386.22
276.6	7509.58
276.977	7633.3
277.354	7762.62
277.731	7892.66
278.108	8024.27
278.484	8156.34
278.861	8288.31
279.238	8429.94
279.614	8569.01
279.991	8710.02
280.367	8857.72
280.744	9007.32
281.12	9158.19
281.497	9306.78
281.873	9460.5
282.249	9608.7
282.625	9753.08
283.002	9903.77
283.378	10055.76
283.754	10209.21
284.13	10363.41
284.506	10520.58
284.882	10678.89
285.258	10836.17
285.634	10993.85
286.01	11156.92
286.386	11314.54
286.762	11475.38
287.138	11641.24
287.513	11807.74
287.889	11971.86
288.265	12130.19
288.641	12288.18
289.016	12449.48
289.392	12614.7
289.767	12777.66
290.143	12945.61
290.518	13108.79
290.894	13272.56
291.269	13431.09
291.644	13590.54
292.02	13743.08
292.395	13896.72
292.77	14055.65
293.145	14211.4
293.52	14373.47
293.895	14519.08
294.27	14672.97
294.646	14832.48
295.02	14973.98
295.395	15127.56
295.77	15286.46
296.145	15443.51
296.52	15600.11
296.895	15754.76
297.269	15907.71
297.644	16058.12
298.019	16211.84
298.393	16368.5
298.768	16521.58
299.143	16681.33
299.517	16828.77
299.891	16986.37
300.266	17150.87
300.64	17303.84
301.015	17467.55
301.389	17636.63
301.763	17812.83
302.137	17988.92
302.512	18166.31
302.886	18354.31
303.26	18534.75
303.634	18712.2
304.008	18890.54
304.382	19076.47
304.756	19264.38
305.13	19448.57
305.504	19632.52
305.877	19820.98
306.251	20023.26
306.625	20230.69
306.999	20441.02
307.372	20661.88
307.746	20878.38
308.119	21092.07
308.493	21313.9
308.866	21528.19
309.24	21738.88
309.613	21952.02
309.987	22163.5
310.36	22358.6
310.733	22565.19
311.107	22784.71
311.48	23005.21
311.853	23241.25
312.226	23466.97
312.599	23697.98
312.972	23924.74
313.345	24164.51
313.718	24396.61
314.091	24620.46
314.464	24846.67
314.837	25068.91
315.21	25277.98
315.582	25504.51
315.955	25719.17
316.328	25936.28
316.7	26154.08
317.073	26375.18
317.446	26595.29
317.818	26822.77
318.191	27055.74
318.563	27281.63
318.936	27490.73
319.308	27698.39
319.68	27900.29
320.053	28089.88
320.425	28281.96
320.797	28465.79
321.169	28624.84
321.541	28767.98
321.913	28902.4
322.285	29025.44
322.657	29149.21
323.029	29299.97
323.401	29439.85
323.773	29606.02
324.145	29777
324.517	29965.7
324.889	30146.41
325.26	30355.33
325.632	30569.38
326.004	30808.08
326.375	31061.71
326.747	31334.83
327.118	31641.88
327.49	31933.28
327.861	32257.56
328.233	32558.83
328.604	32877.32
328.975	33197.96
329.346	33517.03
329.718	33831.49
330.089	34131.8
330.46	34426.87
330.831	34700.14
331.202	34958.89
331.573	35204.65
331.944	35440.21
332.315	35668.43
332.686	35887.49
333.057	36084.1
333.428	36271
333.799	36443.07
334.169	36603.92
334.54	36751.49
334.911	36861.18
335.281	36983
335.652	37104
336.022	37245.61
336.393	37394.47
336.763	37555.59
337.134	37735.66
337.504	37933.27
337.874	38141.44
338.245	38352.07
338.615	38572.93
338.985	38802.44
339.355	39027.35
339.726	39251.21
340.096	39478.79
340.466	39729.92
340.836	39969.78
341.206	40215.85
341.576	40466.36
341.945	40709.43
342.315	40939.84
342.685	41187.29
343.055	41438.11
343.425	41678.13
343.794	41904.92
344.164	42127.79
344.533	42361.95
344.903	42595.09
345.273	42830.36
345.642	43054.31
346.011	43286.61
346.381	43520.39
346.75	43750.57
347.12	44000.05
347.489	44254.54
347.858	44494.41
348.227	44700.29
348.596	44933.87
348.965	45173.32
349.334	45403.2
349.704	45641.87
350.072	45891.51
350.441	46126.14
350.81	46372.19
351.179	46604.65
351.548	46850.77
351.917	47079.86
352.285	47274.19
352.654	47482.79
353.023	47687.77
353.391	47895.91
353.76	48106.93
354.129	48296.11
354.497	48537.01
354.865	48747.34
355.234	48969.69
355.602	49188.82
355.971	49440.56
356.339	49650.61
356.707	49863.59
357.075	50081.12
357.443	50298.52
357.811	50513.11
358.18	50723.95
358.548	50936.3
358.916	51140.49
359.284	51352.69
359.651	51566.3
360.019	51792.85
360.387	51997.52
360.755	52196.57
361.123	52421.4
361.49	52644.91
361.858	52861.48
362.226	53054.88
362.593	53256.12
362.961	53437.69
363.328	53638.98
363.696	53809.83
364.063	54024.73
364.43	54227.38
364.798	54444.34
365.165	54627.09
365.532	54810.82
365.899	54998.03
366.267	55157.5
366.634	55313.47
367.001	55472.59
367.368	55611.56
367.735	55794.89
368.102	55971.79
368.469	56170.84
368.835	56352.25
369.202	56520.11
369.569	56718.94
369.936	56904.84
370.303	57098.59
370.669	57301.32
371.036	57465.7
371.402	57667.26
371.769	57854.12
372.135	58008.39
372.502	58133.58
372.868	58278.18
373.235	58416.5
373.601	58559.76
373.967	58736.26
374.333	58919.76
374.7	59112.96
375.066	59320.49
375.432	59503.96
375.798	59682.01
376.164	59850.3
376.53	59999.9
376.896	60160.49
377.262	60332.54
377.628	60461.37
377.993	60608.7
378.359	60750.93
378.725	60906.66
379.091	61060.58
379.456	61185.92
379.822	61320.44
380.187	61462.85
380.553	61653.69
380.918	61853.31
381.284	62029.44
381.649	62201.55
382.015	62349.86
382.38	62466.48
382.745	62625.9
383.11	62781.45
383.476	62925.23
383.841	63049.75
384.206	63204.64
384.571	63332.67
384.936	63464.33
385.301	63641.68
385.666	63776.11
386.031	63927.09
386.396	64091.77
386.76	64238.71
387.125	64436.05
387.49	64632.69
387.855	64832.05
388.219	64999.4
388.584	65170.01
388.948	65364.74
389.313	65529.06
389.677	65734.8
390.042	65974.8
390.406	66134.57
390.771	66318.63
391.135	66508.94
391.499	66744.86
391.863	66977.59
392.227	67221.26
392.592	67420.28
392.956	67618.04
393.32	67816.78
393.684	68044.99
394.048	68220.32
394.412	68402.86
394.775	68548.27
395.139	68704.08
395.503	68861.69
395.867	69017.17
396.231	69161.91
396.594	69261.98
396.958	69397.08
397.321	69555.05
397.685	69669.84
398.048	69813.81
398.412	69950.9
398.775	70085.15
399.139	70211.86
399.502	70318.66
399.865	70461.73
400.228	70654.01
400.592	70781.3
400.955	70982.55
401.318	71113.14
401.681	71286.21
402.044	71428.1
402.407	71589.18
402.77	71749.65
403.133	71947.36
403.496	72092.43
403.859	72250.12
404.221	72500.08
404.584	72747.75
404.947	72986.23
405.309	73203.31
405.672	73445.08
406.034	73669.21
406.397	73922.3
406.759	74143.8
407.122	74334.27
407.484	74504.61
407.847	74685.13
408.209	74941.41
408.571	75168.72
408.933	75429.7
409.296	75676.23
409.658	75926.88
410.02	76194.85
410.382	76490.71
410.744	76734.04
411.106	77014.37
411.468	77280.23
411.83	77494.29
412.191	77675.1
412.553	77838.13
412.915	78028.29
413.277	78208.51
413.638	78380.21
414	78529.95
414.361	78683.57
414.723	78884.35
415.084	79071.84
415.446	79216.31
415.807	79323.49
416.169	79400.75
416.53	79458.24
416.891	79530.39
417.252	79614.84
417.614	79665.7
417.975	79689.39
418.336	79718.81
418.697	79744.95
419.058	79768.72
419.419	79786.7
419.78	79808.21
420.141	79821.73
420.501	79835.25
420.862	79848.02
421.223	79856.17
421.584	79877.87
421.944	79889.15
422.305	79896.27
422.666	79900.29
423.026	79903.53
423.387	79911.61
423.747	79917.21
424.107	79926.54
424.468	79933.52
424.828	79938.13
425.188	79942.89
425.549	79946.18
425.909	79948.47
426.269	79948.25
426.629	79951.53
426.989	79956.48
427.349	79958.99
427.709	79960.65
428.069	79962.28
428.429	79964.42
428.789	79969
429.149	79972.55
429.508	79974.06
429.868	79976.17
430.228	79979.79
430.587	79983.74
430.947	79986.69
431.306	79990.46
431.666	79991.53
432.025	79993.2
432.385	79996.74
432.744	79996.78
433.103	79998.92
433.463	80001.73
433.822	80008.27
434.181	80013.12
434.54	80014.52
434.899	80018
435.258	80021.32
435.618	80023.47
435.976	80026.42
436.335	80026.64
436.694	80025.2
437.053	80026.16
437.412	80026.5
437.771	80027.2
438.129	80028.31
438.488	80030.3
438.847	80030.78
439.205	80032.63
439.564	80034.78
439.922	80033.41
440.281	80034
440.639	80036.59
440.997	80035.07
441.356	80034.7
441.714	80034.26
442.072	80033.11
442.431	80031.71
442.789	80030.78
443.147	80032.45
443.505	80032.82
443.863	80034.08
444.221	80036.52
444.579	80036.7
444.937	80039.58
445.294	80039.84
445.652	80040.66
446.01	80040.29
446.368	80041.43
446.725	80040.18
447.083	80039.73
447.441	80040.62
447.798	80041.43
448.156	80040.25
448.513	80041.88
448.87	80042.03
449.228	80042.25
449.585	80044.61
449.942	80044.91
450.3	80045.58
450.657	80044.28
451.014	80044.72
451.371	80045.24
451.728	80044.69
452.085	80045.54
452.442	80044.46
452.799	80045.5
453.156	80044.95
453.513	80045.65
453.869	80046.83
454.226	80049.2
454.583	80048.76
454.939	80049.57
455.296	80049.24
455.653	80048.72
456.009	80047.46
456.366	80049.75
456.722	80049.9
457.078	80050.35
457.435	80051.09
457.791	80051.97
458.147	80052.49
458.503	80053.71
458.86	80054.6
459.216	80055.04
459.572	80056.23
459.928	80056.34
460.284	80055.41
460.64	80055.01
460.996	80055.08
461.351	80055.3
461.707	80054.86
462.063	80056.08
462.419	80057.08
462.774	80057
463.13	80056.82
463.486	80058.08
463.841	80055.56
464.197	80054.71
464.552	80055.15
464.908	80054.05
465.263	80054.49
465.618	80054.05
465.974	80052.64
466.329	80053.34
466.684	80053.56
467.039	80053.49
467.394	80053.97
467.749	80055.12
468.104	80056.56
468.459	80055.34
468.814	80054.19
469.169	80054.16
469.524	80054.79
469.879	80055.12
470.233	80056.19
470.588	80057.45
470.943	80058.26
471.297	80060.96
471.652	80062.29
472.006	80060.74
472.361	80063.55
472.715	80062.37
473.07	80063.15
473.424	80063.52
473.778	80063.96
474.133	80066.29
474.487	80065.85
474.841	80066.66
475.195	80067.33
475.549	80068.7
475.903	80071.54
476.257	80072.95
476.611	80073.76
476.965	80072.95
477.319	80073.47
477.673	80074.28
478.026	80075.47
478.38	80075.58
478.734	80072.58
479.087	80073.39
479.441	80075.76
479.795	80075.39
480.148	80077.95
480.502	80078.39
480.855	80079.02
481.208	80078.72
481.562	80077.83
481.915	80078.35
482.268	80077.54
482.621	80078.28
482.974	80077.06
483.328	80078.2
483.681	80077.87
484.034	80078.76
484.387	80079.91
484.739	80080.68
485.092	80079.72
485.445	80079.87
485.798	80079.28
486.151	80081.53
486.503	80082.16
486.856	80082.9
487.209	80083.38
487.561	80083.79
487.914	80084.64
488.266	80085.31
488.618	80085.86
488.971	80086.72
489.323	80086.49
489.675	80087.64
490.028	80087.71
490.38	80086.97
490.732	80086.79
491.084	80086.9
491.436	80085.68
491.788	80087.35
492.14	80087.64
492.492	80089.27
492.844	80090.31
493.196	80092.64
493.548	80093.56
493.899	80093.16
494.251	80092.38
494.603	80091.93
494.954	80091.86
495.306	80092.08
495.657	80093.53
496.009	80093.27
496.36	80092.3
496.712	80094.67
497.063	80096.23
497.414	80097.56
497.765	80097.67
498.117	80096.63
498.468	80096.86
498.819	80098.08
499.17	80096.93
499.521	80097.97
499.872	80099.19
500.223	80099.15
500.574	80097.04
500.924	80097.08
501.275	80098.23
501.626	80097.6
501.977	80096.64
502.327	80095.86
502.678	80095.82
503.029	80093.56
503.379	80094.27
503.73	80094.23
504.08	80092.68
504.43	80090.34
504.781	80088.83
505.131	80090.53
505.481	80089.97
505.831	80089.53
506.182	80088.86
506.532	80089.01
506.882	80086.23
507.232	80085.27
507.582	80084.9
507.932	80085.35
508.281	80083.31
508.631	80079.68
508.981	80079.61
509.331	80080.87
509.681	80080.76
510.03	80082.09
510.38	80083.05
510.729	80083.9
511.079	80085.68
511.428	80085.68
511.778	80086.68
512.127	80084.98
512.476	80083.87
512.826	80084.83
513.175	80086.98
513.524	80087.61
513.873	80088.49
514.222	80089.34
514.571	80089.6
514.92	80088.27
515.269	80088.49
515.618	80089.49
515.967	80091.01
516.316	80092.34
516.665	80094.05
517.014	80093.64
517.362	80093.38
517.711	80094.12
518.059	80092.93
518.408	80092.12
518.757	80093.38
519.105	80092.79
519.453	80095.6
519.802	80096.26
520.15	80095.82
520.498	80094.23
520.847	80093.04
521.195	80091.97
521.543	80091.75
521.891	80091.42
522.239	80092.3
522.587	80093.78
522.935	80096.71
523.283	80098.63
523.631	80096.38
523.979	80093.49
524.326	80095.23
524.674	80095.38
525.022	80094.82
525.369	80095.71
525.717	80096.19
526.064	80097.19
526.412	80097.64
526.759	80098.08
527.107	80098.3
527.454	80098.01
527.801	80098.23
528.149	80099
528.496	80099.75
528.843	80099.56
529.19	80099.75
529.537	80099.04
529.884	80097.08
530.231	80094.93
530.578	80093.45
530.925	80095.45
531.272	80097.71
531.619	80096.86
531.966	80094.9
532.312	80094.71
532.659	80094.75
533.006	80095.45
533.352	80093.64
533.699	80094.38
534.045	80093.78
534.392	80093.01
534.738	80094.01
535.084	80094.3
535.431	80093.64
535.777	80093.67
536.123	80094.27
536.469	80093.27
536.815	80094.6
537.161	80095.97
537.507	80096.19
537.853	80096.3
538.199	80096.26
538.545	80094.3
538.891	80094.49
539.237	80095.93
539.582	80095.97
539.928	80095.23
540.274	80093.45
540.619	80093.6
540.965	80092.27
541.31	80090.97
541.656	80091.9
542.001	80092.12
542.347	80092.45
542.692	80093.64
543.037	80092.41
543.382	80091.67
543.728	80092.12
544.073	80092.9
544.418	80092.64
544.763	80092.82
545.108	80093.6
545.453	80093.27
545.798	80094.67
546.142	80095.82
546.487	80095.38
546.832	80095.89
547.177	80096.12
547.521	80095.56
547.866	80096.56
548.211	80097.41
548.555	80099.04
548.9	80097.97
549.244	80096.75
549.588	80095.04
549.933	80094.08
550.277	80093.67
550.621	80091.27
550.965	80090.71
551.31	80089.46
551.654	80089.75
551.998	80089.57
552.342	80088.49
552.686	80087.46
553.03	80086.42
553.373	80086.38
553.717	80086.24
554.061	80085.01
554.405	80084.79
554.748	80086.38
555.092	80085.83
555.436	80084.76
555.779	80084.5
556.123	80086.01
556.466	80087.12
556.81	80087.64
557.153	80090.16
557.496	80090.86
557.839	80095.01
558.183	80094.97
558.526	80095.75
558.869	80095.56
559.212	80095.3
559.555	80093.97
559.898	80094.67
560.241	80095.49
560.584	80094.93
560.927	80095.08
561.269	80096.56
561.612	80095.86
561.955	80094.34
562.297	80093.27
562.64	80093.86
562.983	80092.34
563.325	80090.79
563.668	80090.12
564.01	80088.97
564.352	80085.9
564.695	80084.98
565.037	80082.79
565.379	80083.98
565.721	80084.01
566.063	80082.31
566.406	80082.35
566.748	80083.09
567.09	80082.31
567.431	80082.53
567.773	80080.5
568.115	80079.43
568.457	80078.2
568.799	80078.35
569.14	80079.61
569.482	80079.5
569.824	80078.87
570.165	80079.43
570.507	80079.35
570.848	80080.5
571.19	80082.05
571.531	80081.53
571.872	80082.46
572.214	80084.5
572.555	80082.35
572.896	80081.87
573.237	80082.61
573.578	80081.24
573.919	80081.42
574.26	80080.13
574.601	80078.83
574.942	80077.91
575.283	80077.13
575.624	80077.35
575.964	80075.39
576.305	80074.32
576.646	80076.06
576.986	80076.58
577.327	80076.47
577.667	80075.99
578.008	80075.5
578.348	80074.99
578.689	80076.95
579.029	80076.5
579.369	80075.32
579.71	80076.02
580.05	80074.32
580.39	80074.39
580.73	80075.39
581.07	80076.24
581.41	80077.21
581.75	80077.46
582.09	80079.09
582.43	80079.91
582.769	80079.54
583.109	80081.05
583.449	80080.16
583.789	80077.8
584.128	80076.06
584.468	80075.21
584.807	80074.98
585.147	80072.91
585.486	80073.62
585.825	80072.62
