Data from 24HourExp_27052025_FLMS018081_03-38-22-199.txt Node
Date: Wed May 28 03:38:22 BST 2025
User: adleo
Spectrometer: FLMS01808
Trigger mode: 0
Integration Time (sec): 4.000000E-1
Scans to average: 10
Electric dark correction enabled: true
Nonlinearity correction enabled: true
Boxcar width: 10
XAxis mode: Wavelengths
Number of Pixels in Spectrum: 2048
>>>>>Begin Spectral Data<<<<<
178.471	-124.45
178.857	-119.03
179.244	-112.72
179.631	-105.14
180.017	-97.17
180.404	-89.56
180.79	-78.8
181.176	-69.55
181.563	-58.55
181.949	-48.76
182.335	-38.42
182.722	-22.47
183.108	-4.7
183.494	21.28
183.88	74.35
184.266	127.32
184.653	183.06
185.039	235.98
185.425	290.62
185.811	344.55
186.197	396.73
186.582	447.34
186.968	499.93
187.354	551.75
187.74	601.88
188.126	653.05
188.511	702.89
188.897	748.89
189.283	795.3
189.668	838.9
190.054	882.37
190.439	927.07
190.825	970.37
191.21	1012
191.596	1045.5
191.981	1052.75
192.366	1057.24
192.752	1059.48
193.137	1063.92
193.522	1064.53
193.908	1065.22
194.293	1069.31
194.678	1073.5
195.063	1075.54
195.448	1077.75
195.833	1078.37
196.218	1075.94
196.603	1075.22
196.988	1076.35
197.373	1078.2
197.757	1077.37
198.142	1078.89
198.527	1076.59
198.912	1075.57
199.296	1074.03
199.681	1072.9
200.066	1070.66
200.45	1069.78
200.835	1069.57
201.219	1067.69
201.604	1068.39
201.988	1069.57
202.372	1070.82
202.757	1070.49
203.141	1072.04
203.525	1071.27
203.91	1073.85
204.294	1076.52
204.678	1077.66
205.062	1077.18
205.446	1075.63
205.83	1077.52
206.214	1076.77
206.598	1077.05
206.982	1079.09
207.366	1079.28
207.75	1079.91
208.134	1083.63
208.517	1085.45
208.901	1086.05
209.285	1088.1
209.669	1087.67
210.052	1089.39
210.436	1088.37
210.819	1088.64
211.203	1088.03
211.586	1088.59
211.97	1087.01
212.353	1086.88
212.737	1089.08
213.12	1092.08
213.503	1092.51
213.886	1094.13
214.27	1096.28
214.653	1100.02
215.036	1100.18
215.419	1103.67
215.802	1106.99
216.185	1108.1
216.568	1110.76
216.951	1114.11
217.334	1116.23
217.717	1120.64
218.1	1121.31
218.482	1123.31
218.865	1125.25
219.248	1129.06
219.631	1134.68
220.013	1141.19
220.396	1148.79
220.778	1153.84
221.161	1158.84
221.544	1166.37
221.926	1173.21
222.308	1181.84
222.691	1188.54
223.073	1196.92
223.455	1205.02
223.838	1211.64
224.22	1222.02
224.602	1232.59
224.984	1243.44
225.366	1254.73
225.749	1269.72
226.131	1283.46
226.513	1298.45
226.895	1314.97
227.276	1328.49
227.658	1342.61
228.04	1357.78
228.422	1372.55
228.804	1388.71
229.186	1404.16
229.567	1422.06
229.949	1439.1
230.331	1455.32
230.712	1474.03
231.094	1491.46
231.475	1510.81
231.857	1531.21
232.238	1550.97
232.62	1567.82
233.001	1586.02
233.382	1607.61
233.763	1623.35
234.145	1644.13
234.526	1662.88
234.907	1681.32
235.288	1700.88
235.669	1719.06
236.05	1737.04
236.431	1755.96
236.812	1776.32
237.193	1797.45
237.574	1816.39
237.955	1838.41
238.336	1860.56
238.717	1880.87
239.097	1904.82
239.478	1925.71
239.859	1947.57
240.239	1970.14
240.62	1994.39
241.001	2018.44
241.381	2041.58
241.762	2067.67
242.142	2090.78
242.522	2115.06
242.903	2138.85
243.283	2166.35
243.663	2194.03
244.044	2223.34
244.424	2252.19
244.804	2281.44
245.184	2312.57
245.564	2341.78
245.944	2369.67
246.324	2399.39
246.704	2430.75
247.084	2459.04
247.464	2490.32
247.844	2521.36
248.224	2550.6
248.604	2584.45
248.983	2615.47
249.363	2647.47
249.743	2675.88
250.122	2705.63
250.502	2737.51
250.882	2771.64
251.261	2801.85
251.641	2832.36
252.02	2862.61
252.399	2895.38
252.779	2929.11
253.158	2960.98
253.537	3001.71
253.917	3045.83
254.296	3081.44
254.675	3122.29
255.054	3163.58
255.433	3206.19
255.812	3245.19
256.191	3287.85
256.57	3325.94
256.949	3367.5
257.328	3410.02
257.707	3455.17
258.086	3503.95
258.465	3551.57
258.843	3600.25
259.222	3651.03
259.601	3706.43
259.979	3761.03
260.358	3814.76
260.736	3867.78
261.115	3926.78
261.493	3979.64
261.872	4029.9
262.25	4088.71
262.629	4144.55
263.007	4204.62
263.385	4261.49
263.763	4326.43
264.142	4390.54
264.52	4453.49
264.898	4520.92
265.276	4585.47
265.654	4656.42
266.032	4723.97
266.41	4793.32
266.788	4865.02
267.166	4941.75
267.544	5014.5
267.921	5090.21
268.299	5169.42
268.677	5247.58
269.055	5328.46
269.432	5409.3
269.81	5497.32
270.188	5583.29
270.565	5670.81
270.943	5762.78
271.32	5854.24
271.697	5948.52
272.075	6042.42
272.452	6140.07
272.829	6238.31
273.207	6338.06
273.584	6441.24
273.961	6545.58
274.338	6658.51
274.715	6773.4
275.092	6889.18
275.469	7012.51
275.846	7134.31
276.223	7257.52
276.6	7377.55
276.977	7502.25
277.354	7632.07
277.731	7755.75
278.108	7887.23
278.484	8017.37
278.861	8145.52
279.238	8286.46
279.614	8422.14
279.991	8565.47
280.367	8712.21
280.744	8858.47
281.12	9009.93
281.497	9154.99
281.873	9308.68
282.249	9454.37
282.625	9601.18
283.002	9749.21
283.378	9891.37
283.754	10042.06
284.13	10195.61
284.506	10357.21
284.882	10511.42
285.258	10666.73
285.634	10821.25
286.01	10978.63
286.386	11139.82
286.762	11305.44
287.138	11466.73
287.513	11630.11
287.889	11792.06
288.265	11953.42
288.641	12111.95
289.016	12270.81
289.392	12436.57
289.767	12598
290.143	12766.25
290.518	12928.59
290.894	13091.31
291.269	13253.69
291.644	13407.87
292.02	13556.84
292.395	13706.77
292.77	13862.63
293.145	14015.69
293.52	14175.83
293.895	14325.21
294.27	14475.24
294.646	14626.68
295.02	14772.97
295.395	14923.4
295.77	15079.98
296.145	15233.4
296.52	15390.95
296.895	15543
297.269	15697.93
297.644	15846.12
298.019	15994.36
298.393	16147.91
298.768	16299.7
299.143	16449.92
299.517	16607.51
299.891	16765.86
300.266	16928.43
300.64	17089.43
301.015	17252.34
301.389	17415.47
301.763	17592.73
302.137	17766.03
302.512	17942.36
302.886	18118.11
303.26	18301.43
303.634	18473.89
304.008	18649.09
304.382	18829.99
304.756	19011.41
305.13	19192.32
305.504	19373.94
305.877	19565.54
306.251	19764.59
306.625	19965.88
306.999	20177.82
307.372	20386.89
307.746	20603.65
308.119	20818.41
308.493	21028.16
308.866	21236.04
309.24	21444.95
309.613	21653.46
309.987	21863.11
310.36	22060.63
310.733	22270.53
311.107	22483.87
311.48	22705.52
311.853	22934.55
312.226	23158.3
312.599	23395.39
312.972	23619.53
313.345	23849.53
313.718	24078.72
314.091	24300.93
314.464	24528.89
314.837	24751.95
315.21	24963.73
315.582	25177.22
315.955	25383.33
316.328	25594.01
316.7	25813.15
317.073	26036.74
317.446	26250.89
317.818	26478.23
318.191	26706.94
318.563	26924.92
318.936	27128.4
319.308	27330.55
319.68	27529.76
320.053	27726.85
320.425	27908.33
320.797	28093.54
321.169	28259.52
321.541	28396.95
321.913	28524.93
322.285	28639.06
322.657	28763.68
323.029	28910.16
323.401	29051.77
323.773	29219.01
324.145	29395.55
324.517	29583.64
324.889	29763.59
325.26	29965.58
325.632	30179.62
326.004	30410.04
326.375	30673.96
326.747	30953.17
327.118	31255.4
327.49	31543.1
327.861	31856.51
328.233	32160.86
328.604	32464.55
328.975	32777.16
329.346	33090.18
329.718	33401.57
330.089	33711.38
330.46	33995.51
330.831	34267.61
331.202	34534.41
331.573	34779.22
331.944	35005.56
332.315	35233.64
332.686	35444.98
333.057	35649.37
333.428	35824.07
333.799	35996.18
334.169	36145.96
334.54	36285.44
334.911	36400.03
335.281	36531.91
335.652	36643.13
336.022	36781
336.393	36929.33
336.763	37095.35
337.134	37277.33
337.504	37477.55
337.874	37676.56
338.245	37889.28
338.615	38103.34
338.985	38327.28
339.355	38547.5
339.726	38770.88
340.096	38985.2
340.466	39245.66
340.836	39487.31
341.206	39738.07
341.576	39983.66
341.945	40222.01
342.315	40454.06
342.685	40692.97
343.055	40936.22
343.425	41181.26
343.794	41419.29
344.164	41649.53
344.533	41878.85
344.903	42112.67
345.273	42341.06
345.642	42568.39
346.011	42802.98
346.381	43041.77
346.75	43260.63
347.12	43508.96
347.489	43759.07
347.858	44010.29
348.227	44211.24
348.596	44435.16
348.965	44668.63
349.334	44898.07
349.704	45137.6
350.072	45383.43
350.441	45620.48
350.81	45863.09
351.179	46097.1
351.548	46328.6
351.917	46547.86
352.285	46742.6
352.654	46952.58
353.023	47159.53
353.391	47363.48
353.76	47575.54
354.129	47759.42
354.497	47998.73
354.865	48211.55
355.234	48448.36
355.602	48660.16
355.971	48902.54
356.339	49107.92
356.707	49322.71
357.075	49540.88
357.443	49764.19
357.811	49978.83
358.18	50186.84
358.548	50390.8
358.916	50593.76
359.284	50810.83
359.651	51028.03
360.019	51253.47
360.387	51448.79
360.755	51651.2
361.123	51872.17
361.49	52090.78
361.858	52308.33
362.226	52501.01
362.593	52703.7
362.961	52876.27
363.328	53080.03
363.696	53257.16
364.063	53479.65
364.43	53678.96
364.798	53890.75
365.165	54072.05
365.532	54256.56
365.899	54439.37
366.267	54610.47
366.634	54763.53
367.001	54923.19
367.368	55062.43
367.735	55236.11
368.102	55418
368.469	55613.77
368.835	55793.08
369.202	55951.56
369.569	56139.63
369.936	56332.09
370.303	56519.02
370.669	56714.18
371.036	56874.69
371.402	57070.71
371.769	57243.78
372.135	57391.75
372.502	57521.47
372.868	57656.29
373.235	57800.58
373.601	57938.24
373.967	58111.28
374.333	58294.19
374.7	58476.56
375.066	58681.53
375.432	58871.74
375.798	59046.76
376.164	59208.36
376.53	59353.53
376.896	59524.6
377.262	59703.63
377.628	59827.88
377.993	59971.3
378.359	60116.39
378.725	60265.57
379.091	60422.77
379.456	60558.64
379.822	60700.85
380.187	60849.1
380.553	61033.58
380.918	61219.28
381.284	61398.8
381.649	61567.4
382.015	61707.19
382.38	61817.44
382.745	61980.85
383.11	62123.02
383.476	62259.43
383.841	62385.95
384.206	62543.44
384.571	62660.04
384.936	62781.83
385.301	62954.59
385.666	63085.96
386.031	63235.84
386.396	63405.52
386.76	63543.72
387.125	63729.36
387.49	63927.84
387.855	64109.15
388.219	64283.05
388.584	64455.59
388.948	64648.09
389.313	64811
389.677	65011.95
390.042	65258.02
390.406	65412.91
390.771	65600.56
391.135	65795.52
391.499	66028.89
391.863	66258.14
392.227	66502.15
392.592	66703.93
392.956	66897.06
393.32	67089.29
393.684	67306.01
394.048	67474.41
394.412	67666.9
394.775	67815.82
395.139	67960.19
395.503	68128.23
395.867	68271.79
396.231	68406.76
396.594	68504.98
396.958	68632.97
397.321	68786.92
397.685	68900.22
398.048	69038.86
398.412	69176.56
398.775	69301.08
399.139	69421.55
399.502	69525.64
399.865	69656.16
400.228	69849.53
400.592	69980.3
400.955	70178.6
401.318	70303.7
401.681	70458.21
402.044	70590.98
402.407	70740.75
402.77	70896.23
403.133	71080.84
403.496	71230.5
403.859	71386.26
404.221	71628.02
404.584	71866.4
404.947	72107.07
405.309	72309.52
405.672	72539.77
406.034	72758.89
406.397	73010.16
406.759	73227.07
407.122	73410.56
407.484	73591.33
407.847	73773.13
408.209	74022.21
408.571	74250.49
408.933	74517.29
409.296	74769.5
409.658	74999.45
410.02	75278.95
410.382	75589.62
410.744	75845.84
411.106	76132.24
411.468	76412.27
411.83	76647.74
412.191	76851.18
412.553	77034.77
412.915	77255.88
413.277	77470.73
413.638	77672.62
414	77845.14
414.361	78029.43
414.723	78262.61
415.084	78478.85
415.446	78654.79
415.807	78800.1
416.169	78912.44
416.53	79006.59
416.891	79123.51
417.252	79263.4
417.614	79344.41
417.975	79391.88
418.336	79446.36
418.697	79504.18
419.058	79555.27
419.419	79595.05
419.78	79639.85
420.141	79671.61
420.501	79701.41
420.862	79724.47
421.223	79744.98
421.584	79784.43
421.944	79807.1
422.305	79822.7
422.666	79835.33
423.026	79839.02
423.387	79850.25
423.747	79861.44
424.107	79874.4
424.468	79886.64
424.828	79891.29
425.188	79896.63
425.549	79902.79
425.909	79908.11
426.269	79907.77
426.629	79911.8
426.989	79916.85
427.349	79921.5
427.709	79924.82
428.069	79927.74
428.429	79931.76
428.789	79937.56
429.149	79944.58
429.508	79949.27
429.868	79953.96
430.228	79956.99
430.587	79961.42
430.947	79967.44
431.306	79973.08
431.666	79975.78
432.025	79978.15
432.385	79981.95
432.744	79984.39
433.103	79987.16
433.463	79990.89
433.822	79999.68
434.181	80003.45
434.54	80006.63
434.899	80010.36
435.258	80013.72
435.618	80016.35
435.976	80020.56
436.335	80019.71
436.694	80018.79
437.053	80018.3
437.412	80020.15
437.771	80022.37
438.129	80022.74
438.488	80022.7
438.847	80024.26
439.205	80026.29
439.564	80026.99
439.922	80028.66
440.281	80030.21
440.639	80031.43
440.997	80031.91
441.356	80031.76
441.714	80034.87
442.072	80036.31
442.431	80036.13
442.789	80038.01
443.147	80038.42
443.505	80037.35
443.863	80039.6
444.221	80039.82
444.579	80042.41
444.937	80041.93
445.294	80042.04
445.652	80044.74
446.01	80044.56
446.368	80045.63
446.725	80046.66
447.083	80047.22
447.441	80047
447.798	80047.48
448.156	80047.37
448.513	80046.85
448.87	80046.78
449.228	80044.78
449.585	80043.63
449.942	80042.3
450.3	80041.01
450.657	80041.56
451.014	80042.08
451.371	80042.08
451.728	80042.89
452.085	80042.41
452.442	80043.04
452.799	80043.04
453.156	80041.52
453.513	80042.3
453.869	80042.15
454.226	80042.37
454.583	80042.48
454.939	80042.56
455.296	80042.23
455.653	80042.93
456.009	80042.63
456.366	80041.97
456.722	80042.3
457.078	80042.48
457.435	80043.19
457.791	80045.41
458.147	80045.81
458.503	80046.77
458.86	80047.29
459.216	80047.55
459.572	80049.88
459.928	80050.59
460.284	80050.1
460.64	80052.25
460.996	80054.39
461.351	80053.8
461.707	80053.65
462.063	80052.29
462.419	80052.36
462.774	80052.14
463.13	80052.4
463.486	80053.14
463.841	80053.29
464.197	80054.06
464.552	80052.73
464.908	80055.43
465.263	80055.1
465.618	80054.17
465.974	80053.95
466.329	80055.32
466.684	80056.36
467.039	80054.95
467.394	80053.95
467.749	80054.06
468.104	80054.06
468.459	80053.66
468.814	80054.8
469.169	80055.21
469.524	80059.21
469.879	80059.83
470.233	80061.76
470.588	80063.68
470.943	80064.94
471.297	80065.46
471.652	80066.64
472.006	80069.3
472.361	80069.67
472.715	80068.53
473.07	80070.15
473.424	80070.93
473.778	80070.67
474.133	80070.97
474.487	80070.86
474.841	80071.97
475.195	80073.67
475.549	80074.37
475.903	80074.82
476.257	80075.33
476.611	80077.33
476.965	80076.41
477.319	80076.89
477.673	80077.7
478.026	80076.7
478.38	80074.78
478.734	80075.63
479.087	80076
479.441	80076.52
479.795	80074.37
480.148	80076.07
480.502	80076.93
480.855	80077.3
481.208	80077.63
481.562	80077.85
481.915	80079.63
482.268	80079.7
482.621	80081.29
482.974	80081.29
483.328	80081.14
483.681	80080.63
484.034	80079.15
484.387	80079.18
484.739	80078.85
485.092	80078.29
485.445	80079.48
485.798	80080.96
486.151	80081.59
486.503	80081.85
486.856	80081.07
487.209	80082.92
487.561	80082.66
487.914	80082.73
488.266	80081.74
488.618	80083.22
488.971	80083.25
489.323	80082.4
489.675	80084.47
490.028	80083.55
490.38	80083.88
490.732	80084.55
491.084	80084.4
491.436	80085.47
491.788	80084.59
492.14	80085.58
492.492	80086.36
492.844	80086.69
493.196	80087.62
493.548	80088.47
493.899	80088.32
494.251	80089.99
494.603	80088.84
494.954	80088.51
495.306	80088.51
495.657	80089.43
496.009	80088.66
496.36	80089.06
496.712	80089.54
497.063	80088.88
497.414	80088.43
497.765	80088.06
498.117	80088.21
498.468	80090.06
498.819	80091.36
499.17	80092.02
499.521	80091.36
499.872	80091.69
500.223	80091.62
500.574	80091.28
500.924	80091.36
501.275	80091.8
501.626	80091.54
501.977	80093.1
502.327	80093.69
502.678	80094.24
503.029	80095.76
503.379	80095.54
503.73	80095.98
504.08	80095.5
504.43	80096.17
504.781	80097.54
505.131	80098.02
505.481	80096.65
505.831	80095.98
506.182	80094.58
506.532	80095.06
506.882	80094.61
507.232	80093.95
507.582	80093.21
507.932	80093.36
508.281	80093.47
508.631	80092.62
508.981	80091.58
509.331	80091.51
509.681	80090.4
510.03	80089.43
510.38	80088.77
510.729	80089.17
511.079	80088.88
511.428	80090.54
511.778	80088.69
512.127	80087.66
512.476	80089.03
512.826	80091.25
513.175	80091.43
513.524	80090.51
513.873	80090.4
514.222	80091.65
514.571	80091.36
514.92	80091.06
515.269	80090.65
515.618	80089.84
515.967	80090.99
516.316	80091.1
516.665	80090.88
517.014	80092.76
517.362	80093.47
517.711	80093.02
518.059	80092.14
518.408	80091.73
518.757	80090.77
519.105	80092.21
519.453	80092.69
519.802	80090.69
520.15	80090.02
520.498	80089.36
520.847	80090.88
521.195	80090.14
521.543	80090.1
521.891	80090.73
522.239	80091.65
522.587	80093.61
522.935	80093.5
523.283	80092.91
523.631	80093.39
523.979	80094.21
524.326	80093.54
524.674	80093.98
525.022	80093.1
525.369	80093.99
525.717	80095.21
526.064	80094.54
526.412	80094.54
526.759	80095.69
527.107	80097.17
527.454	80097.91
527.801	80099.13
528.149	80098.43
528.496	80100.32
528.843	80100.76
529.19	80099.76
529.537	80098.5
529.884	80097.43
530.231	80099.5
530.578	80100.02
530.925	80100.65
531.272	80098.65
531.619	80098.54
531.966	80097.43
532.312	80097.91
532.659	80096.73
533.006	80096.73
533.352	80095.95
533.699	80095.95
534.045	80094.47
534.392	80093.43
534.738	80092.1
535.084	80091.28
535.431	80092.62
535.777	80091.91
536.123	80091.36
536.469	80092.8
536.815	80092.95
537.161	80094.54
537.507	80092.95
537.853	80091.51
538.199	80090.99
538.545	80090.99
538.891	80091.28
539.237	80090.88
539.582	80092.62
539.928	80093.02
540.274	80092.02
540.619	80093.8
540.965	80092.25
541.31	80092.1
541.656	80091.65
542.001	80092.8
542.347	80094.36
542.692	80092.58
543.037	80091.77
543.382	80090.77
543.728	80090.43
544.073	80091.14
544.418	80090.06
544.763	80091.54
545.108	80091.4
545.453	80090.4
545.798	80091.32
546.142	80091.28
546.487	80091.4
546.832	80090.32
547.177	80091.17
547.521	80090.91
547.866	80091.06
548.211	80091.69
548.555	80091.8
548.9	80091.62
549.244	80090.21
549.588	80088.69
549.933	80089.8
550.277	80090.17
550.621	80090.36
550.965	80088.84
551.31	80088.43
551.654	80089.29
551.998	80088.03
552.342	80088.14
552.686	80088.91
553.03	80088.99
553.373	80089.84
553.717	80090.25
554.061	80089.14
554.405	80089.88
554.748	80088.69
555.092	80088.69
555.436	80089.69
555.779	80090.8
556.123	80091.03
556.466	80093.14
556.81	80092.51
557.153	80090.36
557.496	80090.1
557.839	80091.51
558.183	80092.39
558.526	80091.25
558.869	80089.95
559.212	80089.88
559.555	80090.29
559.898	80089.25
560.241	80091.03
560.584	80089.18
560.927	80090.8
561.269	80091.99
561.612	80090.36
561.955	80091.36
562.297	80090.29
562.64	80089.1
562.983	80087.29
563.325	80087.36
563.668	80085.81
564.01	80086.47
564.352	80087.18
564.695	80087.32
565.037	80086.44
565.379	80085.95
565.721	80086.92
566.063	80085.73
566.406	80085.99
566.748	80087.25
567.09	80088.88
567.431	80085.51
567.773	80085.81
568.115	80084.07
568.457	80083.99
568.799	80084.36
569.14	80084.58
569.482	80085.14
569.824	80085.32
570.165	80084.66
570.507	80085.4
570.848	80085.07
571.19	80083.81
571.531	80084.95
571.872	80085.58
572.214	80086.62
572.555	80086.77
572.896	80086.84
573.237	80088.03
573.578	80085.51
573.919	80082.99
574.26	80082.92
574.601	80084.62
574.942	80084.18
575.283	80082.99
575.624	80082.29
575.964	80082.11
576.305	80081.74
576.646	80079.77
576.986	80079.07
577.327	80079.63
577.667	80078.37
578.008	80078.26
578.348	80079.59
578.689	80079.52
579.029	80079.77
579.369	80079.55
579.71	80080.74
580.05	80079.89
580.39	80078.52
580.73	80079.11
581.07	80078.81
581.41	80079.26
581.75	80078.44
582.09	80078.52
582.43	80077.7
582.769	80079.18
583.109	80078.55
583.449	80078.15
583.789	80079.41
584.128	80078.52
584.468	80078.22
584.807	80078.18
585.147	80077.56
585.486	80075.11
