Data from 24HourExp_27052025_FLMS018081_19-08-19-398.txt Node
Date: Tue May 27 19:08:19 BST 2025
User: adleo
Spectrometer: FLMS01808
Trigger mode: 0
Integration Time (sec): 4.000000E-1
Scans to average: 10
Electric dark correction enabled: true
Nonlinearity correction enabled: true
Boxcar width: 10
XAxis mode: Wavelengths
Number of Pixels in Spectrum: 2048
>>>>>Begin Spectral Data<<<<<
178.471	-120.04
178.857	-113.43
179.244	-108.43
179.631	-99.24
180.017	-93.36
180.404	-84.26
180.79	-72.78
181.176	-63.56
181.563	-55.96
181.949	-45.51
182.335	-35.95
182.722	-21.05
183.108	-2.08
183.494	22.91
183.88	76.69
184.266	129.89
184.653	188.52
185.039	243.48
185.425	299.61
185.811	352.96
186.197	405.88
186.582	457.61
186.968	511.24
187.354	564.03
187.74	614.63
188.126	666.79
188.511	716.87
188.897	765.06
189.283	812.89
189.668	862.23
190.054	905.17
190.439	953.35
190.825	997.3
191.21	1038.04
191.596	1072.36
191.981	1080.23
192.366	1084.89
192.752	1085.47
193.137	1091.04
193.522	1091.49
193.908	1094.19
194.293	1096.79
194.678	1099.54
195.063	1099.95
195.448	1102.26
195.833	1102.56
196.218	1102.35
196.603	1102.68
196.988	1100.54
197.373	1101.65
197.757	1101.05
198.142	1101.99
198.527	1097.35
198.912	1097.33
199.296	1097.94
199.681	1097.19
200.066	1094.21
200.45	1092.25
200.835	1092.79
201.219	1091.2
201.604	1091.34
201.988	1092.99
202.372	1095.39
202.757	1095.78
203.141	1096.94
203.525	1096.92
203.91	1096.47
204.294	1099.17
204.678	1099.27
205.062	1099.74
205.446	1098.96
205.83	1099.15
206.214	1099.88
206.598	1100.99
206.982	1102.17
207.366	1101.32
207.75	1103.1
208.134	1105.97
208.517	1108.11
208.901	1106.61
209.285	1108.09
209.669	1108.72
210.052	1108.5
210.436	1106.91
210.819	1107.37
211.203	1106.35
211.586	1107.37
211.97	1109.08
212.353	1109.41
212.737	1110.44
213.12	1113.08
213.503	1114.39
213.886	1114.76
214.27	1118.15
214.653	1120.74
215.036	1121.33
215.419	1123.44
215.802	1125.84
216.185	1127.86
216.568	1132.06
216.951	1135.13
217.334	1136.96
217.717	1141.63
218.1	1144.38
218.482	1149.63
218.865	1152.79
219.248	1158.4
219.631	1162.46
220.013	1167.41
220.396	1172.75
220.778	1177.55
221.161	1182.15
221.544	1188.15
221.926	1197.43
222.308	1203.29
222.691	1209.84
223.073	1219.77
223.455	1228.92
223.838	1237.79
224.22	1247.14
224.602	1258.03
224.984	1269.91
225.366	1281.26
225.749	1295.53
226.131	1307.36
226.513	1319.25
226.895	1334.18
227.276	1346.91
227.658	1362.38
228.04	1377.59
228.422	1391.96
228.804	1409.37
229.186	1426.69
229.567	1445.36
229.949	1460.48
230.331	1479.5
230.712	1497.2
231.094	1515.53
231.475	1534.7
231.857	1555.27
232.238	1576.14
232.62	1593.87
233.001	1613.16
233.382	1634.07
233.763	1653.61
234.145	1675.99
234.526	1697.19
234.907	1717.54
235.288	1739.4
235.669	1758.49
236.05	1779.48
236.431	1798.58
236.812	1819.2
237.193	1840.8
237.574	1862.2
237.955	1885.91
238.336	1907.8
238.717	1933.52
239.097	1958.13
239.478	1979.08
239.859	2001.06
240.239	2026.54
240.62	2051.22
241.001	2075.82
241.381	2100.95
241.762	2122.69
242.142	2145.84
242.522	2169.91
242.903	2196.29
243.283	2222.27
243.663	2250.5
244.044	2281.54
244.424	2313.05
244.804	2342.39
245.184	2373.43
245.564	2403.5
245.944	2435.81
246.324	2467.04
246.704	2497.39
247.084	2527.44
247.464	2562.67
247.844	2595.51
248.224	2628.6
248.604	2661.92
248.983	2694.26
249.363	2729.36
249.743	2761.35
250.122	2793.86
250.502	2826.67
250.882	2858.91
251.261	2893.58
251.641	2927.42
252.02	2961.07
252.399	2997.7
252.779	3035.86
253.158	3073.13
253.537	3113.27
253.917	3157.08
254.296	3198.14
254.675	3240.5
255.054	3280.7
255.433	3323.67
255.812	3364.62
256.191	3405.13
256.57	3448.95
256.949	3495.42
257.328	3540.25
257.707	3588.28
258.086	3637.9
258.465	3687.16
258.843	3739.54
259.222	3791.96
259.601	3847.59
259.979	3903.8
260.358	3958.99
260.736	4013.42
261.115	4070.62
261.493	4125.87
261.872	4177.17
262.25	4235.45
262.629	4293.09
263.007	4357.81
263.385	4417.74
263.763	4482.82
264.142	4547.1
264.52	4614.76
264.898	4683.11
265.276	4749.35
265.654	4820.14
266.032	4891.76
266.41	4965.01
266.788	5040.24
267.166	5118.43
267.544	5193.67
267.921	5271.12
268.299	5351.65
268.677	5433.53
269.055	5518.05
269.432	5605.94
269.81	5692.56
270.188	5781.72
270.565	5871.84
270.943	5963.67
271.32	6057.26
271.697	6153.84
272.075	6250.22
272.452	6345.68
272.829	6444.8
273.207	6549.66
273.584	6658.02
273.961	6764.92
274.338	6878.07
274.715	6993.63
275.092	7111.62
275.469	7234.16
275.846	7357.39
276.223	7478.12
276.6	7600.68
276.977	7727.63
277.354	7855.67
277.731	7984.68
278.108	8116.85
278.484	8248.61
278.861	8380.3
279.238	8520.68
279.614	8661.73
279.991	8804.14
280.367	8950.48
280.744	9101.6
281.12	9252.78
281.497	9397.78
281.873	9553.72
282.249	9704.95
282.625	9854.15
283.002	10002.78
283.378	10155.54
283.754	10304.45
284.13	10462.55
284.506	10621.64
284.882	10779.2
285.258	10934.48
285.634	11090.02
286.01	11249.27
286.386	11410.47
286.762	11576.95
287.138	11739.56
287.513	11902.26
287.889	12069.49
288.265	12231.15
288.641	12391.6
289.016	12552.09
289.392	12719.03
289.767	12882.92
290.143	13051.31
290.518	13213.76
290.894	13382.82
291.269	13542.59
291.644	13705.86
292.02	13862.79
292.395	14018.8
292.77	14172.56
293.145	14329.52
293.52	14492.01
293.895	14644.54
294.27	14800.8
294.646	14954.28
295.02	15106.15
295.395	15259.9
295.77	15413.33
296.145	15569.5
296.52	15727.73
296.895	15878.99
297.269	16033.17
297.644	16188.98
298.019	16335.63
298.393	16488.64
298.768	16641.33
299.143	16798.68
299.517	16951.35
299.891	17109.81
300.266	17272.5
300.64	17433.34
301.015	17598.99
301.389	17769.4
301.763	17949.01
302.137	18124.5
302.512	18303.95
302.886	18483.14
303.26	18668.2
303.634	18849.65
304.008	19026.63
304.382	19213.53
304.756	19404.56
305.13	19597.12
305.504	19779.55
305.877	19975.56
306.251	20185.04
306.625	20389.38
306.999	20595.87
307.372	20811.63
307.746	21033.93
308.119	21248.3
308.493	21461.97
308.866	21673.63
309.24	21888.54
309.613	22094.09
309.987	22306.72
310.36	22506.36
310.733	22715.13
311.107	22934.76
311.48	23158.74
311.853	23394.79
312.226	23618.91
312.599	23855.13
312.972	24078.88
313.345	24311.77
313.718	24543.77
314.091	24766.58
314.464	24997.44
314.837	25226.95
315.21	25440.83
315.582	25655.75
315.955	25867.33
316.328	26089.84
316.7	26312.44
317.073	26537.31
317.446	26768.92
317.818	26997.81
318.191	27238.8
318.563	27467.89
318.936	27675.81
319.308	27884.85
319.68	28092.75
320.053	28290.62
320.425	28477.54
320.797	28662.45
321.169	28827.05
321.541	28975.29
321.913	29107.44
322.285	29225.06
322.657	29348.41
323.029	29501.39
323.401	29647.13
323.773	29819.62
324.145	29997.81
324.517	30186.82
324.889	30365.34
325.26	30563.08
325.632	30779.34
326.004	31012.45
326.375	31268.58
326.747	31543.63
327.118	31845.14
327.49	32132.01
327.861	32442.25
328.233	32748.29
328.604	33059.12
328.975	33376.9
329.346	33690.39
329.718	34005.48
330.089	34317.21
330.46	34621.13
330.831	34895.23
331.202	35155.62
331.573	35403.22
331.944	35633.52
332.315	35861.72
332.686	36080.12
333.057	36284.89
333.428	36469.08
333.799	36638.55
334.169	36795.21
334.54	36936.38
334.911	37058.63
335.281	37190.54
335.652	37317.16
336.022	37455.07
336.393	37608.08
336.763	37779.73
337.134	37971.14
337.504	38171.08
337.874	38375.22
338.245	38576.78
338.615	38797.78
338.985	39026.55
339.355	39252.1
339.726	39482.9
340.096	39712.3
340.466	39968.98
340.836	40210.82
341.206	40453.16
341.576	40707.13
341.945	40956.53
342.315	41200.38
342.685	41443.11
343.055	41701.16
343.425	41943.27
343.794	42176.6
344.164	42406.41
344.533	42640.79
344.903	42872.87
345.273	43114.35
345.642	43343.21
346.011	43580.71
346.381	43809.31
346.75	44051.06
347.12	44297.42
347.489	44547.14
347.858	44786.91
348.227	44997.83
348.596	45228.82
348.965	45469.75
349.334	45694.78
349.704	45938.39
350.072	46181.16
350.441	46421.99
350.81	46665.56
351.179	46894.57
351.548	47134.17
351.917	47361.97
352.285	47555.77
352.654	47760.03
353.023	47964.64
353.391	48168.57
353.76	48383.9
354.129	48585.71
354.497	48813.07
354.865	49029.25
355.234	49260.11
355.602	49476.82
355.971	49727.78
356.339	49938.31
356.707	50156.6
357.075	50375.33
357.443	50594.69
357.811	50807.38
358.18	51016.06
358.548	51217.48
358.916	51432.4
359.284	51650.68
359.651	51866.43
360.019	52082.67
360.387	52288.78
360.755	52490.73
361.123	52720.08
361.49	52943.71
361.858	53157.58
362.226	53354.13
362.593	53565.75
362.961	53743.08
363.328	53949.7
363.696	54117.62
364.063	54335.98
364.43	54546.7
364.798	54762.83
365.165	54944.2
365.532	55133.67
365.899	55322.35
366.267	55491.78
366.634	55639.7
367.001	55800.56
367.368	55935.22
367.735	56129.48
368.102	56306.4
368.469	56495.49
368.835	56675.13
369.202	56837.28
369.569	57025.47
369.936	57217.57
370.303	57402.08
370.669	57602.83
371.036	57769.36
371.402	57973.56
371.769	58163.28
372.135	58315.74
372.502	58440.02
372.868	58586.48
373.235	58727.42
373.601	58859.84
373.967	59036.62
374.333	59230.25
374.7	59424.18
375.066	59637.17
375.432	59817.22
375.798	60001.84
376.164	60172.65
376.53	60320.34
376.896	60495.46
377.262	60675.85
377.628	60803.94
377.993	60951.54
378.359	61098.96
378.725	61262.49
379.091	61412.26
379.456	61541.85
379.822	61676.14
380.187	61838.12
380.553	62029.07
380.918	62233.63
381.284	62426.34
381.649	62592.45
382.015	62728.71
382.38	62847.89
382.745	63010.1
383.11	63168.21
383.476	63318.49
383.841	63452.39
384.206	63612.69
384.571	63735.66
384.936	63865.92
385.301	64041.56
385.666	64177.56
386.031	64333.26
386.396	64497.02
386.76	64648.04
387.125	64845.33
387.49	65048.41
387.855	65238.57
388.219	65406.96
388.584	65583.18
388.948	65770.87
389.313	65941.88
389.677	66154.88
390.042	66392.44
390.406	66552.35
390.771	66744.25
391.135	66922.62
391.499	67161.53
391.863	67398.52
392.227	67642.28
392.592	67851.82
392.956	68050.72
393.32	68253.78
393.684	68478.22
394.048	68654.74
394.412	68838.45
394.775	68985.66
395.139	69135.58
395.503	69290.67
395.867	69447.17
396.231	69590.03
396.594	69693.2
396.958	69832.91
397.321	69998.76
397.685	70123.93
398.048	70271.17
398.412	70403.01
398.775	70540.18
399.139	70664.43
399.502	70781.95
399.865	70925.91
400.228	71120.26
400.592	71257.73
400.955	71454.73
401.318	71589.48
401.681	71745.38
402.044	71891.9
402.407	72053.58
402.77	72212.62
403.133	72416.87
403.496	72560.7
403.859	72708.27
404.221	72952.73
404.584	73193.62
404.947	73437.31
405.309	73660.36
405.672	73906.37
406.034	74132.42
406.397	74396.1
406.759	74624.78
407.122	74810.01
407.484	74984.46
407.847	75169.45
408.209	75423.2
408.571	75647.22
408.933	75902.46
409.296	76170.17
409.658	76426.45
410.02	76689.45
410.382	76978.68
410.744	77210.15
411.106	77477.5
411.468	77737.79
411.83	77944.92
412.191	78116.77
412.553	78255.14
412.915	78419.13
413.277	78579.66
413.638	78734.33
414	78861.89
414.361	78991.69
414.723	79163.42
415.084	79325.66
415.446	79441.86
415.807	79527.96
416.169	79592.19
416.53	79636.66
416.891	79682.61
417.252	79740.51
417.614	79771.82
417.975	79785.44
418.336	79804.25
418.697	79825.67
419.058	79842.34
419.419	79855.97
419.78	79869.97
420.141	79878.33
420.501	79887.48
420.862	79893.12
421.223	79899.24
421.584	79915.23
421.944	79923.27
422.305	79930.1
422.666	79934.12
423.026	79934.34
423.387	79941.35
423.747	79944.71
424.107	79950.39
424.468	79955.41
424.828	79960.21
425.188	79963.5
425.549	79968.19
425.909	79971.92
426.269	79970.78
426.629	79973.99
426.989	79974.99
427.349	79977.98
427.709	79981.31
428.069	79981.9
428.429	79986.03
428.789	79988.95
429.149	79993.42
429.508	79995.94
429.868	79998.49
430.228	80000.67
430.587	80003.73
430.947	80007.21
431.306	80011.31
431.666	80012.12
432.025	80014.41
432.385	80015
432.744	80017.85
433.103	80017.89
433.463	80017.93
433.822	80019.88
434.181	80020.48
434.54	80022.62
434.899	80024.32
435.258	80025.95
435.618	80028.72
435.976	80031.79
436.335	80032.19
436.694	80031.2
437.053	80032.49
437.412	80032.93
437.771	80034.04
438.129	80034.86
438.488	80036.82
438.847	80037.45
439.205	80037.96
439.564	80038.67
439.922	80041.03
440.281	80041.59
440.639	80042.44
440.997	80043.44
441.356	80045.91
441.714	80048.21
442.072	80048.84
442.431	80048.13
442.789	80050.02
443.147	80049.28
443.505	80048.65
443.863	80050.91
444.221	80051.46
444.579	80050.72
444.937	80051.02
445.294	80052.53
445.652	80054.42
446.01	80053.5
446.368	80054.79
446.725	80055.71
447.083	80056.97
447.441	80056.6
447.798	80055.53
448.156	80056.38
448.513	80056.23
448.87	80056.64
449.228	80056.56
449.585	80058.82
449.942	80060.45
450.3	80060.37
450.657	80061.89
451.014	80062.22
451.371	80062.74
451.728	80063.56
452.085	80064.33
452.442	80064.89
452.799	80065.81
453.156	80064.41
453.513	80063.78
453.869	80063.67
454.226	80065.15
454.583	80064.26
454.939	80063.78
455.296	80063.52
455.653	80063
456.009	80061.93
456.366	80061.78
456.722	80060.45
457.078	80058.12
457.435	80057.93
457.791	80058.34
458.147	80057.82
458.503	80058.71
458.86	80057.93
459.216	80057.71
459.572	80056.19
459.928	80055.38
460.284	80055.12
460.64	80057.23
460.996	80057.05
461.351	80056.97
461.707	80055.86
462.063	80057.34
462.419	80057.23
462.774	80057.82
463.13	80058.82
463.486	80060.97
463.841	80062
464.197	80063.22
464.552	80065.59
464.908	80065.37
465.263	80066
465.618	80065.37
465.974	80064.89
466.329	80066.33
466.684	80067.22
467.039	80067.89
467.394	80068.96
467.749	80068.77
468.104	80068.29
468.459	80070.22
468.814	80069.66
469.169	80071.33
469.524	80070.55
469.879	80070.81
470.233	80070.55
470.588	80070.4
470.943	80071.77
471.297	80071.96
471.652	80073.73
472.006	80072.92
472.361	80075.06
472.715	80074.55
473.07	80075.88
473.424	80077.76
473.778	80078.1
474.133	80078.1
474.487	80079.99
474.841	80081.13
475.195	80083.35
475.549	80084.87
475.903	80085.72
476.257	80087.31
476.611	80088.2
476.965	80089.9
477.319	80092.75
477.673	80093.64
478.026	80095.49
478.38	80095.16
478.734	80094.94
479.087	80094.27
479.441	80095.53
479.795	80096.45
480.148	80098.19
480.502	80099.45
480.855	80097.68
481.208	80096.97
481.562	80098.12
481.915	80097.9
482.268	80098.56
482.621	80097.97
482.974	80098.86
483.328	80098.79
483.681	80099.3
484.034	80098.6
484.387	80099.08
484.739	80098.9
485.092	80098.75
485.445	80098.82
485.798	80098.01
486.151	80099.19
486.503	80100.01
486.856	80099.79
487.209	80098.93
487.561	80098.38
487.914	80096.57
488.266	80098.86
488.618	80099.27
488.971	80098.38
489.323	80098.27
489.675	80098.49
490.028	80097.93
490.38	80096.12
490.732	80095.75
491.084	80095.38
491.436	80095.31
491.788	80094.46
492.14	80093.31
492.492	80094.75
492.844	80095.6
493.196	80096.97
493.548	80096.05
493.899	80097.53
494.251	80096.79
494.603	80096.05
494.954	80095.27
495.306	80096.42
495.657	80096.31
496.009	80097.08
496.36	80098.49
496.712	80099.12
497.063	80099.01
497.414	80100.08
497.765	80102.04
498.117	80102.04
498.468	80103.3
498.819	80104.3
499.17	80106.41
499.521	80106.97
499.872	80106.56
500.223	80106.23
500.574	80106
500.924	80107.71
501.275	80106.23
501.626	80105.08
501.977	80105.78
502.327	80106.71
502.678	80107.56
503.029	80107.15
503.379	80106.6
503.73	80106.52
504.08	80106.49
504.43	80106.19
504.781	80105.89
505.131	80104.67
505.481	80104.75
505.831	80104.04
506.182	80102.45
506.532	80101.49
506.882	80100.41
507.232	80101.27
507.582	80099.19
507.932	80098.6
508.281	80098.19
508.631	80099.34
508.981	80101.16
509.331	80100.97
509.681	80099.45
510.03	80099.71
510.38	80098.68
510.729	80098.16
511.079	80097.64
511.428	80097.16
511.778	80098.05
512.127	80096.16
512.476	80095.34
512.826	80096.01
513.175	80095.79
513.524	80097.38
513.873	80096.57
514.222	80096.64
514.571	80097.16
514.92	80099.08
515.269	80099.6
515.618	80098.75
515.967	80097.79
516.316	80097.23
516.665	80097.34
517.014	80097.27
517.362	80096.31
517.711	80098.82
518.059	80099.45
518.408	80098.08
518.757	80098.56
519.105	80097.71
519.453	80099.34
519.802	80100.49
520.15	80100.53
520.498	80101.41
520.847	80101.97
521.195	80102.45
521.543	80102.67
521.891	80101.78
522.239	80102.12
522.587	80103.23
522.935	80105.3
523.283	80104.45
523.631	80104.3
523.979	80104.27
524.326	80105.52
524.674	80104.41
525.022	80103.93
525.369	80104.12
525.717	80105.86
526.064	80106.56
526.412	80107.26
526.759	80107.19
527.107	80106.78
527.454	80106.41
527.801	80105.89
528.149	80106.26
528.496	80107.6
528.843	80109.67
529.19	80109.82
529.537	80108.08
529.884	80107.63
530.231	80107.19
530.578	80107.78
530.925	80108.52
531.272	80108.3
531.619	80109
531.966	80112.22
532.312	80112.52
532.659	80112.82
533.006	80112.04
533.352	80112.08
533.699	80112.89
534.045	80112.37
534.392	80111
534.738	80110.26
535.084	80112.15
535.431	80113.12
535.777	80111.75
536.123	80111.08
536.469	80110.86
536.815	80111.6
537.161	80112.6
537.507	80110.15
537.853	80109.04
538.199	80108.49
538.545	80108.19
538.891	80107.08
539.237	80105.86
539.582	80103.9
539.928	80103.08
540.274	80102.45
540.619	80102.97
540.965	80100.64
541.31	80100.93
541.656	80102.01
542.001	80103.34
542.347	80100.23
542.692	80097.53
543.037	80096.82
543.382	80095.9
543.728	80096.82
544.073	80098.01
544.418	80096.57
544.763	80098.23
545.108	80098.01
545.453	80098.97
545.798	80100.16
546.142	80100.38
546.487	80100.67
546.832	80100.45
547.177	80100.93
547.521	80102.04
547.866	80101.38
548.211	80102.82
548.555	80103.08
548.9	80103.93
549.244	80102.49
549.588	80103.56
549.933	80103.93
550.277	80105.19
550.621	80104.41
550.965	80103.19
551.31	80103.27
551.654	80104.34
551.998	80103.6
552.342	80105.23
552.686	80105.08
553.03	80104.3
553.373	80105.75
553.717	80105.01
554.061	80105.38
554.405	80105
554.748	80104.67
555.092	80104.89
555.436	80104.08
555.779	80103.12
556.123	80103.15
556.466	80103.04
556.81	80102.97
557.153	80103.86
557.496	80102.27
557.839	80104.08
558.183	80104.3
558.526	80103.45
558.869	80102.04
559.212	80101.3
559.555	80100.08
559.898	80099.27
560.241	80099.08
560.584	80096.97
560.927	80096.64
561.269	80097.68
561.612	80097.19
561.955	80098.19
562.297	80096.6
562.64	80095.42
562.983	80096.97
563.325	80097.31
563.668	80098.45
564.01	80097.75
564.352	80096.05
564.695	80096.6
565.037	80095.57
565.379	80096.27
565.721	80095.68
566.063	80095.53
566.406	80097.12
566.748	80098.31
567.09	80096.53
567.431	80096.45
567.773	80096.57
568.115	80096.42
568.457	80095.27
568.799	80096.27
569.14	80094.05
569.482	80094.57
569.824	80095.86
570.165	80094.71
570.507	80095.42
570.848	80094.75
571.19	80095.68
571.531	80096.16
571.872	80095.38
572.214	80095.97
572.555	80094.53
572.896	80095.46
573.237	80094.23
573.578	80092.24
573.919	80091.2
574.26	80093.57
574.601	80092.98
574.942	80092.64
575.283	80090.83
575.624	80091.12
575.964	80091.09
576.305	80091.46
576.646	80092.27
576.986	80092.83
577.327	80092.16
577.667	80090.13
578.008	80089.64
578.348	80090.94
578.689	80091.31
579.029	80090.87
579.369	80089.42
579.71	80090.27
580.05	80088.28
580.39	80088.57
580.73	80090.53
581.07	80091.46
581.41	80090.98
581.75	80089.53
582.09	80089.02
582.43	80090.53
582.769	80090.27
583.109	80089.09
583.449	80087.54
583.789	80086.46
584.128	80083.95
584.468	80083.13
584.807	80084.09
585.147	80084.35
585.486	80082.8
