Data from 24HourExp_27052025_FLMS018081_15-38-21-824.txt Node
Date: Tue May 27 15:38:21 BST 2025
User: adleo
Spectrometer: FLMS01808
Trigger mode: 0
Integration Time (sec): 4.000000E-1
Scans to average: 10
Electric dark correction enabled: true
Nonlinearity correction enabled: true
Boxcar width: 10
XAxis mode: Wavelengths
Number of Pixels in Spectrum: 2048
>>>>>Begin Spectral Data<<<<<
178.471	-121.68
178.857	-114.85
179.244	-108.24
179.631	-99.87
180.017	-92.17
180.404	-84.48
180.79	-74.79
181.176	-66.86
181.563	-58.05
181.949	-46.13
182.335	-36.43
182.722	-21.83
183.108	-3.75
183.494	22.64
183.88	75.29
184.266	127.51
184.653	184.14
185.039	236.18
185.425	291.19
185.811	346.1
186.197	398.32
186.582	449.07
186.968	500.2
187.354	550.43
187.74	599.79
188.126	650.31
188.511	699.4
188.897	747.88
189.283	796.19
189.668	841.78
190.054	883.52
190.439	927.62
190.825	970.78
191.21	1010.76
191.596	1042.34
191.981	1050.34
192.366	1055.46
192.752	1055.98
193.137	1060.33
193.522	1060.35
193.908	1060.41
194.293	1064.21
194.678	1067.53
195.063	1069.62
195.448	1073.03
195.833	1073.25
196.218	1069.85
196.603	1069.5
196.988	1066.58
197.373	1066.08
197.757	1065.9
198.142	1066.73
198.527	1065.68
198.912	1066.02
199.296	1066.75
199.681	1065.71
200.066	1065.29
200.45	1062.69
200.835	1062.51
201.219	1062.77
201.604	1061.86
201.988	1063.57
202.372	1064.65
202.757	1063.51
203.141	1065.25
203.525	1064.33
203.91	1064.76
204.294	1068.16
204.678	1068.92
205.062	1070.01
205.446	1069.81
205.83	1072.62
206.214	1073.3
206.598	1075.78
206.982	1077.57
207.366	1077.29
207.75	1079.92
208.134	1080.43
208.517	1082.57
208.901	1084.16
209.285	1085.66
209.669	1088.98
210.052	1088.38
210.436	1087.68
210.819	1087.99
211.203	1084.77
211.586	1085.11
211.97	1085.29
212.353	1084.68
212.737	1085.85
213.12	1089.72
213.503	1091.01
213.886	1090.94
214.27	1092.85
214.653	1092.86
215.036	1093.4
215.419	1095.24
215.802	1095.76
216.185	1096.77
216.568	1101.44
216.951	1102.31
217.334	1104.02
217.717	1106.79
218.1	1109.1
218.482	1113.53
218.865	1117.79
219.248	1123.55
219.631	1129.23
220.013	1136.22
220.396	1145.06
220.778	1151.16
221.161	1154.92
221.544	1161.1
221.926	1168.42
222.308	1173.36
222.691	1179.75
223.073	1187.48
223.455	1195.81
223.838	1205.14
224.22	1216.25
224.602	1226.39
224.984	1237.82
225.366	1248.21
225.749	1260.9
226.131	1274.03
226.513	1286.09
226.895	1299.75
227.276	1314.05
227.658	1328.2
228.04	1340.32
228.422	1353.03
228.804	1369.9
229.186	1385.03
229.567	1401.72
229.949	1417.57
230.331	1435.18
230.712	1453.36
231.094	1471.05
231.475	1490.07
231.857	1510.67
232.238	1528.5
232.62	1545.25
233.001	1564.66
233.382	1586.12
233.763	1605.63
234.145	1625.04
234.526	1643.26
234.907	1662.26
235.288	1680.94
235.669	1701.45
236.05	1723.24
236.431	1743.67
236.812	1762.06
237.193	1785.23
237.574	1806.66
237.955	1827.34
238.336	1848.95
238.717	1869.72
239.097	1894.7
239.478	1916.29
239.859	1936.12
240.239	1960.78
240.62	1984.57
241.001	2007.55
241.381	2031.35
241.762	2051.91
242.142	2074.66
242.522	2098.62
242.903	2123.36
243.283	2147.03
243.663	2172.41
244.044	2198.99
244.424	2226.26
244.804	2254.71
245.184	2280.59
245.564	2308.05
245.944	2338.39
246.324	2369.2
246.704	2401.2
247.084	2426.3
247.464	2457.06
247.844	2487.42
248.224	2517.61
248.604	2548.98
248.983	2579.04
249.363	2610.3
249.743	2641.49
250.122	2671.62
250.502	2703.29
250.882	2732.15
251.261	2766.85
251.641	2797.78
252.02	2828.87
252.399	2863.28
252.779	2898.01
253.158	2934.28
253.537	2971.81
253.917	3013.12
254.296	3050.29
254.675	3087.02
255.054	3127.86
255.433	3169.55
255.812	3209.32
256.191	3248.24
256.57	3287.4
256.949	3334.16
257.328	3376.8
257.707	3421.74
258.086	3469.01
258.465	3515.98
258.843	3568.04
259.222	3616.53
259.601	3667.02
259.979	3720.5
260.358	3769.93
260.736	3823.86
261.115	3878.69
261.493	3930.81
261.872	3981.86
262.25	4037.43
262.629	4092.29
263.007	4151.4
263.385	4207.93
263.763	4269.63
264.142	4332.56
264.52	4393.83
264.898	4455.06
265.276	4519.47
265.654	4590.54
266.032	4659.98
266.41	4727.16
266.788	4795.57
267.166	4872.19
267.544	4947.65
267.921	5024.63
268.299	5104.3
268.677	5179.42
269.055	5260.82
269.432	5345.3
269.81	5427.57
270.188	5511.79
270.565	5600.86
270.943	5688.17
271.32	5777.74
271.697	5871.04
272.075	5964.52
272.452	6063.29
272.829	6161.31
273.207	6260.95
273.584	6360.06
273.961	6462
274.338	6570.57
274.715	6686.16
275.092	6800.17
275.469	6920.94
275.846	7040.84
276.223	7158.26
276.6	7277.37
276.977	7402.16
277.354	7525.22
277.731	7647.81
278.108	7778.32
278.484	7907.22
278.861	8033.84
279.238	8170.74
279.614	8304.45
279.991	8446.14
280.367	8586.79
280.744	8731.44
281.12	8877.25
281.497	9019.97
281.873	9171.73
282.249	9321.86
282.625	9463.1
283.002	9607.53
283.378	9751.04
283.754	9897.38
284.13	10050.57
284.506	10210.61
284.882	10362.8
285.258	10514.36
285.634	10671.86
286.01	10834.15
286.386	10992.27
286.762	11163.88
287.138	11324.03
287.513	11487.62
287.889	11646.88
288.265	11808.95
288.641	11965.36
289.016	12124.38
289.392	12288.07
289.767	12447.87
290.143	12611.83
290.518	12774.47
290.894	12937.64
291.269	13097.92
291.644	13253.56
292.02	13405.19
292.395	13559.55
292.77	13712.57
293.145	13868.81
293.52	14027.62
293.895	14170.38
294.27	14324.47
294.646	14470.98
295.02	14620.52
295.395	14773.23
295.77	14923.93
296.145	15076.9
296.52	15231.41
296.895	15385.18
297.269	15538.97
297.644	15686.57
298.019	15836.01
298.393	15988.17
298.768	16138.15
299.143	16290.9
299.517	16442.99
299.891	16602.95
300.266	16756.75
300.64	16915.03
301.015	17078.88
301.389	17240.76
301.763	17415.21
302.137	17583.68
302.512	17761.94
302.886	17938.18
303.26	18119.8
303.634	18303.28
304.008	18473.36
304.382	18653.85
304.756	18835.83
305.13	19020.83
305.504	19204.41
305.877	19392.16
306.251	19591.3
306.625	19790.2
306.999	19996.35
307.372	20205.58
307.746	20421.15
308.119	20633.55
308.493	20839.28
308.866	21050.24
309.24	21257.83
309.613	21463.75
309.987	21672.22
310.36	21859.64
310.733	22062.31
311.107	22267.43
311.48	22478.76
311.853	22709.6
312.226	22930.55
312.599	23153.15
312.972	23378.01
313.345	23599.62
313.718	23830.4
314.091	24053.81
314.464	24279.04
314.837	24493.98
315.21	24708.36
315.582	24922.24
315.955	25128.65
316.328	25348.69
316.7	25562.75
317.073	25786.72
317.446	26004.56
317.818	26227.25
318.191	26462.88
318.563	26683.23
318.936	26892.53
319.308	27092.92
319.68	27295.78
320.053	27487.55
320.425	27674.44
320.797	27847
321.169	28010.26
321.541	28151.9
321.913	28285.24
322.285	28404.55
322.657	28531.7
323.029	28674.93
323.401	28811.74
323.773	28975.41
324.145	29143.73
324.517	29321.39
324.889	29494.99
325.26	29698.65
325.632	29911.92
326.004	30143.5
326.375	30395
326.747	30668.19
327.118	30970.36
327.49	31250.47
327.861	31562.29
328.233	31866.87
328.604	32176.43
328.975	32491.82
329.346	32793.56
329.718	33093.75
330.089	33392.31
330.46	33682.74
330.831	33954.37
331.202	34211.66
331.573	34457.21
331.944	34682.72
332.315	34908.4
332.686	35120.23
333.057	35312.19
333.428	35488.48
333.799	35658.63
334.169	35813.15
334.54	35953.77
334.911	36065.47
335.281	36193.17
335.652	36314.33
336.022	36442.63
336.393	36585.13
336.763	36745.63
337.134	36931.17
337.504	37134.37
337.874	37337.28
338.245	37543.91
338.615	37758.46
338.985	37985.6
339.355	38203.01
339.726	38424.43
340.096	38648.71
340.466	38898.85
340.836	39134.1
341.206	39377.82
341.576	39619.36
341.945	39863.31
342.315	40093.52
342.685	40340.94
343.055	40587.06
343.425	40820.53
343.794	41058.03
344.164	41284.94
344.533	41518.83
344.903	41744.71
345.273	41970.26
345.642	42197.51
346.011	42422.07
346.381	42646.71
346.75	42875.35
347.12	43125.1
347.489	43376
347.858	43617.33
348.227	43826.46
348.596	44053.51
348.965	44287.23
349.334	44509.96
349.704	44743.52
350.072	44982.55
350.441	45209.16
350.81	45453.61
351.179	45682.14
351.548	45912.32
351.917	46136.45
352.285	46329.83
352.654	46539.36
353.023	46745.46
353.391	46944.98
353.76	47162.43
354.129	47350.79
354.497	47578.74
354.865	47791.25
355.234	48018.36
355.602	48232.47
355.971	48478.73
356.339	48691.23
356.707	48907.74
357.075	49129.93
357.443	49352.1
357.811	49566.02
358.18	49781.55
358.548	49987.41
358.916	50196.87
359.284	50414.73
359.651	50631.37
360.019	50855.82
360.387	51053.89
360.755	51251.84
361.123	51471.34
361.49	51691.82
361.858	51912.83
362.226	52109.56
362.593	52307.16
362.961	52488.74
363.328	52688.22
363.696	52855.92
364.063	53067.97
364.43	53267.16
364.798	53480.22
365.165	53660.28
365.532	53846.34
365.899	54028.3
366.267	54191.34
366.634	54350.23
367.001	54512.63
367.368	54652.97
367.735	54827.13
368.102	55003.69
368.469	55194.4
368.835	55377.77
369.202	55535.45
369.569	55722.5
369.936	55910.11
370.303	56093.61
370.669	56287.74
371.036	56455.99
371.402	56657.77
371.769	56839.33
372.135	56990.38
372.502	57112.09
372.868	57255.81
373.235	57396.63
373.601	57532.58
373.967	57704.77
374.333	57884.36
374.7	58063.81
375.066	58262.02
375.432	58445.08
375.798	58624.73
376.164	58793.55
376.53	58935.12
376.896	59108.67
377.262	59285.12
377.628	59409.3
377.993	59551.34
378.359	59697.26
378.725	59851.11
379.091	59992.36
379.456	60121.69
379.822	60256.97
380.187	60403.03
380.553	60585.18
380.918	60777.83
381.284	60958.35
381.649	61123.43
382.015	61259.14
382.38	61378.71
382.745	61545.17
383.11	61696.64
383.476	61837.23
383.841	61962.25
384.206	62120.25
384.571	62229.67
384.936	62362.86
385.301	62533.27
385.666	62667.78
386.031	62813.2
386.396	62974.31
386.76	63127.45
387.125	63312.77
387.49	63512.88
387.855	63701.89
388.219	63866.5
388.584	64025.21
388.948	64207.31
389.313	64366.92
389.677	64568.55
390.042	64798.14
390.406	64951.14
390.771	65129.04
391.135	65316.62
391.499	65538.09
391.863	65767.43
392.227	66013.06
392.592	66207.21
392.956	66393.32
393.32	66584.57
393.684	66798.94
394.048	66965.73
394.412	67140.71
394.775	67290.96
395.139	67434.41
395.503	67591.6
395.867	67736.87
396.231	67884.07
396.594	67987.05
396.958	68118.51
397.321	68272.06
397.685	68384.2
398.048	68520.29
398.412	68655.73
398.775	68779.81
399.139	68901.58
399.502	69005.58
399.865	69138.53
400.228	69322.17
400.592	69461.59
400.955	69659.35
401.318	69792.36
401.681	69952.98
402.044	70090.41
402.407	70240.6
402.77	70395.57
403.133	70577.56
403.496	70723.65
403.859	70872.14
404.221	71104.68
404.584	71350.2
404.947	71584.08
405.309	71792.21
405.672	72020.08
406.034	72238.1
406.397	72493.77
406.759	72716.99
407.122	72894.57
407.484	73061.51
407.847	73254.13
408.209	73502.35
408.571	73726.3
408.933	73986.61
409.296	74232.9
409.658	74472.4
410.02	74754.58
410.382	75074.27
410.744	75337.6
411.106	75620.63
411.468	75899.57
411.83	76142.41
412.191	76336.67
412.553	76524.3
412.915	76757.52
413.277	76981.55
413.638	77196.73
414	77366.49
414.361	77558.17
414.723	77810.32
415.084	78052.41
415.446	78242.12
415.807	78403.98
416.169	78543.66
416.53	78659.55
416.891	78793.29
417.252	78950.81
417.614	79051.81
417.975	79111.51
418.336	79188.2
418.697	79273.45
419.058	79349.58
419.419	79411.64
419.78	79481.18
420.141	79538.07
420.501	79583.46
420.862	79622.72
421.223	79656.4
421.584	79718.07
421.944	79759.47
422.305	79784.05
422.666	79800.52
423.026	79808.52
423.387	79826.32
423.747	79840.23
424.107	79854.15
424.468	79872.12
424.828	79882.74
425.188	79890.83
425.549	79900.82
425.909	79909.97
426.269	79908.53
426.629	79915.39
426.989	79920.52
427.349	79928.93
427.709	79934.17
428.069	79938.16
428.429	79945.65
428.789	79953.37
429.149	79960.91
429.508	79965.3
429.868	79970.36
430.228	79976.49
430.587	79980.74
430.947	79986.02
431.306	79991.38
431.666	79995.22
432.025	79997.03
432.385	79999.1
432.744	80001.24
433.103	80003.13
433.463	80007.16
433.822	80018.82
434.181	80024.22
434.54	80028.84
434.899	80032.5
435.258	80036.31
435.618	80038.9
435.976	80040.71
436.335	80041.78
436.694	80043.23
437.053	80043.6
437.412	80044.48
437.771	80047.22
438.129	80048.99
438.488	80051.88
438.847	80053.06
439.205	80054.58
439.564	80056.17
439.922	80057.94
440.281	80058.79
440.639	80062.35
440.997	80062.05
441.356	80062.9
441.714	80062.16
442.072	80062.27
442.431	80060.79
442.789	80059.13
443.147	80057.32
443.505	80057.2
443.863	80058.61
444.221	80055.43
444.579	80057.61
444.937	80058.91
445.294	80059.54
445.652	80061.2
446.01	80059.94
446.368	80061.94
446.725	80063.79
447.083	80065.75
447.441	80065.42
447.798	80066.6
448.156	80066.16
448.513	80067.38
448.87	80065.53
449.228	80067.53
449.585	80068.04
449.942	80068.82
450.3	80071.23
450.657	80073.63
451.014	80076.15
451.371	80076.11
451.728	80077.92
452.085	80077.66
452.442	80079.29
452.799	80077.4
453.156	80077.81
453.513	80078.03
453.869	80078.44
454.226	80078.33
454.583	80076.22
454.939	80075.89
455.296	80074
455.653	80073.56
456.009	80073.52
456.366	80074.04
456.722	80073.89
457.078	80074.63
457.435	80074.44
457.791	80073.67
458.147	80072.67
458.503	80072.19
458.86	80072.67
459.216	80074.89
459.572	80074.67
459.928	80073.74
460.284	80075.63
460.64	80075.7
460.996	80076.66
461.351	80076
461.707	80076.96
462.063	80078.29
462.419	80079.07
462.774	80080.84
463.13	80081.66
463.486	80080.51
463.841	80079.92
464.197	80079.88
464.552	80080.25
464.908	80080.96
465.263	80081.07
465.618	80083.69
465.974	80083.95
466.329	80084.47
466.684	80083.73
467.039	80084.58
467.394	80087.21
467.749	80087.06
468.104	80087.69
468.459	80089.32
468.814	80090.32
469.169	80089.77
469.524	80091.17
469.879	80093.84
470.233	80093.65
470.588	80095.21
470.943	80096.69
471.297	80099.35
471.652	80100.68
472.006	80100.87
472.361	80103.2
472.715	80105.46
473.07	80104.5
473.424	80105.42
473.778	80105.94
474.133	80106.5
474.487	80105.87
474.841	80105.27
475.195	80106.42
475.549	80107.83
475.903	80106.35
476.257	80106.01
476.611	80105.46
476.965	80104.87
477.319	80102.72
477.673	80104.16
478.026	80102.98
478.38	80103.87
478.734	80104.09
479.087	80103.02
479.441	80102.94
479.795	80102.76
480.148	80102.87
480.502	80103.05
480.855	80104.05
481.208	80104.64
481.562	80105.13
481.915	80105.83
482.268	80105.53
482.621	80106.05
482.974	80105.01
483.328	80105.87
483.681	80105.42
484.034	80106.98
484.387	80107.16
484.739	80108.57
485.092	80108.53
485.445	80109.35
485.798	80110.01
486.151	80109.94
486.503	80110.64
486.856	80110.6
487.209	80111.86
487.561	80110.27
487.914	80111.31
488.266	80112.01
488.618	80110.83
488.971	80110.57
489.323	80110.27
489.675	80111.75
490.028	80111.75
490.38	80111.49
490.732	80111.83
491.084	80113.57
491.436	80113.79
491.788	80114.6
492.14	80114.9
492.492	80115.86
492.844	80116.57
493.196	80116.38
493.548	80118.16
493.899	80120.71
494.251	80122.68
494.603	80120.2
494.954	80122.2
495.306	80123.08
495.657	80122.08
496.009	80123.53
496.36	80124.01
496.712	80125.01
497.063	80123.56
497.414	80124.9
497.765	80126.34
498.117	80126.23
498.468	80126.42
498.819	80126.16
499.17	80125.97
499.521	80126.08
499.872	80124.94
500.223	80124.86
500.574	80125.86
500.924	80126.71
501.275	80127.01
501.626	80125.08
501.977	80126.71
502.327	80127.19
502.678	80127.23
503.029	80126.68
503.379	80125.79
503.73	80126.64
504.08	80126.16
504.43	80126.08
504.781	80125.49
505.131	80124.71
505.481	80126.12
505.831	80126.05
506.182	80126.08
506.532	80126.53
506.882	80126.53
507.232	80126.97
507.582	80126.01
507.932	80123.97
508.281	80122.05
508.631	80120.27
508.981	80120.49
509.331	80120.97
509.681	80118.86
510.03	80118.38
510.38	80118.42
510.729	80118.82
511.079	80117.38
511.428	80119.16
511.778	80118.27
512.127	80117.38
512.476	80116.75
512.826	80116.23
513.175	80115.49
513.524	80114.53
513.873	80114.16
514.222	80113.79
514.571	80115.05
514.92	80116.12
515.269	80116.86
515.618	80115.64
515.967	80115.71
516.316	80116.46
516.665	80116.2
517.014	80116.23
517.362	80114.79
517.711	80113.27
518.059	80113.27
518.408	80113.94
518.757	80111.42
519.105	80112.27
519.453	80113.12
519.802	80112.94
520.15	80112.38
520.498	80112.83
520.847	80113.27
521.195	80113.75
521.543	80114.79
521.891	80113.98
522.239	80113.23
522.587	80113.49
522.935	80115.27
523.283	80113.75
523.631	80114.53
523.979	80112.9
524.326	80113.57
524.674	80114.05
525.022	80116.53
525.369	80116.97
525.717	80116.42
526.064	80118.75
526.412	80119.08
526.759	80117.57
527.107	80117.23
527.454	80118.53
527.801	80118.16
528.149	80119.31
528.496	80120.08
528.843	80119.42
529.19	80118.83
529.537	80119.86
529.884	80121.23
530.231	80121.27
530.578	80122.38
530.925	80121.75
531.272	80122.42
531.619	80123.9
531.966	80123.79
532.312	80123.94
532.659	80124.42
533.006	80125.31
533.352	80125.01
533.699	80124.86
534.045	80126.6
534.392	80126.45
534.738	80126.75
535.084	80126.38
535.431	80126.42
535.777	80124.05
536.123	80123.53
536.469	80125.23
536.815	80123.57
537.161	80121.6
537.507	80121.49
537.853	80122.79
538.199	80121.38
538.545	80121.38
538.891	80119.49
539.237	80120.31
539.582	80121.49
539.928	80120.38
540.274	80120.72
540.619	80121.12
540.965	80120.75
541.31	80119.23
541.656	80120.31
542.001	80119.2
542.347	80122.16
542.692	80122.42
543.037	80123.12
543.382	80124.16
543.728	80123.94
544.073	80124.71
544.418	80124.9
544.763	80125.01
545.108	80124.16
545.453	80124.82
545.798	80123.38
546.142	80122.75
546.487	80123.71
546.832	80123.34
547.177	80123.49
547.521	80122.86
547.866	80122.75
548.211	80122.05
548.555	80124.2
548.9	80125.16
549.244	80123.75
549.588	80121.09
549.933	80118.97
550.277	80118.6
550.621	80117.9
550.965	80115.98
551.31	80115.94
551.654	80116.01
551.998	80114.35
552.342	80114.46
552.686	80115.64
553.03	80117.75
553.373	80120.49
553.717	80119.08
554.061	80116.64
554.405	80115.94
554.748	80116.64
555.092	80116.68
555.436	80118.12
555.779	80116.6
556.123	80116.94
556.466	80118.97
556.81	80120.49
557.153	80121.68
557.496	80122.9
557.839	80124.45
558.183	80125.31
558.526	80125.64
558.869	80127.16
559.212	80129.86
559.555	80130.27
559.898	80129.08
560.241	80129.82
560.584	80129.45
560.927	80129.27
561.269	80130.38
561.612	80132.93
561.955	80131.49
562.297	80130.64
562.64	80130.31
562.983	80129.27
563.325	80130.31
563.668	80129.79
564.01	80129.49
564.352	80128.9
564.695	80128.12
565.037	80126.86
565.379	80127.49
565.721	80127.08
566.063	80126.86
566.406	80126.38
566.748	80125.42
567.09	80125.57
567.431	80124.27
567.773	80124.23
568.115	80124.71
568.457	80124.01
568.799	80122.16
569.14	80121.82
569.482	80122.05
569.824	80121.49
570.165	80121.49
570.507	80118.42
570.848	80118.01
571.19	80116.27
571.531	80116.12
571.872	80116.86
572.214	80116.23
572.555	80115.57
572.896	80116.34
573.237	80114.86
573.578	80112.05
573.919	80112.35
574.26	80113.27
574.601	80113.34
574.942	80110.31
575.283	80109.98
575.624	80110.24
575.964	80110.38
576.305	80110.79
576.646	80109.09
576.986	80107.94
577.327	80107.38
577.667	80107.64
578.008	80108.79
578.348	80109.61
578.689	80109.35
579.029	80108.2
579.369	80108.68
579.71	80108.53
580.05	80106.53
580.39	80106.35
580.73	80104.83
581.07	80103.42
581.41	80102.42
581.75	80101.42
582.09	80102.91
582.43	80102.24
582.769	80102.54
583.109	80100.5
583.449	80099.54
583.789	80100.87
584.128	80101.94
584.468	80103.09
584.807	80102.5
585.147	80101.05
585.486	80099.94
