Data from 24HourExp_27052025_FLMS018081_16-18-21-808.txt Node
Date: Tue May 27 16:18:21 BST 2025
User: adleo
Spectrometer: FLMS01808
Trigger mode: 0
Integration Time (sec): 4.000000E-1
Scans to average: 10
Electric dark correction enabled: true
Nonlinearity correction enabled: true
Boxcar width: 10
XAxis mode: Wavelengths
Number of Pixels in Spectrum: 2048
>>>>>Begin Spectral Data<<<<<
178.471	-120.68
178.857	-113.85
179.244	-107.83
179.631	-99.81
180.017	-93.3
180.404	-86.55
180.79	-75.8
181.176	-66.86
181.563	-58.64
181.949	-46.51
182.335	-37.35
182.722	-22.3
183.108	-3.09
183.494	22.84
183.88	75.24
184.266	128.3
184.653	183.62
185.039	237.96
185.425	293.71
185.811	346.11
186.197	397.55
186.582	448.17
186.968	499.76
187.354	550.53
187.74	601.86
188.126	652.05
188.511	702.3
188.897	749.45
189.283	795.78
189.668	842.23
190.054	883.7
190.439	930
190.825	974.01
191.21	1013.85
191.596	1046.76
191.981	1055.31
192.366	1060.57
192.752	1061.77
193.137	1064.13
193.522	1064.49
193.908	1068.05
194.293	1072.32
194.678	1076.84
195.063	1079.68
195.448	1082.42
195.833	1080.81
196.218	1081.89
196.603	1082.07
196.988	1081.98
197.373	1082.97
197.757	1083.44
198.142	1084.74
198.527	1082.34
198.912	1082.33
199.296	1081.9
199.681	1081.55
200.066	1079.59
200.45	1077.39
200.835	1078.48
201.219	1080.08
201.604	1079.76
201.988	1079.49
202.372	1079.94
202.757	1078.19
203.141	1076.75
203.525	1075.8
203.91	1077.82
204.294	1077.58
204.678	1076.52
205.062	1074.75
205.446	1075.41
205.83	1076.36
206.214	1075.89
206.598	1076.68
206.982	1077.51
207.366	1076.63
207.75	1077.01
208.134	1079.65
208.517	1083.27
208.901	1082.23
209.285	1082.88
209.669	1084.01
210.052	1084.53
210.436	1085.55
210.819	1087.7
211.203	1089.02
211.586	1091.01
211.97	1090.42
212.353	1090.67
212.737	1093.36
213.12	1096.91
213.503	1096.4
213.886	1095.88
214.27	1098.4
214.653	1100.9
215.036	1101.19
215.419	1103.46
215.802	1105.51
216.185	1106.99
216.568	1109.34
216.951	1112.45
217.334	1114.02
217.717	1117.7
218.1	1118.8
218.482	1120.86
218.865	1122.65
219.248	1126.52
219.631	1131.51
220.013	1138.18
220.396	1144.97
220.778	1149.71
221.161	1154.85
221.544	1161.31
221.926	1169.68
222.308	1177.1
222.691	1183.77
223.073	1192.07
223.455	1201.63
223.838	1209.71
224.22	1217.95
224.602	1227.13
224.984	1237.76
225.366	1249.1
225.749	1261.83
226.131	1274.59
226.513	1287.36
226.895	1302.08
227.276	1315.93
227.658	1328.43
228.04	1342.46
228.422	1357.74
228.804	1374.7
229.186	1391.86
229.567	1408.96
229.949	1425.34
230.331	1442.12
230.712	1459.67
231.094	1477.79
231.475	1496.1
231.857	1515.92
232.238	1534.71
232.62	1552.17
233.001	1571.38
233.382	1593.3
233.763	1612.39
234.145	1634
234.526	1653.38
234.907	1671.18
235.288	1689.71
235.669	1710.95
236.05	1732.1
236.431	1749.99
236.812	1770.08
237.193	1790.83
237.574	1810.19
237.955	1831.72
238.336	1853.46
238.717	1874.98
239.097	1898.94
239.478	1919.16
239.859	1940.48
240.239	1965.71
240.62	1988.32
241.001	2009.52
241.381	2032.75
241.762	2055.18
242.142	2077.05
242.522	2101.58
242.903	2127.78
243.283	2154.55
243.663	2178.52
244.044	2203.9
244.424	2233.76
244.804	2260.93
245.184	2288.66
245.564	2318.66
245.944	2348.42
246.324	2376.32
246.704	2404.75
247.084	2431.8
247.464	2464.27
247.844	2495.4
248.224	2523.79
248.604	2555.8
248.983	2588.18
249.363	2618.17
249.743	2647.72
250.122	2678.24
250.502	2708.48
250.882	2739.31
251.261	2769.84
251.641	2803.57
252.02	2837.15
252.399	2871.9
252.779	2907.97
253.158	2941.93
253.537	2980.24
253.917	3024.42
254.296	3064.28
254.675	3107.61
255.054	3148.9
255.433	3188.95
255.812	3228.12
256.191	3268.57
256.57	3311.73
256.949	3355.09
257.328	3399.6
257.707	3446.85
258.086	3494.7
258.465	3541.46
258.843	3590.54
259.222	3641.19
259.601	3693.76
259.979	3747.79
260.358	3799.08
260.736	3851.74
261.115	3908.89
261.493	3963.65
261.872	4011.81
262.25	4064.87
262.629	4117.29
263.007	4175.69
263.385	4235.64
263.763	4296.35
264.142	4360.78
264.52	4424.85
264.898	4488.42
265.276	4553.49
265.654	4620.54
266.032	4688.17
266.41	4758.74
266.788	4832.73
267.166	4909.14
267.544	4980.74
267.921	5053.47
268.299	5131.53
268.677	5208.36
269.055	5290.51
269.432	5372.6
269.81	5458.96
270.188	5548.22
270.565	5634.2
270.943	5724.01
271.32	5810.83
271.697	5904.76
272.075	5996.24
272.452	6089.12
272.829	6189
273.207	6286.72
273.584	6388.17
273.961	6492.54
274.338	6600.72
274.715	6716.66
275.092	6831.41
275.469	6951.89
275.846	7069.8
276.223	7188.65
276.6	7309.22
276.977	7430.41
277.354	7553.09
277.731	7677.33
278.108	7804.02
278.484	7933.16
278.861	8061.54
279.238	8200.46
279.614	8338.51
279.991	8481.52
280.367	8624.22
280.744	8770.28
281.12	8920.23
281.497	9065.01
281.873	9214.3
282.249	9361.66
282.625	9501.84
283.002	9643.22
283.378	9789.75
283.754	9937.99
284.13	10090.19
284.506	10248.57
284.882	10403.91
285.258	10557.87
285.634	10711.75
286.01	10870.07
286.386	11025.91
286.762	11190.55
287.138	11350.61
287.513	11514.57
287.889	11675.52
288.265	11831.92
288.641	11987.8
289.016	12145.88
289.392	12309.29
289.767	12470.88
290.143	12636.33
290.518	12795.15
290.894	12960.63
291.269	13118.11
291.644	13274.99
292.02	13427
292.395	13574.32
292.77	13728.2
293.145	13883.32
293.52	14034.41
293.895	14180.47
294.27	14337.07
294.646	14486.08
295.02	14631.45
295.395	14781.27
295.77	14933.75
296.145	15090.56
296.52	15244.49
296.895	15394.43
297.269	15545.97
297.644	15694.66
298.019	15841.83
298.393	15994.42
298.768	16145.36
299.143	16297.9
299.517	16450.61
299.891	16608.77
300.266	16769.86
300.64	16925.57
301.015	17083.85
301.389	17253.74
301.763	17430
302.137	17597.44
302.512	17772.6
302.886	17944.46
303.26	18117.94
303.634	18292.56
304.008	18461.58
304.382	18639.35
304.756	18824.81
305.13	19004.71
305.504	19181.25
305.877	19368.85
306.251	19572.42
306.625	19769.29
306.999	19974.14
307.372	20186.67
307.746	20403.26
308.119	20614.27
308.493	20817.68
308.866	21030.64
309.24	21238.17
309.613	21441.81
309.987	21648.44
310.36	21841.85
310.733	22048.78
311.107	22262.22
311.48	22477.42
311.853	22707.25
312.226	22928.09
312.599	23149.98
312.972	23377.14
313.345	23610.4
313.718	23835.15
314.091	24048.4
314.464	24274.96
314.837	24496.24
315.21	24701.68
315.582	24910.14
315.955	25116.98
316.328	25341.22
316.7	25547.37
317.073	25765.81
317.446	25987.37
317.818	26217.24
318.191	26447.67
318.563	26673.78
318.936	26879.9
319.308	27083.13
319.68	27289.89
320.053	27483.62
320.425	27671.89
320.797	27848.66
321.169	28000.43
321.541	28143.97
321.913	28276.52
322.285	28387.98
322.657	28510.69
323.029	28656.94
323.401	28795.91
323.773	28959.64
324.145	29123.6
324.517	29313.77
324.889	29489.06
325.26	29683.21
325.632	29893.44
326.004	30127.04
326.375	30376.71
326.747	30649.85
327.118	30950.7
327.49	31235.91
327.861	31547.03
328.233	31843.01
328.604	32148.6
328.975	32461.71
329.346	32771.44
329.718	33080.4
330.089	33385.17
330.46	33674.27
330.831	33944.56
331.202	34201.34
331.573	34450.54
331.944	34674.51
332.315	34892.39
332.686	35111.11
333.057	35306.39
333.428	35474.22
333.799	35641.14
334.169	35792.99
334.54	35928.36
334.911	36039.58
335.281	36160.62
335.652	36277.21
336.022	36419.24
336.393	36564.38
336.763	36736.36
337.134	36922.53
337.504	37116.36
337.874	37320.52
338.245	37525.11
338.615	37739.41
338.985	37967.49
339.355	38179.03
339.726	38407.78
340.096	38628.84
340.466	38870.76
340.836	39111.55
341.206	39363.27
341.576	39605.34
341.945	39848.03
342.315	40082.84
342.685	40323.54
343.055	40571.26
343.425	40811.14
343.794	41034.89
344.164	41266.49
344.533	41492.65
344.903	41710.81
345.273	41946.97
345.642	42161.5
346.011	42392.09
346.381	42622.53
346.75	42845.23
347.12	43087.11
347.489	43330.64
347.858	43572.64
348.227	43781.96
348.596	44006.31
348.965	44242.04
349.334	44466.77
349.704	44702.29
350.072	44941.31
350.441	45167.39
350.81	45406.47
351.179	45635.12
351.548	45874.45
351.917	46094.56
352.285	46288.77
352.654	46496.03
353.023	46692.58
353.391	46900.07
353.76	47110.52
354.129	47301.5
354.497	47531.71
354.865	47753.91
355.234	47982.11
355.602	48200.39
355.971	48453.78
356.339	48669.11
356.707	48884.13
357.075	49101.2
357.443	49321.94
357.811	49533.59
358.18	49745.51
358.548	49952.61
358.916	50162.99
359.284	50376.56
359.651	50591.56
360.019	50816.52
360.387	51021.06
360.755	51227.46
361.123	51451.73
361.49	51672.51
361.858	51887.69
362.226	52085.41
362.593	52281.31
362.961	52462.77
363.328	52667.56
363.696	52825.72
364.063	53031.69
364.43	53236.58
364.798	53452.95
365.165	53631.08
365.532	53818.02
365.899	54007.64
366.267	54165.69
366.634	54314.29
367.001	54476.24
367.368	54611.23
367.735	54785.6
368.102	54964.26
368.469	55153.69
368.835	55333.02
369.202	55497.8
369.569	55684.48
369.936	55875.7
370.303	56058.89
370.669	56250.41
371.036	56406.56
371.402	56613.16
371.769	56798.8
372.135	56941.35
372.502	57057.15
372.868	57194.72
373.235	57339.78
373.601	57476.9
373.967	57650.84
374.333	57830.27
374.7	58008.78
375.066	58209.24
375.432	58388.1
375.798	58564.41
376.164	58728.78
376.53	58876.38
376.896	59043.61
377.262	59217.41
377.628	59343.18
377.993	59485.05
378.359	59637.83
378.725	59795.54
379.091	59938.75
379.456	60066.97
379.822	60198.39
380.187	60348.48
380.553	60538.28
380.918	60725.93
381.284	60900.71
381.649	61071.16
382.015	61214.33
382.38	61331.96
382.745	61498.12
383.11	61646.27
383.476	61781.57
383.841	61905.58
384.206	62053.91
384.571	62167.66
384.936	62296.96
385.301	62463.99
385.666	62602.37
386.031	62744.42
386.396	62908.33
386.76	63053.99
387.125	63237.44
387.49	63439.87
387.855	63628.32
388.219	63786.43
388.584	63952.14
388.948	64134.03
389.313	64300.86
389.677	64497.13
390.042	64730.47
390.406	64874.54
390.771	65064.34
391.135	65252.25
391.499	65481.15
391.863	65712.94
392.227	65947.39
392.592	66139.65
392.956	66325.54
393.32	66513.77
393.684	66728.7
394.048	66884.19
394.412	67066.9
394.775	67219.47
395.139	67359.04
395.503	67517.6
395.867	67674.67
396.231	67821.64
396.594	67923.68
396.958	68058.4
397.321	68217.54
397.685	68346.93
398.048	68497.89
398.412	68624.26
398.775	68752.01
399.139	68876.51
399.502	68992.27
399.865	69140.16
400.228	69331.07
400.592	69471.32
400.955	69669.95
401.318	69798.82
401.681	69967.84
402.044	70100.74
402.407	70253.64
402.77	70414.29
403.133	70598.98
403.496	70735.2
403.859	70880.31
404.221	71115.81
404.584	71343.45
404.947	71578.12
405.309	71770.28
405.672	71994.03
406.034	72212.01
406.397	72463.2
406.759	72675.5
407.122	72840.77
407.484	73007.27
407.847	73185.8
408.209	73429.41
408.571	73653.31
408.933	73911.29
409.296	74151
409.658	74378.54
410.02	74646.93
410.382	74962.46
410.744	75219.97
411.106	75501.15
411.468	75775.58
411.83	76017.48
412.191	76214.25
412.553	76397.15
412.915	76621.64
413.277	76840.88
413.638	77056.87
414	77225.1
414.361	77420.23
414.723	77677.18
415.084	77913.83
415.446	78118.38
415.807	78284.84
416.169	78423.26
416.53	78544.08
416.891	78692.07
417.252	78864.12
417.614	78979.49
417.975	79047.11
418.336	79130.68
418.697	79224.81
419.058	79308
419.419	79376.8
419.78	79454.64
420.141	79515.73
420.501	79568.99
420.862	79615.8
421.223	79654.57
421.584	79724.91
421.944	79767.41
422.305	79792.84
422.666	79813.84
423.026	79824.16
423.387	79845.01
423.747	79858.32
424.107	79876.36
424.468	79893.65
424.828	79904.68
425.188	79909.85
425.549	79919
425.909	79928.03
426.269	79928.55
426.629	79935.75
426.989	79942.1
427.349	79948.04
427.709	79953.25
428.069	79957.16
428.429	79963.99
428.789	79973.82
429.149	79979.73
429.508	79983.72
429.868	79989.67
430.228	79992.95
430.587	79997.83
430.947	80003.89
431.306	80013.53
431.666	80018.15
432.025	80022.37
432.385	80024.22
432.744	80026.18
433.103	80028.4
433.463	80031.54
433.822	80042.47
434.181	80046.98
434.54	80052.42
434.899	80053.49
435.258	80058.27
435.618	80061.89
435.976	80066.03
436.335	80065.74
436.694	80067.47
437.053	80069.18
437.412	80071.29
437.771	80073.76
438.129	80075.5
438.488	80077.65
438.847	80079.46
439.205	80079.61
439.564	80079.65
439.922	80081.79
440.281	80083.68
440.639	80084.35
440.997	80085.16
441.356	80084.68
441.714	80084.57
442.072	80083.09
442.431	80084.71
442.789	80082.97
443.147	80082.12
443.505	80081.49
443.863	80082.79
444.221	80082.97
444.579	80083.46
444.937	80082.72
445.294	80084.53
445.652	80084.75
446.01	80082.79
446.368	80083.34
446.725	80085.34
447.083	80084.49
447.441	80083.64
447.798	80084.2
448.156	80085.57
448.513	80085.82
448.87	80086.19
449.228	80086.19
449.585	80086.68
449.942	80087.64
450.3	80088.41
450.657	80091.01
451.014	80092.82
451.371	80093.75
451.728	80095.08
452.085	80095.67
452.442	80096.93
452.799	80097.41
453.156	80098.45
453.513	80099.89
453.869	80099.26
454.226	80098.59
454.583	80099.11
454.939	80100.96
455.296	80101.78
455.653	80102.48
456.009	80102.48
456.366	80104.04
456.722	80105.92
457.078	80104.18
457.435	80104.18
457.791	80105.74
458.147	80103.7
458.503	80102.7
458.86	80103.33
459.216	80103.48
459.572	80102.81
459.928	80102.48
460.284	80100.89
460.64	80099.96
460.996	80099.22
461.351	80098.74
461.707	80098.52
462.063	80099.11
462.419	80098.71
462.774	80097.78
463.13	80096.89
463.486	80096.93
463.841	80096.71
464.197	80097.08
464.552	80098.93
464.908	80099.48
465.263	80099.11
465.618	80099.52
465.974	80101.15
466.329	80099.85
466.684	80100.26
467.039	80101.41
467.394	80101.22
467.749	80102.48
468.104	80103.92
468.459	80105.96
468.814	80106.89
469.169	80107.26
469.524	80109.07
469.879	80109.74
470.233	80111.88
470.588	80112.29
470.943	80114.14
471.297	80114.59
471.652	80113.96
472.006	80115.81
472.361	80116.59
472.715	80117.44
473.07	80118.48
473.424	80118.59
473.778	80120.25
474.133	80120.81
474.487	80121.33
474.841	80122.62
475.195	80122.77
475.549	80125.03
475.903	80123.55
476.257	80124.59
476.611	80126.25
476.965	80126.44
477.319	80126.29
477.673	80125.96
478.026	80127.07
478.38	80126.62
478.734	80127.14
479.087	80126.47
479.441	80127.22
479.795	80127.44
480.148	80126.44
480.502	80127.47
480.855	80129.25
481.208	80129.4
481.562	80129.55
481.915	80130.62
482.268	80130.07
482.621	80131.18
482.974	80130.47
483.328	80132.36
483.681	80132.18
484.034	80132.47
484.387	80131.29
484.739	80131.62
485.092	80131.7
485.445	80131.99
485.798	80132.99
486.151	80132.18
486.503	80133.55
486.856	80132.81
487.209	80132.44
487.561	80134.81
487.914	80133.73
488.266	80131.36
488.618	80131.29
488.971	80130.58
489.323	80130.07
489.675	80131.36
490.028	80130.73
490.38	80130.58
490.732	80129.84
491.084	80130.21
491.436	80130.92
491.788	80131.4
492.14	80132.7
492.492	80132.47
492.844	80132.33
493.196	80131.66
493.548	80132.92
493.899	80133.88
494.251	80133.25
494.603	80134.18
494.954	80131.29
495.306	80130.51
495.657	80130.92
496.009	80131.96
496.36	80131.96
496.712	80133.44
497.063	80132.18
497.414	80131.33
497.765	80131.33
498.117	80130.07
498.468	80129.59
498.819	80128.07
499.17	80127.29
499.521	80126.44
499.872	80126.55
500.223	80126.73
500.574	80127.96
500.924	80128.59
501.275	80128.73
501.626	80130.36
501.977	80130.33
502.327	80131.48
502.678	80134.14
503.029	80135.99
503.379	80135.18
503.73	80135.1
504.08	80134.55
504.43	80136.29
504.781	80138.22
505.131	80136.92
505.481	80139.59
505.831	80139.29
506.182	80141.14
506.532	80141.77
506.882	80142.18
507.232	80141.07
507.582	80141.36
507.932	80140.85
508.281	80139.81
508.631	80139.22
508.981	80138.36
509.331	80136.4
509.681	80136.33
510.03	80136.22
510.38	80135.03
510.729	80133.96
511.079	80135.18
511.428	80134.14
511.778	80133.73
512.127	80133.1
512.476	80134.59
512.826	80133.18
513.175	80135.07
513.524	80133.66
513.873	80133.77
514.222	80132.99
514.571	80134.73
514.92	80135.47
515.269	80134.84
515.618	80134.81
515.967	80133.99
516.316	80134.66
516.665	80136.33
517.014	80139.03
517.362	80137.92
517.711	80138.59
518.059	80138.77
518.408	80137.4
518.757	80136.07
519.105	80136.22
519.453	80136.29
519.802	80135.62
520.15	80137.33
520.498	80136.62
520.847	80137.66
521.195	80136.11
521.543	80136.88
521.891	80137.03
522.239	80135.73
522.587	80136.44
522.935	80137.55
523.283	80138.36
523.631	80135.99
523.979	80135.07
524.326	80132.7
524.674	80132.96
525.022	80132.59
525.369	80132.92
525.717	80134.33
526.064	80136.73
526.412	80136.66
526.759	80137.81
527.107	80138.14
527.454	80137.47
527.801	80136.29
528.149	80134.18
528.496	80136.25
528.843	80137.14
529.19	80136.55
529.537	80136.7
529.884	80137.7
530.231	80136.59
530.578	80136.44
530.925	80137.66
531.272	80139.18
531.619	80140.7
531.966	80140.55
532.312	80139.99
532.659	80140.92
533.006	80140.22
533.352	80140.18
533.699	80140.07
534.045	80138.4
534.392	80137.47
534.738	80136.73
535.084	80138.07
535.431	80141.22
535.777	80140.92
536.123	80140.92
536.469	80140.62
536.815	80140.73
537.161	80140.36
537.507	80140.33
537.853	80139.88
538.199	80140.25
538.545	80139.22
538.891	80137.99
539.237	80138.25
539.582	80139.4
539.928	80138.22
540.274	80138.44
540.619	80137.96
540.965	80137.73
541.31	80138.7
541.656	80140.33
542.001	80140.47
542.347	80141.48
542.692	80138.47
543.037	80138.55
543.382	80136.84
543.728	80136.99
544.073	80136.29
544.418	80135.29
544.763	80135.96
545.108	80134.96
545.453	80134.62
545.798	80134.62
546.142	80136.22
546.487	80135.96
546.832	80135.92
547.177	80136.55
547.521	80135.77
547.866	80136.7
548.211	80137.29
548.555	80136.25
548.9	80135.14
549.244	80133.03
549.588	80131.7
549.933	80131.36
550.277	80130.96
550.621	80132.66
550.965	80132.33
551.31	80133.33
551.654	80133.73
551.998	80133.18
552.342	80135.92
552.686	80136.59
553.03	80137.25
553.373	80135.4
553.717	80135.25
554.061	80133.77
554.405	80133.81
554.748	80135.81
555.092	80135.07
555.436	80133.96
555.779	80133.99
556.123	80134.33
556.466	80136.66
556.81	80136.33
557.153	80139.14
557.496	80138.22
557.839	80137.1
558.183	80136.59
558.526	80136.59
558.869	80135.99
559.212	80135.22
559.555	80132.55
559.898	80131.55
560.241	80132.1
560.584	80133.55
560.927	80133.18
561.269	80134.14
561.612	80134.44
561.955	80134.03
562.297	80133.88
562.64	80134.1
562.983	80134.59
563.325	80134.18
563.668	80134.36
564.01	80133.07
564.352	80129.44
564.695	80130.14
565.037	80129.1
565.379	80129.36
565.721	80128.77
566.063	80129.03
566.406	80129.62
566.748	80129.36
567.09	80130.55
567.431	80129.55
567.773	80130.14
568.115	80130.25
568.457	80129.62
568.799	80130.85
569.14	80129.55
569.482	80129.96
569.824	80131.59
570.165	80131.36
570.507	80130.77
570.848	80129.85
571.19	80130.33
571.531	80132.4
571.872	80133.18
572.214	80135.48
572.555	80134.85
572.896	80135.4
573.237	80134.62
573.578	80133.85
573.919	80133.66
574.26	80132.51
574.601	80132.62
574.942	80131.18
575.283	80130.33
575.624	80131.03
575.964	80127.99
576.305	80127.88
576.646	80126.77
576.986	80124.85
577.327	80124.59
577.667	80124.18
578.008	80125.7
578.348	80127.88
578.689	80127.99
579.029	80126.14
579.369	80126.74
579.71	80126.99
580.05	80125.48
580.39	80124.51
580.73	80126.03
581.07	80126.62
581.41	80126.62
581.75	80125.96
582.09	80123.44
582.43	80124.18
582.769	80124.03
583.109	80125.07
583.449	80123.33
583.789	80122.59
584.128	80123.59
584.468	80124.48
584.807	80125.14
585.147	80123.48
585.486	80121.81
