Data from 24HourExp_27052025_FLMS018081_04-58-20-233.txt Node
Date: Wed May 28 04:58:20 BST 2025
User: adleo
Spectrometer: FLMS01808
Trigger mode: 0
Integration Time (sec): 4.000000E-1
Scans to average: 10
Electric dark correction enabled: true
Nonlinearity correction enabled: true
Boxcar width: 10
XAxis mode: Wavelengths
Number of Pixels in Spectrum: 2048
>>>>>Begin Spectral Data<<<<<
178.471	-133.32
178.857	-125.91
179.244	-117.18
179.631	-106.79
180.017	-99.74
180.404	-91.4
180.79	-80.83
181.176	-72.71
181.563	-62.29
181.949	-51.69
182.335	-41.77
182.722	-25.44
183.108	-5.66
183.494	20.06
183.88	73.59
184.266	127.2
184.653	183.09
185.039	236.08
185.425	291.66
185.811	343.01
186.197	396.41
186.582	447.37
186.968	499.51
187.354	550.03
187.74	598.54
188.126	650.11
188.511	699.8
188.897	745.62
189.283	792.7
189.668	836.97
190.054	880.24
190.439	926.23
190.825	969.89
191.21	1009.08
191.596	1043.95
191.981	1052.73
192.366	1056.43
192.752	1057.22
193.137	1061.56
193.522	1062.82
193.908	1065.7
194.293	1067.35
194.678	1067.96
195.063	1069.02
195.448	1071.54
195.833	1072.47
196.218	1071.35
196.603	1071.51
196.988	1072.8
197.373	1073.88
197.757	1075.1
198.142	1076.45
198.527	1074.28
198.912	1073.8
199.296	1072.09
199.681	1070.01
200.066	1065.6
200.45	1064.61
200.835	1064.48
201.219	1062.76
201.604	1063.17
201.988	1065
202.372	1067.53
202.757	1070.05
203.141	1071.19
203.525	1070.36
203.91	1069.21
204.294	1070.97
204.678	1071.35
205.062	1070.71
205.446	1070.72
205.83	1071.48
206.214	1070.51
206.598	1071.27
206.982	1072.59
207.366	1075.19
207.75	1076.97
208.134	1079.65
208.517	1082.56
208.901	1083.91
209.285	1086.84
209.669	1086.38
210.052	1085.06
210.436	1083.84
210.819	1084.16
211.203	1082.52
211.586	1082.79
211.97	1084.59
212.353	1083.59
212.737	1083.3
213.12	1085.74
213.503	1086.41
213.886	1086.67
214.27	1088.85
214.653	1092.03
215.036	1092.58
215.419	1094.47
215.802	1096.36
216.185	1100.63
216.568	1102.12
216.951	1104.48
217.334	1106.53
217.717	1109.2
218.1	1113.22
218.482	1118.41
218.865	1122.07
219.248	1127.57
219.631	1131.97
220.013	1137.99
220.396	1145.32
220.778	1151.88
221.161	1156.22
221.544	1162.84
221.926	1170.44
222.308	1177.53
222.691	1181.72
223.073	1190.85
223.455	1199.2
223.838	1207.73
224.22	1216.3
224.602	1226.74
224.984	1237.96
225.366	1250.49
225.749	1265.57
226.131	1278.78
226.513	1291.83
226.895	1304.32
227.276	1318.6
227.658	1333.76
228.04	1348.76
228.422	1364.93
228.804	1380.31
229.186	1397.18
229.567	1415.03
229.949	1432.71
230.331	1449.93
230.712	1469.6
231.094	1487.94
231.475	1507.31
231.857	1527.35
232.238	1544.98
232.62	1565.03
233.001	1584.63
233.382	1604.16
233.763	1623.08
234.145	1642.36
234.526	1661
234.907	1682.34
235.288	1700.78
235.669	1722.61
236.05	1741.9
236.431	1760.1
236.812	1780.95
237.193	1801.93
237.574	1822.48
237.955	1841.98
238.336	1863.2
238.717	1883.18
239.097	1905.78
239.478	1927.15
239.859	1947.95
240.239	1973.62
240.62	1994.83
241.001	2018.79
241.381	2041.24
241.762	2063.6
242.142	2085.34
242.522	2110.73
242.903	2136.07
243.283	2163.68
243.663	2188.51
244.044	2216.89
244.424	2245.1
244.804	2271.41
245.184	2298.64
245.564	2326.65
245.944	2356.51
246.324	2387.19
246.704	2417.4
247.084	2445.69
247.464	2475.3
247.844	2506.75
248.224	2534.46
248.604	2567.43
248.983	2598
249.363	2630.73
249.743	2660.35
250.122	2692.63
250.502	2722.77
250.882	2754
251.261	2783.99
251.641	2816.21
252.02	2848.17
252.399	2883.75
252.779	2919.99
253.158	2956.08
253.537	2995.21
253.917	3036.55
254.296	3073.55
254.675	3113.91
255.054	3153.68
255.433	3198.52
255.812	3236.62
256.191	3278.48
256.57	3318.85
256.949	3361.9
257.328	3405.2
257.707	3451.51
258.086	3499.13
258.465	3548.68
258.843	3598.05
259.222	3648.5
259.601	3700.27
259.979	3750.78
260.358	3801.61
260.736	3853.9
261.115	3908.93
261.493	3961.69
261.872	4012.68
262.25	4069.05
262.629	4125.53
263.007	4186.2
263.385	4243.56
263.763	4307.69
264.142	4372.19
264.52	4434.82
264.898	4498.32
265.276	4563.3
265.654	4630.34
266.032	4697.34
266.41	4765.98
266.788	4840.1
267.166	4917.05
267.544	4988.1
267.921	5065.62
268.299	5143.59
268.677	5226.2
269.055	5308.8
269.432	5392.06
269.81	5476.95
270.188	5565.38
270.565	5652.05
270.943	5739.4
271.32	5828.17
271.697	5925.36
272.075	6016.97
272.452	6114.54
272.829	6210.64
273.207	6311.8
273.584	6417.57
273.961	6521.48
274.338	6631.34
274.715	6744.56
275.092	6859.4
275.469	6982.69
275.846	7106.6
276.223	7228.62
276.6	7347.84
276.977	7472.66
277.354	7598.37
277.731	7726.75
278.108	7858.2
278.484	7991.43
278.861	8122.9
279.238	8262.07
279.614	8397.78
279.991	8543.58
280.367	8687.07
280.744	8836.25
281.12	8987.33
281.497	9129.71
281.873	9285.31
282.249	9439.69
282.625	9584.19
283.002	9728.58
283.378	9872.44
283.754	10018.48
284.13	10171.11
284.506	10330.16
284.882	10483.62
285.258	10639.32
285.634	10800.17
286.01	10959.63
286.386	11118.77
286.762	11283.95
287.138	11447.66
287.513	11609.17
287.889	11770.15
288.265	11932.51
288.641	12091.54
289.016	12251.01
289.392	12418.01
289.767	12577.38
290.143	12739.81
290.518	12902.96
290.894	13072.08
291.269	13232.44
291.644	13392.62
292.02	13544.9
292.395	13699.59
292.77	13861.97
293.145	14016.34
293.52	14166.17
293.895	14310.96
294.27	14467.61
294.646	14616.87
295.02	14760.76
295.395	14913.73
295.77	15069.66
296.145	15224.19
296.52	15378.87
296.895	15530.4
297.269	15683.12
297.644	15836
298.019	15986.26
298.393	16138.62
298.768	16286.95
299.143	16445.15
299.517	16595.53
299.891	16753.05
300.266	16911.12
300.64	17066.76
301.015	17228.8
301.389	17400.14
301.763	17574.47
302.137	17738.67
302.512	17920.38
302.886	18097.9
303.26	18276.85
303.634	18458.77
304.008	18639.98
304.382	18824.93
304.756	19010.21
305.13	19194.57
305.504	19375.63
305.877	19567.71
306.251	19774.33
306.625	19979.66
306.999	20185.82
307.372	20396.8
307.746	20620.12
308.119	20832.03
308.493	21046.61
308.866	21260.84
309.24	21469.85
309.613	21676.97
309.987	21890.37
310.36	22085.67
310.733	22298.37
311.107	22515.77
311.48	22725
311.853	22950.01
312.226	23170.7
312.599	23395.69
312.972	23621.08
313.345	23848.83
313.718	24070.81
314.091	24286.73
314.464	24509.31
314.837	24731.57
315.21	24949.18
315.582	25162.83
315.955	25374.93
316.328	25588.91
316.7	25803.28
317.073	26026.48
317.446	26246.22
317.818	26474.86
318.191	26699.02
318.563	26922.14
318.936	27129.34
319.308	27330.53
319.68	27532.92
320.053	27729.3
320.425	27922.63
320.797	28101.83
321.169	28266.06
321.541	28411.72
321.913	28544.61
322.285	28662.26
322.657	28781.39
323.029	28922.24
323.401	29060.67
323.773	29226.05
324.145	29394.74
324.517	29582.1
324.889	29754.34
325.26	29955.66
325.632	30161.71
326.004	30403.42
326.375	30656.3
326.747	30929.83
327.118	31236.89
327.49	31518.72
327.861	31832.85
328.233	32133.33
328.604	32444.99
328.975	32758.12
329.346	33070.07
329.718	33375.47
330.089	33680.27
330.46	33977.4
330.831	34252.26
331.202	34509.25
331.573	34755.26
331.944	34984.55
332.315	35209.64
332.686	35425.19
333.057	35624.88
333.428	35807.12
333.799	35971.61
334.169	36123.56
334.54	36263.97
334.911	36380.76
335.281	36513.52
335.652	36632.54
336.022	36768.13
336.393	36914.28
336.763	37085.83
337.134	37267.31
337.504	37469.52
337.874	37679.23
338.245	37888.9
338.615	38107.86
338.985	38341.03
339.355	38559.95
339.726	38781.03
340.096	39003.05
340.466	39259.17
340.836	39501.57
341.206	39748.47
341.576	39997.79
341.945	40244.62
342.315	40477.09
342.685	40722.79
343.055	40971.83
343.425	41210.03
343.794	41444.19
344.164	41673.97
344.533	41902.91
344.903	42132.18
345.273	42363.96
345.642	42580.51
346.011	42804.48
346.381	43030.76
346.75	43253.35
347.12	43496.09
347.489	43746.49
347.858	43986.71
348.227	44192.88
348.596	44413.8
348.965	44651.1
349.334	44877.74
349.704	45115.69
350.072	45358.13
350.441	45591.89
350.81	45824.87
351.179	46055.69
351.548	46289.18
351.917	46512.14
352.285	46703.72
352.654	46905.06
353.023	47116.15
353.391	47322.26
353.76	47540.53
354.129	47731.11
354.497	47976.02
354.865	48201.03
355.234	48431.56
355.602	48651.2
355.971	48898.53
356.339	49115.68
356.707	49330.09
357.075	49554.45
357.443	49771.68
357.811	49985.07
358.18	50188.71
358.548	50398.06
358.916	50607.67
359.284	50819.04
359.651	51037.18
360.019	51257.51
360.387	51465.78
360.755	51661.64
361.123	51882.79
361.49	52108.77
361.858	52325.77
362.226	52511.02
362.593	52713.3
362.961	52894.97
363.328	53097.04
363.696	53269.31
364.063	53487.78
364.43	53690.42
364.798	53897.88
365.165	54076.95
365.532	54264.29
365.899	54451.79
366.267	54618.89
366.634	54771.57
367.001	54936.79
367.368	55072.15
367.735	55250.43
368.102	55429.45
368.469	55624.27
368.835	55807.58
369.202	55958.9
369.569	56146.96
369.936	56333.87
370.303	56514.18
370.669	56713.65
371.036	56883.81
371.402	57073.28
371.769	57251.28
372.135	57407.6
372.502	57529.89
372.868	57670.64
373.235	57807.89
373.601	57947.47
373.967	58121.7
374.333	58300.64
374.7	58480.75
375.066	58678.14
375.432	58864.71
375.798	59041.03
376.164	59201.13
376.53	59344.94
376.896	59517.66
377.262	59696.04
377.628	59821.99
377.993	59960.22
378.359	60102.34
378.725	60245.95
379.091	60403.41
379.456	60534.5
379.822	60664.4
380.187	60817.77
380.553	61005.49
380.918	61206.11
381.284	61384.46
381.649	61550.56
382.015	61694.39
382.38	61818.3
382.745	61994.4
383.11	62149.91
383.476	62293.19
383.841	62421.16
384.206	62584.28
384.571	62703.23
384.936	62838.02
385.301	63008.05
385.666	63140.32
386.031	63292.7
386.396	63466.1
386.76	63617.83
387.125	63804.49
387.49	63997.58
387.855	64184.41
388.219	64345.44
388.584	64508.6
388.948	64691.64
389.313	64854.05
389.677	65060.23
390.042	65292.55
390.406	65438.23
390.771	65613.8
391.135	65793.96
391.499	66028.09
391.863	66249.42
392.227	66481.26
392.592	66674.42
392.956	66874.28
393.32	67071.88
393.684	67282.54
394.048	67442.92
394.412	67616.25
394.775	67762.01
395.139	67914.59
395.503	68080.52
395.867	68241.19
396.231	68385.56
396.594	68485.71
396.958	68625.79
397.321	68779.18
397.685	68899
398.048	69034.19
398.412	69175.85
398.775	69309.29
399.139	69438.48
399.502	69546.6
399.865	69697.12
400.228	69886.73
400.592	70019.71
400.955	70217.4
401.318	70343.9
401.681	70506.36
402.044	70649.69
402.407	70810.63
402.77	70965.42
403.133	71143.39
403.496	71282.39
403.859	71426.46
404.221	71665.33
404.584	71904.36
404.947	72144
405.309	72347.03
405.672	72588.59
406.034	72806.32
406.397	73055.86
406.759	73267.46
407.122	73454.26
407.484	73621.5
407.847	73805.04
408.209	74051.97
408.571	74279.96
408.933	74546.99
409.296	74793.62
409.658	75020.86
410.02	75285.68
410.382	75596.4
410.744	75858.95
411.106	76145.24
411.468	76428.49
411.83	76669.05
412.191	76864.64
412.553	77040.76
412.915	77260.72
413.277	77470.34
413.638	77671.97
414	77847.46
414.361	78028.71
414.723	78260.77
415.084	78482.07
415.446	78658.34
415.807	78800.93
416.169	78914.32
416.53	79008.89
416.891	79125.36
417.252	79267.55
417.614	79355.3
417.975	79400.93
418.336	79454.51
418.697	79513.41
419.058	79565.47
419.419	79608.01
419.78	79653.55
420.141	79687.48
420.501	79716.92
420.862	79740.38
421.223	79758.57
421.584	79795.1
421.944	79818.12
422.305	79830.63
422.666	79840.47
423.026	79844.04
423.387	79855.35
423.747	79866.32
424.107	79876.82
424.468	79889.06
424.828	79896.88
425.188	79901.9
425.549	79909.39
425.909	79915.59
426.269	79914
426.629	79920.68
426.989	79923.23
427.349	79927.07
427.709	79931.79
428.069	79933.86
428.429	79937.99
428.789	79946.56
429.149	79950.51
429.508	79953.35
429.868	79957.45
430.228	79961.03
430.587	79966.05
430.947	79971.78
431.306	79975.65
431.666	79978.87
432.025	79981.68
432.385	79985.19
432.744	79987.78
433.103	79989.07
433.463	79990.51
433.822	79999.37
434.181	80002.21
434.54	80005.54
434.899	80008.09
435.258	80011.31
435.618	80013.34
435.976	80015.44
436.335	80014.26
436.694	80015.96
437.053	80015.85
437.412	80017.96
437.771	80020.21
438.129	80019.69
438.488	80020.69
438.847	80021.87
439.205	80023.5
439.564	80022.72
439.922	80020.03
440.281	80021.21
440.639	80023.91
440.997	80023.87
441.356	80024.02
441.714	80023.13
442.072	80023.2
442.431	80023.61
442.789	80022.98
443.147	80024.61
443.505	80026.12
443.863	80026.57
444.221	80027.2
444.579	80027.53
444.937	80025.61
445.294	80026.98
445.652	80030.12
446.01	80029.79
446.368	80030.67
446.725	80030.41
447.083	80031.15
447.441	80031.82
447.798	80032.45
448.156	80033.63
448.513	80034.74
448.87	80036
449.228	80038.51
449.585	80039.07
449.942	80039.11
450.3	80039.88
450.657	80040.07
451.014	80040.44
451.371	80042.06
451.728	80044.1
452.085	80045.39
452.442	80047.24
452.799	80045.54
453.156	80044.5
453.513	80045.39
453.869	80044.91
454.226	80045.54
454.583	80047.09
454.939	80047.79
455.296	80046.09
455.653	80045.58
456.009	80046.09
456.366	80046.09
456.722	80044.35
457.078	80043.1
457.435	80043.43
457.791	80042.73
458.147	80042.84
458.503	80043.36
458.86	80042.95
459.216	80041.36
459.572	80042.84
459.928	80043.39
460.284	80045.83
460.64	80045.72
460.996	80045.61
461.351	80044.87
461.707	80046.02
462.063	80043.99
462.419	80044.72
462.774	80044.58
463.13	80043.5
463.486	80044.24
463.841	80043.47
464.197	80044.21
464.552	80044.39
464.908	80046.02
465.263	80046.8
465.618	80047.46
465.974	80048.39
466.329	80050.05
466.684	80051.53
467.039	80051.75
467.394	80052.94
467.749	80052.64
468.104	80054.23
468.459	80054.79
468.814	80057.75
469.169	80059.15
469.524	80060.41
469.879	80058.78
470.233	80059.89
470.588	80060.22
470.943	80060.67
471.297	80062.74
471.652	80064.33
472.006	80064.59
472.361	80065.51
472.715	80066.29
473.07	80065.81
473.424	80066.29
473.778	80065.59
474.133	80066.03
474.487	80065.66
474.841	80064.74
475.195	80065.96
475.549	80065.37
475.903	80067.48
476.257	80067.66
476.611	80065.66
476.965	80066.37
477.319	80069.07
477.673	80070.1
478.026	80071.51
478.38	80071.62
478.734	80071.77
479.087	80072.73
479.441	80074.36
479.795	80075.06
480.148	80075.02
480.502	80076.21
480.855	80075.24
481.208	80076.58
481.562	80076.43
481.915	80077.28
482.268	80078.8
482.621	80078.5
482.974	80078.02
483.328	80077.28
483.681	80077.72
484.034	80079.57
484.387	80080.61
484.739	80080.68
485.092	80081.72
485.445	80082.16
485.798	80081.83
486.151	80081.9
486.503	80080.42
486.856	80081.24
487.209	80080.61
487.561	80081.61
487.914	80081.5
488.266	80083.49
488.618	80081.46
488.971	80081.05
489.323	80080.9
489.675	80081.39
490.028	80079.72
490.38	80079.57
490.732	80079.2
491.084	80077.39
491.436	80077.32
491.788	80077.28
492.14	80078.54
492.492	80078.39
492.844	80077.2
493.196	80076.17
493.548	80077.24
493.899	80076.43
494.251	80076.87
494.603	80076.91
494.954	80077.24
495.306	80077.35
495.657	80076.72
496.009	80077.87
496.36	80079.28
496.712	80080.54
497.063	80077.87
497.414	80079.5
497.765	80081.05
498.117	80081.79
498.468	80084.72
498.819	80085.9
499.17	80086.79
499.521	80084.16
499.872	80084.64
500.223	80086.79
500.574	80088.31
500.924	80086.83
501.275	80089.08
501.626	80089.31
501.977	80089.68
502.327	80089.68
502.678	80091.49
503.029	80092.86
503.379	80094.86
503.73	80094.34
504.08	80092.38
504.43	80094.49
504.781	80093.56
505.131	80093.27
505.481	80092.23
505.831	80089.94
506.182	80087.38
506.532	80085.83
506.882	80088.94
507.232	80088.2
507.582	80086.61
507.932	80085.87
508.281	80085.72
508.631	80083.46
508.981	80082.24
509.331	80081.46
509.681	80082.05
510.03	80080.46
510.38	80079.39
510.729	80078.46
511.079	80079.2
511.428	80079.98
511.778	80080.72
512.127	80081.5
512.476	80081.24
512.826	80081.72
513.175	80083.01
513.524	80084.61
513.873	80085.38
514.222	80084.86
514.571	80086.42
514.92	80087.12
515.269	80087.9
515.618	80088.79
515.967	80091.16
516.316	80092.34
516.665	80092.82
517.014	80092.27
517.362	80092.08
517.711	80091.79
518.059	80092.3
518.408	80092.93
518.757	80093.78
519.105	80093.78
519.453	80094.86
519.802	80095.04
520.15	80093.71
520.498	80092.79
520.847	80091.23
521.195	80091.6
521.543	80090.34
521.891	80090.38
522.239	80090.27
522.587	80091.01
522.935	80090.6
523.283	80090.53
523.631	80090.27
523.979	80091.19
524.326	80091.31
524.674	80091.56
525.022	80091.45
525.369	80091.27
525.717	80089.01
526.064	80088.42
526.412	80087.57
526.759	80087.71
527.107	80087.27
527.454	80088.08
527.801	80088.9
528.149	80091.71
528.496	80091.08
528.843	80091.3
529.19	80090.38
529.537	80090.12
529.884	80090.31
530.231	80090.53
530.578	80089.19
530.925	80089.31
531.272	80088.45
531.619	80088.6
531.966	80089.45
532.312	80089.31
532.659	80088.71
533.006	80090.56
533.352	80090.93
533.699	80091.71
534.045	80090.08
534.392	80091.97
534.738	80092.78
535.084	80090.82
535.431	80090.68
535.777	80090.9
536.123	80091.45
536.469	80091.82
536.815	80091.42
537.161	80091.19
537.507	80090.49
537.853	80090.08
538.199	80088.94
538.545	80088.57
538.891	80088.82
539.237	80088.6
539.582	80089.42
539.928	80089.9
540.274	80088.12
540.619	80087.49
540.965	80086.9
541.31	80086.27
541.656	80084.42
542.001	80083.42
542.347	80085.97
542.692	80084.61
543.037	80083.83
543.382	80083.68
543.728	80084.35
544.073	80083.83
544.418	80082.46
544.763	80083.24
545.108	80083.05
545.453	80083.72
545.798	80083.53
546.142	80083.79
546.487	80083.5
546.832	80083.16
547.177	80082.72
547.521	80084.87
547.866	80084.72
548.211	80084.31
548.555	80085.53
548.9	80087.2
549.244	80087.23
549.588	80086.83
549.933	80086.09
550.277	80086.79
550.621	80085.53
550.965	80083.57
551.31	80083.75
551.654	80084.75
551.998	80085.16
552.342	80085.12
552.686	80085.6
553.03	80085.72
553.373	80085.35
553.717	80085.57
554.061	80085.2
554.405	80085.2
554.748	80083.46
555.092	80083.9
555.436	80085.27
555.779	80084.94
556.123	80086.23
556.466	80087.09
556.81	80086.05
557.153	80086.49
557.496	80087.27
557.839	80088.01
558.183	80088.86
558.526	80087.79
558.869	80087.12
559.212	80085.46
559.555	80085.83
559.898	80087.09
560.241	80087.75
560.584	80087.83
560.927	80087.64
561.269	80089.01
561.612	80089.49
561.955	80089.79
562.297	80088.94
562.64	80087.31
562.983	80087.72
563.325	80085.49
563.668	80086.05
564.01	80085.53
564.352	80083.72
564.695	80082.05
565.037	80081.46
565.379	80080.72
565.721	80082.53
566.063	80081.5
566.406	80083.27
566.748	80084.02
567.09	80082.13
567.431	80081.61
567.773	80080.09
568.115	80079.65
568.457	80077.76
568.799	80077.13
569.14	80076.21
569.482	80077.72
569.824	80078.39
570.165	80076.8
570.507	80077.5
570.848	80076.06
571.19	80076.98
571.531	80079.61
571.872	80079.2
572.214	80079.94
572.555	80080.16
572.896	80079.31
573.237	80079.24
573.578	80077.83
573.919	80076.65
574.26	80076.46
574.601	80076.43
574.942	80077.17
575.283	80075.35
575.624	80075.69
575.964	80075.28
576.305	80076.98
576.646	80076.13
576.986	80076.13
577.327	80076.02
577.667	80075.43
578.008	80075.06
578.348	80074.65
578.689	80073.99
579.029	80074.65
579.369	80075.02
579.71	80076.17
580.05	80076.43
580.39	80076.8
580.73	80075.24
581.07	80074.73
581.41	80075.8
581.75	80076.35
582.09	80075.28
582.43	80076.76
582.769	80076.98
583.109	80076.24
583.449	80073.25
583.789	80072.91
584.128	80073.21
584.468	80073.17
584.807	80072.47
585.147	80072.58
585.486	80071.99
585.825	80072.51
586.165	80072.43
