Data from 24HourExp_27052025_FLMS018081_15-28-19-936.txt Node
Date: Tue May 27 15:28:19 BST 2025
User: adleo
Spectrometer: FLMS01808
Trigger mode: 0
Integration Time (sec): 4.000000E-1
Scans to average: 10
Electric dark correction enabled: true
Nonlinearity correction enabled: true
Boxcar width: 10
XAxis mode: Wavelengths
Number of Pixels in Spectrum: 2048
>>>>>Begin Spectral Data<<<<<
178.471	-125.75
178.857	-118.51
179.244	-111.95
179.631	-102.56
180.017	-96.14
180.404	-87.57
180.79	-77.15
181.176	-68.36
181.563	-59.11
181.949	-47.38
182.335	-37.14
182.722	-22.65
183.108	-4.5
183.494	20.93
183.88	73.27
184.266	126.93
184.653	184.1
185.039	239.45
185.425	293.46
185.811	347.08
186.197	399.41
186.582	452.01
186.968	504.44
187.354	557.35
187.74	607.59
188.126	658.48
188.511	707.94
188.897	755.9
189.283	803.34
189.668	849.38
190.054	892.89
190.439	936.9
190.825	980.85
191.21	1021.92
191.596	1055.57
191.981	1063.25
192.366	1068.42
192.752	1068.83
193.137	1072.96
193.522	1073.27
193.908	1075.38
194.293	1077.61
194.678	1079.18
195.063	1079.48
195.448	1080.08
195.833	1079.85
196.218	1079.78
196.603	1080.04
196.988	1079.73
197.373	1079.3
197.757	1078.97
198.142	1078.5
198.527	1077.42
198.912	1076.2
199.296	1074.71
199.681	1073.39
200.066	1071.17
200.45	1070.06
200.835	1069.58
201.219	1069.2
201.604	1068.31
201.988	1069.44
202.372	1070.29
202.757	1069.83
203.141	1070.24
203.525	1070.8
203.91	1073.4
204.294	1074.25
204.678	1073.46
205.062	1073.29
205.446	1074.54
205.83	1076.57
206.214	1074.71
206.598	1075.94
206.982	1078.3
207.366	1078.73
207.75	1079.16
208.134	1081.06
208.517	1083.12
208.901	1085
209.285	1086.82
209.669	1088.68
210.052	1088.83
210.436	1089.49
210.819	1091.23
211.203	1091.24
211.586	1091.2
211.97	1090.21
212.353	1090.51
212.737	1091.78
213.12	1093.45
213.503	1094
213.886	1093.42
214.27	1098.68
214.653	1099.21
215.036	1099.87
215.419	1101.97
215.802	1104.35
216.185	1106.03
216.568	1108.52
216.951	1110.43
217.334	1111.84
217.717	1115.5
218.1	1117.56
218.482	1119.36
218.865	1122.72
219.248	1129.3
219.631	1134.15
220.013	1138.31
220.396	1144.16
220.778	1149.64
221.161	1154.63
221.544	1161.66
221.926	1169.33
222.308	1175.96
222.691	1183.26
223.073	1191.64
223.455	1200.38
223.838	1208.72
224.22	1219.37
224.602	1227.27
224.984	1237.35
225.366	1248.84
225.749	1262.14
226.131	1275
226.513	1289.08
226.895	1303.74
227.276	1315.56
227.658	1330.29
228.04	1343.38
228.422	1359.02
228.804	1374.12
229.186	1390.49
229.567	1405.39
229.949	1421.26
230.331	1436
230.712	1454.05
231.094	1469.38
231.475	1487.99
231.857	1506.51
232.238	1524.41
232.62	1543.19
233.001	1562.66
233.382	1583.68
233.763	1602.54
234.145	1622.89
234.526	1641.42
234.907	1659.67
235.288	1678.78
235.669	1696.75
236.05	1717.06
236.431	1736.04
236.812	1757.52
237.193	1776.19
237.574	1797.19
237.955	1817.25
238.336	1839.67
238.717	1861.28
239.097	1886.38
239.478	1907.57
239.859	1929.56
240.239	1953.42
240.62	1977.96
241.001	2000.1
241.381	2022.8
241.762	2043.29
242.142	2064.21
242.522	2088.36
242.903	2114.27
243.283	2140.78
243.663	2169.57
244.044	2199.37
244.424	2227.53
244.804	2255.32
245.184	2286.27
245.564	2313.42
245.944	2344.7
246.324	2374.14
246.704	2403.18
247.084	2431.18
247.464	2460.35
247.844	2491.83
248.224	2521.22
248.604	2551.53
248.983	2582.55
249.363	2614.17
249.743	2646.39
250.122	2677.96
250.502	2707.02
250.882	2738.54
251.261	2770.17
251.641	2800.18
252.02	2832.32
252.399	2865.88
252.779	2899.57
253.158	2935.61
253.537	2974.29
253.917	3017.55
254.296	3055.75
254.675	3093.97
255.054	3133.78
255.433	3176.51
255.812	3215
256.191	3256.2
256.57	3298.98
256.949	3341.64
257.328	3384.49
257.707	3428.91
258.086	3474.8
258.465	3522.6
258.843	3570.86
259.222	3620.23
259.601	3672.69
259.979	3722.79
260.358	3775.28
260.736	3826.89
261.115	3881.82
261.493	3935.46
261.872	3984.42
262.25	4041.06
262.629	4098.2
263.007	4154.24
263.385	4211.13
263.763	4273.43
264.142	4334.83
264.52	4398.55
264.898	4461.96
265.276	4526.82
265.654	4596.9
266.032	4665.34
266.41	4735.71
266.788	4806.31
267.166	4878.65
267.544	4951.28
267.921	5027.16
268.299	5105.51
268.677	5182.27
269.055	5261.46
269.432	5344.6
269.81	5428.73
270.188	5515.66
270.565	5601.12
270.943	5692.97
271.32	5783.1
271.697	5876.57
272.075	5971.86
272.452	6065.7
272.829	6161.62
273.207	6259.45
273.584	6359.62
273.961	6463.21
274.338	6573.67
274.715	6688.47
275.092	6808.07
275.469	6927.53
275.846	7048.92
276.223	7167.17
276.6	7290.06
276.977	7413.17
277.354	7535.84
277.731	7660.96
278.108	7786.96
278.484	7915.47
278.861	8045
279.238	8184.09
279.614	8319.05
279.991	8457.28
280.367	8597.82
280.744	8745.07
281.12	8891.82
281.497	9037.19
281.873	9187.27
282.249	9332.81
282.625	9477.18
283.002	9617.78
283.378	9763.84
283.754	9912.42
284.13	10064.28
284.506	10221.97
284.882	10371.44
285.258	10526.03
285.634	10679.42
286.01	10836.52
286.386	10997.49
286.762	11160.79
287.138	11319.3
287.513	11480.48
287.889	11644.57
288.265	11805.9
288.641	11961.64
289.016	12121.58
289.392	12284.05
289.767	12446.93
290.143	12612.8
290.518	12771.94
290.894	12934.63
291.269	13089.52
291.644	13247.67
292.02	13400.55
292.395	13553.48
292.77	13712.22
293.145	13866
293.52	14024.61
293.895	14172.04
294.27	14328.93
294.646	14479.58
295.02	14625.71
295.395	14781.11
295.77	14932.75
296.145	15082.65
296.52	15237.82
296.895	15392.96
297.269	15543.42
297.644	15694.6
298.019	15841.72
298.393	15994.92
298.768	16146.6
299.143	16305.19
299.517	16453.67
299.891	16608.68
300.266	16764.08
300.64	16923.33
301.015	17086.91
301.389	17252.57
301.763	17428.12
302.137	17595.46
302.512	17773.43
302.886	17949.35
303.26	18126.19
303.634	18301.65
304.008	18478.79
304.382	18659.77
304.756	18837.2
305.13	19021.3
305.504	19194.37
305.877	19386.53
306.251	19589.91
306.625	19793.86
306.999	19997.4
307.372	20206.91
307.746	20423.07
308.119	20631.92
308.493	20834.82
308.866	21038.79
309.24	21247.78
309.613	21449.99
309.987	21651.89
310.36	21842.03
310.733	22050.32
311.107	22264.1
311.48	22483.44
311.853	22711.76
312.226	22929.86
312.599	23158.66
312.972	23386.89
313.345	23615.81
313.718	23837.67
314.091	24052.42
314.464	24271.05
314.837	24493.39
315.21	24703.96
315.582	24914.79
315.955	25126.68
316.328	25350.13
316.7	25564.45
317.073	25776.15
317.446	25999.22
317.818	26224.19
318.191	26455.23
318.563	26678.07
318.936	26881.1
319.308	27077.6
319.68	27275.01
320.053	27472
320.425	27657.65
320.797	27833.04
321.169	28001.65
321.541	28142.74
321.913	28275.41
322.285	28391.23
322.657	28511.45
323.029	28654.68
323.401	28792.87
323.773	28952.24
324.145	29120.03
324.517	29305.02
324.889	29481.76
325.26	29677.87
325.632	29896.13
326.004	30129.01
326.375	30378.81
326.747	30652.69
327.118	30959.5
327.49	31239.09
327.861	31550.46
328.233	31852.98
328.604	32155.88
328.975	32459.49
329.346	32772.09
329.718	33080.55
330.089	33386.84
330.46	33678.94
330.831	33951.48
331.202	34209.05
331.573	34456.75
331.944	34681.46
332.315	34904.91
332.686	35125.91
333.057	35323.8
333.428	35500.07
333.799	35668.9
334.169	35820.4
334.54	35959.36
334.911	36069.32
335.281	36205.37
335.652	36324.18
336.022	36458.18
336.393	36605.12
336.763	36772.01
337.134	36952.45
337.504	37148.71
337.874	37349.53
338.245	37551.62
338.615	37763.12
338.985	37991.08
339.355	38211.01
339.726	38436.22
340.096	38664.2
340.466	38916.16
340.836	39156.65
341.206	39402.22
341.576	39644.28
341.945	39893.05
342.315	40121.69
342.685	40360.53
343.055	40610.04
343.425	40845.47
343.794	41080.2
344.164	41308.49
344.533	41536.63
344.903	41765.93
345.273	41993.44
345.642	42216.12
346.011	42447.98
346.381	42681.54
346.75	42913.79
347.12	43156.89
347.489	43405.24
347.858	43639.99
348.227	43845.34
348.596	44063.72
348.965	44295.21
349.334	44517.08
349.704	44751.16
350.072	45002.27
350.441	45234.77
350.81	45465.78
351.179	45697.38
351.548	45922.06
351.917	46151.21
352.285	46349.07
352.654	46556.03
353.023	46765.95
353.391	46968.38
353.76	47178.97
354.129	47366.14
354.497	47594.79
354.865	47810
355.234	48039.49
355.602	48259.25
355.971	48501.67
356.339	48719.46
356.707	48934.15
357.075	49151.79
357.443	49363.36
357.811	49563.17
358.18	49776.42
358.548	49986.5
358.916	50197.37
359.284	50415.59
359.651	50622.02
360.019	50840.05
360.387	51036.2
360.755	51236.96
361.123	51462.65
361.49	51687.29
361.858	51906.64
362.226	52100.91
362.593	52297.61
362.961	52470.02
363.328	52667.1
363.696	52836.46
364.063	53047.36
364.43	53243.71
364.798	53457.95
365.165	53639.39
365.532	53832.01
365.899	54016.61
366.267	54182.64
366.634	54327.59
367.001	54492.37
367.368	54636.06
367.735	54816.41
368.102	54998.39
368.469	55178.17
368.835	55356.12
369.202	55510.88
369.569	55702
369.936	55890.09
370.303	56083.33
370.669	56282.8
371.036	56448.69
371.402	56649.05
371.769	56826.92
372.135	56980.84
372.502	57107.59
372.868	57252.62
373.235	57393.13
373.601	57533.43
373.967	57706.67
374.333	57892.59
374.7	58069.74
375.066	58266.71
375.432	58452.7
375.798	58628.72
376.164	58798.04
376.53	58944.61
376.896	59121.14
377.262	59279.87
377.628	59401.39
377.993	59546.8
378.359	59693.02
378.725	59844.88
379.091	59991.12
379.456	60125.74
379.822	60261.21
380.187	60414.24
380.553	60597.84
380.918	60786.17
381.284	60953.82
381.649	61116.13
382.015	61261.38
382.38	61381.28
382.745	61551.13
383.11	61697.62
383.476	61834.49
383.841	61968.65
384.206	62125.1
384.571	62235.44
384.936	62377.11
385.301	62557.68
385.666	62679.8
386.031	62824.3
386.396	62989.61
386.76	63142.15
387.125	63326.08
387.49	63517.94
387.855	63700.6
388.219	63868.31
388.584	64032.05
388.948	64223.62
389.313	64391.75
389.677	64580.88
390.042	64811.41
390.406	64951.93
390.771	65127.11
391.135	65319.63
391.499	65541.21
391.863	65764.82
392.227	66000.34
392.592	66193.88
392.956	66379.41
393.32	66579.56
393.684	66795.47
394.048	66962.52
394.412	67138.4
394.775	67285.55
395.139	67432.07
395.503	67594.54
395.867	67740.56
396.231	67883.4
396.594	67982.63
396.958	68116.53
397.321	68271.95
397.685	68400.31
398.048	68551.76
398.412	68683.82
398.775	68800.81
399.139	68920.48
399.502	69030.16
399.865	69165.23
400.228	69350.35
400.592	69485.9
400.955	69675.25
401.318	69804.23
401.681	69961.58
402.044	70095.91
402.407	70252.23
402.77	70407.78
403.133	70591.2
403.496	70736.39
403.859	70885.87
404.221	71127.96
404.584	71355.95
404.947	71597.82
405.309	71787.98
405.672	72009.75
406.034	72243.86
406.397	72496.55
406.759	72713.93
407.122	72886.06
407.484	73065.26
407.847	73256.57
408.209	73503.45
408.571	73730.66
408.933	73992.49
409.296	74234.36
409.658	74465.39
410.02	74742.07
410.382	75060.97
410.744	75313.96
411.106	75589.39
411.468	75866.88
411.83	76098.11
412.191	76297.01
412.553	76477.74
412.915	76709.8
413.277	76933.94
413.638	77143.23
414	77322.77
414.361	77521.34
414.723	77779.21
415.084	78015.84
415.446	78208.33
415.807	78371.08
416.169	78506.97
416.53	78620.05
416.891	78764.92
417.252	78928.25
417.614	79031.52
417.975	79095.5
418.336	79176.65
418.697	79266.2
419.058	79346.25
419.419	79413.54
419.78	79488.35
420.141	79547.57
420.501	79596.55
420.862	79636.14
421.223	79666.93
421.584	79727.62
421.944	79764.25
422.305	79785.49
422.666	79802.93
423.026	79812.14
423.387	79827.96
423.747	79843.23
424.107	79861.37
424.468	79877.1
424.828	79888.65
425.188	79894.66
425.549	79905.21
425.909	79914.36
426.269	79915.28
426.629	79920.48
426.989	79927.61
427.349	79934.21
427.709	79938.86
428.069	79942.15
428.429	79948.31
428.789	79957.17
429.149	79962.38
429.508	79968.59
429.868	79975.13
430.228	79982.67
430.587	79988.54
430.947	79995.38
431.306	80002.98
431.666	80005.76
432.025	80008.75
432.385	80011.3
432.744	80015.07
433.103	80017.07
433.463	80020.06
433.822	80029.63
434.181	80035.17
434.54	80038.09
434.899	80041.75
435.258	80045.96
435.618	80049.55
435.976	80054.36
436.335	80054.73
436.694	80056.21
437.053	80055.47
437.412	80056.69
437.771	80056.58
438.129	80058.02
438.488	80058.28
438.847	80059.83
439.205	80063.31
439.564	80064.2
439.922	80065.45
440.281	80064.31
440.639	80065.31
440.997	80066.16
441.356	80068.75
441.714	80070.49
442.072	80071.3
442.431	80069.9
442.789	80069.75
443.147	80069.82
443.505	80069.45
443.863	80071.04
444.221	80071.41
444.579	80072.56
444.937	80074.11
445.294	80075.63
445.652	80075.82
446.01	80075.78
446.368	80076.22
446.725	80074.56
447.083	80075.41
447.441	80075.82
447.798	80078.18
448.156	80079.48
448.513	80079.07
448.87	80077.18
449.228	80077.67
449.585	80076.78
449.942	80079.18
450.3	80080
450.657	80079.29
451.014	80079.81
451.371	80079.96
451.728	80079.63
452.085	80079.7
452.442	80078.92
452.799	80077.92
453.156	80079.14
453.513	80080.48
453.869	80080.37
454.226	80080.85
454.583	80080.25
454.939	80079.44
455.296	80080.74
455.653	80080.7
456.009	80082.25
456.366	80083.59
456.722	80083.62
457.078	80082.66
457.435	80081.88
457.791	80081.07
458.147	80083.47
458.503	80083.81
458.86	80083.33
459.216	80085.18
459.572	80085.03
459.928	80085.62
460.284	80086.32
460.64	80086.1
460.996	80085.33
461.351	80083.81
461.707	80084.7
462.063	80086.99
462.419	80087.95
462.774	80088.36
463.13	80089.99
463.486	80090.99
463.841	80091.88
464.197	80091.69
464.552	80093.25
464.908	80093.47
465.263	80094.1
465.618	80092.36
465.974	80093.88
466.329	80096.39
466.684	80097.32
467.039	80097.13
467.394	80097.47
467.749	80097.5
468.104	80098.13
468.459	80099.69
468.814	80102.61
469.169	80103.87
469.524	80102.76
469.879	80103.54
470.233	80102.02
470.588	80101.32
470.943	80100.72
471.297	80100.39
471.652	80101.69
472.006	80102.98
472.361	80105.31
472.715	80107.16
473.07	80109.02
473.424	80108.83
473.778	80108.27
474.133	80109.65
474.487	80111.79
474.841	80110.9
475.195	80111.68
475.549	80111.24
475.903	80112.72
476.257	80113.5
476.611	80113.79
476.965	80114.57
477.319	80114.5
477.673	80116.79
478.026	80118.46
478.38	80119.31
478.734	80119.86
479.087	80120.46
479.441	80121.05
479.795	80121.09
480.148	80120.94
480.502	80121.94
480.855	80121.9
481.208	80121.46
481.562	80122.16
481.915	80122.27
482.268	80123.49
482.621	80124.42
482.974	80125.46
483.328	80124.57
483.681	80123.31
484.034	80123.46
484.387	80123.68
484.739	80125.34
485.092	80123.46
485.445	80121.46
485.798	80120.42
486.151	80121.12
486.503	80121.09
486.856	80122.53
487.209	80122.94
487.561	80123.31
487.914	80122.86
488.266	80123.42
488.618	80123.79
488.971	80121.57
489.323	80121.86
489.675	80122.46
490.028	80121.16
490.38	80123.31
490.732	80124.38
491.084	80125.97
491.436	80126.68
491.788	80126.53
492.14	80126.46
492.492	80127.6
492.844	80128.46
493.196	80129.49
493.548	80128.57
493.899	80127.83
494.251	80127.12
494.603	80124.94
494.954	80124.2
495.306	80124.01
495.657	80123.9
496.009	80124.2
496.36	80123.68
496.712	80123.9
497.063	80124.23
497.414	80125.12
497.765	80122.64
498.117	80120.86
498.468	80120.38
498.819	80119.12
499.17	80121.23
499.521	80120.46
499.872	80120.72
500.223	80122.27
500.574	80121.86
500.924	80122.9
501.275	80124.53
501.626	80122.72
501.977	80125.49
502.327	80125.2
502.678	80126.6
503.029	80126.38
503.379	80127.2
503.73	80128.9
504.08	80128.64
504.43	80128.68
504.781	80127.09
505.131	80127.9
505.481	80129.35
505.831	80128.2
506.182	80131.05
506.532	80129.16
506.882	80129.86
507.232	80129.05
507.582	80128.57
507.932	80128.98
508.281	80128.23
508.631	80127.16
508.981	80128.57
509.331	80127.6
509.681	80128.46
510.03	80126.31
510.38	80126.27
510.729	80126.53
511.079	80126.46
511.428	80127.05
511.778	80125.16
512.127	80128.83
512.476	80129.09
512.826	80128.09
513.175	80129.94
513.524	80128.83
513.873	80128.35
514.222	80129.6
514.571	80129.68
514.92	80129.2
515.269	80128.09
515.618	80128.46
515.967	80128.9
516.316	80128.61
516.665	80127.68
517.014	80128.42
517.362	80131.16
517.711	80132.05
518.059	80131.27
518.408	80131.27
518.757	80129.79
519.105	80132.05
519.453	80129.97
519.802	80130.53
520.15	80131.09
520.498	80128.42
520.847	80125.94
521.195	80126.35
521.543	80125.31
521.891	80125.09
522.239	80124.79
522.587	80126.42
522.935	80127.31
523.283	80126.57
523.631	80127.12
523.979	80129.2
524.326	80128.2
524.674	80127.53
525.022	80126.57
525.369	80127.05
525.717	80128.49
526.064	80130.42
526.412	80130.42
526.759	80130.35
527.107	80129.31
527.454	80129.72
527.801	80131.42
528.149	80133.94
528.496	80134.46
528.843	80133.2
529.19	80134.75
529.537	80135.75
529.884	80135.72
530.231	80135.34
530.578	80136.46
530.925	80136.16
531.272	80134.94
531.619	80133.68
531.966	80133.57
532.312	80133.83
532.659	80134.12
533.006	80132.79
533.352	80133.05
533.699	80133.12
534.045	80133.16
534.392	80133.42
534.738	80133.49
535.084	80134.79
535.431	80134.86
535.777	80135.6
536.123	80138.68
536.469	80137.79
536.815	80136.75
537.161	80135.09
537.507	80136.46
537.853	80134.53
538.199	80133.53
538.545	80134.38
538.891	80135.61
539.237	80136.05
539.582	80136.16
539.928	80136.09
540.274	80134.83
540.619	80133.75
540.965	80132.42
541.31	80132.79
541.656	80133.42
542.001	80132.24
542.347	80130.46
542.692	80129.49
543.037	80127.46
543.382	80125.46
543.728	80126.64
544.073	80127.6
544.418	80128.27
544.763	80126.57
545.108	80126.6
545.453	80127.57
545.798	80126.23
546.142	80126.53
546.487	80125.16
546.832	80125.34
547.177	80125.2
547.521	80126.27
547.866	80128.12
548.211	80129.46
548.555	80129.38
548.9	80128.05
549.244	80128.12
549.588	80128.34
549.933	80128.57
550.277	80128.9
550.621	80128.57
550.965	80126.94
551.31	80127.31
551.654	80127.27
551.998	80126.6
552.342	80128.01
552.686	80128.34
553.03	80128.94
553.373	80130.34
553.717	80128.68
554.061	80129.09
554.405	80129.27
554.748	80128.38
555.092	80127.2
555.436	80127.83
555.779	80127.6
556.123	80128.01
556.466	80128.31
556.81	80128.31
557.153	80128.31
557.496	80128.53
557.839	80127.9
558.183	80128.68
558.526	80127.64
558.869	80128.2
559.212	80128.2
559.555	80127.83
559.898	80127.31
560.241	80128.2
560.584	80127.09
560.927	80127.53
561.269	80126.64
561.612	80126.16
561.955	80127.09
562.297	80126.16
562.64	80125.01
562.983	80124.34
563.325	80125.16
563.668	80125.42
564.01	80125.16
564.352	80124.57
564.695	80123.42
565.037	80125.05
565.379	80124.72
565.721	80123.86
566.063	80123.2
566.406	80125.05
566.748	80125.75
567.09	80126.2
567.431	80125.05
567.773	80124.38
568.115	80124.53
568.457	80126.75
568.799	80126.01
569.14	80125.9
569.482	80126.83
569.824	80125.68
570.165	80125.09
570.507	80125.94
570.848	80125.46
571.19	80126.64
571.531	80127.27
571.872	80128.23
572.214	80129.05
572.555	80128.64
572.896	80129.42
573.237	80128.98
573.578	80126.61
573.919	80126.86
574.26	80125.09
574.601	80125.46
574.942	80125.35
575.283	80125.46
575.624	80122.05
575.964	80122.16
576.305	80121.27
576.646	80119.9
576.986	80121.35
577.327	80121.98
577.667	80120.16
578.008	80120.98
578.348	80120.68
578.689	80120.53
579.029	80120.38
579.369	80119.68
579.71	80119.68
580.05	80120.2
580.39	80120.31
580.73	80119.94
581.07	80118.05
581.41	80118.49
581.75	80117.61
582.09	80117.53
582.43	80118.05
582.769	80120.16
583.109	80118.24
583.449	80118.38
583.789	80119.9
584.128	80119.27
584.468	80118.53
584.807	80118.2
585.147	80116.79
585.486	80116.01
585.825	80114.79
586.165	80114.9
