Data from 24HourExp_27052025_FLMS018081_09-08-19-412.txt Node
Date: Wed May 28 09:08:19 BST 2025
User: adleo
Spectrometer: FLMS01808
Trigger mode: 0
Integration Time (sec): 4.000000E-1
Scans to average: 10
Electric dark correction enabled: true
Nonlinearity correction enabled: true
Boxcar width: 10
XAxis mode: Wavelengths
Number of Pixels in Spectrum: 2048
>>>>>Begin Spectral Data<<<<<
178.471	-129.69
178.857	-121.42
179.244	-115.39
179.631	-108.72
180.017	-100.04
180.404	-91.54
180.79	-79.92
181.176	-70.16
181.563	-61.09
181.949	-49.81
182.335	-40.09
182.722	-24.74
183.108	-5.03
183.494	20.68
183.88	73.11
184.266	125.98
184.653	182.54
185.039	236.57
185.425	292.41
185.811	346.26
186.197	399.88
186.582	451.55
186.968	503.68
187.354	555.59
187.74	607.45
188.126	656.87
188.511	706.34
188.897	752.76
189.283	799.48
189.668	845.63
190.054	887.54
190.439	932.75
190.825	976.35
191.21	1015.5
191.596	1050.31
191.981	1058.56
192.366	1062.7
192.752	1064.86
193.137	1069.14
193.522	1071.45
193.908	1072.59
194.293	1073.59
194.678	1073.81
195.063	1074.18
195.448	1077.11
195.833	1077.13
196.218	1077.51
196.603	1075.08
196.988	1074.51
197.373	1074.23
197.757	1074.16
198.142	1074.94
198.527	1072.57
198.912	1071.39
199.296	1071.67
199.681	1070.08
200.066	1069.52
200.45	1069.54
200.835	1069.28
201.219	1068.97
201.604	1066.21
201.988	1067.41
202.372	1068.68
202.757	1070.7
203.141	1070.79
203.525	1070.34
203.91	1070.25
204.294	1071.91
204.678	1074.1
205.062	1073.94
205.446	1073.51
205.83	1075.52
206.214	1077.44
206.598	1079.14
206.982	1081.64
207.366	1081.76
207.75	1083.23
208.134	1084.66
208.517	1085.73
208.901	1085.91
209.285	1085.89
209.669	1088.42
210.052	1088.51
210.436	1087.49
210.819	1086.87
211.203	1087.03
211.586	1086.64
211.97	1087.26
212.353	1086.1
212.737	1088.92
213.12	1093.16
213.503	1094.6
213.886	1094.53
214.27	1095.9
214.653	1096.8
215.036	1099.53
215.419	1099.59
215.802	1100.68
216.185	1103.12
216.568	1107.31
216.951	1109.11
217.334	1111.95
217.717	1114.96
218.1	1118.46
218.482	1124.9
218.865	1129.51
219.248	1135.56
219.631	1140.69
220.013	1146.45
220.396	1153.41
220.778	1157.76
221.161	1161.84
221.544	1169.12
221.926	1177.65
222.308	1184.93
222.691	1192.91
223.073	1201.01
223.455	1212.02
223.838	1221.18
224.22	1228.03
224.602	1237.19
224.984	1247.97
225.366	1258.56
225.749	1271.99
226.131	1283.93
226.513	1295.53
226.895	1310.74
227.276	1323.32
227.658	1338.67
228.04	1353.54
228.422	1368.6
228.804	1385.13
229.186	1401.39
229.567	1418.26
229.949	1432.05
230.331	1447.82
230.712	1466.22
231.094	1484.15
231.475	1502.39
231.857	1521.43
232.238	1540.63
232.62	1559.96
233.001	1580.78
233.382	1599.45
233.763	1618.55
234.145	1638.58
234.526	1657.4
234.907	1675.79
235.288	1696.56
235.669	1715.43
236.05	1735.76
236.431	1755.86
236.812	1776.36
237.193	1796.47
237.574	1815.77
237.955	1837.31
238.336	1860.3
238.717	1880.54
239.097	1902.54
239.478	1923.44
239.859	1943.65
240.239	1967.28
240.62	1989.6
241.001	2011.63
241.381	2036.83
241.762	2059.87
242.142	2082.93
242.522	2107.94
242.903	2133.77
243.283	2157.48
243.663	2181.55
244.044	2207.49
244.424	2233.42
244.804	2260.01
245.184	2288.96
245.564	2317.35
245.944	2347.58
246.324	2376.57
246.704	2406.83
247.084	2434.51
247.464	2464.6
247.844	2496.08
248.224	2526.16
248.604	2557.72
248.983	2586.79
249.363	2616.49
249.743	2645.7
250.122	2673.76
250.502	2702.93
250.882	2732.35
251.261	2764.76
251.641	2796.92
252.02	2829.55
252.399	2863.95
252.779	2899.55
253.158	2932.83
253.537	2971.81
253.917	3013.25
254.296	3049.15
254.675	3088.15
255.054	3127.36
255.433	3171.46
255.812	3212.37
256.191	3253.8
256.57	3293.41
256.949	3336.79
257.328	3380.84
257.707	3424.86
258.086	3471.01
258.465	3517.18
258.843	3566.68
259.222	3615.53
259.601	3666.38
259.979	3718.57
260.358	3771.18
260.736	3821.97
261.115	3876.61
261.493	3929.57
261.872	3979.72
262.25	4038.4
262.629	4094.27
263.007	4151.47
263.385	4206.57
263.763	4267.52
264.142	4329.22
264.52	4393.86
264.898	4457.12
265.276	4522.95
265.654	4592.98
266.032	4663.46
266.41	4735.59
266.788	4805
267.166	4878.97
267.544	4954.51
267.921	5030.64
268.299	5109.76
268.677	5189
269.055	5271.36
269.432	5354.95
269.81	5440.79
270.188	5524.1
270.565	5609.37
270.943	5700.99
271.32	5792.54
271.697	5885.19
272.075	5980.3
272.452	6074.39
272.829	6171.29
273.207	6269.27
273.584	6371.56
273.961	6474.63
274.338	6586.57
274.715	6701.4
275.092	6817.81
275.469	6938.95
275.846	7059.9
276.223	7180.56
276.6	7302.16
276.977	7426.75
277.354	7550.32
277.731	7677.25
278.108	7807.19
278.484	7942.06
278.861	8073.68
279.238	8212.47
279.614	8349.6
279.991	8493.52
280.367	8641.79
280.744	8790.38
281.12	8941.14
281.497	9086.68
281.873	9241.5
282.249	9390.02
282.625	9534.65
283.002	9685.66
283.378	9832.74
283.754	9982.77
284.13	10134.46
284.506	10293.43
284.882	10450.17
285.258	10609.37
285.634	10764.59
286.01	10924.77
286.386	11079.09
286.762	11244.2
287.138	11408.27
287.513	11575.05
287.889	11734.58
288.265	11895.23
288.641	12056.86
289.016	12218.82
289.392	12385.63
289.767	12546.75
290.143	12709.27
290.518	12871.11
290.894	13032.31
291.269	13194.05
291.644	13353.25
292.02	13509.4
292.395	13662.79
292.77	13816.82
293.145	13972.81
293.52	14130.14
293.895	14282.64
294.27	14441.92
294.646	14592.45
295.02	14740.81
295.395	14892.39
295.77	15049.8
296.145	15201.63
296.52	15358.1
296.895	15512.3
297.269	15668.89
297.644	15828.65
298.019	15984.02
298.393	16141.96
298.768	16292.16
299.143	16443.24
299.517	16598.36
299.891	16753.26
300.266	16911.95
300.64	17074.7
301.015	17239.86
301.389	17406.95
301.763	17585.28
302.137	17757.81
302.512	17940.74
302.886	18118.63
303.26	18303.4
303.634	18482.29
304.008	18659.33
304.382	18842.13
304.756	19027.66
305.13	19208.51
305.504	19383.97
305.877	19569.36
306.251	19775.11
306.625	19982.63
306.999	20192.71
307.372	20401.98
307.746	20622.98
308.119	20838.42
308.493	21048.98
308.866	21254.29
309.24	21469.76
309.613	21668.34
309.987	21877.9
310.36	22072.44
310.733	22274.83
311.107	22485.32
311.48	22706.19
311.853	22937.77
312.226	23157.8
312.599	23380.85
312.972	23607.17
313.345	23834.45
313.718	24069.6
314.091	24282.98
314.464	24507.83
314.837	24733.06
315.21	24947.74
315.582	25165.93
315.955	25370.76
316.328	25590.86
316.7	25808.34
317.073	26026.21
317.446	26254.13
317.818	26478.64
318.191	26707.35
318.563	26937.94
318.936	27142.99
319.308	27344.5
319.68	27543.63
320.053	27743.87
320.425	27933.17
320.797	28113.9
321.169	28274.44
321.541	28414.57
321.913	28552.03
322.285	28670.61
322.657	28789.95
323.029	28934.93
323.401	29072.33
323.773	29237.98
324.145	29408.53
324.517	29599.31
324.889	29773.6
325.26	29970.25
325.632	30190.04
326.004	30419.49
326.375	30672.61
326.747	30956.83
327.118	31260.04
327.49	31547.68
327.861	31856.02
328.233	32165.45
328.604	32472.22
328.975	32794.51
329.346	33100.44
329.718	33409.93
330.089	33714.72
330.46	34014.76
330.831	34283.8
331.202	34544.4
331.573	34800.42
331.944	35025.37
332.315	35244.8
332.686	35465.44
333.057	35665.88
333.428	35837.45
333.799	36014.71
334.169	36167.31
334.54	36302.03
334.911	36418.39
335.281	36548.44
335.652	36670.3
336.022	36804.6
336.393	36950.61
336.763	37109.34
337.134	37302.6
337.504	37495.84
337.874	37699.52
338.245	37900.74
338.615	38124.43
338.985	38353.87
339.355	38564.64
339.726	38793.79
340.096	39024.57
340.466	39274.86
340.836	39521.33
341.206	39767.4
341.576	40012.8
341.945	40256.79
342.315	40485.31
342.685	40720.96
343.055	40965.07
343.425	41196.07
343.794	41419.53
344.164	41645.74
344.533	41882.43
344.903	42112.04
345.273	42347.69
345.642	42574.01
346.011	42802.38
346.381	43033.93
346.75	43261.54
347.12	43516.33
347.489	43760.06
347.858	43995.73
348.227	44207.61
348.596	44419.87
348.965	44660.48
349.334	44883.1
349.704	45117.79
350.072	45367.2
350.441	45605.43
350.81	45855.04
351.179	46096.78
351.548	46332.61
351.917	46560.73
352.285	46752.81
352.654	46955.55
353.023	47162.08
353.391	47357.66
353.76	47575.85
354.129	47764.88
354.497	47998.29
354.865	48209.98
355.234	48439.47
355.602	48665.03
355.971	48911.25
356.339	49127.88
356.707	49338.88
357.075	49562.98
357.443	49780.38
357.811	49994.9
358.18	50204.36
358.548	50403.56
358.916	50608.62
359.284	50828.34
359.651	51041.41
360.019	51265.87
360.387	51464.65
360.755	51667.15
361.123	51896.68
361.49	52116.39
361.858	52331.62
362.226	52519.67
362.593	52719.98
362.961	52896.22
363.328	53085.11
363.696	53254.6
364.063	53475.22
364.43	53679.54
364.798	53886.39
365.165	54072.15
365.532	54252.09
365.899	54443.36
366.267	54604.9
366.634	54752.25
367.001	54919.38
367.368	55060.6
367.735	55233.82
368.102	55409.51
368.469	55595.56
368.835	55775.7
369.202	55940.05
369.569	56126
369.936	56322.93
370.303	56509.23
370.669	56711.81
371.036	56883.44
371.402	57084.36
371.769	57262.39
372.135	57407.17
372.502	57532.3
372.868	57669.03
373.235	57809.88
373.601	57940.23
373.967	58117.31
374.333	58312.75
374.7	58498.19
375.066	58699.52
375.432	58890.09
375.798	59077.98
376.164	59249.03
376.53	59391.27
376.896	59555.25
377.262	59729.1
377.628	59857.09
377.993	60003.44
378.359	60149.04
378.725	60304.32
379.091	60453.51
379.456	60588.47
379.822	60727.8
380.187	60882.31
380.553	61067.97
380.918	61260.82
381.284	61434.68
381.649	61605.14
382.015	61741.79
382.38	61855.57
382.745	62021.82
383.11	62169.63
383.476	62306.68
383.841	62432.31
384.206	62592.59
384.571	62707.82
384.936	62845.87
385.301	63012.86
385.666	63145.87
386.031	63290.05
386.396	63452.15
386.76	63595.7
387.125	63774.36
387.49	63973.85
387.855	64164.3
388.219	64333.15
388.584	64506.69
388.948	64703.04
389.313	64862.57
389.677	65063.2
390.042	65292.39
390.406	65448.84
390.771	65628.48
391.135	65815.04
391.499	66040.38
391.863	66265.55
392.227	66506.76
392.592	66693.74
392.956	66886.47
393.32	67078.26
393.684	67294.16
394.048	67461.52
394.412	67640.61
394.775	67797.05
395.139	67942.55
395.503	68096.42
395.867	68246.91
396.231	68388.95
396.594	68481.75
396.958	68618.99
397.321	68774.54
397.685	68894.83
398.048	69031.68
398.412	69167.68
398.775	69300.48
399.139	69430.35
399.502	69537.88
399.865	69682.37
400.228	69882.97
400.592	70015.41
400.955	70216.56
401.318	70345.65
401.681	70508.23
402.044	70651.26
402.407	70806.81
402.77	70969.44
403.133	71157.44
403.496	71299.24
403.859	71442.86
404.221	71682.96
404.584	71923.95
404.947	72160.72
405.309	72368.43
405.672	72605.37
406.034	72832.14
406.397	73075.57
406.759	73294.96
407.122	73473.12
407.484	73646.53
407.847	73833.77
408.209	74086.13
408.571	74309.09
408.933	74577.9
409.296	74828.49
409.658	75067.19
410.02	75337.69
410.382	75646.67
410.744	75907.86
411.106	76200.44
411.468	76483.53
411.83	76726.74
412.191	76925.47
412.553	77106.03
412.915	77325.59
413.277	77533.14
413.638	77731.45
414	77908.74
414.361	78090.22
414.723	78330.72
415.084	78548.98
415.446	78717.31
415.807	78856.96
416.169	78971.99
416.53	79064.9
416.891	79177.8
417.252	79308.22
417.614	79392.72
417.975	79436.09
418.336	79490.96
418.697	79547.69
419.058	79600.02
419.419	79641.17
419.78	79685.42
420.141	79721.85
420.501	79752.48
420.862	79777.08
421.223	79798.56
421.584	79835.86
421.944	79858.08
422.305	79872.18
422.666	79880.74
423.026	79885.24
423.387	79899.6
423.747	79909.11
424.107	79920.98
424.468	79931.31
424.828	79939.39
425.188	79942.83
425.549	79950.98
425.909	79954.27
426.269	79954.01
426.629	79959.62
426.989	79962.76
427.349	79968.49
427.709	79970.08
428.069	79971.63
428.429	79978.02
428.789	79982.41
429.149	79986.44
429.508	79990.32
429.868	79994.39
430.228	79997.53
430.587	80001.7
430.947	80005.32
431.306	80011.27
431.666	80014.45
432.025	80017.71
432.385	80020.37
432.744	80023.14
433.103	80024.21
433.463	80028.47
433.822	80036.96
434.181	80041.4
434.54	80044.84
434.899	80047.5
435.258	80051.94
435.618	80055.53
435.976	80056.67
436.335	80059.78
436.694	80061.19
437.053	80063.3
437.412	80065.37
437.771	80068.44
438.129	80069.4
438.488	80069.77
438.847	80071.17
439.205	80072.8
439.564	80071.43
439.922	80071.28
440.281	80072.06
440.639	80074.76
440.997	80074.21
441.356	80074.91
441.714	80074.13
442.072	80073.8
442.431	80071.51
442.789	80071.43
443.147	80070.84
443.505	80072.1
443.863	80072.95
444.221	80074.43
444.579	80075.06
444.937	80074.76
445.294	80075.95
445.652	80077.02
446.01	80078.02
446.368	80079.65
446.725	80079.09
447.083	80079.91
447.441	80081.42
447.798	80081.87
448.156	80080.65
448.513	80081.53
448.87	80081.79
449.228	80082.61
449.585	80082.09
449.942	80083.72
450.3	80082.64
450.657	80084.46
451.014	80085.23
451.371	80085.68
451.728	80084.24
452.085	80083.35
452.442	80084.05
452.799	80083.5
453.156	80084.16
453.513	80084.83
453.869	80082.94
454.226	80084.05
454.583	80085.75
454.939	80084.9
455.296	80084.86
455.653	80085.42
456.009	80085.75
456.366	80086.31
456.722	80086.27
457.078	80086.46
457.435	80087.94
457.791	80089.01
458.147	80088.38
458.503	80087.68
458.86	80085.79
459.216	80085.31
459.572	80086.12
459.928	80086.68
460.284	80086.94
460.64	80087.01
460.996	80088.64
461.351	80089.19
461.707	80089.12
462.063	80088.68
462.419	80088.38
462.774	80090.45
463.13	80091.16
463.486	80091.71
463.841	80091.27
464.197	80091.64
464.552	80093.78
464.908	80093.78
465.263	80094.19
465.618	80094.71
465.974	80095.38
466.329	80096.97
466.684	80099.04
467.039	80098.23
467.394	80098.34
467.749	80099.74
468.104	80099.97
468.459	80099.45
468.814	80100.6
469.169	80101.78
469.524	80103.19
469.879	80104.07
470.233	80102.85
470.588	80102.85
470.943	80103.26
471.297	80103.67
471.652	80103.74
472.006	80103.11
472.361	80103.45
472.715	80105.37
473.07	80105.7
473.424	80107.11
473.778	80106.37
474.133	80106.81
474.487	80108.96
474.841	80108.81
475.195	80108.44
475.549	80110.22
475.903	80111.04
476.257	80111.59
476.611	80112.81
476.965	80112.44
477.319	80113.92
477.673	80114.48
478.026	80116.74
478.38	80119.11
478.734	80119.15
479.087	80120.92
479.441	80122.33
479.795	80123.51
480.148	80123.37
480.502	80124.48
480.855	80124.63
481.208	80126.59
481.562	80128.07
481.915	80128.03
482.268	80128.7
482.621	80129.96
482.974	80128.99
483.328	80128.48
483.681	80129.14
484.034	80127.7
484.387	80128.18
484.739	80128.18
485.092	80129.48
485.445	80128.51
485.798	80128.11
486.151	80129.14
486.503	80130.25
486.856	80131.11
487.209	80130.07
487.561	80130.99
487.914	80130.92
488.266	80129.59
488.618	80128.92
488.971	80127.55
489.323	80127.18
489.675	80128.03
490.028	80126.59
490.38	80126.74
490.732	80125.96
491.084	80124.92
491.436	80125.96
491.788	80125.26
492.14	80124.48
492.492	80123.96
492.844	80124.85
493.196	80124.51
493.548	80123.51
493.899	80121.63
494.251	80121.33
494.603	80121.77
494.954	80121.03
495.306	80120.18
495.657	80122.59
496.009	80122.59
496.36	80123.14
496.712	80126.59
497.063	80127.4
497.414	80128.92
497.765	80128.7
498.117	80129.59
498.468	80129.89
498.819	80129.63
499.17	80131.4
499.521	80133.55
499.872	80133.66
500.223	80132.7
500.574	80132.22
500.924	80134.29
501.275	80135.59
501.626	80134.14
501.977	80134.48
502.327	80134.22
502.678	80135.44
503.029	80136.07
503.379	80136.85
503.73	80136.4
504.08	80133.81
504.43	80131.59
504.781	80131.29
505.131	80132.77
505.481	80132.14
505.831	80133.03
506.182	80134.25
506.532	80132.51
506.882	80131.03
507.232	80132.81
507.582	80134.07
507.932	80134.66
508.281	80135
508.631	80133.85
508.981	80135.44
509.331	80135.88
509.681	80136.81
510.03	80137.26
510.38	80137.11
510.729	80136.22
511.079	80135.92
511.428	80134.63
511.778	80135.4
512.127	80134.92
512.476	80134.85
512.826	80136.03
513.175	80137.11
513.524	80135.77
513.873	80138.03
514.222	80138.4
514.571	80137
514.92	80136.51
515.269	80135.29
515.618	80135.07
515.967	80136.81
516.316	80136.48
516.665	80136
517.014	80135.66
517.362	80134.33
517.711	80134.14
518.059	80134.51
518.408	80135.37
518.757	80136.77
519.105	80137.77
519.453	80138.92
519.802	80139.03
520.15	80140.18
520.498	80139.25
520.847	80138.22
521.195	80136.07
521.543	80136.62
521.891	80135.03
522.239	80135.03
522.587	80135.63
522.935	80134.85
523.283	80133.81
523.631	80134.85
523.979	80133.29
524.326	80132.37
524.674	80131.92
525.022	80131.74
525.369	80132.7
525.717	80135.03
526.064	80135.37
526.412	80135.4
526.759	80134.03
527.107	80133.52
527.454	80131.18
527.801	80131.03
528.149	80132.89
528.496	80133.22
528.843	80132
529.19	80132.96
529.537	80132.92
529.884	80132.77
530.231	80132.14
530.578	80132.74
530.925	80131.55
531.272	80132.22
531.619	80132.55
531.966	80133.63
532.312	80132.96
532.659	80132.33
533.006	80130.51
533.352	80130.85
533.699	80130.62
534.045	80132.07
534.392	80130.74
534.738	80132.55
535.084	80132.33
535.431	80130.96
535.777	80131.7
536.123	80133.11
536.469	80132.18
536.815	80130.33
537.161	80131.88
537.507	80131.33
537.853	80130.92
538.199	80130.07
538.545	80132.22
538.891	80132.48
539.237	80133.33
539.582	80134.11
539.928	80133.74
540.274	80132.18
540.619	80130.77
540.965	80130.66
541.31	80130.11
541.656	80128.92
542.001	80128.37
542.347	80128.85
542.692	80129.18
543.037	80129.74
543.382	80128
543.728	80129.63
544.073	80131.33
544.418	80128.81
544.763	80130.14
545.108	80130.88
545.453	80129.81
545.798	80128
546.142	80128.33
546.487	80127.81
546.832	80127.51
547.177	80127.63
547.521	80127.74
547.866	80127.18
548.211	80126.33
548.555	80125.4
548.9	80126.55
549.244	80126.25
549.588	80126.85
549.933	80127.74
550.277	80127.55
550.621	80127.03
550.965	80126.59
551.31	80125.81
551.654	80127.77
551.998	80127.29
552.342	80126.18
552.686	80127.81
553.03	80128.44
553.373	80129
553.717	80127.77
554.061	80126.85
554.405	80126.29
554.748	80126.51
555.092	80128.11
555.436	80128.51
555.779	80130.51
556.123	80132
556.466	80130.74
556.81	80129.74
557.153	80129.77
557.496	80128.03
557.839	80130.96
558.183	80131.18
558.526	80132.74
558.869	80132
559.212	80133.14
559.555	80133.92
559.898	80135
560.241	80135.48
560.584	80134.51
560.927	80136.4
561.269	80136.81
561.612	80136.14
561.955	80136.59
562.297	80136.7
562.64	80137.66
562.983	80135.81
563.325	80135.22
563.668	80136.81
564.01	80136.33
564.352	80135.25
564.695	80135.81
565.037	80134.51
565.379	80132.81
565.721	80131.59
566.063	80130.88
566.406	80130.4
566.748	80130.44
567.09	80129.29
567.431	80128.37
567.773	80126.51
568.115	80124.33
568.457	80123.44
568.799	80124.92
569.14	80124.85
569.482	80122.96
569.824	80120.44
570.165	80120
570.507	80119.92
570.848	80119.44
571.19	80119.26
571.531	80120.33
571.872	80121.18
572.214	80121.77
572.555	80121.85
572.896	80122.18
573.237	80122.33
573.578	80120.48
573.919	80118.66
574.26	80118.44
574.601	80118.59
574.942	80119.92
575.283	80120.7
575.624	80121.51
575.964	80120.96
576.305	80121.7
576.646	80122.7
576.986	80124.74
577.327	80125.55
577.667	80124.81
578.008	80124.77
578.348	80124.44
578.689	80123.29
579.029	80121.55
579.369	80120.66
579.71	80122.92
580.05	80123.11
580.39	80122.81
580.73	80122.51
581.07	80123.03
581.41	80122.51
581.75	80121.7
582.09	80121.25
582.43	80120.85
582.769	80119.4
583.109	80119.48
583.449	80117.51
583.789	80117.33
584.128	80117.44
584.468	80115.44
584.807	80114.26
585.147	80112.44
585.486	80113.7
585.825	80115.15
