Data from 24HourExp_27052025_FLMS018081_11-18-20-200.txt Node
Date: Tue May 27 11:18:20 BST 2025
User: adleo
Spectrometer: FLMS01808
Trigger mode: 0
Integration Time (sec): 4.000000E-1
Scans to average: 10
Electric dark correction enabled: true
Nonlinearity correction enabled: true
Boxcar width: 10
XAxis mode: Wavelengths
Number of Pixels in Spectrum: 2048
>>>>>Begin Spectral Data<<<<<
178.471	-140.79
178.857	-132.53
179.244	-124.95
179.631	-115.35
180.017	-107.31
180.404	-98.44
180.79	-86.99
181.176	-76.15
181.563	-66.4
181.949	-55.56
182.335	-45.34
182.722	-28.95
183.108	-7.76
183.494	19.75
183.88	72.1
184.266	123.19
184.653	176.65
185.039	230.35
185.425	285.9
185.811	339.11
186.197	389.77
186.582	440.92
186.968	493.08
187.354	543.78
187.74	593.3
188.126	643.11
188.511	690.95
188.897	739.4
189.283	783.67
189.668	827.81
190.054	870.26
190.439	914.74
190.825	958.44
191.21	996.57
191.596	1029.3
191.981	1036.97
192.366	1042.97
192.752	1044.51
193.137	1047.95
193.522	1048.96
193.908	1050.34
194.293	1055.02
194.678	1056.92
195.063	1058.92
195.448	1061.08
195.833	1060.75
196.218	1060.67
196.603	1060.81
196.988	1058.6
197.373	1059.98
197.757	1060.01
198.142	1061.49
198.527	1057.18
198.912	1056.25
199.296	1056.12
199.681	1053.75
200.066	1052.95
200.45	1053.12
200.835	1053.03
201.219	1052.91
201.604	1052.21
201.988	1051.48
202.372	1051.29
202.757	1052.7
203.141	1051.15
203.525	1051.12
203.91	1050.83
204.294	1053.15
204.678	1054.23
205.062	1052.28
205.446	1051.78
205.83	1054.26
206.214	1054.65
206.598	1058.48
206.982	1061.22
207.366	1063.34
207.75	1065.55
208.134	1066.63
208.517	1066.31
208.901	1067.09
209.285	1068.79
209.669	1069.93
210.052	1072.67
210.436	1072.42
210.819	1071.34
211.203	1071.19
211.586	1070.86
211.97	1073.24
212.353	1073.05
212.737	1074.23
213.12	1077.06
213.503	1078.6
213.886	1077.87
214.27	1079.95
214.653	1081.07
215.036	1080.76
215.419	1081.48
215.802	1083.01
216.185	1085.38
216.568	1087.89
216.951	1091.42
217.334	1091.99
217.717	1095.3
218.1	1098.7
218.482	1101.98
218.865	1104.54
219.248	1108.68
219.631	1112.15
220.013	1116.46
220.396	1122.46
220.778	1126.23
221.161	1132.29
221.544	1139.14
221.926	1145.78
222.308	1152.12
222.691	1158.09
223.073	1165.55
223.455	1172.59
223.838	1181.59
224.22	1190.19
224.602	1202.16
224.984	1213.02
225.366	1225.79
225.749	1238.87
226.131	1250.3
226.513	1262.22
226.895	1277.36
227.276	1291.38
227.658	1305.05
228.04	1318.1
228.422	1330.47
228.804	1347.08
229.186	1359.6
229.567	1376.31
229.949	1392.62
230.331	1407.86
230.712	1424.99
231.094	1443.16
231.475	1463.24
231.857	1481.4
232.238	1499.51
232.62	1516.58
233.001	1533.11
233.382	1551.01
233.763	1568.32
234.145	1584.79
234.526	1604.4
234.907	1621.49
235.288	1639.47
235.669	1660.86
236.05	1680.33
236.431	1699.52
236.812	1717.75
237.193	1740.39
237.574	1759.41
237.955	1779.84
238.336	1799.81
238.717	1820.66
239.097	1843.37
239.478	1860.89
239.859	1881.44
240.239	1903.07
240.62	1924.45
241.001	1948.15
241.381	1971.49
241.762	1994.28
242.142	2017.67
242.522	2038.8
242.903	2063.32
243.283	2087.91
243.663	2112.14
244.044	2140.17
244.424	2168.23
244.804	2192.9
245.184	2220.17
245.564	2246.78
245.944	2276.87
246.324	2306.36
246.704	2334.89
247.084	2360.04
247.464	2391.59
247.844	2422.67
248.224	2451.57
248.604	2481.7
248.983	2508.33
249.363	2538.15
249.743	2566.4
250.122	2594.93
250.502	2626.56
250.882	2655.44
251.261	2687.44
251.641	2715.86
252.02	2745.94
252.399	2776.67
252.779	2813.8
253.158	2846.9
253.537	2881.64
253.917	2920.68
254.296	2954.88
254.675	2992.66
255.054	3029.51
255.433	3069.45
255.812	3105.72
256.191	3144.14
256.57	3182.17
256.949	3222.63
257.328	3262.71
257.707	3304.6
258.086	3350.74
258.465	3395.81
258.843	3445.55
259.222	3492.6
259.601	3544.02
259.979	3593.23
260.358	3645.12
260.736	3693.08
261.115	3746.89
261.493	3798.24
261.872	3846.61
262.25	3900.57
262.629	3952.59
263.007	4009.46
263.385	4064.53
263.763	4126.04
264.142	4185.95
264.52	4245.7
264.898	4308.37
265.276	4370.07
265.654	4437.87
266.032	4504.2
266.41	4570.38
266.788	4635.68
267.166	4707.35
267.544	4775.75
267.921	4847.94
268.299	4922.23
268.677	5000.69
269.055	5075.99
269.432	5157.4
269.81	5238.87
270.188	5322.63
270.565	5408.87
270.943	5495.12
271.32	5580.68
271.697	5669.16
272.075	5759.85
272.452	5854.36
272.829	5948.52
273.207	6044.85
273.584	6143.96
273.961	6244.22
274.338	6352.51
274.715	6466.71
275.092	6576.52
275.469	6693.1
275.846	6810.09
276.223	6924.12
276.6	7038.63
276.977	7162.23
277.354	7280.35
277.731	7399.8
278.108	7527.11
278.484	7653.93
278.861	7783.69
279.238	7920.37
279.614	8054.57
279.991	8193.51
280.367	8331.27
280.744	8474.41
281.12	8623.73
281.497	8765.15
281.873	8912.6
282.249	9056
282.625	9196.77
283.002	9340.15
283.378	9487.22
283.754	9634.71
284.13	9788.45
284.506	9942.51
284.882	10091.13
285.258	10246.62
285.634	10403.49
286.01	10558.58
286.386	10711.21
286.762	10873.72
287.138	11030.5
287.513	11188.66
287.889	11348.14
288.265	11510.38
288.641	11670.07
289.016	11827.3
289.392	11992.76
289.767	12149.32
290.143	12312.94
290.518	12469.28
290.894	12627.9
291.269	12786.13
291.644	12941.78
292.02	13090.46
292.395	13242.98
292.77	13398.85
293.145	13550.91
293.52	13703.47
293.895	13847.89
294.27	14001.82
294.646	14149.83
295.02	14295
295.395	14444.98
295.77	14595.45
296.145	14747.7
296.52	14898.15
296.895	15045
297.269	15190.28
297.644	15343.3
298.019	15490.06
298.393	15641.35
298.768	15790.56
299.143	15940.7
299.517	16089.8
299.891	16247.07
300.266	16407.46
300.64	16560.96
301.015	16720.59
301.389	16887.35
301.763	17059.82
302.137	17227.26
302.512	17401.02
302.886	17574.79
303.26	17755.29
303.634	17924.27
304.008	18091.61
304.382	18268.89
304.756	18448.9
305.13	18627.86
305.504	18804.14
305.877	18986.64
306.251	19185.74
306.625	19381.63
306.999	19583.63
307.372	19791.79
307.746	20001.65
308.119	20204.3
308.493	20410.42
308.866	20613.73
309.24	20814.88
309.613	21019.6
309.987	21220.29
310.36	21411.08
310.733	21613.9
311.107	21822.34
311.48	22038.67
311.853	22261.52
312.226	22475.68
312.599	22695.16
312.972	22914.82
313.345	23139.2
313.718	23365.76
314.091	23579.24
314.464	23799.75
314.837	24018.5
315.21	24223.32
315.582	24430.51
315.955	24628.59
316.328	24845.45
316.7	25055.49
317.073	25270.59
317.446	25483.58
317.818	25708.69
318.191	25934.14
318.563	26152.42
318.936	26352.21
319.308	26548.09
319.68	26743.45
320.053	26937.36
320.425	27123.8
320.797	27302.9
321.169	27457.98
321.541	27596.97
321.913	27727.75
322.285	27849.86
322.657	27967.23
323.029	28109.69
323.401	28249.84
323.773	28418.75
324.145	28577.37
324.517	28760.54
324.889	28931.94
325.26	29123.62
325.632	29332.66
326.004	29557.38
326.375	29805.58
326.747	30072.12
327.118	30371.26
327.49	30652.05
327.861	30956.55
328.233	31253.81
328.604	31552.56
328.975	31862.58
329.346	32168.6
329.718	32469.91
330.089	32762.92
330.46	33046.03
330.831	33314.73
331.202	33566.18
331.573	33803.47
331.944	34029.73
332.315	34250.79
332.686	34461.88
333.057	34661.17
333.428	34827.46
333.799	34989.23
334.169	35141.83
334.54	35283.51
334.911	35400.1
335.281	35528.49
335.652	35642.39
336.022	35773.32
336.393	35914.73
336.763	36076.53
337.134	36256.31
337.504	36444.77
337.874	36645.81
338.245	36846.08
338.615	37054.2
338.985	37279.27
339.355	37498.99
339.726	37714.19
340.096	37928.35
340.466	38175.01
340.836	38409.01
341.206	38646.91
341.576	38890.47
341.945	39124.76
342.315	39343.61
342.685	39581.07
343.055	39822.68
343.425	40057.18
343.794	40279.09
344.164	40507.09
344.533	40734.62
344.903	40952.57
345.273	41184.2
345.642	41404.79
346.011	41634.6
346.381	41861.59
346.75	42091.81
347.12	42332.59
347.489	42579.64
347.858	42825.04
348.227	43034.12
348.596	43252.19
348.965	43495.78
349.334	43717.83
349.704	43954.55
350.072	44204.04
350.441	44428.14
350.81	44658.31
351.179	44892.98
351.548	45126.37
351.917	45348.7
352.285	45542.95
352.654	45753.71
353.023	45955.4
353.391	46162.15
353.76	46371.57
354.129	46556.72
354.497	46777.86
354.865	46991.45
355.234	47220.4
355.602	47433.36
355.971	47675.73
356.339	47892.49
356.707	48097.85
357.075	48319.29
357.443	48538.09
357.811	48747.97
358.18	48962.11
358.548	49173.27
358.916	49374.17
359.284	49593.27
359.651	49804.23
360.019	50015.92
360.387	50217.64
360.755	50420.12
361.123	50640.74
361.49	50862.51
361.858	51078.6
362.226	51271.54
362.593	51470.3
362.961	51642.71
363.328	51835.2
363.696	52004.22
364.063	52216.94
364.43	52419.58
364.798	52621.93
365.165	52794.9
365.532	52971.43
365.899	53153.42
366.267	53320.81
366.634	53471.33
367.001	53629.86
367.368	53766.9
367.735	53950.1
368.102	54119.01
368.469	54306.53
368.835	54480.88
369.202	54643.04
369.569	54834.67
369.936	55022.13
370.303	55204.13
370.669	55404.39
371.036	55571.33
371.402	55762.32
371.769	55934.33
372.135	56087.37
372.502	56217.91
372.868	56358.84
373.235	56498.61
373.601	56627.23
373.967	56790.69
374.333	56974.58
374.7	57148.24
375.066	57346.65
375.432	57525.6
375.798	57694.21
376.164	57853.07
376.53	57991.7
376.896	58152.65
377.262	58318.61
377.628	58439.82
377.993	58572.27
378.359	58705.42
378.725	58855.24
379.091	59003.61
379.456	59136.43
379.822	59270.25
380.187	59413.65
380.553	59593.12
380.918	59781.22
381.284	59956.56
381.649	60119.96
382.015	60254.34
382.38	60375.57
382.745	60537.74
383.11	60680.57
383.476	60818.63
383.841	60948.22
384.206	61097.06
384.571	61207.93
384.936	61330.84
385.301	61496.12
385.666	61630.47
386.031	61779.01
386.396	61934.78
386.76	62074.41
387.125	62249.99
387.49	62440.17
387.855	62619.08
388.219	62781.64
388.584	62944.73
388.948	63129.16
389.313	63286.07
389.677	63480.63
390.042	63704.24
390.406	63846.42
390.771	64027.16
391.135	64208.37
391.499	64421.35
391.863	64649.3
392.227	64881.21
392.592	65075.8
392.956	65268.52
393.32	65464.79
393.684	65669.69
394.048	65833.47
394.412	66012.46
394.775	66152.21
395.139	66285.65
395.503	66447.81
395.867	66589.45
396.231	66732.18
396.594	66834.89
396.958	66975.83
397.321	67115.35
397.685	67233.4
398.048	67377.16
398.412	67503.63
398.775	67628.82
399.139	67753.94
399.502	67856.41
399.865	67994.46
400.228	68181.17
400.592	68311.84
400.955	68497.08
401.318	68630.65
401.681	68789.65
402.044	68927.91
402.407	69088.99
402.77	69241.48
403.133	69418.04
403.496	69558.05
403.859	69705.46
404.221	69927.32
404.584	70144.9
404.947	70379.62
405.309	70572.71
405.672	70792.77
406.034	71005.15
406.397	71251.75
406.759	71457.97
407.122	71630.65
407.484	71800.21
407.847	71984.69
408.209	72218.97
408.571	72437.05
408.933	72687.91
409.296	72915.48
409.658	73122.43
410.02	73395.21
410.382	73721.53
410.744	73966.86
411.106	74230.92
411.468	74485.86
411.83	74720.54
412.191	74909.3
412.553	75099.2
412.915	75327.41
413.277	75544.8
413.638	75760.09
414	75909.22
414.361	76115.69
414.723	76383.42
415.084	76638.58
415.446	76860.46
415.807	77051.41
416.169	77213.98
416.53	77358.96
416.891	77535.66
417.252	77748.79
417.614	77892.96
417.975	77992
418.336	78128.76
418.697	78283.65
419.058	78423.48
419.419	78544.84
419.78	78681.95
420.141	78791.97
420.501	78896.04
420.862	78991.55
421.223	79078.26
421.584	79219.93
421.944	79306.27
422.305	79368.99
422.666	79422.53
423.026	79452.81
423.387	79503.33
423.747	79549.62
424.107	79599.09
424.468	79647.9
424.828	79681.89
425.188	79703.25
425.549	79727.46
425.909	79747.38
426.269	79752.27
426.629	79767.3
426.989	79780.29
427.349	79796.71
427.709	79807.76
428.069	79817.64
428.429	79830.52
428.789	79845.11
429.149	79857.64
429.508	79867.56
429.868	79877.63
430.228	79886.92
430.587	79898.79
430.947	79908.01
431.306	79920.88
431.666	79928.85
432.025	79933.09
432.385	79938.11
432.744	79942.32
433.103	79945.72
433.463	79952.52
433.822	79969.07
434.181	79976.97
434.54	79982.29
434.899	79986.54
435.258	79991.3
435.618	79995.48
435.976	80001.79
436.335	80003.71
436.694	80006.74
437.053	80008.89
437.412	80010.18
437.771	80013.47
438.129	80014.8
438.488	80015.28
438.847	80015.98
439.205	80017.42
439.564	80019.2
439.922	80018.5
440.281	80020.68
440.639	80024.15
440.997	80023.45
441.356	80021.75
441.714	80022.97
442.072	80023.04
442.431	80021.79
442.789	80023.27
443.147	80023.89
443.505	80023.27
443.863	80024.74
444.221	80022.78
444.579	80023.49
444.937	80024.34
445.294	80024.82
445.652	80025.74
446.01	80025.89
446.368	80027
446.725	80027.81
447.083	80027.85
447.441	80029.44
447.798	80028.7
448.156	80027.52
448.513	80027.74
448.87	80028.99
449.228	80029.48
449.585	80029.29
449.942	80030.44
450.3	80030.22
450.657	80029.44
451.014	80032.06
451.371	80032.69
451.728	80034.47
452.085	80034.54
452.442	80035.65
452.799	80035.47
453.156	80037.54
453.513	80038.79
453.869	80039.5
454.226	80039.46
454.583	80040.61
454.939	80040.57
455.296	80041.86
455.653	80042.38
456.009	80041.75
456.366	80040.9
456.722	80041.27
457.078	80043.82
457.435	80044.75
457.791	80045.38
458.147	80046.75
458.503	80043.93
458.86	80044.16
459.216	80045.3
459.572	80045.49
459.928	80045.38
460.284	80045.27
460.64	80043.97
460.996	80045.08
461.351	80045.01
461.707	80045.23
462.063	80045.12
462.419	80046.04
462.774	80045.75
463.13	80046.19
463.486	80048.3
463.841	80050.74
464.197	80051.18
464.552	80050.37
464.908	80050.59
465.263	80050.81
465.618	80050.33
465.974	80051.44
466.329	80052.81
466.684	80052.48
467.039	80054.25
467.394	80053.7
467.749	80053.29
468.104	80053.22
468.459	80054.1
468.814	80054.81
469.169	80056.18
469.524	80055.47
469.879	80056.55
470.233	80056.81
470.588	80057.32
470.943	80057.29
471.297	80058.1
471.652	80058.54
472.006	80060.62
472.361	80060.21
472.715	80061.17
473.07	80061.32
473.424	80062.1
473.778	80061.5
474.133	80062.65
474.487	80062.65
474.841	80064.28
475.195	80066.72
475.549	80069.01
475.903	80069.75
476.257	80069.05
476.611	80068.98
476.965	80071.6
477.319	80071.05
477.673	80072.53
478.026	80073.56
478.38	80072.27
478.734	80071.31
479.087	80071.27
479.441	80070.38
479.795	80070.79
480.148	80070.23
480.502	80070.75
480.855	80072.9
481.208	80074.67
481.562	80073.71
481.915	80074.79
482.268	80073.49
482.621	80071.79
482.974	80071.46
483.328	80071.38
483.681	80072.34
484.034	80072.09
484.387	80071.2
484.739	80072.64
485.092	80071.46
485.445	80070.94
485.798	80073.12
486.151	80074.68
486.503	80075.19
486.856	80076.93
487.209	80077.56
487.561	80078.19
487.914	80079.3
488.266	80078.12
488.618	80077.56
488.971	80078.86
489.323	80077.01
489.675	80079.19
490.028	80081.15
490.38	80081.37
490.732	80081.82
491.084	80082.59
491.436	80082
491.788	80082.07
492.14	80082.22
492.492	80083.3
492.844	80085.11
493.196	80085.18
493.548	80084.89
493.899	80085.7
494.251	80085.41
494.603	80084.67
494.954	80086.55
495.306	80085.33
495.657	80085.3
496.009	80084.37
496.36	80085.18
496.712	80087.37
497.063	80086.04
497.414	80084.56
497.765	80085.22
498.117	80085.15
498.468	80085.41
498.819	80088.29
499.17	80089.26
499.521	80088.96
499.872	80088.92
500.223	80089.11
500.574	80088.77
500.924	80087.96
501.275	80087.92
501.626	80086.85
501.977	80088.63
502.327	80088.77
502.678	80091.85
503.029	80092.4
503.379	80092.22
503.73	80090.07
504.08	80088.55
504.43	80089.96
504.781	80089.85
505.131	80089.18
505.481	80087.67
505.831	80086.48
506.182	80086.52
506.532	80085.11
506.882	80084.45
507.232	80084.63
507.582	80082.97
507.932	80082.26
508.281	80083.56
508.631	80082.48
508.981	80082.63
509.331	80081.67
509.681	80078.71
510.03	80075.79
510.38	80076.3
510.729	80077.45
511.079	80078.75
511.428	80078.93
511.778	80077.3
512.127	80078.6
512.476	80077.67
512.826	80078.74
513.175	80079.89
513.524	80077.56
513.873	80078.41
514.222	80079.11
514.571	80078.52
514.92	80080
515.269	80080.48
515.618	80080.3
515.967	80080.97
516.316	80082.22
516.665	80081.67
517.014	80081.93
517.362	80082.7
517.711	80082.89
518.059	80082.45
518.408	80082.63
518.757	80083.15
519.105	80085.33
519.453	80085.37
519.802	80086.55
520.15	80086.04
520.498	80084.52
520.847	80084.81
521.195	80086
521.543	80085.55
521.891	80086.81
522.239	80086.33
522.587	80087.11
522.935	80087.63
523.283	80087.81
523.631	80087.89
523.979	80087.77
524.326	80088.88
524.674	80088.48
525.022	80088.59
525.369	80089.33
525.717	80089.74
526.064	80088.7
526.412	80087.11
526.759	80087.29
527.107	80085.96
527.454	80087.52
527.801	80088.22
528.149	80088.74
528.496	80089.18
528.843	80090.07
529.19	80090.11
529.537	80089.51
529.884	80090.07
530.231	80089.81
530.578	80089.07
530.925	80088.03
531.272	80088.66
531.619	80089.96
531.966	80091.55
532.312	80093.14
532.659	80091.66
533.006	80091.96
533.352	80091.74
533.699	80093.48
534.045	80093.44
534.392	80094.03
534.738	80094.85
535.084	80095.55
535.431	80096.66
535.777	80094.88
536.123	80095.47
536.469	80094.33
536.815	80094.73
537.161	80093.62
537.507	80093.73
537.853	80094.33
538.199	80094.7
538.545	80095.4
538.891	80093.85
539.237	80093.66
539.582	80092.66
539.928	80093.25
540.274	80092.55
540.619	80093.84
540.965	80091.44
541.31	80092.44
541.656	80093.51
542.001	80093.51
542.347	80092.88
542.692	80093.1
543.037	80092.29
543.382	80090.51
543.728	80091.81
544.073	80090.88
544.418	80090.4
544.763	80089.14
545.108	80089.22
545.453	80086.89
545.798	80085.63
546.142	80087.26
546.487	80087.92
546.832	80085.59
547.177	80085.59
547.521	80085.22
547.866	80085
548.211	80086.18
548.555	80083.63
548.9	80083.48
549.244	80079.93
549.588	80078.93
549.933	80078.41
550.277	80079.19
550.621	80079.19
550.965	80078.63
551.31	80077.78
551.654	80077.45
551.998	80078.67
552.342	80079.82
552.686	80081.41
553.03	80082.52
553.373	80081.78
553.717	80079.78
554.061	80079.89
554.405	80082.52
554.748	80083.41
555.092	80082.67
555.436	80082.85
555.779	80085.59
556.123	80085.48
556.466	80087.55
556.81	80088
557.153	80086.67
557.496	80087.41
557.839	80088.03
558.183	80088.96
558.526	80090.03
558.869	80090.48
559.212	80090.22
559.555	80088.15
559.898	80087.92
560.241	80088
560.584	80086.85
560.927	80088.37
561.269	80088.26
561.612	80086.52
561.955	80084.85
562.297	80084.78
562.64	80084.96
562.983	80084.3
563.325	80083.85
563.668	80084.18
564.01	80084.15
564.352	80083.78
564.695	80082.7
565.037	80081.45
565.379	80079.41
565.721	80079.15
566.063	80079.41
566.406	80079
566.748	80079.89
567.09	80079.19
567.431	80079.04
567.773	80078.49
568.115	80076.97
568.457	80076.64
568.799	80075.49
569.14	80075.27
569.482	80074.6
569.824	80075.08
570.165	80073.6
570.507	80073.64
570.848	80073.93
571.19	80074.82
571.531	80076.49
571.872	80077.45
572.214	80079.52
572.555	80080.23
572.896	80078.34
573.237	80079.01
573.578	80077.64
573.919	80076.23
574.26	80077.38
574.601	80078.64
574.942	80078.23
575.283	80079.01
575.624	80079.75
575.964	80078.23
576.305	80079.34
576.646	80079.89
576.986	80078.67
577.327	80077.93
577.667	80078.38
578.008	80077.3
578.348	80077.86
578.689	80076.16
579.029	80073.57
579.369	80071.2
579.71	80071.35
580.05	80072.75
580.39	80071.38
580.73	80072.42
581.07	80072.79
581.41	80071.79
581.75	80068.27
582.09	80068.24
582.43	80067.76
582.769	80067.53
583.109	80068.5
583.449	80068.13
583.789	80067.42
584.128	80067.83
584.468	80067.61
584.807	80065.68
585.147	80065.2
585.486	80062.54
585.825	80063.54
586.165	80066.57
