Data from 24HourExp_27052025_FLMS018081_19-28-19-394.txt Node
Date: Tue May 27 19:28:19 BST 2025
User: adleo
Spectrometer: FLMS01808
Trigger mode: 0
Integration Time (sec): 4.000000E-1
Scans to average: 10
Electric dark correction enabled: true
Nonlinearity correction enabled: true
Boxcar width: 10
XAxis mode: Wavelengths
Number of Pixels in Spectrum: 2048
>>>>>Begin Spectral Data<<<<<
178.471	-109.25
178.857	-106.33
179.244	-99.28
179.631	-91.43
180.017	-84.37
180.404	-78
180.79	-67.53
181.176	-59.06
181.563	-50.53
181.949	-39.49
182.335	-29.37
182.722	-17.62
183.108	-0.94
183.494	23.47
183.88	76.2
184.266	131.25
184.653	189.19
185.039	244.66
185.425	300.73
185.811	356.27
186.197	409.49
186.582	460.82
186.968	515.5
187.354	567.11
187.74	618.5
188.126	669.49
188.511	720.91
188.897	768.07
189.283	816.17
189.668	862.63
190.054	907.5
190.439	953.62
190.825	998.6
191.21	1038.39
191.596	1070.84
191.981	1079.54
192.366	1082.7
192.752	1083.59
193.137	1086.3
193.522	1088.84
193.908	1088.67
194.293	1091.64
194.678	1094.84
195.063	1096.42
195.448	1099.41
195.833	1098.06
196.218	1099.69
196.603	1099.95
196.988	1100.4
197.373	1101.92
197.757	1102.79
198.142	1102.38
198.527	1099.9
198.912	1098.79
199.296	1098.83
199.681	1097.59
200.066	1095.52
200.45	1094.8
200.835	1095.4
201.219	1095.87
201.604	1095.1
201.988	1097.45
202.372	1097.66
202.757	1098.47
203.141	1097.42
203.525	1095.83
203.91	1098.43
204.294	1098.14
204.678	1097.34
205.062	1096.76
205.446	1095.94
205.83	1096.8
206.214	1097.09
206.598	1098.9
206.982	1101.67
207.366	1102.45
207.75	1102.93
208.134	1103.91
208.517	1106.8
208.901	1105.5
209.285	1106.93
209.669	1107.16
210.052	1107.82
210.436	1110.34
210.819	1109.72
211.203	1112.7
211.586	1113.4
211.97	1113.18
212.353	1112.06
212.737	1113.59
213.12	1116.86
213.503	1118
213.886	1118.13
214.27	1119.88
214.653	1120.56
215.036	1121.07
215.419	1123.75
215.802	1128.43
216.185	1129.81
216.568	1131.6
216.951	1135
217.334	1136.61
217.717	1140.69
218.1	1142.35
218.482	1144.03
218.865	1147.78
219.248	1151.01
219.631	1155.23
220.013	1160.41
220.396	1169.74
220.778	1175.13
221.161	1179.04
221.544	1185.9
221.926	1193.96
222.308	1200.71
222.691	1207.8
223.073	1216.65
223.455	1223.82
223.838	1231.24
224.22	1243.35
224.602	1254.87
224.984	1266.49
225.366	1277.08
225.749	1290.16
226.131	1303.72
226.513	1317.5
226.895	1332.58
227.276	1346.27
227.658	1363.83
228.04	1379.28
228.422	1392.07
228.804	1410.11
229.186	1427.4
229.567	1444.63
229.949	1461.46
230.331	1478.87
230.712	1497.15
231.094	1516.22
231.475	1536.81
231.857	1558.01
232.238	1576.17
232.62	1593.94
233.001	1614.47
233.382	1636.66
233.763	1656.45
234.145	1677.63
234.526	1697.87
234.907	1716.93
235.288	1738.15
235.669	1756.31
236.05	1777.76
236.431	1799.09
236.812	1818.74
237.193	1839.99
237.574	1861.32
237.955	1883.98
238.336	1907.25
238.717	1930.2
239.097	1954.46
239.478	1976.05
239.859	1997.71
240.239	2023.38
240.62	2047.37
241.001	2070.95
241.381	2095.8
241.762	2119.7
242.142	2144.02
242.522	2171.02
242.903	2196.92
243.283	2222.47
243.663	2251.8
244.044	2280.17
244.424	2310.2
244.804	2338.76
245.184	2368.02
245.564	2396.7
245.944	2428.4
246.324	2459.87
246.704	2490.5
247.084	2517.4
247.464	2548.93
247.844	2582.38
248.224	2614.31
248.604	2650.55
248.983	2684.63
249.363	2718.96
249.743	2751.4
250.122	2783.71
250.502	2813.2
250.882	2847.02
251.261	2881.29
251.641	2912.73
252.02	2946.41
252.399	2982.28
252.779	3021.34
253.158	3060.13
253.537	3101.31
253.917	3145.13
254.296	3185.82
254.675	3228.69
255.054	3271.67
255.433	3316.02
255.812	3356.92
256.191	3400.45
256.57	3440.66
256.949	3484.25
257.328	3529.24
257.707	3575.03
258.086	3621.07
258.465	3671.95
258.843	3724.66
259.222	3778.04
259.601	3835.31
259.979	3889.44
260.358	3942.85
260.736	3996.6
261.115	4053.65
261.493	4107.8
261.872	4160.06
262.25	4216.72
262.629	4276.41
263.007	4339
263.385	4403.01
263.763	4466.97
264.142	4529.31
264.52	4596.7
264.898	4664.57
265.276	4731.17
265.654	4801.94
266.032	4877.39
266.41	4947.92
266.788	5021.94
267.166	5096.49
267.544	5171.77
267.921	5252.32
268.299	5333.75
268.677	5415.54
269.055	5499.99
269.432	5587.35
269.81	5676.26
270.188	5762.31
270.565	5848.99
270.943	5941.08
271.32	6033.12
271.697	6127.66
272.075	6227.58
272.452	6326.77
272.829	6425.5
273.207	6528.52
273.584	6632.56
273.961	6736.71
274.338	6851.22
274.715	6968.16
275.092	7087.1
275.469	7207.95
275.846	7329.82
276.223	7451.45
276.6	7576.15
276.977	7702.84
277.354	7829.5
277.731	7956.83
278.108	8093.01
278.484	8226.24
278.861	8361.37
279.238	8500.97
279.614	8643.57
279.991	8789.4
280.367	8933.51
280.744	9083.61
281.12	9236.85
281.497	9386.35
281.873	9540.77
282.249	9691.23
282.625	9835.16
283.002	9985.07
283.378	10133.42
283.754	10285.18
284.13	10440.93
284.506	10599.66
284.882	10758.82
285.258	10918.93
285.634	11077.88
286.01	11240.04
286.386	11404.41
286.762	11569.3
287.138	11731.91
287.513	11893.81
287.889	12054.75
288.265	12217.56
288.641	12376.31
289.016	12533.05
289.392	12697.06
289.767	12861.87
290.143	13026.27
290.518	13192.93
290.894	13356.12
291.269	13516.86
291.644	13677.91
292.02	13831.85
292.395	13987.25
292.77	14141.46
293.145	14295.53
293.52	14454.4
293.895	14602.14
294.27	14755.19
294.646	14903.82
295.02	15050.58
295.395	15207.86
295.77	15363.48
296.145	15516.7
296.52	15672.61
296.895	15831.87
297.269	15992.62
297.644	16143.85
298.019	16297.54
298.393	16454.58
298.768	16607.93
299.143	16764.34
299.517	16913.58
299.891	17070.27
300.266	17229.12
300.64	17392.06
301.015	17553.22
301.389	17721.41
301.763	17899.05
302.137	18070.46
302.512	18255.34
302.886	18432.1
303.26	18616.25
303.634	18797.48
304.008	18975.81
304.382	19159.34
304.756	19340.98
305.13	19525.48
305.504	19710.02
305.877	19904.31
306.251	20107.48
306.625	20314.1
306.999	20527.04
307.372	20741.94
307.746	20967.71
308.119	21186.05
308.493	21392.42
308.866	21605.51
309.24	21818.25
309.613	22024.85
309.987	22237.31
310.36	22432.64
310.733	22649.75
311.107	22867.81
311.48	23086.92
311.853	23322.47
312.226	23547
312.599	23782.37
312.972	24011.33
313.345	24244
313.718	24473.83
314.091	24698.09
314.464	24923.15
314.837	25144.88
315.21	25363.83
315.582	25583.85
315.955	25793.5
316.328	26017.4
316.7	26247.48
317.073	26467.85
317.446	26698.08
317.818	26931.88
318.191	27168.27
318.563	27392.66
318.936	27600.41
319.308	27806.73
319.68	28014.73
320.053	28217.69
320.425	28404.48
320.797	28586.22
321.169	28749
321.541	28900.61
321.913	29030.31
322.285	29155.47
322.657	29282.66
323.029	29431.13
323.401	29567.18
323.773	29733.72
324.145	29909.08
324.517	30093.55
324.889	30276.54
325.26	30479.12
325.632	30691.59
326.004	30927.81
326.375	31188.43
326.747	31461.96
327.118	31764.62
327.49	32048.72
327.861	32358.79
328.233	32677.99
328.604	32993.03
328.975	33314.29
329.346	33628.08
329.718	33939.49
330.089	34248.03
330.46	34547.59
330.831	34817.97
331.202	35085.23
331.573	35332.69
331.944	35565.3
332.315	35793.3
332.686	36010.42
333.057	36209.99
333.428	36394.24
333.799	36566.68
334.169	36723.16
334.54	36867.65
334.911	36992.37
335.281	37127.76
335.652	37256.87
336.022	37387.85
336.393	37536.24
336.763	37699.14
337.134	37881.11
337.504	38083.48
337.874	38286.77
338.245	38495.54
338.615	38722.72
338.985	38954.25
339.355	39181.67
339.726	39408.13
340.096	39631.66
340.466	39885.46
340.836	40129.51
341.206	40374.82
341.576	40624.09
341.945	40865.7
342.315	41103.77
342.685	41344.05
343.055	41590.01
343.425	41835.41
343.794	42061.68
344.164	42283.52
344.533	42524.58
344.903	42755.34
345.273	42989.89
345.642	43217.01
346.011	43448.86
346.381	43682.43
346.75	43912.63
347.12	44165.94
347.489	44417.02
347.858	44660.31
348.227	44874.31
348.596	45099.15
348.965	45342.01
349.334	45572.47
349.704	45812.95
350.072	46055.17
350.441	46292.38
350.81	46535.52
351.179	46761.58
351.548	47000.04
351.917	47231.05
352.285	47431
352.654	47642.73
353.023	47853.21
353.391	48051.23
353.76	48264.74
354.129	48448.99
354.497	48683.13
354.865	48899.58
355.234	49126.94
355.602	49346.37
355.971	49595.38
356.339	49806.35
356.707	50015.8
357.075	50236.66
357.443	50459.18
357.811	50675.91
358.18	50887.26
358.548	51096.1
358.916	51310.31
359.284	51528.04
359.651	51748.25
360.019	51956.48
360.387	52156.9
360.755	52361
361.123	52601.56
361.49	52823.53
361.858	53041.46
362.226	53234.4
362.593	53436.9
362.961	53620.13
363.328	53820.02
363.696	53987.75
364.063	54210.13
364.43	54418.08
364.798	54629.89
365.165	54810.48
365.532	54998.29
365.899	55185.02
366.267	55349.11
366.634	55501.66
367.001	55667.03
367.368	55806.01
367.735	55995.34
368.102	56170.97
368.469	56361.49
368.835	56540.9
369.202	56702.16
369.569	56903.93
369.936	57096.63
370.303	57276.78
370.669	57482.07
371.036	57653
371.402	57854.64
371.769	58032.54
372.135	58189.62
372.502	58315.05
372.868	58458.95
373.235	58597
373.601	58738.33
373.967	58915.73
374.333	59101.03
374.7	59287.41
375.066	59496.51
375.432	59681.18
375.798	59868.52
376.164	60034.37
376.53	60175.09
376.896	60351.15
377.262	60519.74
377.628	60648.47
377.993	60799.41
378.359	60943.87
378.725	61097.27
379.091	61249.31
379.456	61391.16
379.822	61524.38
380.187	61677.05
380.553	61870.45
380.918	62070.65
381.284	62252.32
381.649	62427.62
382.015	62570.31
382.38	62696
382.745	62865.96
383.11	63020.53
383.476	63160.6
383.841	63297.47
384.206	63460.91
384.571	63582.9
384.936	63720.42
385.301	63901.84
385.666	64036.91
386.031	64189.79
386.396	64361.15
386.76	64524.15
387.125	64715.3
387.49	64913.01
387.855	65106.53
388.219	65280
388.584	65457.29
388.948	65645.69
389.313	65808.19
389.677	66020.62
390.042	66258.61
390.406	66405.61
390.771	66594.47
391.135	66786.25
391.499	67019.83
391.863	67256.18
392.227	67501.68
392.592	67694.88
392.956	67895.43
393.32	68096.3
393.684	68311.5
394.048	68482.2
394.412	68650.48
394.775	68790.8
395.139	68940.14
395.503	69109.65
395.867	69256.53
396.231	69398.37
396.594	69509.67
396.958	69657.49
397.321	69816.79
397.685	69936.62
398.048	70082.23
398.412	70222.63
398.775	70358.02
399.139	70484.6
399.502	70588.48
399.865	70731.4
400.228	70935.15
400.592	71066.57
400.955	71264.66
401.318	71407.45
401.681	71584.99
402.044	71731.9
402.407	71903.45
402.77	72065.98
403.133	72244.36
403.496	72386.13
403.859	72545.59
404.221	72791.87
404.584	73026.65
404.947	73271.18
405.309	73489.9
405.672	73729.76
406.034	73957.13
406.397	74218.92
406.759	74443.66
407.122	74639.99
407.484	74815.51
407.847	74997.87
408.209	75247.03
408.571	75477.62
408.933	75736.16
409.296	75985.89
409.658	76247.93
410.02	76512.89
410.382	76809.06
410.744	77059.13
411.106	77337.62
411.468	77595.77
411.83	77799.84
412.191	77978.52
412.553	78122.24
412.915	78298.6
413.277	78472.98
413.638	78632.01
414	78763.99
414.361	78903.76
414.723	79086.24
415.084	79256.43
415.446	79383.56
415.807	79478.22
416.169	79546.32
416.53	79593.42
416.891	79647.91
417.252	79711.93
417.614	79749.26
417.975	79766.22
418.336	79786.79
418.697	79809.1
419.058	79826.17
419.419	79840.72
419.78	79856.22
420.141	79866.91
420.501	79876.6
420.862	79885.74
421.223	79890.76
421.584	79908.69
421.944	79917.91
422.305	79921.56
422.666	79925.81
423.026	79928.94
423.387	79936.47
423.747	79942.04
424.107	79949.17
424.468	79955.33
424.828	79958.54
425.188	79961.42
425.549	79964.19
425.909	79966.11
426.269	79963.75
426.629	79967.7
426.989	79972.32
427.349	79974.91
427.709	79976.39
428.069	79979.42
428.429	79983.92
428.789	79988.91
429.149	79992.98
429.508	79995.93
429.868	80000.81
430.228	80003.73
430.587	80005.06
430.947	80008.42
431.306	80010.9
431.666	80012.3
432.025	80015.11
432.385	80017.74
432.744	80018.92
433.103	80020.07
433.463	80020.14
433.822	80027.86
434.181	80029.63
434.54	80029.93
434.899	80030.93
435.258	80034.18
435.618	80034.74
435.976	80035.73
436.335	80036.77
436.694	80036.51
437.053	80036.29
437.412	80036.73
437.771	80036.84
438.129	80039.62
438.488	80041.61
438.847	80042.47
439.205	80043.72
439.564	80044.31
439.922	80042.65
440.281	80044.43
440.639	80045.53
440.997	80048.75
441.356	80049.75
441.714	80050.23
442.072	80050.71
442.431	80051.38
442.789	80052.49
443.147	80054.34
443.505	80054.6
443.863	80055.48
444.221	80054.52
444.579	80054.45
444.937	80056.63
445.294	80057.67
445.652	80055.96
446.01	80054.52
446.368	80055.56
446.725	80054.74
447.083	80054.41
447.441	80056.26
447.798	80056.33
448.156	80058.18
448.513	80058.63
448.87	80059
449.228	80059.7
449.585	80059.22
449.942	80059.96
450.3	80059.33
450.657	80058.48
451.014	80059.26
451.371	80058.63
451.728	80059.96
452.085	80060.62
452.442	80060
452.799	80060.7
453.156	80062.03
453.513	80062.62
453.869	80064.1
454.226	80066.4
454.583	80066.91
454.939	80065.66
455.296	80065.29
455.653	80063.73
456.009	80062.59
456.366	80063.84
456.722	80062.96
457.078	80063.36
457.435	80063.92
457.791	80064.44
458.147	80065.92
458.503	80066.14
458.86	80066.03
459.216	80066.91
459.572	80068.95
459.928	80068.1
460.284	80067.21
460.64	80067.84
460.996	80066.66
461.351	80066.77
461.707	80065.47
462.063	80064.81
462.419	80066.58
462.774	80067.99
463.13	80069.76
463.486	80071.69
463.841	80071.95
464.197	80073.35
464.552	80072.83
464.908	80074.69
465.263	80074.35
465.618	80072.5
465.974	80073.06
466.329	80073.61
466.684	80072.32
467.039	80071.58
467.394	80070.95
467.749	80074.21
468.104	80075.02
468.459	80077.91
468.814	80076.83
469.169	80077.02
469.524	80078.5
469.879	80078.5
470.233	80078.46
470.588	80079.31
470.943	80079.46
471.297	80079.09
471.652	80080.31
472.006	80082.31
472.361	80080.46
472.715	80080.86
473.07	80081.79
473.424	80082.6
473.778	80082.86
474.133	80084.71
474.487	80085.79
474.841	80087.45
475.195	80085.75
475.549	80085.71
475.903	80086.16
476.257	80086.93
476.611	80088.15
476.965	80089.23
477.319	80089.74
477.673	80091.26
478.026	80092.23
478.38	80092.56
478.734	80093.82
479.087	80095.26
479.441	80095.85
479.795	80098.15
480.148	80099.63
480.502	80101.11
480.855	80100.33
481.208	80100.78
481.562	80100.85
481.915	80100
482.268	80101.74
482.621	80103.22
482.974	80104.26
483.328	80104.03
483.681	80105.26
484.034	80105.81
484.387	80106.33
484.739	80106.22
485.092	80105.29
485.445	80106.63
485.798	80107.4
486.151	80106.63
486.503	80105.7
486.856	80104.48
487.209	80102.44
487.561	80102.52
487.914	80101.74
488.266	80102.11
488.618	80102.66
488.971	80102.81
489.323	80102.66
489.675	80102
490.028	80101.81
490.38	80099.37
490.732	80099.48
491.084	80098.56
491.436	80099.11
491.788	80098.63
492.14	80098.93
492.492	80100.11
492.844	80098.7
493.196	80099.59
493.548	80099.89
493.899	80098.85
494.251	80101.11
494.603	80102.22
494.954	80101.63
495.306	80101.44
495.657	80101.22
496.009	80101.92
496.36	80103.22
496.712	80103.4
497.063	80104.66
497.414	80106.03
497.765	80108.07
498.117	80108
498.468	80107.59
498.819	80106.77
499.17	80108.07
499.521	80109.11
499.872	80108.25
500.223	80108.22
500.574	80108.18
500.924	80107.14
501.275	80107.59
501.626	80107.07
501.977	80107.48
502.327	80108.44
502.678	80108.44
503.029	80110.22
503.379	80109.7
503.73	80109.88
504.08	80108.85
504.43	80107.4
504.781	80105.81
505.131	80105.66
505.481	80105.51
505.831	80107.44
506.182	80109.66
506.532	80107.63
506.882	80108.77
507.232	80109.55
507.582	80108.92
507.932	80107.51
508.281	80107.92
508.631	80108.4
508.981	80107.85
509.331	80108.4
509.681	80108.96
510.03	80111.33
510.38	80110.59
510.729	80110.25
511.079	80110.18
511.428	80113.18
511.778	80113.77
512.127	80113.22
512.476	80113.22
512.826	80112.55
513.175	80111.77
513.524	80110.99
513.873	80111.59
514.222	80110.36
514.571	80108.85
514.92	80109.33
515.269	80108.81
515.618	80109.07
515.967	80108.48
516.316	80110.11
516.665	80108.66
517.014	80108.07
517.362	80107.03
517.711	80108.62
518.059	80109.4
518.408	80108.51
518.757	80108.44
519.105	80107.37
519.453	80109.62
519.802	80110.55
520.15	80109.55
520.498	80110.07
520.847	80108.59
521.195	80107.96
521.543	80107.51
521.891	80108.4
522.239	80108.03
522.587	80109.48
522.935	80108.85
523.283	80109.07
523.631	80106.89
523.979	80108
524.326	80107.63
524.674	80106.52
525.022	80103.85
525.369	80104.07
525.717	80105.52
526.064	80104.4
526.412	80105.33
526.759	80102.96
527.107	80101.89
527.454	80102.66
527.801	80101.41
528.149	80103.22
528.496	80105.77
528.843	80106.51
529.19	80106.22
529.537	80107.7
529.884	80107.14
530.231	80106.37
530.578	80106.85
530.925	80108.03
531.272	80106.85
531.619	80107.92
531.966	80108.59
532.312	80109.37
532.659	80109
533.006	80108.03
533.352	80107.33
533.699	80106.74
534.045	80107.14
534.392	80107.11
534.738	80107.88
535.084	80108.62
535.431	80106.7
535.777	80105.37
536.123	80104.92
536.469	80105.74
536.815	80103.03
537.161	80102.11
537.507	80103.11
537.853	80103.29
538.199	80103.33
538.545	80104.55
538.891	80103.92
539.237	80104.96
539.582	80105.92
539.928	80105.66
540.274	80105.62
540.619	80106.07
540.965	80105.11
541.31	80103.7
541.656	80104.92
542.001	80105.74
542.347	80105.7
542.692	80104.92
543.037	80104.07
543.382	80103
543.728	80102.26
544.073	80103.89
544.418	80103.77
544.763	80103.96
545.108	80102.81
545.453	80102
545.798	80100.37
546.142	80099.33
546.487	80098.81
546.832	80099.67
547.177	80099.33
547.521	80099.18
547.866	80099.22
548.211	80100.18
548.555	80100.15
548.9	80098.48
549.244	80098.07
549.588	80096.89
549.933	80098.63
550.277	80098.85
550.621	80099.63
550.965	80099.04
551.31	80098.04
551.654	80098.59
551.998	80098.89
552.342	80099.22
552.686	80100.81
553.03	80101.81
553.373	80103.26
553.717	80103.66
554.061	80100.04
554.405	80099.85
554.748	80100.11
555.092	80101
555.436	80100.85
555.779	80102.44
556.123	80104.48
556.466	80104.11
556.81	80104.89
557.153	80104.85
557.496	80105.29
557.839	80106.37
558.183	80106.7
558.526	80107.7
558.869	80107.51
559.212	80106.11
559.555	80105.37
559.898	80103.81
560.241	80103.89
560.584	80104.74
560.927	80104.29
561.269	80108.51
561.612	80109.22
561.955	80109.51
562.297	80109.14
562.64	80108.63
562.983	80109.03
563.325	80107.85
563.668	80108.25
564.01	80106.33
564.352	80105
564.695	80104.63
565.037	80103.81
565.379	80104.41
565.721	80104.41
566.063	80105.63
566.406	80106.59
566.748	80108.11
567.09	80108.07
567.431	80108.03
567.773	80106.77
568.115	80106
568.457	80103.85
568.799	80103.48
569.14	80103.33
569.482	80102.15
569.824	80102.96
570.165	80101.59
570.507	80102.44
570.848	80101.92
571.19	80104.55
571.531	80104.07
571.872	80103.55
572.214	80103.14
572.555	80101.96
572.896	80099.89
573.237	80098.26
573.578	80097.26
573.919	80096.15
574.26	80096.85
574.601	80096.41
574.942	80094.59
575.283	80092.86
575.624	80091.82
575.964	80091.04
576.305	80090.67
576.646	80089.89
576.986	80087.6
577.327	80088.12
577.667	80086.53
578.008	80085.75
578.348	80084.42
578.689	80084.56
579.029	80084.79
579.369	80084.93
579.71	80085.82
580.05	80088.15
580.39	80088.6
580.73	80088.49
581.07	80087.86
581.41	80087.71
581.75	80087.45
582.09	80088.97
582.43	80089.45
582.769	80088.64
583.109	80088.86
583.449	80088.19
583.789	80087.56
584.128	80089.52
584.468	80088.38
584.807	80087.56
585.147	80087.78
585.486	80086.93
585.825	80086.34
586.165	80086.01
586.504	80085.23
586.843	80083.38
