Data from 24HourExp_27052025_FLMS018081_12-58-20-010.txt Node
Date: Tue May 27 12:58:20 BST 2025
User: adleo
Spectrometer: FLMS01808
Trigger mode: 0
Integration Time (sec): 4.000000E-1
Scans to average: 10
Electric dark correction enabled: true
Nonlinearity correction enabled: true
Boxcar width: 10
XAxis mode: Wavelengths
Number of Pixels in Spectrum: 2048
>>>>>Begin Spectral Data<<<<<
178.471	-124.16
178.857	-118.23
179.244	-109.39
179.631	-103.1
180.017	-96.69
180.404	-87.96
180.79	-77.46
181.176	-68.17
181.563	-58.79
181.949	-49.24
182.335	-38.91
182.722	-23.51
183.108	-5.78
183.494	20.58
183.88	72.01
184.266	124.8
184.653	179.87
185.039	234.93
185.425	292.16
185.811	344.83
186.197	397.44
186.582	447.66
186.968	500.73
187.354	550.94
187.74	603.06
188.126	653.38
188.511	702.46
188.897	750.7
189.283	795.85
189.668	843.46
190.054	888.59
190.439	933.65
190.825	976.5
191.21	1018.19
191.596	1051.82
191.981	1060.89
192.366	1064.62
192.752	1065.83
193.137	1068.38
193.522	1067.8
193.908	1069.68
194.293	1071.37
194.678	1073.25
195.063	1074.76
195.448	1077.44
195.833	1075.68
196.218	1074.67
196.603	1075.38
196.988	1075.51
197.373	1077.19
197.757	1074.97
198.142	1074.88
198.527	1073.93
198.912	1075.05
199.296	1075.52
199.681	1073.86
200.066	1071.55
200.45	1072.26
200.835	1073.09
201.219	1073.11
201.604	1073.12
201.988	1074.45
202.372	1074.85
202.757	1074.72
203.141	1074.35
203.525	1074.3
203.91	1075.77
204.294	1077.84
204.678	1078.44
205.062	1076.28
205.446	1078.2
205.83	1080.76
206.214	1080.6
206.598	1081.32
206.982	1083.54
207.366	1081.89
207.75	1082.87
208.134	1086.08
208.517	1089.01
208.901	1088.6
209.285	1089.36
209.669	1090.74
210.052	1091.32
210.436	1091
210.819	1093.6
211.203	1095.87
211.586	1095.95
211.97	1098.27
212.353	1100.16
212.737	1101.4
213.12	1102.53
213.503	1102.53
213.886	1102.49
214.27	1104.99
214.653	1106.16
215.036	1106.62
215.419	1109.46
215.802	1111.33
216.185	1112.33
216.568	1114.13
216.951	1116.65
217.334	1117.69
217.717	1120.63
218.1	1121.99
218.482	1126.42
218.865	1129.44
219.248	1133.66
219.631	1137.09
220.013	1141.37
220.396	1148.2
220.778	1152.96
221.161	1158.06
221.544	1163.26
221.926	1169.48
222.308	1175.25
222.691	1179.79
223.073	1185.98
223.455	1192.91
223.838	1200.95
224.22	1210.5
224.602	1218
224.984	1228.51
225.366	1240.68
225.749	1254.51
226.131	1266.84
226.513	1280.42
226.895	1294.7
227.276	1306.76
227.658	1321.99
228.04	1335.5
228.422	1349.15
228.804	1364.37
229.186	1380.4
229.567	1399.76
229.949	1416.77
230.331	1435.05
230.712	1453.57
231.094	1472.6
231.475	1493.7
231.857	1512.12
232.238	1530.67
232.62	1550.48
233.001	1569.59
233.382	1590.03
233.763	1608.32
234.145	1629.03
234.526	1647.55
234.907	1665.64
235.288	1684.49
235.669	1702.4
236.05	1722.83
236.431	1741.39
236.812	1761.8
237.193	1783.6
237.574	1803.4
237.955	1823.89
238.336	1843.95
238.717	1865.19
239.097	1887.76
239.478	1909.64
239.859	1930.71
240.239	1954.11
240.62	1977.04
241.001	1999.39
241.381	2021.73
241.762	2044.08
242.142	2065.91
242.522	2090.42
242.903	2115.65
243.283	2142.07
243.663	2169.03
244.044	2197.63
244.424	2226.54
244.804	2253.64
245.184	2280.3
245.564	2306.17
245.944	2334.91
246.324	2363.85
246.704	2392.57
247.084	2420.39
247.464	2448.19
247.844	2481.91
248.224	2510.69
248.604	2541.1
248.983	2570.79
249.363	2603.76
249.743	2633.96
250.122	2664.7
250.502	2693.11
250.882	2723.01
251.261	2754.36
251.641	2785.14
252.02	2812.4
252.399	2843.49
252.779	2877.59
253.158	2913.99
253.537	2949.86
253.917	2991.7
254.296	3030.91
254.675	3071.29
255.054	3111.75
255.433	3152.75
255.812	3189.73
256.191	3230.36
256.57	3270.1
256.949	3314.56
257.328	3356.69
257.707	3400.01
258.086	3445.46
258.465	3493.07
258.843	3541.69
259.222	3589.89
259.601	3639.65
259.979	3694.13
260.358	3748.74
260.736	3800.99
261.115	3854.41
261.493	3908.73
261.872	3957.77
262.25	4010.96
262.629	4064.6
263.007	4119.7
263.385	4175.72
263.763	4236.34
264.142	4298.01
264.52	4362.24
264.898	4425.07
265.276	4488.92
265.654	4556.64
266.032	4626.74
266.41	4696.18
266.788	4767.05
267.166	4840.81
267.544	4916.78
267.921	4992.51
268.299	5066.67
268.677	5143.94
269.055	5224.62
269.432	5306.59
269.81	5392.78
270.188	5480.67
270.565	5569.38
270.943	5660.52
271.32	5752.08
271.697	5843.46
272.075	5938.56
272.452	6032.89
272.829	6130.63
273.207	6230.66
273.584	6333.09
273.961	6434.12
274.338	6544.96
274.715	6657.97
275.092	6773.72
275.469	6893.37
275.846	7012.55
276.223	7133.65
276.6	7254.1
276.977	7379.66
277.354	7507.16
277.731	7633.49
278.108	7759.12
278.484	7889.24
278.861	8020.09
279.238	8158.29
279.614	8297.31
279.991	8436.25
280.367	8579.35
280.744	8728.22
281.12	8876.7
281.497	9024.79
281.873	9177.52
282.249	9325.87
282.625	9472.26
283.002	9619.26
283.378	9767.04
283.754	9915.69
284.13	10070.81
284.506	10231.9
284.882	10386.11
285.258	10539.12
285.634	10695.27
286.01	10858.63
286.386	11021.16
286.762	11183.43
287.138	11346.46
287.513	11507.99
287.889	11668.98
288.265	11836.55
288.641	11995.98
289.016	12155.59
289.392	12319.42
289.767	12481.07
290.143	12645.48
290.518	12806.75
290.894	12971.8
291.269	13131.14
291.644	13290.26
292.02	13441.89
292.395	13596.79
292.77	13753.75
293.145	13911.63
293.52	14065.21
293.895	14211.3
294.27	14364.84
294.646	14515.39
295.02	14663.11
295.395	14820.38
295.77	14979.98
296.145	15130.2
296.52	15287.26
296.895	15437
297.269	15586.67
297.644	15741.71
298.019	15894.79
298.393	16051.76
298.768	16202.55
299.143	16354.56
299.517	16509.97
299.891	16668.52
300.266	16830.74
300.64	16986.88
301.015	17148.82
301.389	17320.13
301.763	17496.73
302.137	17667.16
302.512	17850.51
302.886	18024.37
303.26	18204.76
303.634	18377.16
304.008	18552.04
304.382	18725.35
304.756	18915.62
305.13	19103.39
305.504	19283.86
305.877	19475.15
306.251	19676.11
306.625	19877.95
306.999	20086.46
307.372	20296.1
307.746	20510.08
308.119	20715.39
308.493	20926
308.866	21135.24
309.24	21342.87
309.613	21545.61
309.987	21755.84
310.36	21948.97
310.733	22159.96
311.107	22374.07
311.48	22596.81
311.853	22828.71
312.226	23054.4
312.599	23283.18
312.972	23509
313.345	23744.91
313.718	23969.83
314.091	24185.49
314.464	24414.28
314.837	24632.1
315.21	24843.51
315.582	25063.2
315.955	25276.91
316.328	25495.5
316.7	25711.97
317.073	25931.59
317.446	26156.36
317.818	26377.21
318.191	26607.54
318.563	26828.58
318.936	27035.21
319.308	27237.38
319.68	27435.57
320.053	27631.35
320.425	27813.75
320.797	27993.72
321.169	28151.58
321.541	28295.01
321.913	28427.94
322.285	28544.52
322.657	28668.52
323.029	28813.93
323.401	28954.86
323.773	29119.21
324.145	29294.19
324.517	29480.94
324.889	29659.39
325.26	29858.21
325.632	30078.36
326.004	30311.38
326.375	30565.63
326.747	30840.13
327.118	31136.42
327.49	31425.13
327.861	31734.88
328.233	32044.22
328.604	32348.82
328.975	32655.37
329.346	32964.6
329.718	33273.24
330.089	33571.85
330.46	33869.07
330.831	34139.09
331.202	34396.74
331.573	34637.27
331.944	34864.2
332.315	35088.71
332.686	35304.5
333.057	35507.44
333.428	35681.46
333.799	35847.56
334.169	36002.41
334.54	36140.09
334.911	36260.36
335.281	36391.08
335.652	36511.99
336.022	36640.99
336.393	36790.68
336.763	36964.43
337.134	37145.96
337.504	37346.99
337.874	37552.38
338.245	37760.15
338.615	37976.92
338.985	38201.04
339.355	38428.99
339.726	38654.43
340.096	38875.47
340.466	39126.57
340.836	39368.39
341.206	39613.16
341.576	39863.12
341.945	40107.44
342.315	40340.72
342.685	40581.06
343.055	40824.74
343.425	41063.8
343.794	41295.15
344.164	41526.04
344.533	41751.5
344.903	41985.88
345.273	42222.31
345.642	42446.26
346.011	42673.79
346.381	42906.81
346.75	43141.19
347.12	43383.44
347.489	43626.42
347.858	43868.44
348.227	44077.26
348.596	44292.38
348.965	44527.9
349.334	44752.17
349.704	44985.83
350.072	45233.89
350.441	45469.87
350.81	45710.04
351.179	45946.24
351.548	46180.45
351.917	46401.98
352.285	46596.72
352.654	46800.52
353.023	47000.36
353.391	47202.98
353.76	47416.02
354.129	47605.12
354.497	47835.27
354.865	48051.62
355.234	48279.77
355.602	48502.63
355.971	48746.02
356.339	48967
356.707	49182.84
357.075	49402.37
357.443	49621.8
357.811	49824.43
358.18	50029.87
358.548	50238.88
358.916	50446.12
359.284	50662.99
359.651	50882.2
360.019	51099.85
360.387	51300.29
360.755	51499.11
361.123	51726.67
361.49	51953.86
361.858	52177.21
362.226	52375.67
362.593	52573.21
362.961	52757.18
363.328	52949.8
363.696	53120.18
364.063	53330.3
364.43	53533.74
364.798	53744.77
365.165	53928.36
365.532	54117.7
365.899	54308.28
366.267	54468.91
366.634	54611.63
367.001	54777.65
367.368	54907.5
367.735	55093.82
368.102	55268.5
368.469	55467.47
368.835	55643.8
369.202	55800.85
369.569	55988.61
369.936	56172.39
370.303	56362.03
370.669	56558.81
371.036	56724.75
371.402	56926.28
371.769	57109.47
372.135	57255.52
372.502	57385.6
372.868	57524.84
373.235	57665.93
373.601	57801.17
373.967	57976.01
374.333	58162.86
374.7	58345.59
375.066	58553.3
375.432	58736
375.798	58916.57
376.164	59075.42
376.53	59221.46
376.896	59386.56
377.262	59552.96
377.628	59683.16
377.993	59822.61
378.359	59971.05
378.725	60133.89
379.091	60283.29
379.456	60416.21
379.822	60553.14
380.187	60695.2
380.553	60883.64
380.918	61076.62
381.284	61247.65
381.649	61414.76
382.015	61557.32
382.38	61682.03
382.745	61843.73
383.11	61985.59
383.476	62122.54
383.841	62252.72
384.206	62411.95
384.571	62536.61
384.936	62669.04
385.301	62833.58
385.666	62969.74
386.031	63110.07
386.396	63265.26
386.76	63415.65
387.125	63597.2
387.49	63793.8
387.855	63984.12
388.219	64143.09
388.584	64311.38
388.948	64505.49
389.313	64667.64
389.677	64866.65
390.042	65092.13
390.406	65248.1
390.771	65438.45
391.135	65631.73
391.499	65857.7
391.863	66084.72
392.227	66321.27
392.592	66521.84
392.956	66718.75
393.32	66911.88
393.684	67125.17
394.048	67295.87
394.412	67475.18
394.775	67622.55
395.139	67769.78
395.503	67931.4
395.867	68088.43
396.231	68232.96
396.594	68336.83
396.958	68477.44
397.321	68636.5
397.685	68754.88
398.048	68897.62
398.412	69029.87
398.775	69154.98
399.139	69280.78
399.502	69385.59
399.865	69524.07
400.228	69714.15
400.592	69854.4
400.955	70049.02
401.318	70184.82
401.681	70349.15
402.044	70479.9
402.407	70643.06
402.77	70805.27
403.133	70990
403.496	71132.47
403.859	71283.87
404.221	71516.38
404.584	71746.56
404.947	71989.04
405.309	72194.62
405.672	72414.37
406.034	72635.73
406.397	72886.53
406.759	73104.28
407.122	73281.55
407.484	73455.56
407.847	73636.67
408.209	73869.73
408.571	74099.45
408.933	74362.19
409.296	74606.51
409.658	74849.25
410.02	75121.2
410.382	75431.9
410.744	75692.77
411.106	75980.06
411.468	76260.24
411.83	76503.32
412.191	76708.71
412.553	76885.95
412.915	77108.36
413.277	77332.78
413.638	77539.57
414	77716.19
414.361	77904.15
414.723	78150.89
415.084	78374.23
415.446	78556.17
415.807	78713.02
416.169	78832.25
416.53	78934.33
416.891	79055.41
417.252	79196.1
417.614	79284.67
417.975	79332.68
418.336	79394.82
418.697	79460.06
419.058	79513.4
419.419	79561.53
419.78	79610.88
420.141	79650.86
420.501	79683.69
420.862	79710.51
421.223	79733.6
421.584	79778
421.944	79803.82
422.305	79818.84
422.666	79829.96
423.026	79835.96
423.387	79850.03
423.747	79861.74
424.107	79872.72
424.468	79886.1
424.828	79894.91
425.188	79898.35
425.549	79906.83
425.909	79913.51
426.269	79913.1
426.629	79919.96
426.989	79922.65
427.349	79929.85
427.709	79932.29
428.069	79936.24
428.429	79942.18
428.789	79949.19
429.149	79953.88
429.508	79959.87
429.868	79965.71
430.228	79970.77
430.587	79975.38
430.947	79980.41
431.306	79985.06
431.666	79989.71
432.025	79991.89
432.385	79993.11
432.744	79996.85
433.103	79998.21
433.463	79999.95
433.822	80007.63
434.181	80013.4
434.54	80015.83
434.899	80016.79
435.258	80021.52
435.618	80023.37
435.976	80025
436.335	80026.63
436.694	80028.33
437.053	80027.66
437.412	80029.25
437.771	80029.92
438.129	80032.65
438.488	80032.25
438.847	80034.61
439.205	80033.76
439.564	80034.61
439.922	80035.76
440.281	80035.13
440.639	80037.75
440.997	80038.12
441.356	80039.16
441.714	80039.57
442.072	80040.27
442.431	80040.53
442.789	80040.38
443.147	80041.41
443.505	80042.82
443.863	80044.45
444.221	80044.15
444.579	80045.19
444.937	80044.3
445.294	80046.04
445.652	80044.34
446.01	80045.67
446.368	80044.71
446.725	80045.96
447.083	80046.15
447.441	80048.37
447.798	80049.07
448.156	80050.03
448.513	80049.81
448.87	80049.77
449.228	80048.33
449.585	80048.85
449.942	80050.96
450.3	80051.22
450.657	80051.25
451.014	80051.66
451.371	80050.73
451.728	80051.18
452.085	80051.4
452.442	80052.14
452.799	80051.47
453.156	80053.36
453.513	80053.29
453.869	80053.73
454.226	80055.69
454.583	80057.1
454.939	80055.43
455.296	80055.36
455.653	80057.1
456.009	80058.32
456.366	80059.21
456.722	80060.24
457.078	80059.98
457.435	80059.91
457.791	80061.46
458.147	80062.28
458.503	80061.28
458.86	80061.8
459.216	80062.46
459.572	80061.98
459.928	80061.43
460.284	80061.17
460.64	80061.46
460.996	80061.5
461.351	80061.8
461.707	80061.35
462.063	80059.58
462.419	80060.98
462.774	80062.5
463.13	80060.61
463.486	80061.09
463.841	80061.68
464.197	80062.57
464.552	80063.79
464.908	80063.79
465.263	80062.53
465.618	80064.46
465.974	80065.24
466.329	80064.61
466.684	80065.2
467.039	80065.86
467.394	80067.12
467.749	80068.42
468.104	80068.75
468.459	80071.23
468.814	80071.52
469.169	80071.93
469.524	80074.82
469.879	80074.26
470.233	80074.19
470.588	80076.3
470.943	80076.41
471.297	80077.41
471.652	80077
472.006	80077.85
472.361	80078.15
472.715	80079.85
473.07	80079.63
473.424	80079.96
473.778	80080.37
474.133	80081
474.487	80082.26
474.841	80083.33
475.195	80084.48
475.549	80085.7
475.903	80085.36
476.257	80086.59
476.611	80086.55
476.965	80087.07
477.319	80086.96
477.673	80086.03
478.026	80085.25
478.38	80086.18
478.734	80085.73
479.087	80087.1
479.441	80087.99
479.795	80088.21
480.148	80088.84
480.502	80088.44
480.855	80089.21
481.208	80092.36
481.562	80094.47
481.915	80094.88
482.268	80093.73
482.621	80093.73
482.974	80094.92
483.328	80095.47
483.681	80094.51
484.034	80094.88
484.387	80093.99
484.739	80095.51
485.092	80095.58
485.445	80095.88
485.798	80096.51
486.151	80097.02
486.503	80095.58
486.856	80095.51
487.209	80096.73
487.561	80097.1
487.914	80096.28
488.266	80097.43
488.618	80095.62
488.971	80092.51
489.323	80092.21
489.675	80093.4
490.028	80092.88
490.38	80092.17
490.732	80093.32
491.084	80095.54
491.436	80095.62
491.788	80095.25
492.14	80095.58
492.492	80096.43
492.844	80097.47
493.196	80097.84
493.548	80097.99
493.899	80099.47
494.251	80099.8
494.603	80098.73
494.954	80098.17
495.306	80098.87
495.657	80097.39
496.009	80098.36
496.36	80101.21
496.712	80100.69
497.063	80101.02
497.414	80102.61
497.765	80102.24
498.117	80101.24
498.468	80101.87
498.819	80102.17
499.17	80101.24
499.521	80101.13
499.872	80102.8
500.223	80103.06
500.574	80103.06
500.924	80102.87
501.275	80103.06
501.626	80103.95
501.977	80105.46
502.327	80105.65
502.678	80105.91
503.029	80107.76
503.379	80107.65
503.73	80105.76
504.08	80106.57
504.43	80106.72
504.781	80106.02
505.131	80106.09
505.481	80105.13
505.831	80104.54
506.182	80105.13
506.532	80106.02
506.882	80106.02
507.232	80105.87
507.582	80105.24
507.932	80103.46
508.281	80104.54
508.631	80103.13
508.981	80102.83
509.331	80102.69
509.681	80102.54
510.03	80101.8
510.38	80100.95
510.729	80100.17
511.079	80101.65
511.428	80101.58
511.778	80100.84
512.127	80101.47
512.476	80101.91
512.826	80101.1
513.175	80101.84
513.524	80102.54
513.873	80101.65
514.222	80102.32
514.571	80102.1
514.92	80103.28
515.269	80105.32
515.618	80105.32
515.967	80106.09
516.316	80104.87
516.665	80104.87
517.014	80105.58
517.362	80106.61
517.711	80107.87
518.059	80109.24
518.408	80108.91
518.757	80108.17
519.105	80108.87
519.453	80107.65
519.802	80107.17
520.15	80109.24
520.498	80108.65
520.847	80106.76
521.195	80107.24
521.543	80107.54
521.891	80108.94
522.239	80108.17
522.587	80106.69
522.935	80105.32
523.283	80105.83
523.631	80105.5
523.979	80104.24
524.326	80104.09
524.674	80104.91
525.022	80103.69
525.369	80104.87
525.717	80104.06
526.064	80105.95
526.412	80105.58
526.759	80106.98
527.107	80106.54
527.454	80105.54
527.801	80105.28
528.149	80105.32
528.496	80105.69
528.843	80104.98
529.19	80102.02
529.537	80101.47
529.884	80102.58
530.231	80103.09
530.578	80103.13
530.925	80103.91
531.272	80103.43
531.619	80102.8
531.966	80102.43
532.312	80102.98
532.659	80100.95
533.006	80100.95
533.352	80099.24
533.699	80099.98
534.045	80098.65
534.392	80099.47
534.738	80100.54
535.084	80100.13
535.431	80100.98
535.777	80101.09
536.123	80101.5
536.469	80101.87
536.815	80102.28
537.161	80102.02
537.507	80100.35
537.853	80098.8
538.199	80098.58
538.545	80099.06
538.891	80098.95
539.237	80100.58
539.582	80101.36
539.928	80100.91
540.274	80100.1
540.619	80101.28
540.965	80100.36
541.31	80099.65
541.656	80099.13
542.001	80099.21
542.347	80101.24
542.692	80100.54
543.037	80101.02
543.382	80100.43
543.728	80101.54
544.073	80102.17
544.418	80101.58
544.763	80102.98
545.108	80105.54
545.453	80104.91
545.798	80105.17
546.142	80105.39
546.487	80103.5
546.832	80103.28
547.177	80102.84
547.521	80103.91
547.866	80104.28
548.211	80104.83
548.555	80106.43
548.9	80106.91
549.244	80104.32
549.588	80102.13
549.933	80102.95
550.277	80102.76
550.621	80102.95
550.965	80102.32
551.31	80101.54
551.654	80103.61
551.998	80103.98
552.342	80102.58
552.686	80104.5
553.03	80105.65
553.373	80105.46
553.717	80104.46
554.061	80105.13
554.405	80104.72
554.748	80104.87
555.092	80103.54
555.436	80103.83
555.779	80103.28
556.123	80103.35
556.466	80104.35
556.81	80106.02
557.153	80105.35
557.496	80106.2
557.839	80106.17
558.183	80107.2
558.526	80108.5
558.869	80106.72
559.212	80107.5
559.555	80108.87
559.898	80108.31
560.241	80108.02
560.584	80108.57
560.927	80110.46
561.269	80110.13
561.612	80111.35
561.955	80109.65
562.297	80109.31
562.64	80109.31
562.983	80110.09
563.325	80109.46
563.668	80111.39
564.01	80109.2
564.352	80108.09
564.695	80106.17
565.037	80105.8
565.379	80104.91
565.721	80103.87
566.063	80103.58
566.406	80103.17
566.748	80102.32
567.09	80101.58
567.431	80100.95
567.773	80101.13
568.115	80100.24
568.457	80100.76
568.799	80100.5
569.14	80102.43
569.482	80102.98
569.824	80102.39
570.165	80100.73
570.507	80100.32
570.848	80099.73
571.19	80099.28
571.531	80099.8
571.872	80100.72
572.214	80099.98
572.555	80100.69
572.896	80098.84
573.237	80098.62
573.578	80097.21
573.919	80096.88
574.26	80097.13
574.601	80097.8
574.942	80097.21
575.283	80095.73
575.624	80093.21
575.964	80092.06
576.305	80091.1
576.646	80090.21
576.986	80090.1
577.327	80089.69
577.667	80089.81
578.008	80089.29
578.348	80090.69
578.689	80091.17
579.029	80091.73
579.369	80091.92
579.71	80090.88
580.05	80091.73
580.39	80092.51
580.73	80093.91
581.07	80094.77
581.41	80093.47
581.75	80091.66
582.09	80091.29
582.43	80090.58
582.769	80090.77
583.109	80091.88
583.449	80091.84
583.789	80091.55
584.128	80089.84
584.468	80091.32
584.807	80091.29
585.147	80090.44
585.486	80090.69
585.825	80091.03
586.165	80090.21
