Data from 24HourExp_27052025_FLMS018081_11-28-20-190.txt Node
Date: Tue May 27 11:28:20 BST 2025
User: adleo
Spectrometer: FLMS01808
Trigger mode: 0
Integration Time (sec): 4.000000E-1
Scans to average: 10
Electric dark correction enabled: true
Nonlinearity correction enabled: true
Boxcar width: 10
XAxis mode: Wavelengths
Number of Pixels in Spectrum: 2048
>>>>>Begin Spectral Data<<<<<
178.471	-123.4
178.857	-117.57
179.244	-110.57
179.631	-103.2
180.017	-94.41
180.404	-86.78
180.79	-77.5
181.176	-68.6
181.563	-59.8
181.949	-48.95
182.335	-39.73
182.722	-24.5
183.108	-5.75
183.494	20.66
183.88	72.72
184.266	124.94
184.653	179.84
185.039	232.22
185.425	286.45
185.811	338.79
186.197	390.46
186.582	438.65
186.968	490.44
187.354	542.6
187.74	592.83
188.126	642.12
188.511	692.55
188.897	740.02
189.283	786.01
189.668	830.34
190.054	874.01
190.439	918.97
190.825	963.85
191.21	1003.54
191.596	1036.42
191.981	1044.44
192.366	1048.73
192.752	1050.01
193.137	1053.13
193.522	1054.97
193.908	1057.72
194.293	1062.64
194.678	1066.85
195.063	1069.03
195.448	1069.34
195.833	1069.54
196.218	1069
196.603	1067.58
196.988	1067.21
197.373	1068.72
197.757	1070.2
198.142	1070.27
198.527	1068.81
198.912	1067.4
199.296	1067.11
199.681	1066.42
200.066	1065.28
200.45	1063.82
200.835	1063.25
201.219	1063.09
201.604	1061.97
201.988	1062.09
202.372	1061.79
202.757	1062.58
203.141	1063.4
203.525	1063.65
203.91	1065.37
204.294	1067.06
204.678	1067.14
205.062	1067.24
205.446	1066.86
205.83	1067.66
206.214	1066.87
206.598	1069.03
206.982	1071.09
207.366	1071.61
207.75	1072.03
208.134	1073.42
208.517	1075.48
208.901	1077.19
209.285	1079.42
209.669	1079.69
210.052	1079.14
210.436	1076.04
210.819	1075.74
211.203	1075.92
211.586	1075.59
211.97	1074.99
212.353	1073.94
212.737	1075.38
213.12	1077.67
213.503	1079.48
213.886	1079.18
214.27	1081.13
214.653	1080.35
215.036	1080.5
215.419	1081.72
215.802	1083.74
216.185	1083.71
216.568	1087.01
216.951	1088.87
217.334	1090.14
217.717	1094.14
218.1	1096.32
218.482	1102.53
218.865	1107.25
219.248	1111.05
219.631	1115.01
220.013	1119.42
220.396	1126.62
220.778	1131.91
221.161	1137.23
221.544	1141.3
221.926	1148.28
222.308	1155.12
222.691	1162.48
223.073	1171.76
223.455	1180.82
223.838	1189.06
224.22	1199.14
224.602	1207.49
224.984	1216.15
225.366	1225.82
225.749	1240.56
226.131	1253.35
226.513	1264.15
226.895	1277.68
227.276	1291.22
227.658	1307.27
228.04	1322.09
228.422	1335.68
228.804	1350.7
229.186	1366.12
229.567	1385.13
229.949	1400.82
230.331	1416.46
230.712	1433.17
231.094	1449.13
231.475	1465.77
231.857	1484.13
232.238	1501.76
232.62	1520.48
233.001	1540.71
233.382	1560.72
233.763	1578.82
234.145	1597.41
234.526	1617.27
234.907	1633.89
235.288	1652.25
235.669	1668.35
236.05	1687.93
236.431	1707.37
236.812	1726.8
237.193	1745.05
237.574	1762.58
237.955	1783.04
238.336	1805.78
238.717	1826.69
239.097	1849.21
239.478	1871.3
239.859	1891.8
240.239	1915.34
240.62	1938.54
241.001	1960.58
241.381	1983.99
241.762	2004.09
242.142	2026.73
242.522	2050.01
242.903	2075.12
243.283	2099.49
243.663	2125.48
244.044	2152.04
244.424	2177.63
244.804	2204.77
245.184	2234.8
245.564	2262.48
245.944	2292.36
246.324	2319.71
246.704	2347.94
247.084	2373.59
247.464	2403.18
247.844	2433.01
248.224	2460.88
248.604	2490.26
248.983	2516.87
249.363	2546.75
249.743	2575.52
250.122	2604.04
250.502	2630.61
250.882	2659.62
251.261	2688.11
251.641	2717.91
252.02	2746.22
252.399	2778.5
252.779	2813.02
253.158	2843.54
253.537	2877.88
253.917	2917.26
254.296	2950.52
254.675	2987.5
255.054	3026.94
255.433	3067.49
255.812	3104.86
256.191	3143.36
256.57	3179.62
256.949	3222.03
257.328	3261.44
257.707	3303.3
258.086	3347.9
258.465	3394.7
258.843	3444.65
259.222	3493.29
259.601	3544.49
259.979	3593.86
260.358	3645.49
260.736	3692.97
261.115	3745.15
261.493	3796.5
261.872	3844.19
262.25	3900.23
262.629	3953.9
263.007	4008.02
263.385	4063.29
263.763	4119.82
264.142	4179.46
264.52	4242.38
264.898	4304.22
265.276	4367.15
265.654	4433.45
266.032	4499.18
266.41	4563.97
266.788	4630.23
267.166	4702.51
267.544	4772.77
267.921	4848.48
268.299	4924.64
268.677	5001.67
269.055	5081.83
269.432	5164.94
269.81	5246
270.188	5327.2
270.565	5413.97
270.943	5502.97
271.32	5586.82
271.697	5679.58
272.075	5773.22
272.452	5865.51
272.829	5958.26
273.207	6054.83
273.584	6154.98
273.961	6253.36
274.338	6363.3
274.715	6473.57
275.092	6586.18
275.469	6701.62
275.846	6815.65
276.223	6930.94
276.6	7049.37
276.977	7169.83
277.354	7290.19
277.731	7415.9
278.108	7544.4
278.484	7671.56
278.861	7799.59
279.238	7937.81
279.614	8069.62
279.991	8203.03
280.367	8341.79
280.744	8485.3
281.12	8630.28
281.497	8773.28
281.873	8923.12
282.249	9067.37
282.625	9208.98
283.002	9351.67
283.378	9492.41
283.754	9640.46
284.13	9792.16
284.506	9946.81
284.882	10097.82
285.258	10247.22
285.634	10400.91
286.01	10556.61
286.386	10710.04
286.762	10865.68
287.138	11023.02
287.513	11185.28
287.889	11345.23
288.265	11505.1
288.641	11664.28
289.016	11822.73
289.392	11979.27
289.767	12136.38
290.143	12297.35
290.518	12455.6
290.894	12615.73
291.269	12772.46
291.644	12925.4
292.02	13070.49
292.395	13221.67
292.77	13375.7
293.145	13532.68
293.52	13679.9
293.895	13826.74
294.27	13978.62
294.646	14131.2
295.02	14275
295.395	14423.86
295.77	14578.18
296.145	14728.38
296.52	14877.7
296.895	15027.11
297.269	15180.71
297.644	15332.51
298.019	15481.21
298.393	15635.84
298.768	15785.57
299.143	15940.23
299.517	16090.03
299.891	16248.14
300.266	16394.22
300.64	16549.95
301.015	16704.01
301.389	16870.82
301.763	17039.9
302.137	17209.9
302.512	17380.75
302.886	17549.55
303.26	17727.81
303.634	17900.07
304.008	18067.28
304.382	18245.94
304.756	18424.72
305.13	18605.11
305.504	18781.27
305.877	18965.02
306.251	19156.06
306.625	19351.55
306.999	19549.88
307.372	19756.15
307.746	19961.06
308.119	20170.5
308.493	20370.79
308.866	20572.35
309.24	20776.78
309.613	20977.72
309.987	21177.09
310.36	21365.64
310.733	21570.16
311.107	21774.29
311.48	21980.1
311.853	22213.21
312.226	22429.4
312.599	22653.43
312.972	22872.07
313.345	23093.76
313.718	23312.29
314.091	23530.9
314.464	23750.54
314.837	23968.24
315.21	24173.01
315.582	24388.37
315.955	24596.04
316.328	24812.69
316.7	25023.32
317.073	25240.73
317.446	25452.44
317.818	25668.96
318.191	25895.93
318.563	26113.89
318.936	26317.78
319.308	26519.54
319.68	26707.28
320.053	26901.27
320.425	27081.49
320.797	27253.99
321.169	27409.64
321.541	27551.36
321.913	27675.74
322.285	27785.63
322.657	27906.65
323.029	28050.34
323.401	28184.1
323.773	28345.85
324.145	28516.24
324.517	28700.97
324.889	28868.77
325.26	29070.05
325.632	29284.62
326.004	29510.12
326.375	29761.12
326.747	30027.21
327.118	30327.2
327.49	30605.39
327.861	30903.64
328.233	31199.98
328.604	31505.45
328.975	31820.19
329.346	32124.49
329.718	32433.58
330.089	32729.66
330.46	33015.28
330.831	33280.15
331.202	33531.16
331.573	33775.35
331.944	33988.68
332.315	34209.77
332.686	34424.8
333.057	34624.36
333.428	34792.63
333.799	34959.67
334.169	35113.56
334.54	35247.21
334.911	35354.45
335.281	35487.78
335.652	35611.92
336.022	35741.72
336.393	35883.28
336.763	36046.82
337.134	36228.78
337.504	36424.11
337.874	36630.56
338.245	36836.81
338.615	37049.58
338.985	37273.88
339.355	37488.56
339.726	37712.24
340.096	37929.13
340.466	38167.1
340.836	38393.79
341.206	38635.09
341.576	38875.91
341.945	39110.15
342.315	39336.22
342.685	39576.09
343.055	39816.44
343.425	40048.38
343.794	40279.3
344.164	40497.41
344.533	40716.22
344.903	40942.36
345.273	41163.54
345.642	41381.43
346.011	41602.21
346.381	41831.66
346.75	42061.8
347.12	42296.82
347.489	42539.75
347.858	42777.85
348.227	42986.08
348.596	43208.46
348.965	43446.95
349.334	43672.75
349.704	43900.16
350.072	44147.64
350.441	44379.1
350.81	44608.55
351.179	44834.51
351.548	45067.38
351.917	45292.99
352.285	45486.1
352.654	45690.04
353.023	45893.11
353.391	46098.15
353.76	46305.26
354.129	46495.92
354.497	46727.35
354.865	46950.97
355.234	47180.09
355.602	47396.26
355.971	47638.46
356.339	47850.42
356.707	48059.59
357.075	48279.35
357.443	48500.48
357.811	48713.37
358.18	48918.76
358.548	49132.49
358.916	49342.02
359.284	49556
359.651	49774.8
360.019	49989.63
360.387	50185.47
360.755	50387.92
361.123	50612.32
361.49	50836.17
361.858	51047.5
362.226	51239.8
362.593	51434.16
362.961	51613.59
363.328	51811.68
363.696	51981.87
364.063	52198.43
364.43	52399.06
364.798	52608.93
365.165	52791.67
365.532	52972.43
365.899	53158.22
366.267	53314.99
366.634	53461.46
367.001	53622.67
367.368	53753.72
367.735	53930.69
368.102	54109.54
368.469	54295.33
368.835	54466.8
369.202	54630.09
369.569	54816.09
369.936	55003.33
370.303	55182.52
370.669	55372.28
371.036	55535.66
371.402	55737.66
371.769	55909.88
372.135	56056.52
372.502	56180.91
372.868	56321.52
373.235	56456.46
373.601	56586.48
373.967	56760.69
374.333	56945.51
374.7	57118.57
375.066	57325.17
375.432	57509.54
375.798	57681.36
376.164	57841.52
376.53	57986.27
376.896	58148.13
377.262	58320.92
377.628	58443.83
377.993	58584.2
378.359	58718.91
378.725	58862.23
379.091	59000.47
379.456	59132.56
379.822	59257.41
380.187	59398.02
380.553	59572.6
380.918	59763.57
381.284	59937.48
381.649	60093.15
382.015	60221.83
382.38	60348.18
382.745	60495.44
383.11	60631.06
383.476	60763.39
383.841	60885.27
384.206	61030.76
384.571	61147.84
384.936	61267.68
385.301	61430.67
385.666	61564.05
386.031	61713.32
386.396	61877.14
386.76	62022.15
387.125	62191.96
387.49	62386.53
387.855	62573.66
388.219	62741.3
388.584	62902.33
388.948	63089.12
389.313	63252.01
389.677	63454.81
390.042	63674.99
390.406	63828.79
390.771	64016.31
391.135	64200.23
391.499	64422.77
391.863	64642.18
392.227	64870.75
392.592	65066.19
392.956	65248.12
393.32	65429.21
393.684	65639.23
394.048	65797.98
394.412	65967.84
394.775	66121.39
395.139	66264.05
395.503	66417.09
395.867	66559.77
396.231	66700.59
396.594	66801.06
396.958	66937.78
397.321	67080.99
397.685	67194.41
398.048	67329.26
398.412	67458.92
398.775	67583.15
399.139	67701.68
399.502	67814.01
399.865	67951.62
400.228	68134.69
400.592	68267.13
400.955	68460.84
401.318	68591.44
401.681	68758.23
402.044	68897.5
402.407	69039.64
402.77	69196.98
403.133	69372.79
403.496	69501.06
403.859	69644.34
404.221	69868.25
404.584	70090.83
404.947	70323.82
405.309	70510.97
405.672	70731.77
406.034	70948.06
406.397	71193.81
406.759	71406.01
407.122	71574.47
407.484	71746.16
407.847	71928.59
408.209	72166.03
408.571	72386.5
408.933	72638.18
409.296	72862.15
409.658	73078.21
410.02	73358.15
410.382	73677.74
410.744	73921.57
411.106	74191.46
411.468	74461.42
411.83	74701.89
412.191	74893.26
412.553	75078.81
412.915	75317.99
413.277	75537.09
413.638	75750.16
414	75897.01
414.361	76102.65
414.723	76373.66
415.084	76626.43
415.446	76856.47
415.807	77047.95
416.169	77210.1
416.53	77350.31
416.891	77527.44
417.252	77741.16
417.614	77889.54
417.975	77992.22
418.336	78131.63
418.697	78285.02
419.058	78417.7
419.419	78534.06
419.78	78670.04
420.141	78779.52
420.501	78882.06
420.862	78982.22
421.223	79068.63
421.584	79212.8
421.944	79300.61
422.305	79364.74
422.666	79417.18
423.026	79447.31
423.387	79500.61
423.747	79549.23
424.107	79604.93
424.468	79654.72
424.828	79686.48
425.188	79707.77
425.549	79732.76
425.909	79754.08
426.269	79762.23
426.629	79779.43
426.989	79794.27
427.349	79808.6
427.709	79821.71
428.069	79829.93
428.429	79844.28
428.789	79861.38
429.149	79877.23
429.508	79887.05
429.868	79899.41
430.228	79911.47
430.587	79923.49
430.947	79935.04
431.306	79947.92
431.666	79956.12
432.025	79960.88
432.385	79968.34
432.744	79972.37
433.103	79976.32
433.463	79981.64
433.822	79996.9
434.181	80005.06
434.54	80010.16
434.899	80014.78
435.258	80019.84
435.618	80025.16
435.976	80031.45
436.335	80033.63
436.694	80034.14
437.053	80035.22
437.412	80035.81
437.771	80036.81
438.129	80038.25
438.488	80037.95
438.847	80037.36
439.205	80037.81
439.564	80040.1
439.922	80040.02
440.281	80042.65
440.639	80043.5
440.997	80045.27
441.356	80049.57
441.714	80051.45
442.072	80051.08
442.431	80050.27
442.789	80050.6
443.147	80051.42
443.505	80051.71
443.863	80053.23
444.221	80054.41
444.579	80055.82
444.937	80056.74
445.294	80058.48
445.652	80059.85
446.01	80061.4
446.368	80064.88
446.725	80063.81
447.083	80065.25
447.441	80065.92
447.798	80064.51
448.156	80064.1
448.513	80063.4
448.87	80061.18
449.228	80060.03
449.585	80061.88
449.942	80062.33
450.3	80062.7
450.657	80061.66
451.014	80061.66
451.371	80061.96
451.728	80061.36
452.085	80060.77
452.442	80061.14
452.799	80061.74
453.156	80060.74
453.513	80059.96
453.869	80059.18
454.226	80060.03
454.583	80058.92
454.939	80058.89
455.296	80060
455.653	80062.33
456.009	80063.44
456.366	80062.81
456.722	80064.73
457.078	80064.07
457.435	80065.73
457.791	80065.29
458.147	80066.73
458.503	80067.17
458.86	80067.32
459.216	80067.1
459.572	80068.43
459.928	80069.17
460.284	80068.5
460.64	80068.14
460.996	80069.5
461.351	80069.02
461.707	80068.99
462.063	80069.87
462.419	80070.06
462.774	80072.13
463.13	80071.72
463.486	80071.69
463.841	80074.02
464.197	80073.31
464.552	80074.54
464.908	80074.02
465.263	80076.98
465.618	80077.57
465.974	80077.46
466.329	80076.68
466.684	80077.35
467.039	80076.57
467.394	80075.09
467.749	80075.16
468.104	80077.16
468.459	80077.53
468.814	80078.53
469.169	80080.42
469.524	80081.49
469.879	80081.09
470.233	80080.94
470.588	80082.16
470.943	80082.86
471.297	80082.86
471.652	80084.38
472.006	80082.97
472.361	80082.9
472.715	80081.6
473.07	80081.94
473.424	80083.31
473.778	80084.82
474.133	80085.3
474.487	80086.49
474.841	80087.3
475.195	80088.01
475.549	80088.67
475.903	80088.63
476.257	80089.37
476.611	80089.26
476.965	80089.15
477.319	80091.26
477.673	80090.89
478.026	80088.86
478.38	80088.41
478.734	80087.82
479.087	80087.52
479.441	80090.26
479.795	80091.86
480.148	80093.56
480.502	80093.71
480.855	80094.34
481.208	80094.3
481.562	80095.56
481.915	80096.15
482.268	80098.19
482.621	80099.7
482.974	80099.85
483.328	80100.74
483.681	80101.37
484.034	80102.22
484.387	80102.48
484.739	80101.74
485.092	80101.18
485.445	80104.26
485.798	80104.7
486.151	80105.77
486.503	80105.62
486.856	80106.25
487.209	80105.81
487.561	80106.51
487.914	80106.81
488.266	80106.22
488.618	80105.85
488.971	80105.51
489.323	80106.25
489.675	80105.25
490.028	80104.66
490.38	80105.14
490.732	80104.77
491.084	80105.48
491.436	80105.11
491.788	80105.22
492.14	80106.22
492.492	80108.4
492.844	80108.55
493.196	80108.85
493.548	80109.36
493.899	80109.22
494.251	80107.85
494.603	80108.4
494.954	80106.81
495.306	80106.48
495.657	80107.62
496.009	80107.7
496.36	80107.88
496.712	80106.88
497.063	80106.66
497.414	80107.22
497.765	80105.7
498.117	80105.66
498.468	80105.77
498.819	80106.4
499.17	80106.22
499.521	80105.29
499.872	80106.18
500.223	80104.37
500.574	80104.26
500.924	80105.11
501.275	80104.33
501.626	80103.96
501.977	80102.22
502.327	80102.41
502.678	80101.55
503.029	80100.74
503.379	80101.7
503.73	80102.33
504.08	80102.04
504.43	80103.29
504.781	80103.15
505.131	80102.78
505.481	80102.48
505.831	80102.3
506.182	80102.22
506.532	80103.11
506.882	80105.85
507.232	80103.26
507.582	80104.26
507.932	80104.63
508.281	80102.48
508.631	80103.26
508.981	80103.92
509.331	80106.63
509.681	80106.26
510.03	80107.74
510.38	80108.66
510.729	80109
511.079	80108.59
511.428	80109.62
511.778	80110.59
512.127	80110
512.476	80112.18
512.826	80114.18
513.175	80113.07
513.524	80113.92
513.873	80113.25
514.222	80111.85
514.571	80112.55
514.92	80113.07
515.269	80114.07
515.618	80114.58
515.967	80115.33
516.316	80114.51
516.665	80114.29
517.014	80115.81
517.362	80116.21
517.711	80115.33
518.059	80115.18
518.408	80114.77
518.757	80114.51
519.105	80113.88
519.453	80116.14
519.802	80115.81
520.15	80114.66
520.498	80114.51
520.847	80113.1
521.195	80112.81
521.543	80111.62
521.891	80112.66
522.239	80112.66
522.587	80113.03
522.935	80114.84
523.283	80114.07
523.631	80115.62
523.979	80114.92
524.326	80115.14
524.674	80115.7
525.022	80114.62
525.369	80114.7
525.717	80115.47
526.064	80115.4
526.412	80114.62
526.759	80112.44
527.107	80110.36
527.454	80111.18
527.801	80111.7
528.149	80112.25
528.496	80113.33
528.843	80114.47
529.19	80114.25
529.537	80114.92
529.884	80115.51
530.231	80114.47
530.578	80114.44
530.925	80114.62
531.272	80115.59
531.619	80113.36
531.966	80113.85
532.312	80115.66
532.659	80114.7
533.006	80114.03
533.352	80112.7
533.699	80113.33
534.045	80113.22
534.392	80113.81
534.738	80114.33
535.084	80115.25
535.431	80115.51
535.777	80115.62
536.123	80116.48
536.469	80115.11
536.815	80115.44
537.161	80114.51
537.507	80115.88
537.853	80114.25
538.199	80113.55
538.545	80111.14
538.891	80113.29
539.237	80113.18
539.582	80112.51
539.928	80114.18
540.274	80114.77
540.619	80115.77
540.965	80116.4
541.31	80117.03
541.656	80117.96
542.001	80119.36
542.347	80118.81
542.692	80117.62
543.037	80117.66
543.382	80115.48
543.728	80117.92
544.073	80117.62
544.418	80116.88
544.763	80114.96
545.108	80117.47
545.453	80118.03
545.798	80120.7
546.142	80119.88
546.487	80119.29
546.832	80118.7
547.177	80118.14
547.521	80119.21
547.866	80120.81
548.211	80119.21
548.555	80118.77
548.9	80118.73
549.244	80116.96
549.588	80115.44
549.933	80116.03
550.277	80115.62
550.621	80116.47
550.965	80114.1
551.31	80112.92
551.654	80113.18
551.998	80114.25
552.342	80114.18
552.686	80112.55
553.03	80112.14
553.373	80112.96
553.717	80111.92
554.061	80110.99
554.405	80109.74
554.748	80108.96
555.092	80108.7
555.436	80108.81
555.779	80108.74
556.123	80108.62
556.466	80109.14
556.81	80108.88
557.153	80109.44
557.496	80108.51
557.839	80107.88
558.183	80108.33
558.526	80109.44
558.869	80108.29
559.212	80106.59
559.555	80105.81
559.898	80105.74
560.241	80105.26
560.584	80104.14
560.927	80105.48
561.269	80106.81
561.612	80106.66
561.955	80105.55
562.297	80105.29
562.64	80103.37
562.983	80103.63
563.325	80102.78
563.668	80101.52
564.01	80103.03
564.352	80099.44
564.695	80099.81
565.037	80099.41
565.379	80098.67
565.721	80097.74
566.063	80098.59
566.406	80099.26
566.748	80098.37
567.09	80098.7
567.431	80097.7
567.773	80098.41
568.115	80097.19
568.457	80096.96
568.799	80099.37
569.14	80099.22
569.482	80099.74
569.824	80101.85
570.165	80101.55
570.507	80102.11
570.848	80102.48
571.19	80101
571.531	80103
571.872	80103.96
572.214	80104.26
572.555	80104.63
572.896	80105.4
573.237	80105.96
573.578	80105.66
573.919	80105.51
574.26	80105.33
574.601	80106.14
574.942	80104.85
575.283	80104.59
575.624	80102.74
575.964	80099.96
576.305	80100.33
576.646	80099.18
576.986	80098.89
577.327	80099.18
577.667	80099.18
578.008	80097.96
578.348	80098.96
578.689	80098.67
579.029	80097.37
579.369	80096.93
579.71	80097.15
580.05	80096.19
580.39	80093.56
580.73	80093.67
581.07	80095.82
581.41	80096.15
581.75	80095.85
582.09	80096.52
582.43	80094.48
582.769	80096.63
583.109	80097.44
583.449	80096.78
583.789	80095.33
584.128	80094.41
584.468	80093.34
584.807	80092.82
585.147	80092.63
585.486	80092.74
585.825	80093.45
