Data from 24HourExp_27052025_FLMS018081_15-08-19-934.txt Node
Date: Tue May 27 15:08:19 BST 2025
User: adleo
Spectrometer: FLMS01808
Trigger mode: 0
Integration Time (sec): 4.000000E-1
Scans to average: 10
Electric dark correction enabled: true
Nonlinearity correction enabled: true
Boxcar width: 10
XAxis mode: Wavelengths
Number of Pixels in Spectrum: 2048
>>>>>Begin Spectral Data<<<<<
178.471	-125.15
178.857	-118.31
179.244	-110.28
179.631	-102.65
180.017	-95.11
180.404	-87.37
180.79	-76.52
181.176	-67.78
181.563	-59.49
181.949	-47.67
182.335	-37.74
182.722	-22.68
183.108	-4.51
183.494	20.8
183.88	74.85
184.266	126.35
184.653	183.37
185.039	238.02
185.425	294.37
185.811	346.98
186.197	400.06
186.582	452.01
186.968	502.89
187.354	553.74
187.74	603.57
188.126	653.22
188.511	701.52
188.897	747.57
189.283	794.8
189.668	841.04
190.054	883.32
190.439	928.6
190.825	971.54
191.21	1011.78
191.596	1045.74
191.981	1053.01
192.366	1059.45
192.752	1059.16
193.137	1063.1
193.522	1064.44
193.908	1066.21
194.293	1069.76
194.678	1070.95
195.063	1073.03
195.448	1075.65
195.833	1076.69
196.218	1078
196.603	1078.75
196.988	1078.41
197.373	1077.25
197.757	1077.84
198.142	1079.32
198.527	1075.3
198.912	1075
199.296	1075.24
199.681	1072.7
200.066	1070
200.45	1068.4
200.835	1067.49
201.219	1065.39
201.604	1064.35
201.988	1063.5
202.372	1063.61
202.757	1064.68
203.141	1064.53
203.525	1063.53
203.91	1064.76
204.294	1065.85
204.678	1066.04
205.062	1066.6
205.446	1066.91
205.83	1067.94
206.214	1065.56
206.598	1069.67
206.982	1070.48
207.366	1071.1
207.75	1072
208.134	1075.4
208.517	1078.13
208.901	1079.3
209.285	1079.89
209.669	1082.1
210.052	1083.03
210.436	1079.49
210.819	1081.05
211.203	1081.93
211.586	1082.19
211.97	1083.37
212.353	1082.35
212.737	1084.45
213.12	1086.4
213.503	1087.1
213.886	1086.44
214.27	1089.28
214.653	1090.75
215.036	1093.66
215.419	1095.55
215.802	1098.92
216.185	1099.31
216.568	1100.34
216.951	1102.59
217.334	1105.66
217.717	1107.7
218.1	1109.64
218.482	1115.36
218.865	1118.86
219.248	1123.76
219.631	1127.12
220.013	1131.28
220.396	1136.51
220.778	1140.7
221.161	1145.28
221.544	1153.69
221.926	1161.87
222.308	1168.77
222.691	1172.07
223.073	1178.77
223.455	1185.12
223.838	1192.87
224.22	1201.94
224.602	1212.36
224.984	1222.08
225.366	1234.82
225.749	1248.38
226.131	1261.11
226.513	1272.87
226.895	1286.66
227.276	1299.66
227.658	1315.19
228.04	1329.58
228.422	1344.67
228.804	1360.54
229.186	1376.25
229.567	1393.11
229.949	1408.58
230.331	1425.21
230.712	1444.13
231.094	1461.43
231.475	1480.23
231.857	1499.69
232.238	1519.6
232.62	1535.83
233.001	1555.33
233.382	1574.99
233.763	1592.22
234.145	1613.94
234.526	1634.66
234.907	1651.97
235.288	1670.57
235.669	1690.05
236.05	1708.01
236.431	1726.84
236.812	1747.75
237.193	1768.35
237.574	1787.68
237.955	1807.68
238.336	1829.01
238.717	1851.52
239.097	1873.76
239.478	1896.53
239.859	1917.31
240.239	1939.54
240.62	1962.32
241.001	1984.97
241.381	2008.18
241.762	2031.61
242.142	2053.25
242.522	2075.94
242.903	2101.27
243.283	2125.56
243.663	2151.48
244.044	2179.91
244.424	2207.58
244.804	2234.13
245.184	2262.71
245.564	2290.44
245.944	2321.13
246.324	2352.47
246.704	2380.46
247.084	2408.24
247.464	2437.54
247.844	2469.48
248.224	2498.36
248.604	2529.98
248.983	2560.03
249.363	2590.15
249.743	2619.81
250.122	2650.01
250.502	2680.98
250.882	2711.15
251.261	2745.21
251.641	2777.95
252.02	2809.31
252.399	2842.48
252.779	2877.86
253.158	2912.18
253.537	2948.67
253.917	2988.47
254.296	3023.44
254.675	3065.32
255.054	3105.4
255.433	3145.14
255.812	3182.99
256.191	3223.42
256.57	3264.55
256.949	3307.95
257.328	3352.24
257.707	3394.58
258.086	3440.51
258.465	3487.36
258.843	3536.17
259.222	3585.07
259.601	3635.23
259.979	3685.65
260.358	3738.01
260.736	3789.44
261.115	3842.97
261.493	3893.97
261.872	3945.71
262.25	4000.87
262.629	4053.09
263.007	4109.75
263.385	4170.23
263.763	4229.89
264.142	4293.01
264.52	4354.95
264.898	4417.84
265.276	4480.41
265.654	4549.34
266.032	4617.05
266.41	4684.7
266.788	4755.41
267.166	4827.25
267.544	4896.01
267.921	4969.45
268.299	5045.34
268.677	5121.53
269.055	5200.19
269.432	5284.21
269.81	5365.14
270.188	5450.35
270.565	5536.18
270.943	5625.18
271.32	5710.8
271.697	5804.4
272.075	5896.84
272.452	5991.1
272.829	6085.08
273.207	6183.03
273.584	6286.02
273.961	6386.56
274.338	6499.35
274.715	6609.95
275.092	6726.89
275.469	6849.51
275.846	6970.27
276.223	7090.47
276.6	7209.12
276.977	7333.04
277.354	7454.71
277.731	7581.98
278.108	7707.34
278.484	7838.59
278.861	7970.04
279.238	8106.37
279.614	8241.22
279.991	8376.27
280.367	8517.44
280.744	8666.83
281.12	8813.19
281.497	8957.36
281.873	9107.18
282.249	9248.85
282.625	9393.12
283.002	9534.61
283.378	9680.71
283.754	9828.45
284.13	9980.87
284.506	10139.37
284.882	10298.06
285.258	10452.6
285.634	10602.13
286.01	10761.14
286.386	10917.81
286.762	11080.49
287.138	11240.17
287.513	11402.38
287.889	11566.69
288.265	11726.33
288.641	11882
289.016	12042.82
289.392	12202.21
289.767	12363.68
290.143	12529.54
290.518	12690.22
290.894	12858.28
291.269	13011.62
291.644	13170.15
292.02	13322
292.395	13475.7
292.77	13628.93
293.145	13783.92
293.52	13940.52
293.895	14087.42
294.27	14243.27
294.646	14388.37
295.02	14532.28
295.395	14682.64
295.77	14839.18
296.145	14991.81
296.52	15145.91
296.895	15295.49
297.269	15449.05
297.644	15601.55
298.019	15750.83
298.393	15900.05
298.768	16044.4
299.143	16197.95
299.517	16345.64
299.891	16500.81
300.266	16652.56
300.64	16802.85
301.015	16964.44
301.389	17132.09
301.763	17302.68
302.137	17466.57
302.512	17643.62
302.886	17823.33
303.26	18003.75
303.634	18174.45
304.008	18346.13
304.382	18522.16
304.756	18704.2
305.13	18888.77
305.504	19063.56
305.877	19250.38
306.251	19455.56
306.625	19652.56
306.999	19856.33
307.372	20067.52
307.746	20279.45
308.119	20489.58
308.493	20701.62
308.866	20909.3
309.24	21118.21
309.613	21320.2
309.987	21522.97
310.36	21717.27
310.733	21918.67
311.107	22125.06
311.48	22337.95
311.853	22572.35
312.226	22794.31
312.599	23018
312.972	23234.99
313.345	23464.5
313.718	23684.77
314.091	23900.84
314.464	24128.61
314.837	24350.28
315.21	24557.4
315.582	24773.74
315.955	24983.44
316.328	25197.75
316.7	25408.06
317.073	25629.38
317.446	25854.09
317.818	26087.18
318.191	26313.23
318.563	26534.37
318.936	26738.85
319.308	26944.5
319.68	27137.65
320.053	27335
320.425	27515.88
320.797	27692.25
321.169	27851.79
321.541	27994.41
321.913	28120.16
322.285	28233.84
322.657	28357.2
323.029	28506.82
323.401	28642.63
323.773	28802.98
324.145	28972.97
324.517	29159.83
324.889	29326.86
325.26	29523.69
325.632	29724.01
326.004	29958.86
326.375	30208.7
326.747	30483.85
327.118	30775.71
327.49	31057.15
327.861	31358.84
328.233	31659.11
328.604	31963.83
328.975	32268.36
329.346	32580.46
329.718	32887.77
330.089	33193.39
330.46	33485.41
330.831	33748.29
331.202	34000.02
331.573	34239.65
331.944	34466.54
332.315	34687.9
332.686	34902.98
333.057	35100.8
333.428	35280.82
333.799	35448.87
334.169	35605.67
334.54	35743.99
334.911	35862.86
335.281	35994.22
335.652	36117.39
336.022	36253.17
336.393	36398.76
336.763	36572.47
337.134	36753.61
337.504	36949.74
337.874	37145.01
338.245	37349.83
338.615	37563.76
338.985	37792.67
339.355	38016.83
339.726	38234.23
340.096	38451.25
340.466	38697.98
340.836	38934.19
341.206	39176.25
341.576	39412.36
341.945	39645.97
342.315	39866.79
342.685	40102.92
343.055	40344.08
343.425	40576.44
343.794	40809.16
344.164	41039.4
344.533	41263.84
344.903	41483.56
345.273	41711.49
345.642	41935.24
346.011	42157.57
346.381	42387.28
346.75	42619.5
347.12	42858.52
347.489	43106.21
347.858	43344.48
348.227	43546.69
348.596	43767.7
348.965	44005.42
349.334	44238.12
349.704	44473.56
350.072	44719.75
350.441	44953.68
350.81	45192.25
351.179	45429.28
351.548	45657.84
351.917	45885.06
352.285	46075.52
352.654	46282.9
353.023	46490.31
353.391	46690.84
353.76	46902.97
354.129	47089.62
354.497	47312.45
354.865	47535.6
355.234	47766.63
355.602	47981.28
355.971	48235.47
356.339	48444.56
356.707	48662.47
357.075	48879.63
357.443	49099.74
357.811	49317.21
358.18	49525.61
358.548	49737.41
358.916	49938.17
359.284	50153.34
359.651	50361.3
360.019	50584.05
360.387	50785.25
360.755	50991.72
361.123	51217.56
361.49	51435.1
361.858	51653.35
362.226	51850.75
362.593	52042.21
362.961	52216.09
363.328	52422.92
363.696	52587.12
364.063	52806.75
364.43	53003.32
364.798	53212.6
365.165	53397.18
365.532	53576.83
365.899	53762.78
366.267	53921.74
366.634	54071.68
367.001	54235.69
367.368	54375.62
367.735	54545.5
368.102	54722.71
368.469	54903.44
368.835	55081.31
369.202	55246.21
369.569	55431.77
369.936	55619.5
370.303	55810.78
370.669	56005.89
371.036	56169.89
371.402	56371.55
371.769	56546.92
372.135	56692.25
372.502	56813.49
372.868	56952.55
373.235	57093.94
373.601	57231.33
373.967	57401.12
374.333	57589.07
374.7	57764.65
375.066	57965.6
375.432	58156.53
375.798	58337.09
376.164	58502.24
376.53	58638.94
376.896	58802.54
377.262	58973.69
377.628	59100.51
377.993	59243.86
378.359	59389.16
378.725	59539.94
379.091	59680.39
379.456	59806.82
379.822	59940.55
380.187	60086.84
380.553	60272.33
380.918	60462.45
381.284	60631.39
381.649	60798.72
382.015	60929.31
382.38	61053.16
382.745	61211.31
383.11	61355.55
383.476	61487.26
383.841	61614.96
384.206	61780.01
384.571	61902.16
384.936	62033.8
385.301	62204.86
385.666	62332.04
386.031	62480.89
386.396	62644.62
386.76	62796.21
387.125	62985.53
387.49	63178.88
387.855	63367.14
388.219	63527.55
388.584	63694.06
388.948	63882.28
389.313	64043.87
389.677	64246.77
390.042	64467.79
390.406	64620.3
390.771	64804.46
391.135	64991.15
391.499	65216.13
391.863	65436.43
392.227	65662.46
392.592	65852.84
392.956	66038.66
393.32	66231.08
393.684	66433.73
394.048	66598.63
394.412	66771.39
394.775	66916.44
395.139	67058.83
395.503	67210.72
395.867	67351.49
396.231	67491.38
396.594	67596.45
396.958	67726.47
397.321	67873.3
397.685	67991.48
398.048	68139.92
398.412	68269.55
398.775	68395.72
399.139	68519.45
399.502	68625.81
399.865	68768.44
400.228	68954.71
400.592	69082.35
400.955	69278.37
401.318	69414.22
401.681	69573.07
402.044	69713.11
402.407	69868.18
402.77	70030.3
403.133	70216.25
403.496	70362.21
403.859	70507.05
404.221	70733.39
404.584	70958.98
404.947	71194.19
405.309	71406.17
405.672	71621.61
406.034	71834.88
406.397	72081.83
406.759	72296.83
407.122	72474.78
407.484	72647.35
407.847	72838.78
408.209	73082.14
408.571	73302.29
408.933	73559.21
409.296	73789.47
409.658	74012.87
410.02	74282.31
410.382	74600.13
410.744	74860.83
411.106	75139.43
411.468	75412.85
411.83	75655.11
412.191	75859.33
412.553	76050.18
412.915	76276.31
413.277	76499.93
413.638	76722.37
414	76893.79
414.361	77092.18
414.723	77350.12
415.084	77595.07
415.446	77801.79
415.807	77983.1
416.169	78130.26
416.53	78260.16
416.891	78423.56
417.252	78608.7
417.614	78732.36
417.975	78807.75
418.336	78903.06
418.697	79012.36
419.058	79114.47
419.419	79198.33
419.78	79292.55
420.141	79365.98
420.501	79430.1
420.862	79488.92
421.223	79535.86
421.584	79620.85
421.944	79670.34
422.305	79705.2
422.666	79730.71
423.026	79744.4
423.387	79767.57
423.747	79790.15
424.107	79814.3
424.468	79834.68
424.828	79849.79
425.188	79860.85
425.549	79873.6
425.909	79883.74
426.269	79885.77
426.629	79893.29
426.989	79900.67
427.349	79907.79
427.709	79912.11
428.069	79916.13
428.429	79922.73
428.789	79934.73
429.149	79943.33
429.508	79949.31
429.868	79957.29
430.228	79964.71
430.587	79970.84
430.947	79977.41
431.306	79984.8
431.666	79989.08
432.025	79993.63
432.385	79996.4
432.744	79999.1
433.103	80003.2
433.463	80008.23
433.822	80017.57
434.181	80022.7
434.54	80025.73
434.899	80028.28
435.258	80033.38
435.618	80036.9
435.976	80040.93
436.335	80041.3
436.694	80043.14
437.053	80043.44
437.412	80042.37
437.771	80043.07
438.129	80044.62
438.488	80045.81
438.847	80047.51
439.205	80049.32
439.564	80049.91
439.922	80051.5
440.281	80052.65
440.639	80052.91
440.997	80051.58
441.356	80053.39
441.714	80053.46
442.072	80053.31
442.431	80054.65
442.789	80053.61
443.147	80054.98
443.505	80056.94
443.863	80059.16
444.221	80058.72
444.579	80060.6
444.937	80061.53
445.294	80062.38
445.652	80062.34
446.01	80063.89
446.368	80063.78
446.725	80064.71
447.083	80065.63
447.441	80064.15
447.798	80064.04
448.156	80062.71
448.513	80063.04
448.87	80063.82
449.228	80064.26
449.585	80065.34
449.942	80065.26
450.3	80064.71
450.657	80063.45
451.014	80061.79
451.371	80060.71
451.728	80061.6
452.085	80062.75
452.442	80064.15
452.799	80064.86
453.156	80064.82
453.513	80066
453.869	80066.85
454.226	80065.74
454.583	80065.37
454.939	80066.67
455.296	80065.89
455.653	80067.67
456.009	80067.93
456.366	80067.59
456.722	80068.19
457.078	80068.33
457.435	80069.3
457.791	80071.48
458.147	80072.85
458.503	80074.22
458.86	80075.22
459.216	80076.1
459.572	80074.33
459.928	80073.81
460.284	80074.36
460.64	80074.4
460.996	80074.4
461.351	80074.55
461.707	80075.29
462.063	80077.62
462.419	80078.07
462.774	80079.99
463.13	80080.62
463.486	80080.91
463.841	80081.14
464.197	80081.36
464.552	80084.25
464.908	80085.25
465.263	80086.39
465.618	80086.65
465.974	80087.28
466.329	80086.95
466.684	80086.43
467.039	80087.58
467.394	80088.72
467.749	80089.35
468.104	80091.76
468.459	80090.91
468.814	80090.68
469.169	80091.91
469.524	80091.06
469.879	80092.8
470.233	80094.65
470.588	80095.24
470.943	80097.39
471.297	80097.98
471.652	80101.09
472.006	80100.01
472.361	80100.98
472.715	80101.46
473.07	80102.16
473.424	80101.09
473.778	80101.01
474.133	80103.09
474.487	80104.01
474.841	80104.16
475.195	80104.31
475.549	80104.2
475.903	80105.23
476.257	80106.57
476.611	80106.9
476.965	80108.38
477.319	80108.08
477.673	80107.31
478.026	80107.79
478.38	80107.08
478.734	80108.16
479.087	80106.31
479.441	80106.23
479.795	80107.08
480.148	80106.12
480.502	80107.34
480.855	80109.71
481.208	80110.79
481.562	80110.23
481.915	80111.16
482.268	80112.27
482.621	80112.56
482.974	80113.45
483.328	80113.97
483.681	80113.75
484.034	80113.52
484.387	80113.38
484.739	80113.67
485.092	80114.64
485.445	80114.49
485.798	80115.93
486.151	80117.01
486.503	80117.97
486.856	80118.15
487.209	80116.86
487.561	80118.86
487.914	80116.71
488.266	80115.41
488.618	80113.75
488.971	80114.75
489.323	80115.19
489.675	80114.64
490.028	80113.64
490.38	80113.9
490.732	80112.9
491.084	80113.12
491.436	80113.49
491.788	80111.56
492.14	80110.38
492.492	80110.45
492.844	80111.27
493.196	80110.45
493.548	80109.45
493.899	80108.16
494.251	80108.01
494.603	80108.45
494.954	80106.38
495.306	80107.79
495.657	80107.82
496.009	80110.86
496.36	80110.45
496.712	80111.16
497.063	80110.82
497.414	80111.79
497.765	80112.38
498.117	80114.56
498.468	80114.27
498.819	80115.27
499.17	80117.45
499.521	80117.71
499.872	80116.67
500.223	80116.38
500.574	80117.49
500.924	80118.89
501.275	80120.19
501.626	80120.23
501.977	80120.6
502.327	80121.52
502.678	80122.15
503.029	80123.71
503.379	80122.63
503.73	80122.78
504.08	80122.08
504.43	80122.3
504.781	80122.63
505.131	80122.6
505.481	80121.15
505.831	80121.08
506.182	80120.41
506.532	80119.71
506.882	80119.86
507.232	80121.08
507.582	80121.86
507.932	80122.04
508.281	80121.49
508.631	80121.04
508.981	80122.34
509.331	80122.82
509.681	80123.93
510.03	80122.82
510.38	80122.23
510.729	80121.56
511.079	80120.52
511.428	80119.67
511.778	80118.89
512.127	80118.41
512.476	80116.23
512.826	80116.9
513.175	80117.75
513.524	80117.19
513.873	80117.6
514.222	80119.01
514.571	80117.52
514.92	80116.45
515.269	80115.64
515.618	80116.34
515.967	80116.41
516.316	80115.27
516.665	80115.19
517.014	80113.93
517.362	80112.97
517.711	80112.71
518.059	80113.49
518.408	80114.67
518.757	80115.19
519.105	80117.38
519.453	80118.23
519.802	80120.41
520.15	80120.34
520.498	80120.15
520.847	80119.63
521.195	80119.41
521.543	80119.15
521.891	80118.75
522.239	80119.89
522.587	80119.89
522.935	80119.01
523.283	80117.86
523.631	80117.67
523.979	80116.75
524.326	80117.01
524.674	80116.78
525.022	80117.19
525.369	80118.34
525.717	80118.01
526.064	80118.45
526.412	80116.49
526.759	80115.23
527.107	80114.6
527.454	80114.49
527.801	80115.04
528.149	80116.52
528.496	80116.78
528.843	80116.34
529.19	80119.75
529.537	80118.6
529.884	80117.23
530.231	80117.56
530.578	80120.56
530.925	80120.71
531.272	80120.52
531.619	80120.56
531.966	80122.34
532.312	80121.34
532.659	80119.19
533.006	80118.3
533.352	80117.15
533.699	80118.08
534.045	80119.27
534.392	80118.34
534.738	80119.12
535.084	80118.82
535.431	80118.19
535.777	80117.27
536.123	80116.9
536.469	80113.23
536.815	80113.97
537.161	80114.27
537.507	80112.01
537.853	80109.01
538.199	80109.01
538.545	80108.75
538.891	80108.82
539.237	80110.08
539.582	80112.45
539.928	80113.19
540.274	80113.9
540.619	80114.79
540.965	80113.9
541.31	80113.56
541.656	80115.79
542.001	80117.34
542.347	80117.86
542.692	80117.71
543.037	80118.45
543.382	80118.82
543.728	80119.71
544.073	80121.12
544.418	80122.12
544.763	80123.01
545.108	80124.12
545.453	80123.78
545.798	80124.01
546.142	80125.64
546.487	80124.78
546.832	80122.71
547.177	80121.93
547.521	80121.49
547.866	80122.34
548.211	80123.01
548.555	80123.89
548.9	80121.89
549.244	80119.97
549.588	80119.45
549.933	80120.08
550.277	80120.89
550.621	80120.6
550.965	80120.75
551.31	80118.52
551.654	80117.56
551.998	80118.19
552.342	80117.89
552.686	80119.97
553.03	80120.49
553.373	80118.64
553.717	80117.89
554.061	80117.89
554.405	80120.56
554.748	80121.04
555.092	80120.78
555.436	80120.52
555.779	80119.38
556.123	80118.93
556.466	80119.41
556.81	80118.97
557.153	80119.04
557.496	80118.19
557.839	80119.08
558.183	80119.75
558.526	80119.93
558.869	80121.04
559.212	80123.78
559.555	80125.6
559.898	80124.78
560.241	80125.01
560.584	80126.08
560.927	80126.38
561.269	80126.75
561.612	80125.93
561.955	80126.15
562.297	80125.52
562.64	80127.04
562.983	80127.6
563.325	80127.89
563.668	80127.49
564.01	80127.26
564.352	80124.49
564.695	80123.97
565.037	80123.82
565.379	80123.97
565.721	80123.75
566.063	80122.49
566.406	80120.49
566.748	80119.75
567.09	80119.01
567.431	80118.19
567.773	80116.41
568.115	80115.9
568.457	80114.86
568.799	80113.3
569.14	80112.67
569.482	80111.27
569.824	80109.53
570.165	80107.79
570.507	80108.05
570.848	80108.08
571.19	80108.16
571.531	80109.82
571.872	80111.64
572.214	80110.93
572.555	80109.67
572.896	80109.71
573.237	80109.49
573.578	80107.93
573.919	80107.56
574.26	80107.42
574.601	80107.71
574.942	80107.49
575.283	80107.34
575.624	80106.31
575.964	80106.53
576.305	80106.68
576.646	80108.93
576.986	80108.12
577.327	80109.71
577.667	80108.45
578.008	80108.86
578.348	80110.05
578.689	80110.08
579.029	80108.38
579.369	80108.23
579.71	80107.97
580.05	80108.01
580.39	80108.6
580.73	80107.6
581.07	80106.71
581.41	80106.08
581.75	80105.34
582.09	80106.68
582.43	80107.57
582.769	80109.64
583.109	80110.82
583.449	80110.38
583.789	80108.38
584.128	80109.9
584.468	80109.45
584.807	80111.41
585.147	80108.79
585.486	80107.64
585.825	80107.16
