Data from 24HourExp_27052025_FLMS018081_17-28-19-541.txt Node
Date: Tue May 27 17:28:19 BST 2025
User: adleo
Spectrometer: FLMS01808
Trigger mode: 0
Integration Time (sec): 4.000000E-1
Scans to average: 10
Electric dark correction enabled: true
Nonlinearity correction enabled: true
Boxcar width: 10
XAxis mode: Wavelengths
Number of Pixels in Spectrum: 2048
>>>>>Begin Spectral Data<<<<<
178.471	-124.09
178.857	-118.15
179.244	-112.77
179.631	-104.65
180.017	-98.45
180.404	-90.59
180.79	-79.45
181.176	-70.46
181.563	-60.46
181.949	-49.57
182.335	-39.11
182.722	-25.12
183.108	-5.97
183.494	19.59
183.88	72.82
184.266	127.31
184.653	182.98
185.039	236.95
185.425	292.65
185.811	345.39
186.197	398.59
186.582	449.4
186.968	501.64
187.354	555.51
187.74	606.91
188.126	659.5
188.511	709.56
188.897	757.34
189.283	805.03
189.668	850.61
190.054	893.67
190.439	938.37
190.825	983.46
191.21	1024.28
191.596	1058.25
191.981	1067.02
192.366	1071.78
192.752	1074.96
193.137	1079.08
193.522	1079.33
193.908	1080.4
194.293	1083.65
194.678	1086.2
195.063	1089.32
195.448	1089.75
195.833	1089.13
196.218	1087.63
196.603	1089.01
196.988	1089.07
197.373	1090.53
197.757	1090.79
198.142	1092.29
198.527	1091.05
198.912	1090.67
199.296	1090.06
199.681	1088.13
200.066	1085.75
200.45	1086.92
200.835	1086.02
201.219	1084.45
201.604	1085.61
201.988	1087.28
202.372	1087.45
202.757	1087.06
203.141	1086.18
203.525	1086.77
203.91	1088.66
204.294	1091.05
204.678	1089.41
205.062	1087.48
205.446	1087.91
205.83	1090.01
206.214	1089.83
206.598	1090.96
206.982	1092.87
207.366	1092.33
207.75	1094.08
208.134	1096.3
208.517	1096.04
208.901	1096.41
209.285	1097.34
209.669	1099.15
210.052	1099.39
210.436	1098.07
210.819	1098.71
211.203	1099.95
211.586	1099.93
211.97	1099.98
212.353	1099.82
212.737	1101.07
213.12	1105.35
213.503	1105.74
213.886	1104.47
214.27	1106.25
214.653	1106.4
215.036	1107.65
215.419	1110.15
215.802	1112.56
216.185	1114.63
216.568	1116.99
216.951	1121.15
217.334	1123.39
217.717	1126.53
218.1	1128.34
218.482	1133.15
218.865	1137.16
219.248	1142.01
219.631	1147.55
220.013	1152.99
220.396	1160.27
220.778	1166.97
221.161	1171.47
221.544	1176.31
221.926	1185.65
222.308	1192.42
222.691	1201.31
223.073	1207.86
223.455	1216.39
223.838	1224.75
224.22	1234
224.602	1245.72
224.984	1257.32
225.366	1269.43
225.749	1285.26
226.131	1299.11
226.513	1311.26
226.895	1326.96
227.276	1339.35
227.658	1353.77
228.04	1368.25
228.422	1383.84
228.804	1398.87
229.186	1415.93
229.567	1433.53
229.949	1448.53
230.331	1467.84
230.712	1485.57
231.094	1504.74
231.475	1523.72
231.857	1542.88
232.238	1562.36
232.62	1580.7
233.001	1599.56
233.382	1620.56
233.763	1636.61
234.145	1656.79
234.526	1677.7
234.907	1696.35
235.288	1718.32
235.669	1738.39
236.05	1760.23
236.431	1779.2
236.812	1802.06
237.193	1823.86
237.574	1846.74
237.955	1869.18
238.336	1891.04
238.717	1912.97
239.097	1936.08
239.478	1958.71
239.859	1981.35
240.239	2006.15
240.62	2031.16
241.001	2054.6
241.381	2078.58
241.762	2103.14
242.142	2128.66
242.522	2155.26
242.903	2181.71
243.283	2206.46
243.663	2232.01
244.044	2258.87
244.424	2287.77
244.804	2314.66
245.184	2343.7
245.564	2371.03
245.944	2403.52
246.324	2433.39
246.704	2462.88
247.084	2492.5
247.464	2524.11
247.844	2557.47
248.224	2588.8
248.604	2620.14
248.983	2652.37
249.363	2684.71
249.743	2716.02
250.122	2746.83
250.502	2777.61
250.882	2809.59
251.261	2841.85
251.641	2875.8
252.02	2908.69
252.399	2942.58
252.779	2980.38
253.158	3016.77
253.537	3057.96
253.917	3100.21
254.296	3138.7
254.675	3182.43
255.054	3225.59
255.433	3266.98
255.812	3306.5
256.191	3348.26
256.57	3390.9
256.949	3433.96
257.328	3480.69
257.707	3526.32
258.086	3574.92
258.465	3625.17
258.843	3677.59
259.222	3731.78
259.601	3785.71
259.979	3841.24
260.358	3895.26
260.736	3949.3
261.115	4007.44
261.493	4060.2
261.872	4113.77
262.25	4173.22
262.629	4230.74
263.007	4288.87
263.385	4349.93
263.763	4414.73
264.142	4479.11
264.52	4544.47
264.898	4611.93
265.276	4676.46
265.654	4749.05
266.032	4820.32
266.41	4888.49
266.788	4960.95
267.166	5037.1
267.544	5111.93
267.921	5193.19
268.299	5275.72
268.677	5356.28
269.055	5439.68
269.432	5526.93
269.81	5612.38
270.188	5699.88
270.565	5786.83
270.943	5879.47
271.32	5972.42
271.697	6069.94
272.075	6165.08
272.452	6261
272.829	6358.29
273.207	6459.13
273.584	6561.53
273.961	6665.96
274.338	6778.99
274.715	6898.1
275.092	7014.13
275.469	7137.44
275.846	7257.47
276.223	7379.18
276.6	7504.71
276.977	7627.93
277.354	7756.32
277.731	7881.2
278.108	8012.21
278.484	8146.42
278.861	8277.52
279.238	8415.53
279.614	8550.61
279.991	8694.03
280.367	8838.82
280.744	8987.75
281.12	9138.84
281.497	9288.99
281.873	9438.16
282.249	9588.12
282.625	9733.42
283.002	9879.91
283.378	10027.81
283.754	10179.26
284.13	10329.77
284.506	10486.63
284.882	10644.56
285.258	10799.33
285.634	10962.13
286.01	11119.13
286.386	11274.55
286.762	11439.79
287.138	11603.94
287.513	11767.54
287.889	11932.16
288.265	12093.37
288.641	12254.38
289.016	12414.59
289.392	12572.95
289.767	12739.58
290.143	12905.92
290.518	13064.97
290.894	13229.92
291.269	13387.25
291.644	13540.94
292.02	13694.93
292.395	13848.73
292.77	14002.59
293.145	14158.83
293.52	14311.36
293.895	14458.64
294.27	14617.89
294.646	14769.78
295.02	14913.28
295.395	15066.27
295.77	15220.76
296.145	15378.24
296.52	15531.83
296.895	15689.08
297.269	15845.51
297.644	15998.71
298.019	16148.81
298.393	16303.59
298.768	16457.93
299.143	16617.55
299.517	16772.49
299.891	16934.29
300.266	17092.89
300.64	17250.06
301.015	17411.56
301.389	17581.57
301.763	17761.96
302.137	17937.41
302.512	18118.84
302.886	18296.37
303.26	18478.46
303.634	18658.36
304.008	18835.98
304.382	19016.36
304.756	19202.94
305.13	19391.62
305.504	19574.97
305.877	19771.36
306.251	19975.98
306.625	20174.54
306.999	20382.58
307.372	20596.71
307.746	20816.14
308.119	21028.18
308.493	21241.94
308.866	21452.7
309.24	21666.5
309.613	21875.57
309.987	22081.23
310.36	22277.59
310.733	22492.23
311.107	22709.97
311.48	22922.9
311.853	23155.54
312.226	23385.53
312.599	23610.54
312.972	23831.95
313.345	24064.55
313.718	24287.67
314.091	24507.35
314.464	24740.88
314.837	24964.07
315.21	25178.35
315.582	25398.56
315.955	25615
316.328	25834.99
316.7	26054.49
317.073	26271.74
317.446	26494.47
317.818	26722.79
318.191	26957.76
318.563	27184.69
318.936	27388.02
319.308	27598.52
319.68	27795.91
320.053	27998.18
320.425	28185.25
320.797	28363.65
321.169	28524.26
321.541	28670.48
321.913	28812.03
322.285	28926.17
322.657	29052.98
323.029	29205.86
323.401	29347.1
323.773	29508.51
324.145	29683.95
324.517	29873.06
324.889	30058.19
325.26	30257.11
325.632	30478.66
326.004	30710.05
326.375	30963.87
326.747	31242.45
327.118	31544.2
327.49	31838.59
327.861	32146.79
328.233	32454.71
328.604	32775.97
328.975	33091.42
329.346	33401.17
329.718	33704.34
330.089	34011.56
330.46	34299.85
330.831	34564.33
331.202	34821.61
331.573	35075.8
331.944	35303.54
332.315	35532.57
332.686	35745.22
333.057	35952.26
333.428	36125.8
333.799	36300.16
334.169	36451.36
334.54	36592.5
334.911	36705.58
335.281	36832.91
335.652	36953.67
336.022	37090.82
336.393	37237.81
336.763	37402.45
337.134	37598.83
337.504	37802.99
337.874	38009.37
338.245	38218.63
338.615	38437.32
338.985	38672.52
339.355	38890.26
339.726	39116.97
340.096	39337.15
340.466	39591.61
340.836	39830.05
341.206	40081.85
341.576	40327.01
341.945	40575.69
342.315	40814.63
342.685	41063.74
343.055	41318.18
343.425	41562.69
343.794	41798.02
344.164	42024.84
344.533	42260.4
344.903	42485.61
345.273	42717.53
345.642	42945.59
346.011	43180.83
346.381	43415.71
346.75	43641.84
347.12	43893.52
347.489	44143.06
347.858	44388.86
348.227	44599.47
348.596	44829.76
348.965	45060.8
349.334	45291.84
349.704	45522
350.072	45763.76
350.441	46000.29
350.81	46236.65
351.179	46463.52
351.548	46701.93
351.917	46928.35
352.285	47124.42
352.654	47331.11
353.023	47537.16
353.391	47736.66
353.76	47950.2
354.129	48143.15
354.497	48374.7
354.865	48584.38
355.234	48818.83
355.602	49038.54
355.971	49281.58
356.339	49491.42
356.707	49711.57
357.075	49928.5
357.443	50150.62
357.811	50364.11
358.18	50578.52
358.548	50786.28
358.916	50999.62
359.284	51216.42
359.651	51432.46
360.019	51654.8
360.387	51861.79
360.755	52063.26
361.123	52295.67
361.49	52518.07
361.858	52729.51
362.226	52922.91
362.593	53128.25
362.961	53302.99
363.328	53505.63
363.696	53677.52
364.063	53894.74
364.43	54098.5
364.798	54313.01
365.165	54494.04
365.532	54682.11
365.899	54863.3
366.267	55028.54
366.634	55178.24
367.001	55331.69
367.368	55471.35
367.735	55651.95
368.102	55825.32
368.469	56018.15
368.835	56193.67
369.202	56353.57
369.569	56555.14
369.936	56748.12
370.303	56933.47
370.669	57135.31
371.036	57303.44
371.402	57508.1
371.769	57691.09
372.135	57841.6
372.502	57963.84
372.868	58118.6
373.235	58254.48
373.601	58397.3
373.967	58575.92
374.333	58765.77
374.7	58957.96
375.066	59158.34
375.432	59342.97
375.798	59523.92
376.164	59692.11
376.53	59848.53
376.896	60023.26
377.262	60191.11
377.628	60323.93
377.993	60470.92
378.359	60615.79
378.725	60767.25
379.091	60912.54
379.456	61036.82
379.822	61173.54
380.187	61325.39
380.553	61517.14
380.918	61720.28
381.284	61896.85
381.649	62068.98
382.015	62207.16
382.38	62325.56
382.745	62502.46
383.11	62663.26
383.476	62808.85
383.841	62932.7
384.206	63084.76
384.571	63205.41
384.936	63339.32
385.301	63501.45
385.666	63630.8
386.031	63782.35
386.396	63943.57
386.76	64109.87
387.125	64312.15
387.49	64516.62
387.855	64712.45
388.219	64876.97
388.584	65051.47
388.948	65249.43
389.313	65411.57
389.677	65614.94
390.042	65851.15
390.406	66007.25
390.771	66191.34
391.135	66380.93
391.499	66618.97
391.863	66854.29
392.227	67095.43
392.592	67297.68
392.956	67500.02
393.32	67696.68
393.684	67915.8
394.048	68091.23
394.412	68260.21
394.775	68403.78
395.139	68546.85
395.503	68705.09
395.867	68864.11
396.231	69000.36
396.594	69104.51
396.958	69239.4
397.321	69398.42
397.685	69517.56
398.048	69653.63
398.412	69785.05
398.775	69906.2
399.139	70022.32
399.502	70132.16
399.865	70275.27
400.228	70470.72
400.592	70608.51
400.955	70818.6
401.318	70961.6
401.681	71125.58
402.044	71266.89
402.407	71425.31
402.77	71589.43
403.133	71781.64
403.496	71921.03
403.859	72080.74
404.221	72314.68
404.584	72559.09
404.947	72803.53
405.309	73014.92
405.672	73250.39
406.034	73470.85
406.397	73729.27
406.759	73963.55
407.122	74148.65
407.484	74328.11
407.847	74515.85
408.209	74765.55
408.571	74993.15
408.933	75246.3
409.296	75505.63
409.658	75762.27
410.02	76038.03
410.382	76338.36
410.744	76592.99
411.106	76875.41
411.468	77146.78
411.83	77373.86
412.191	77562.13
412.553	77727.64
412.915	77930.77
413.277	78122.33
413.638	78306.09
414	78465.96
414.361	78624.14
414.723	78828.98
415.084	79016.28
415.446	79157.62
415.807	79272.17
416.169	79357.21
416.53	79424.62
416.891	79501.59
417.252	79591.19
417.614	79645.53
417.975	79672.33
418.336	79701.99
418.697	79732.71
419.058	79759.65
419.419	79781.5
419.78	79806.71
420.141	79822.39
420.501	79836.49
420.862	79850.04
421.223	79861.86
421.584	79885.1
421.944	79897.93
422.305	79905.23
422.666	79910.25
423.026	79912.39
423.387	79920.91
423.747	79928.1
424.107	79937.03
424.468	79944.11
424.828	79948.62
425.188	79950.98
425.549	79956.12
425.909	79960.14
426.269	79959.33
426.629	79963.58
426.989	79966.53
427.349	79968.75
427.709	79973.22
428.069	79976.39
428.429	79980.34
428.789	79984.56
429.149	79988.07
429.508	79989.73
429.868	79992.61
430.228	79995.45
430.587	79999.45
430.947	80003.51
431.306	80007.32
431.666	80008.02
432.025	80009.57
432.385	80012.57
432.744	80013.71
433.103	80014.45
433.463	80016.19
433.822	80023.02
434.181	80026.65
434.54	80027.02
434.899	80029.86
435.258	80032.3
435.618	80033.93
435.976	80036
436.335	80035.52
436.694	80036.22
437.053	80037
437.412	80037.37
437.771	80039.29
438.129	80037.89
438.488	80037.63
438.847	80038.44
439.205	80041.18
439.564	80042.55
439.922	80041.44
440.281	80042.55
440.639	80044.25
440.997	80044.62
441.356	80045.28
441.714	80044.99
442.072	80047.58
442.431	80045.62
442.789	80045.91
443.147	80046.13
443.505	80046.21
443.863	80047.28
444.221	80047.98
444.579	80048.32
444.937	80049.24
445.294	80048.68
445.652	80050.35
446.01	80051.05
446.368	80050.72
446.725	80049.53
447.083	80050.94
447.441	80053.38
447.798	80053.16
448.156	80052.49
448.513	80052.31
448.87	80053.27
449.228	80053.12
449.585	80053.64
449.942	80054.6
450.3	80055.16
450.657	80056.19
451.014	80056.27
451.371	80056.3
451.728	80056.34
452.085	80056.9
452.442	80057.3
452.799	80058.26
453.156	80058.41
453.513	80060.71
453.869	80061.89
454.226	80061.89
454.583	80062.22
454.939	80059.01
455.296	80058.75
455.653	80059.19
456.009	80060.08
456.366	80059.6
456.722	80061.37
457.078	80060.34
457.435	80061.56
457.791	80059.93
458.147	80060.11
458.503	80060.85
458.86	80060.78
459.216	80060.85
459.572	80061.56
459.928	80062.56
460.284	80063
460.64	80064.96
460.996	80064.26
461.351	80064.15
461.707	80065.33
462.063	80064.44
462.419	80067.14
462.774	80069.03
463.13	80069.21
463.486	80069.55
463.841	80070.55
464.197	80070.03
464.552	80071.21
464.908	80070.69
465.263	80072.84
465.618	80072.17
465.974	80073.4
466.329	80075.43
466.684	80076.69
467.039	80078.21
467.394	80078.32
467.749	80080.06
468.104	80080.8
468.459	80080.2
468.814	80080.5
469.169	80080.61
469.524	80081.98
469.879	80082.39
470.233	80081.57
470.588	80082.87
470.943	80082.98
471.297	80082.31
471.652	80083.13
472.006	80083.39
472.361	80086.38
472.715	80086.42
473.07	80088.05
473.424	80089.75
473.778	80090.9
474.133	80092.27
474.487	80092.64
474.841	80092.71
475.195	80092.86
475.549	80092.53
475.903	80094.79
476.257	80094.6
476.611	80095.3
476.965	80095.27
477.319	80095.3
477.673	80097.12
478.026	80097.45
478.38	80096.71
478.734	80095.6
479.087	80095.68
479.441	80096.45
479.795	80094.31
480.148	80095.53
480.502	80095.93
480.855	80095.68
481.208	80094.9
481.562	80093.64
481.915	80093.23
482.268	80093.75
482.621	80094.31
482.974	80094.34
483.328	80095.27
483.681	80094.86
484.034	80094.9
484.387	80094.53
484.739	80095.71
485.092	80095.71
485.445	80095.93
485.798	80097.19
486.151	80099.75
486.503	80100.97
486.856	80101.23
487.209	80102.89
487.561	80102.45
487.914	80102.56
488.266	80101.75
488.618	80101.49
488.971	80100.6
489.323	80101.3
489.675	80102.41
490.028	80101.63
490.38	80102.19
490.732	80101.67
491.084	80102.97
491.436	80103.11
491.788	80104.37
492.14	80103.97
492.492	80102.82
492.844	80102.19
493.196	80102.93
493.548	80102.19
493.899	80101.63
494.251	80101.45
494.603	80102.08
494.954	80102
495.306	80101.08
495.657	80100.86
496.009	80101.78
496.36	80104.48
496.712	80104.6
497.063	80103.97
497.414	80103.71
497.765	80104.34
498.117	80104.04
498.468	80103.45
498.819	80104.34
499.17	80104.15
499.521	80105.04
499.872	80105.71
500.223	80106.63
500.574	80107.78
500.924	80109
501.275	80108.74
501.626	80109.11
501.977	80108.63
502.327	80109.26
502.678	80109
503.029	80109.22
503.379	80109.78
503.73	80109.74
504.08	80108.48
504.43	80109.04
504.781	80110.3
505.131	80110.15
505.481	80109.41
505.831	80110.78
506.182	80110.96
506.532	80109.37
506.882	80108.82
507.232	80109.04
507.582	80107.41
507.932	80106.97
508.281	80106.56
508.631	80107.19
508.981	80107.85
509.331	80109.37
509.681	80108.71
510.03	80109.45
510.38	80109.41
510.729	80109.08
511.079	80107.59
511.428	80107.89
511.778	80106.56
512.127	80106.85
512.476	80105.71
512.826	80107.41
513.175	80106.71
513.524	80106.74
513.873	80107.52
514.222	80107.11
514.571	80106.52
514.92	80107.15
515.269	80105.85
515.618	80106.11
515.967	80104.89
516.316	80103.15
516.665	80101.52
517.014	80100.78
517.362	80100.82
517.711	80100.01
518.059	80100.08
518.408	80100.34
518.757	80100.93
519.105	80101.04
519.453	80101
519.802	80101.37
520.15	80099.86
520.498	80100.45
520.847	80099.01
521.195	80098.49
521.543	80097.19
521.891	80096.38
522.239	80097.53
522.587	80099.08
522.935	80098.19
523.283	80098.15
523.631	80100.15
523.979	80100.45
524.326	80101.15
524.674	80101.71
525.022	80102.67
525.369	80102.82
525.717	80102.75
526.064	80104.15
526.412	80106
526.759	80103.89
527.107	80102.12
527.454	80101.6
527.801	80101.97
528.149	80103.12
528.496	80103.89
528.843	80105.93
529.19	80106.19
529.537	80106
529.884	80105.3
530.231	80104.89
530.578	80106.67
530.925	80106.45
531.272	80105.49
531.619	80104.89
531.966	80105.71
532.312	80105.08
532.659	80105.45
533.006	80104.82
533.352	80102.86
533.699	80102.63
534.045	80103.89
534.392	80106.45
534.738	80107.04
535.084	80107.71
535.431	80108.63
535.777	80108.08
536.123	80107.52
536.469	80107.78
536.815	80107.56
537.161	80107.11
537.507	80107.85
537.853	80105.41
538.199	80103.82
538.545	80104.82
538.891	80105.3
539.237	80104.34
539.582	80105.82
539.928	80104.23
540.274	80106.08
540.619	80107.08
540.965	80106.11
541.31	80107.22
541.656	80106.3
542.001	80106.52
542.347	80106.08
542.692	80103.49
543.037	80104.6
543.382	80105.08
543.728	80105.34
544.073	80105.71
544.418	80106.71
544.763	80107.63
545.108	80109.96
545.453	80110.56
545.798	80110.3
546.142	80111.37
546.487	80110.67
546.832	80109.15
547.177	80110.52
547.521	80110
547.866	80110.74
548.211	80109.89
548.555	80109.11
548.9	80109.41
549.244	80107.93
549.588	80107.85
549.933	80108.52
550.277	80109.37
550.621	80109.08
550.965	80110
551.31	80109.22
551.654	80108.78
551.998	80108.04
552.342	80107.08
552.686	80107.26
553.03	80107.67
553.373	80106.11
553.717	80106.04
554.061	80107.48
554.405	80107.19
554.748	80104.74
555.092	80103.37
555.436	80103.26
555.779	80102.6
556.123	80103.15
556.466	80103.45
556.81	80103.78
557.153	80104.56
557.496	80103.82
557.839	80103.86
558.183	80103.93
558.526	80104.85
558.869	80104.19
559.212	80104.26
559.555	80103.49
559.898	80103.37
560.241	80101.86
560.584	80101.82
560.927	80102.56
561.269	80102.67
561.612	80102.6
561.955	80103.26
562.297	80103.63
562.64	80105.34
562.983	80105.22
563.325	80104.93
563.668	80106.19
564.01	80105.63
564.352	80106.34
564.695	80106.48
565.037	80106.04
565.379	80104.78
565.721	80105.04
566.063	80105.22
566.406	80104.15
566.748	80103.71
567.09	80101.86
567.431	80103.6
567.773	80104.6
568.115	80104.97
568.457	80103.45
568.799	80102.63
569.14	80102.45
569.482	80101.41
569.824	80100.64
570.165	80100.27
570.507	80099.86
570.848	80099.04
571.19	80097.49
571.531	80096.23
571.872	80097.16
572.214	80097.45
572.555	80098.38
572.896	80097.53
573.237	80095.86
573.578	80097.08
573.919	80096.82
574.26	80098.34
574.601	80097.19
574.942	80096.53
575.283	80095.01
575.624	80093.9
575.964	80094.86
576.305	80095.34
576.646	80095.75
576.986	80094.9
577.327	80093.68
577.667	80093.12
578.008	80093.68
578.348	80093.79
578.689	80094.01
579.029	80090.79
579.369	80089.57
579.71	80089.79
580.05	80088.79
580.39	80089.38
580.73	80087.79
581.07	80088.6
581.41	80088.23
581.75	80087.57
582.09	80086.9
582.43	80087.01
582.769	80088.27
583.109	80087.27
583.449	80087.64
583.789	80087.49
584.128	80088.2
584.468	80090.31
584.807	80090.01
585.147	80088.6
585.486	80087.79
585.825	80087.05
