Data from 24HourExp_27052025_FLMS018081_00-38-20-764.txt Node
Date: Wed May 28 00:38:20 BST 2025
User: adleo
Spectrometer: FLMS01808
Trigger mode: 0
Integration Time (sec): 4.000000E-1
Scans to average: 10
Electric dark correction enabled: true
Nonlinearity correction enabled: true
Boxcar width: 10
XAxis mode: Wavelengths
Number of Pixels in Spectrum: 2048
>>>>>Begin Spectral Data<<<<<
178.471	-131.27
178.857	-123.42
179.244	-116.65
179.631	-107
180.017	-98.11
180.404	-90.79
180.79	-79.85
181.176	-71.64
181.563	-62.53
181.949	-52.48
182.335	-41.25
182.722	-24.29
183.108	-4.71
183.494	21.55
183.88	75.12
184.266	129.09
184.653	185.03
185.039	242.43
185.425	298.51
185.811	351.11
186.197	403.35
186.582	455.52
186.968	507.61
187.354	560.33
187.74	610.11
188.126	659.87
188.511	711.63
188.897	759.49
189.283	807.92
189.668	854.22
190.054	897.75
190.439	940.86
190.825	983.71
191.21	1024.72
191.596	1060.51
191.981	1067.61
192.366	1071.74
192.752	1073.87
193.137	1075.85
193.522	1077.39
193.908	1080.47
194.293	1085.94
194.678	1087.78
195.063	1089
195.448	1090.12
195.833	1090.34
196.218	1088.93
196.603	1088.28
196.988	1087.47
197.373	1088.25
197.757	1088.72
198.142	1091.18
198.527	1089.98
198.912	1090.51
199.296	1089.85
199.681	1087.55
200.066	1086.47
200.45	1085.78
200.835	1085.43
201.219	1085.14
201.604	1085.01
201.988	1085.28
202.372	1084.95
202.757	1084.98
203.141	1085.8
203.525	1086.42
203.91	1086.82
204.294	1090.35
204.678	1090.37
205.062	1090.21
205.446	1090.87
205.83	1092.75
206.214	1092.16
206.598	1093.99
206.982	1096.65
207.366	1097.28
207.75	1097.6
208.134	1099.54
208.517	1102.32
208.901	1102.05
209.285	1103.37
209.669	1105.41
210.052	1106.03
210.436	1104.93
210.819	1106.05
211.203	1106.94
211.586	1106.43
211.97	1108.9
212.353	1107.48
212.737	1108.86
213.12	1111.86
213.503	1112.1
213.886	1111.95
214.27	1113.23
214.653	1115.65
215.036	1114.41
215.419	1114.49
215.802	1116.37
216.185	1117.63
216.568	1119.96
216.951	1123.19
217.334	1124.83
217.717	1126.22
218.1	1128.57
218.482	1134.02
218.865	1137.49
219.248	1141.09
219.631	1147.76
220.013	1152.77
220.396	1160.49
220.778	1165.75
221.161	1171.34
221.544	1177.29
221.926	1186.36
222.308	1194.47
222.691	1200.87
223.073	1210.24
223.455	1220.31
223.838	1230.46
224.22	1239.61
224.602	1250.32
224.984	1261.6
225.366	1273.73
225.749	1288.23
226.131	1300.91
226.513	1312.79
226.895	1327.23
227.276	1342.85
227.658	1355.96
228.04	1370.71
228.422	1387.08
228.804	1403.31
229.186	1419.84
229.567	1438.56
229.949	1452.05
230.331	1469.42
230.712	1487.91
231.094	1506.94
231.475	1527.02
231.857	1545.55
232.238	1565.97
232.62	1585.94
233.001	1603.73
233.382	1623.24
233.763	1641.19
234.145	1661.51
234.526	1683.2
234.907	1703.16
235.288	1723.66
235.669	1742.59
236.05	1763.2
236.431	1781.15
236.812	1801.63
237.193	1822.96
237.574	1842.54
237.955	1867.61
238.336	1890.3
238.717	1910.71
239.097	1933.36
239.478	1956.16
239.859	1979.63
240.239	2004.96
240.62	2026.8
241.001	2051.56
241.381	2076.86
241.762	2101.34
242.142	2126.62
242.522	2151.54
242.903	2179.01
243.283	2205.28
243.663	2234.24
244.044	2263.95
244.424	2292.45
244.804	2321.97
245.184	2351.88
245.564	2381.3
245.944	2412.04
246.324	2442.28
246.704	2474.36
247.084	2502.64
247.464	2533.58
247.844	2565.2
248.224	2596.37
248.604	2628.54
248.983	2660.39
249.363	2693.3
249.743	2725.95
250.122	2756.71
250.502	2787.08
250.882	2818.11
251.261	2849.28
251.641	2881.26
252.02	2911.45
252.399	2948.43
252.779	2984.67
253.158	3020.44
253.537	3059.82
253.917	3101.6
254.296	3141.91
254.675	3183.08
255.054	3227.04
255.433	3269.39
255.812	3311.08
256.191	3350.11
256.57	3394.89
256.949	3440.73
257.328	3485.67
257.707	3529.52
258.086	3577.78
258.465	3628.59
258.843	3680.07
259.222	3734.92
259.601	3789.79
259.979	3844.42
260.358	3899.33
260.736	3953.54
261.115	4011.52
261.493	4064.61
261.872	4116.4
262.25	4172.89
262.629	4229.27
263.007	4287.4
263.385	4347.05
263.763	4410.33
264.142	4478.03
264.52	4540.54
264.898	4606.97
265.276	4673.02
265.654	4744.66
266.032	4814.33
266.41	4884.52
266.788	4956.89
267.166	5031.92
267.544	5107.78
267.921	5187.83
268.299	5265.93
268.677	5344.39
269.055	5428.39
269.432	5514.49
269.81	5601.44
270.188	5689.25
270.565	5779.08
270.943	5871.81
271.32	5963.39
271.697	6058.82
272.075	6152.92
272.452	6253.13
272.829	6350.97
273.207	6454.47
273.584	6556.9
273.961	6663.32
274.338	6777.18
274.715	6891.22
275.092	7007.47
275.469	7128.56
275.846	7249.29
276.223	7370.92
276.6	7497.17
276.977	7621.76
277.354	7751.28
277.731	7879.98
278.108	8012.7
278.484	8145.57
278.861	8279.68
279.238	8424.5
279.614	8567.61
279.991	8712.79
280.367	8855.48
280.744	9004.67
281.12	9155.31
281.497	9303.95
281.873	9457.83
282.249	9607.36
282.625	9759.04
283.002	9906.96
283.378	10052.95
283.754	10204.13
284.13	10358.46
284.506	10515.09
284.882	10670.27
285.258	10826.44
285.634	10984.25
286.01	11145.99
286.386	11308.16
286.762	11472.02
287.138	11630.17
287.513	11787.84
287.889	11952.67
288.265	12112.4
288.641	12276.1
289.016	12436.32
289.392	12603.27
289.767	12769.71
290.143	12936.52
290.518	13098.29
290.894	13266.14
291.269	13427.11
291.644	13589.9
292.02	13749.92
292.395	13904.31
292.77	14062.62
293.145	14221.55
293.52	14379.29
293.895	14524.43
294.27	14680.23
294.646	14830.4
295.02	14978.18
295.395	15135.11
295.77	15291.24
296.145	15452.63
296.52	15607.33
296.895	15760.62
297.269	15915.83
297.644	16067.14
298.019	16216.57
298.393	16372.36
298.768	16520.97
299.143	16681.6
299.517	16830.89
299.891	16986.8
300.266	17147.17
300.64	17306.99
301.015	17470.43
301.389	17636.91
301.763	17817.24
302.137	17988
302.512	18172.98
302.886	18356.31
303.26	18540.25
303.634	18717.31
304.008	18891.51
304.382	19077.64
304.756	19266.74
305.13	19451.51
305.504	19631.51
305.877	19823.3
306.251	20029.51
306.625	20233.86
306.999	20441.21
307.372	20656
307.746	20874.87
308.119	21094.04
308.493	21306.16
308.866	21516.03
309.24	21736.76
309.613	21943.67
309.987	22159.99
310.36	22356.38
310.733	22566.11
311.107	22784.78
311.48	23004.01
311.853	23242.8
312.226	23465.82
312.599	23698.06
312.972	23929.3
313.345	24169.52
313.718	24408.92
314.091	24628.59
314.464	24858.92
314.837	25083.95
315.21	25297.89
315.582	25515.25
315.955	25725.61
316.328	25947.58
316.7	26168.98
317.073	26389.03
317.446	26616.53
317.818	26844.86
318.191	27078.97
318.563	27305.86
318.936	27513.55
319.308	27718.46
319.68	27917.52
320.053	28114.36
320.425	28304.27
320.797	28485.5
321.169	28648.32
321.541	28788.08
321.913	28923.36
322.285	29045.05
322.657	29173.25
323.029	29325.93
323.401	29474.4
323.773	29645.19
324.145	29818.27
324.517	30007.51
324.889	30178.14
325.26	30380.04
325.632	30595.5
326.004	30826.01
326.375	31080.36
326.747	31356.34
327.118	31666.14
327.49	31958.6
327.861	32275
328.233	32579.13
328.604	32893.25
328.975	33208.5
329.346	33528.94
329.718	33848.03
330.089	34153.24
330.46	34452.7
330.831	34726.86
331.202	34981.9
331.573	35226.5
331.944	35454.71
332.315	35685.62
332.686	35913.61
333.057	36113.28
333.428	36286.43
333.799	36457.83
334.169	36617.36
334.54	36759.25
334.911	36876.58
335.281	37003.2
335.652	37123.65
336.022	37258.81
336.393	37405.4
336.763	37574.11
337.134	37751.91
337.504	37943.14
337.874	38150.28
338.245	38354.26
338.615	38572.21
338.985	38804.34
339.355	39031.29
339.726	39261.76
340.096	39480.66
340.466	39733.11
340.836	39977.39
341.206	40229.46
341.576	40484.01
341.945	40728.2
342.315	40958.5
342.685	41202.52
343.055	41451.02
343.425	41690.74
343.794	41929.09
344.164	42160.71
344.533	42392.51
344.903	42622.91
345.273	42863.9
345.642	43090.12
346.011	43318.45
346.381	43554.63
346.75	43787.1
347.12	44028.45
347.489	44281.27
347.858	44528.46
348.227	44735.97
348.596	44963.72
348.965	45209.18
349.334	45438.54
349.704	45677.21
350.072	45929.76
350.441	46163.38
350.81	46406.09
351.179	46647.16
351.548	46882.31
351.917	47103.1
352.285	47305.19
352.654	47512.39
353.023	47717.33
353.391	47917.93
353.76	48133.44
354.129	48321.6
354.497	48555.39
354.865	48779.2
355.234	49005.73
355.602	49223.2
355.971	49476.93
356.339	49690.84
356.707	49897.21
357.075	50115.51
357.443	50335.55
357.811	50547.21
358.18	50757.99
358.548	50973.62
358.916	51178.95
359.284	51395.33
359.651	51622.69
360.019	51836.61
360.387	52042.84
360.755	52236.79
361.123	52468.23
361.49	52696
361.858	52910.04
362.226	53102.83
362.593	53296.92
362.961	53475.74
363.328	53678.78
363.696	53848.28
364.063	54069.52
364.43	54277.91
364.798	54489.66
365.165	54672.52
365.532	54856.03
365.899	55048.36
366.267	55212.4
366.634	55360.29
367.001	55531.11
367.368	55661.06
367.735	55848.59
368.102	56030.69
368.469	56228
368.835	56405.08
369.202	56563.29
369.569	56759.25
369.936	56953.6
370.303	57144.15
370.669	57347.3
371.036	57514.08
371.402	57710.61
371.769	57887
372.135	58034.93
372.502	58161.39
372.868	58301.43
373.235	58447.65
373.601	58582.49
373.967	58755.88
374.333	58949.31
374.7	59122.18
375.066	59328.81
375.432	59511.94
375.798	59684.2
376.164	59854.11
376.53	59995.53
376.896	60169.26
377.262	60342.51
377.628	60464.75
377.993	60617.08
378.359	60767.17
378.725	60923.31
379.091	61081.01
379.456	61216.31
379.822	61358.3
380.187	61509.14
380.553	61700.81
380.918	61890.6
381.284	62071.27
381.649	62245.62
382.015	62375.42
382.38	62502.96
382.745	62669.5
383.11	62819.98
383.476	62966.32
383.841	63090.8
384.206	63261.97
384.571	63379.52
384.936	63507.85
385.301	63689.41
385.666	63826.59
386.031	63970.3
386.396	64141.88
386.76	64289.73
387.125	64480.73
387.49	64675.65
387.855	64871.07
388.219	65033.26
388.584	65212.23
388.948	65405.23
389.313	65570.59
389.677	65778.21
390.042	66014.2
390.406	66169.91
390.771	66362.33
391.135	66553.11
391.499	66787.96
391.863	67021.49
392.227	67270.47
392.592	67481.71
392.956	67675.15
393.32	67872.8
393.684	68101.07
394.048	68269.69
394.412	68445.83
394.775	68589.58
395.139	68740.15
395.503	68902.83
395.867	69060.79
396.231	69205.52
396.594	69307.97
396.958	69442.35
397.321	69610.15
397.685	69731.02
398.048	69886.91
398.412	70021.06
398.775	70148.86
399.139	70278.44
399.502	70380.18
399.865	70523.72
400.228	70716.1
400.592	70849.91
400.955	71055.06
401.318	71183.92
401.681	71345.23
402.044	71492.66
402.407	71658.91
402.77	71821.4
403.133	72010.64
403.496	72159.33
403.859	72312.85
404.221	72554.68
404.584	72791.12
404.947	73036.05
405.309	73250.87
405.672	73477.93
406.034	73706.79
406.397	73972.86
406.759	74199.15
407.122	74389.57
407.484	74562.71
407.847	74745.46
408.209	74997.27
408.571	75213.58
408.933	75472.81
409.296	75730.16
409.658	75982.51
410.02	76246.25
410.382	76542.78
410.744	76791.86
411.106	77072.39
411.468	77338.3
411.83	77558.23
412.191	77747.85
412.553	77901.99
412.915	78090.33
413.277	78274.49
413.638	78440.32
414	78582.13
414.361	78730.09
414.723	78927.35
415.084	79107.29
415.446	79243.79
415.807	79351.18
416.169	79429.94
416.53	79489.97
416.891	79558.82
417.252	79641.73
417.614	79692.19
417.975	79715.78
418.336	79740.72
418.697	79766.33
419.058	79790.54
419.419	79807.72
419.78	79827.33
420.141	79841.48
420.501	79856.07
420.862	79865.29
421.223	79872.62
421.584	79893.48
421.944	79903.47
422.305	79910.26
422.666	79916.13
423.026	79917.16
423.387	79924.72
423.747	79931.91
424.107	79940.73
424.468	79947.22
424.828	79950.81
425.188	79953.65
425.549	79958.45
425.909	79962.73
426.269	79960.74
426.629	79964.54
426.989	79968.57
427.349	79972.19
427.709	79972.26
428.069	79972.15
428.429	79975.88
428.789	79979.54
429.149	79982.61
429.508	79986.64
429.868	79989.63
430.228	79992.1
430.587	79997.5
430.947	80001.38
431.306	80003.48
431.666	80003.48
432.025	80005.81
432.385	80006.88
432.744	80009.99
433.103	80010.73
433.463	80011.99
433.822	80019.34
434.181	80021.3
434.54	80023.18
434.899	80024.84
435.258	80028.02
435.618	80029.24
435.976	80030.65
436.335	80032.16
436.694	80032.13
437.053	80032.27
437.412	80032.5
437.771	80035.38
438.129	80035.45
438.488	80036.45
438.847	80038.45
439.205	80041.7
439.564	80041.19
439.922	80042.3
440.281	80041.33
440.639	80042.74
440.997	80042.18
441.356	80040.74
441.714	80042.55
442.072	80042.52
442.431	80041.59
442.789	80041.67
443.147	80043.11
443.505	80043.78
443.863	80043.44
444.221	80044.96
444.579	80043.55
444.937	80045.03
445.294	80045.51
445.652	80044.96
446.01	80044.96
446.368	80043.44
446.725	80042.93
447.083	80045
447.441	80043.63
447.798	80044.74
448.156	80044.96
448.513	80046.51
448.87	80047.95
449.228	80048.36
449.585	80047.44
449.942	80048.25
450.3	80048.18
450.657	80048.88
451.014	80048.29
451.371	80049.58
451.728	80050.21
452.085	80051.84
452.442	80051.84
452.799	80050.25
453.156	80050.76
453.513	80051.17
453.869	80054.06
454.226	80053.98
454.583	80054.24
454.939	80055.57
455.296	80055.65
455.653	80055.13
456.009	80054.68
456.366	80056.05
456.722	80054.39
457.078	80055.46
457.435	80055.79
457.791	80056.35
458.147	80054.83
458.503	80055.72
458.86	80055.79
459.216	80054.65
459.572	80054.72
459.928	80055.24
460.284	80055.35
460.64	80056.16
460.996	80055.65
461.351	80054.87
461.707	80055.35
462.063	80053.94
462.419	80053.87
462.774	80054.61
463.13	80055.13
463.486	80055.83
463.841	80054.8
464.197	80056.98
464.552	80056.72
464.908	80056.61
465.263	80057.5
465.618	80058.09
465.974	80058.01
466.329	80059.23
466.684	80059.86
467.039	80060.53
467.394	80060.97
467.749	80061.12
468.104	80062.9
468.459	80064.01
468.814	80064.89
469.169	80065.49
469.524	80065.97
469.879	80067.08
470.233	80067.26
470.588	80067.74
470.943	80067.6
471.297	80068.52
471.652	80068.37
472.006	80070.48
472.361	80072.26
472.715	80074.14
473.07	80075.37
473.424	80076.96
473.778	80076.77
474.133	80078.96
474.487	80079.14
474.841	80079.95
475.195	80081.1
475.549	80081.14
475.903	80082.84
476.257	80083.06
476.611	80082.77
476.965	80084.91
477.319	80085.39
477.673	80086.65
478.026	80088.17
478.38	80089.58
478.734	80089.72
479.087	80090.46
479.441	80090.35
479.795	80091.13
480.148	80090.28
480.502	80090.83
480.855	80092.09
481.208	80092.43
481.562	80092.2
481.915	80094.94
482.268	80095.83
482.621	80097.2
482.974	80096.61
483.328	80094.83
483.681	80094.02
484.034	80095.24
484.387	80095.05
484.739	80095.2
485.092	80094.35
485.445	80095.09
485.798	80095.5
486.151	80096.2
486.503	80097.31
486.856	80097.13
487.209	80097.46
487.561	80097.57
487.914	80096.65
488.266	80093.46
488.618	80094.17
488.971	80092.32
489.323	80091.17
489.675	80090.5
490.028	80087.43
490.38	80086.51
490.732	80086.73
491.084	80087.54
491.436	80088.47
491.788	80089.1
492.14	80088.69
492.492	80089.5
492.844	80088.32
493.196	80087.39
493.548	80087.06
493.899	80084.99
494.251	80084.91
494.603	80083.06
494.954	80082.1
495.306	80083.62
495.657	80085.62
496.009	80087.21
496.36	80088.25
496.712	80087.25
497.063	80087.73
497.414	80090.21
497.765	80091.65
498.117	80091.8
498.468	80090.98
498.819	80089.76
499.17	80088.5
499.521	80089.5
499.872	80089.91
500.223	80090.09
500.574	80091.54
500.924	80092.28
501.275	80094.54
501.626	80094.61
501.977	80095.91
502.327	80096.31
502.678	80096.91
503.029	80098.28
503.379	80096.57
503.73	80096.54
504.08	80096.79
504.43	80096.39
504.781	80095.42
505.131	80094.65
505.481	80095.61
505.831	80096.31
506.182	80097.53
506.532	80098.42
506.882	80098.42
507.232	80097.28
507.582	80098.31
507.932	80098.27
508.281	80096.87
508.631	80095.57
508.981	80096.76
509.331	80097.46
509.681	80097.87
510.03	80096.91
510.38	80095.28
510.729	80095.57
511.079	80096.42
511.428	80097.2
511.778	80097.35
512.127	80098.64
512.476	80100.68
512.826	80099.13
513.175	80100.94
513.524	80100.16
513.873	80100.61
514.222	80100.24
514.571	80100.42
514.92	80100.27
515.269	80099.9
515.618	80099.87
515.967	80100.35
516.316	80099.27
516.665	80098.27
517.014	80098.09
517.362	80098.16
517.711	80098.53
518.059	80098.42
518.408	80097.94
518.757	80097.16
519.105	80096.83
519.453	80096.16
519.802	80095.2
520.15	80096.76
520.498	80095.57
520.847	80094.98
521.195	80094.68
521.543	80095.13
521.891	80094.28
522.239	80095.16
522.587	80094.42
522.935	80095.16
523.283	80094.13
523.631	80094.02
523.979	80094.28
524.326	80096.13
524.674	80096.2
525.022	80097.2
525.369	80096.57
525.717	80097.46
526.064	80098.53
526.412	80097.61
526.759	80097.83
527.107	80097.05
527.454	80095.39
527.801	80094.46
528.149	80095.2
528.496	80095.72
528.843	80096.17
529.19	80096.17
529.537	80094.35
529.884	80095.02
530.231	80095.76
530.578	80096.76
530.925	80096.76
531.272	80097.61
531.619	80095.43
531.966	80095.94
532.312	80095.02
532.659	80095.68
533.006	80093.2
533.352	80092.39
533.699	80093.72
534.045	80094.09
534.392	80093.5
534.738	80094.83
535.084	80095.35
535.431	80095.83
535.777	80094.98
536.123	80093.24
536.469	80095.2
536.815	80095.57
537.161	80096.35
537.507	80095.31
537.853	80094.57
538.199	80094.28
538.545	80092.28
538.891	80094.09
539.237	80093.35
539.582	80092.91
539.928	80093.13
540.274	80094.35
540.619	80094.39
540.965	80094.05
541.31	80093.61
541.656	80094.24
542.001	80095.13
542.347	80095.28
542.692	80094.54
543.037	80094.72
543.382	80095.05
543.728	80093.83
544.073	80094.72
544.418	80094.02
544.763	80094.46
545.108	80095.16
545.453	80095.09
545.798	80095.42
546.142	80093.87
546.487	80092.8
546.832	80092.43
547.177	80092.13
547.521	80092.91
547.866	80094.2
548.211	80093.65
548.555	80093.91
548.9	80094.54
549.244	80093.28
549.588	80093.02
549.933	80093.46
550.277	80092.17
550.621	80091.76
550.965	80091.8
551.31	80089.61
551.654	80089.8
551.998	80089.87
552.342	80089.69
552.686	80089.28
553.03	80090.06
553.373	80090.76
553.717	80092.87
554.061	80092.69
554.405	80093.17
554.748	80092.57
555.092	80091.76
555.436	80093.72
555.779	80093.39
556.123	80093.61
556.466	80093.61
556.81	80093.06
557.153	80092.39
557.496	80093.98
557.839	80095.2
558.183	80095.13
558.526	80095.83
558.869	80096.05
559.212	80095.46
559.555	80095.94
559.898	80097.35
560.241	80096.31
560.584	80095.46
560.927	80095.09
561.269	80095.83
561.612	80095.76
561.955	80096.28
562.297	80095.5
562.64	80093.91
562.983	80093.09
563.325	80093.28
563.668	80093.94
564.01	80093.76
564.352	80092.8
564.695	80091.54
565.037	80091.28
565.379	80089.72
565.721	80087.95
566.063	80087.21
566.406	80086.95
566.748	80085.25
567.09	80083.47
567.431	80083.32
567.773	80084.28
568.115	80082.8
568.457	80082.43
568.799	80079.84
569.14	80078.84
569.482	80078.77
569.824	80078.14
570.165	80078.25
570.507	80077.81
570.848	80076.48
571.19	80078.22
571.531	80079.29
571.872	80079.77
572.214	80079.55
572.555	80080.73
572.896	80081.77
573.237	80080.44
573.578	80081.14
573.919	80081.47
574.26	80082.29
574.601	80082.95
574.942	80081.36
575.283	80080.99
575.624	80080.32
575.964	80082.03
576.305	80081.29
576.646	80080.29
576.986	80080.36
577.327	80080.69
577.667	80079.88
578.008	80079.95
578.348	80079.25
578.689	80078.51
579.029	80076.99
579.369	80076.96
579.71	80077.36
580.05	80078.95
580.39	80079.29
580.73	80079.51
581.07	80079.69
581.41	80078.92
581.75	80078.4
582.09	80078.95
582.43	80079.77
582.769	80079.47
583.109	80079.55
583.449	80080.4
583.789	80080.77
584.128	80081.03
584.468	80080.73
584.807	80081.51
585.147	80082.73
585.486	80082.06
585.825	80081.1
