Data from 24HourExp_27052025_FLMS018081_04-38-22-225.txt Node
Date: Wed May 28 04:38:22 BST 2025
User: adleo
Spectrometer: FLMS01808
Trigger mode: 0
Integration Time (sec): 4.000000E-1
Scans to average: 10
Electric dark correction enabled: true
Nonlinearity correction enabled: true
Boxcar width: 10
XAxis mode: Wavelengths
Number of Pixels in Spectrum: 2048
>>>>>Begin Spectral Data<<<<<
178.471	-118.42
178.857	-114.3
179.244	-108.03
179.631	-99.8
180.017	-93.49
180.404	-85.88
180.79	-75.48
181.176	-66.89
181.563	-57.75
181.949	-47.23
182.335	-37.11
182.722	-22
183.108	-3.78
183.494	21.38
183.88	74.88
184.266	128.52
184.653	185.04
185.039	237.27
185.425	293.21
185.811	346.51
186.197	398.19
186.582	446.89
186.968	500.02
187.354	551.16
187.74	601.22
188.126	651.05
188.511	701.48
188.897	749.52
189.283	797.16
189.668	843.14
190.054	887.09
190.439	933.05
190.825	975.88
191.21	1015.27
191.596	1047.06
191.981	1054.95
192.366	1060.27
192.752	1061.57
193.137	1065.41
193.522	1066.12
193.908	1067.04
194.293	1070.8
194.678	1074.77
195.063	1076.87
195.448	1080.38
195.833	1081.19
196.218	1082.67
196.603	1082.3
196.988	1080.91
197.373	1081.55
197.757	1081.1
198.142	1082.09
198.527	1080.26
198.912	1078.98
199.296	1077.94
199.681	1077.11
200.066	1075.8
200.45	1076
200.835	1075.06
201.219	1073.57
201.604	1073.18
201.988	1075.44
202.372	1075.8
202.757	1076.07
203.141	1075.89
203.525	1075.13
203.91	1074.26
204.294	1075.1
204.678	1074.95
205.062	1074.71
205.446	1074.72
205.83	1075.43
206.214	1074.39
206.598	1075.33
206.982	1077.1
207.366	1078.84
207.75	1080.59
208.134	1082.04
208.517	1083.47
208.901	1084.41
209.285	1086.45
209.669	1089.18
210.052	1088.26
210.436	1087.2
210.819	1087.32
211.203	1088.56
211.586	1089.24
211.97	1091.34
212.353	1090.66
212.737	1092.26
213.12	1094.06
213.503	1095.92
213.886	1098.35
214.27	1102.48
214.653	1104.35
215.036	1105.51
215.419	1106.23
215.802	1108.73
216.185	1111.61
216.568	1113.83
216.951	1116.28
217.334	1119.73
217.717	1122.5
218.1	1125.65
218.482	1130.66
218.865	1134.76
219.248	1139.26
219.631	1144.33
220.013	1149.64
220.396	1158.07
220.778	1163.64
221.161	1171.49
221.544	1176.17
221.926	1183.65
222.308	1189.11
222.691	1195.63
223.073	1204.95
223.455	1212.7
223.838	1223.14
224.22	1231.18
224.602	1240.04
224.984	1252.62
225.366	1264.58
225.749	1278.65
226.131	1290.59
226.513	1302.02
226.895	1316.92
227.276	1329.59
227.658	1343.46
228.04	1357.52
228.422	1371.59
228.804	1388.07
229.186	1401.09
229.567	1418.53
229.949	1434.18
230.331	1450.58
230.712	1467.41
231.094	1482.67
231.475	1504.5
231.857	1521.38
232.238	1541.46
232.62	1560.47
233.001	1580.22
233.382	1600.58
233.763	1618.25
234.145	1638.79
234.526	1660.12
234.907	1678.06
235.288	1698.15
235.669	1718.29
236.05	1737.04
236.431	1756.26
236.812	1776.26
237.193	1799.75
237.574	1819.88
237.955	1841.16
238.336	1864.69
238.717	1887.03
239.097	1912.16
239.478	1932.57
239.859	1956.34
240.239	1980.06
240.62	2005.66
241.001	2026.81
241.381	2048.49
241.762	2071.5
242.142	2094.83
242.522	2117.73
242.903	2142.27
243.283	2169.27
243.663	2193.37
244.044	2223.3
244.424	2252.72
244.804	2279.52
245.184	2306.65
245.564	2334.99
245.944	2364.32
246.324	2394.92
246.704	2425.61
247.084	2452.06
247.464	2482.81
247.844	2513.76
248.224	2544.4
248.604	2573.83
248.983	2605.25
249.363	2636.11
249.743	2667.6
250.122	2697.42
250.502	2728.3
250.882	2761.92
251.261	2791.44
251.641	2823.82
252.02	2855.42
252.399	2886.53
252.779	2921.15
253.158	2958.68
253.537	2996.7
253.917	3040.69
254.296	3075.2
254.675	3114.55
255.054	3156.31
255.433	3199.47
255.812	3238.61
256.191	3279.04
256.57	3320.15
256.949	3363.45
257.328	3407.83
257.707	3452.82
258.086	3498.78
258.465	3547.82
258.843	3598.57
259.222	3650.42
259.601	3705.22
259.979	3758.49
260.358	3816.72
260.736	3871.74
261.115	3927.24
261.493	3982.25
261.872	4031.79
262.25	4089.63
262.629	4144.99
263.007	4203.46
263.385	4261.84
263.763	4324.88
264.142	4387.45
264.52	4452.29
264.898	4516.23
265.276	4582.06
265.654	4649.58
266.032	4720.96
266.41	4789.7
266.788	4860.58
267.166	4936.36
267.544	5009.42
267.921	5086.02
268.299	5163.4
268.677	5242.82
269.055	5323.91
269.432	5408.24
269.81	5491.31
270.188	5578.89
270.565	5669.42
270.943	5761.99
271.32	5850.82
271.697	5946.99
272.075	6043.27
272.452	6134.75
272.829	6233.57
273.207	6336.23
273.584	6439.73
273.961	6543.49
274.338	6655.79
274.715	6769.24
275.092	6885.81
275.469	7002.79
275.846	7122.98
276.223	7239.18
276.6	7361.23
276.977	7483.8
277.354	7608.75
277.731	7735.41
278.108	7867.04
278.484	7999.26
278.861	8130.15
279.238	8270.86
279.614	8407.16
279.991	8547.61
280.367	8694.44
280.744	8840.97
281.12	8989.27
281.497	9137.99
281.873	9291.41
282.249	9440.76
282.625	9585.92
283.002	9729.87
283.378	9886.28
283.754	10035.38
284.13	10193.24
284.506	10352.22
284.882	10511.15
285.258	10666.45
285.634	10825.93
286.01	10983.63
286.386	11139.4
286.762	11304.02
287.138	11466.72
287.513	11628.48
287.889	11788.74
288.265	11954.78
288.641	12113.71
289.016	12272.93
289.392	12438.3
289.767	12601.94
290.143	12768.49
290.518	12930.13
290.894	13095.97
291.269	13251.4
291.644	13412.73
292.02	13563.92
292.395	13715.9
292.77	13869.28
293.145	14023.58
293.52	14177.44
293.895	14329.2
294.27	14485.9
294.646	14639.63
295.02	14784.85
295.395	14934.9
295.77	15092.52
296.145	15242.95
296.52	15399.07
296.895	15552.21
297.269	15703.38
297.644	15851.82
298.019	16000.72
298.393	16157.38
298.768	16308.53
299.143	16458.47
299.517	16607.04
299.891	16768.79
300.266	16929.49
300.64	17085.05
301.015	17248.21
301.389	17419.92
301.763	17590.69
302.137	17761.83
302.512	17940.26
302.886	18117.86
303.26	18304
303.634	18478.24
304.008	18659
304.382	18839.52
304.756	19024.81
305.13	19212.1
305.504	19399.68
305.877	19587.56
306.251	19789.3
306.625	19993.14
306.999	20202.02
307.372	20414.25
307.746	20626.8
308.119	20837.36
308.493	21049.64
308.866	21260.6
309.24	21471.76
309.613	21677.74
309.987	21887.74
310.36	22077.9
310.733	22285.06
311.107	22494.13
311.48	22716.31
311.853	22943.49
312.226	23170.12
312.599	23398.05
312.972	23618.28
313.345	23842.14
313.718	24072.69
314.091	24291.75
314.464	24521.38
314.837	24747.29
315.21	24964.33
315.582	25183.39
315.955	25392.44
316.328	25609.59
316.7	25824.04
317.073	26039.64
317.446	26259.41
317.818	26479.74
318.191	26708.92
318.563	26931.06
318.936	27141.11
319.308	27343.7
319.68	27541.04
320.053	27738.58
320.425	27922.41
320.797	28105.58
321.169	28266.12
321.541	28405.77
321.913	28539.98
322.285	28654.58
322.657	28775.42
323.029	28914.78
323.401	29053.74
323.773	29217.71
324.145	29392.27
324.517	29582.89
324.889	29759.24
325.26	29961.76
325.632	30180.26
326.004	30420.51
326.375	30676.88
326.747	30946.06
327.118	31239.84
327.49	31531.55
327.861	31834.52
328.233	32137.3
328.604	32444.61
328.975	32763.84
329.346	33078.49
329.718	33384.57
330.089	33689.51
330.46	33980.28
330.831	34257.41
331.202	34517.2
331.573	34769.13
331.944	34998.15
332.315	35221.92
332.686	35437.9
333.057	35638.96
333.428	35815.2
333.799	35983.73
334.169	36143.41
334.54	36287.5
334.911	36415.51
335.281	36547.17
335.652	36670.11
336.022	36808.51
336.393	36952.1
336.763	37115.16
337.134	37301.99
337.504	37502.11
337.874	37697.96
338.245	37907.04
338.615	38122.47
338.985	38345.92
339.355	38561.63
339.726	38779.32
340.096	38998.36
340.466	39251.18
340.836	39490.17
341.206	39730.89
341.576	39973.77
341.945	40211.71
342.315	40440.49
342.685	40681.47
343.055	40925.11
343.425	41162.2
343.794	41391.96
344.164	41618.9
344.533	41851.38
344.903	42080.75
345.273	42312.06
345.642	42546.25
346.011	42773.71
346.381	43004.44
346.75	43239.2
347.12	43486.82
347.489	43733.67
347.858	43980.85
348.227	44193.48
348.596	44420.42
348.965	44662.99
349.334	44893.8
349.704	45128.38
350.072	45377.46
350.441	45608.25
350.81	45839.54
351.179	46071.31
351.548	46310.08
351.917	46533.59
352.285	46728.71
352.654	46933.62
353.023	47135
353.391	47323.97
353.76	47540.82
354.129	47729.86
354.497	47955.52
354.865	48176.24
355.234	48410.66
355.602	48628.57
355.971	48874.52
356.339	49086.67
356.707	49301.79
357.075	49517.38
357.443	49736.79
357.811	49947.48
358.18	50153.37
358.548	50366.89
358.916	50578.71
359.284	50800.9
359.651	51021.29
360.019	51237.16
360.387	51440.4
360.755	51645.3
361.123	51883.42
361.49	52107.05
361.858	52317.31
362.226	52510.07
362.593	52704.64
362.961	52879.97
363.328	53074.33
363.696	53241.54
364.063	53456.6
364.43	53657.84
364.798	53864.25
365.165	54045.93
365.532	54226.43
365.899	54418.91
366.267	54579.04
366.634	54731.56
367.001	54888.88
367.368	55024.83
367.735	55205.15
368.102	55370.13
368.469	55554.39
368.835	55725.51
369.202	55881.8
369.569	56082.05
369.936	56272.7
370.303	56459.97
370.669	56669.18
371.036	56838.97
371.402	57040.42
371.769	57215.95
372.135	57365
372.502	57496.27
372.868	57641.36
373.235	57791.18
373.601	57922.58
373.967	58102.76
374.333	58287.35
374.7	58473.65
375.066	58678.27
375.432	58863.6
375.798	59051.74
376.164	59224.01
376.53	59377.07
376.896	59550.98
377.262	59721.56
377.628	59858.64
377.993	60004.81
378.359	60147.66
378.725	60298.21
379.091	60444.5
379.456	60576.93
379.822	60717.88
380.187	60873.83
380.553	61054.52
380.918	61247.76
381.284	61425.95
381.649	61593.06
382.015	61729.02
382.38	61846.59
382.745	62014.42
383.11	62163.36
383.476	62302.57
383.841	62428.78
384.206	62584.69
384.571	62703.5
384.936	62827.56
385.301	62992.19
385.666	63119.02
386.031	63261.59
386.396	63430.57
386.76	63582.6
387.125	63766.24
387.49	63961.8
387.855	64140.03
388.219	64303.78
388.584	64471.77
388.948	64666.18
389.313	64824.14
389.677	65033.53
390.042	65259.52
390.406	65409.75
390.771	65600.09
391.135	65790.2
391.499	66022.17
391.863	66245.94
392.227	66482.65
392.592	66685.82
392.956	66877.38
393.32	67075.71
393.684	67293.53
394.048	67460.3
394.412	67636.19
394.775	67793.3
395.139	67938.06
395.503	68103.03
395.867	68269.69
396.231	68407.51
396.594	68506.64
396.958	68643.16
397.321	68792.2
397.685	68915.21
398.048	69057.12
398.412	69187.21
398.775	69313.43
399.139	69436.22
399.502	69552.7
399.865	69692.64
400.228	69882.95
400.592	70021.05
400.955	70220.8
401.318	70354.25
401.681	70516.63
402.044	70659
402.407	70810.84
402.77	70968.96
403.133	71161.1
403.496	71290.92
403.859	71450.16
404.221	71685.73
404.584	71927.2
404.947	72171.26
405.309	72376.16
405.672	72603.84
406.034	72826.27
406.397	73076.69
406.759	73293.52
407.122	73469.83
407.484	73643.04
407.847	73831.11
408.209	74079.62
408.571	74305.47
408.933	74565.92
409.296	74813.16
409.658	75048.22
410.02	75322.79
410.382	75631.63
410.744	75886.11
411.106	76177.36
411.468	76449.73
411.83	76686.56
412.191	76889.64
412.553	77069.56
412.915	77290.69
413.277	77507.23
413.638	77709.8
414	77884.8
414.361	78070.28
414.723	78304.54
415.084	78525.55
415.446	78699.28
415.807	78840.01
416.169	78953.25
416.53	79048.82
416.891	79163.31
417.252	79298.18
417.614	79382.25
417.975	79430.62
418.336	79485.56
418.697	79544.83
419.058	79598.02
419.419	79642.13
419.78	79685.27
420.141	79714.9
420.501	79742.81
420.862	79767.27
421.223	79787.27
421.584	79826.51
421.944	79850.53
422.305	79863.53
422.666	79870.82
423.026	79875.1
423.387	79886.26
423.747	79896.17
424.107	79905.83
424.468	79916.08
424.828	79924.13
425.188	79928.93
425.549	79935.94
425.909	79940
426.269	79938.05
426.629	79942.81
426.989	79947.13
427.349	79951.89
427.709	79958.39
428.069	79961.31
428.429	79965.55
428.789	79971.32
429.149	79973.98
429.508	79977.01
429.868	79982.29
430.228	79987.42
430.587	79992.23
430.947	79998.03
431.306	80002.68
431.666	80006.12
432.025	80008.04
432.385	80009.41
432.744	80012.55
433.103	80013.96
433.463	80017.06
433.822	80027.18
434.181	80030.77
434.54	80033.02
434.899	80034.32
435.258	80036.24
435.618	80037.68
435.976	80041.3
436.335	80041.97
436.694	80045.08
437.053	80045.48
437.412	80045.67
437.771	80046.59
438.129	80046.48
438.488	80047.22
438.847	80050.48
439.205	80051.99
439.564	80053.95
439.922	80056.51
440.281	80056.54
440.639	80058.69
440.997	80057.87
441.356	80055.32
441.714	80054.32
442.072	80055.54
442.431	80055.8
442.789	80057.69
443.147	80060.32
443.505	80060.09
443.863	80060.28
444.221	80059.39
444.579	80061.57
444.937	80062.57
445.294	80063.65
445.652	80064.64
446.01	80066.05
446.368	80065.27
446.725	80064.87
447.083	80065.24
447.441	80065.94
447.798	80064.79
448.156	80064.42
448.513	80066.09
448.87	80068.27
449.228	80068.79
449.585	80068.45
449.942	80069.23
450.3	80066.94
450.657	80066.35
451.014	80067.01
451.371	80068.38
451.728	80068.53
452.085	80067.6
452.442	80068.16
452.799	80068.45
453.156	80068.57
453.513	80067.68
453.869	80068.38
454.226	80069.19
454.583	80070.3
454.939	80068.97
455.296	80070.38
455.653	80068.97
456.009	80065.87
456.366	80066.16
456.722	80068.31
457.078	80068.31
457.435	80068.53
457.791	80071.34
458.147	80071.49
458.503	80071.6
458.86	80072.01
459.216	80072.04
459.572	80071.67
459.928	80070.31
460.284	80069.49
460.64	80069.71
460.996	80069.86
461.351	80070.05
461.707	80070.16
462.063	80069.82
462.419	80070.64
462.774	80070.97
463.13	80072.45
463.486	80074.89
463.841	80074.89
464.197	80075.41
464.552	80076.82
464.908	80076.74
465.263	80076.59
465.618	80077.85
465.974	80078.37
466.329	80077.15
466.684	80077.93
467.039	80078.41
467.394	80080.15
467.749	80081.7
468.104	80082.4
468.459	80084.03
468.814	80084.73
469.169	80086.33
469.524	80086.73
469.879	80085.66
470.233	80085.55
470.588	80087.4
470.943	80088.25
471.297	80089.14
471.652	80088.44
472.006	80089.1
472.361	80090.06
472.715	80090.8
473.07	80090.43
473.424	80090.14
473.778	80091.54
474.133	80092.54
474.487	80094.36
474.841	80095.95
475.195	80097.8
475.549	80098.95
475.903	80099.39
476.257	80100.17
476.611	80099.84
476.965	80100.36
477.319	80103.95
477.673	80105.35
478.026	80105.57
478.38	80106.72
478.734	80107.02
479.087	80108.83
479.441	80108.42
479.795	80109.87
480.148	80110.68
480.502	80112.05
480.855	80112.57
481.208	80113.68
481.562	80114.57
481.915	80115.13
482.268	80114.72
482.621	80115.2
482.974	80115.09
483.328	80115.16
483.681	80113.94
484.034	80115.68
484.387	80116.35
484.739	80115.09
485.092	80114.64
485.445	80113.87
485.798	80113.57
486.151	80113.42
486.503	80112.61
486.856	80112.94
487.209	80112.57
487.561	80112.53
487.914	80112.35
488.266	80113.02
488.618	80111.05
488.971	80109.79
489.323	80109.68
489.675	80110.98
490.028	80109.83
490.38	80110.68
490.732	80110.54
491.084	80112.05
491.436	80112.13
491.788	80113.46
492.14	80113.16
492.492	80114.31
492.844	80115.68
493.196	80116.02
493.548	80116.9
493.899	80118.09
494.251	80117.9
494.603	80116.31
494.954	80117.2
495.306	80116.28
495.657	80116.2
496.009	80117.53
496.36	80116.79
496.712	80117.42
497.063	80116.94
497.414	80117.16
497.765	80115.94
498.117	80117.65
498.468	80117.68
498.819	80116.13
499.17	80114.02
499.521	80114.83
499.872	80113.83
500.223	80113.05
500.574	80114.94
500.924	80113.65
501.275	80115.17
501.626	80114.98
501.977	80116.76
502.327	80117.02
502.678	80118.65
503.029	80119.02
503.379	80119.28
503.73	80120.39
504.08	80120.57
504.43	80120.39
504.781	80119.61
505.131	80121.16
505.481	80120.42
505.831	80117.94
506.182	80117.83
506.532	80119.5
506.882	80118.57
507.232	80119.13
507.582	80119.61
507.932	80119.46
508.281	80120.83
508.631	80119.13
508.981	80118.53
509.331	80118.31
509.681	80116.87
510.03	80115.53
510.38	80115.87
510.729	80116.83
511.079	80117.2
511.428	80115.72
511.778	80116.35
512.127	80115.76
512.476	80115.5
512.826	80116.2
513.175	80118.76
513.524	80120.9
513.873	80119.9
514.222	80121.2
514.571	80121.64
514.92	80122.46
515.269	80122.09
515.618	80121.16
515.967	80120.5
516.316	80119.87
516.665	80119.94
517.014	80120.87
517.362	80121.72
517.711	80122.46
518.059	80120.64
518.408	80120.61
518.757	80121.5
519.105	80120.57
519.453	80122.76
519.802	80122.53
520.15	80120.35
520.498	80119.9
520.847	80120.02
521.195	80120.5
521.543	80120.64
521.891	80119.31
522.239	80117.9
522.587	80116.24
522.935	80117.24
523.283	80117.72
523.631	80119.42
523.979	80118.87
524.326	80118.46
524.674	80117.76
525.022	80117.09
525.369	80118.35
525.717	80117.46
526.064	80117.01
526.412	80116.72
526.759	80115.61
527.107	80115.09
527.454	80115.61
527.801	80114.5
528.149	80114.02
528.496	80114.5
528.843	80113.61
529.19	80114.05
529.537	80114.31
529.884	80115.68
530.231	80115.5
530.578	80114.72
530.925	80114.98
531.272	80116.2
531.619	80115.24
531.966	80116.05
532.312	80114.61
532.659	80113.61
533.006	80112.83
533.352	80111.83
533.699	80113.39
534.045	80113.98
534.392	80113.61
534.738	80114.94
535.084	80115.83
535.431	80114.05
535.777	80113.87
536.123	80113.09
536.469	80114.35
536.815	80113.05
537.161	80112.17
537.507	80112.2
537.853	80112.54
538.199	80113.05
538.545	80111.94
538.891	80110.31
539.237	80110.94
539.582	80112.24
539.928	80112.83
540.274	80114.13
540.619	80114.31
540.965	80113.2
541.31	80111.68
541.656	80110.98
542.001	80110.43
542.347	80109.91
542.692	80109.68
543.037	80108.5
543.382	80108.98
543.728	80108.72
544.073	80110.8
544.418	80110.28
544.763	80110.76
545.108	80111.24
545.453	80109.17
545.798	80109.91
546.142	80113.2
546.487	80113.24
546.832	80113.35
547.177	80113.09
547.521	80113.24
547.866	80114.87
548.211	80114.87
548.555	80115.61
548.9	80117.46
549.244	80116.05
549.588	80116.98
549.933	80118.87
550.277	80120.16
550.621	80119.68
550.965	80119.57
551.31	80117.24
551.654	80118.27
551.998	80117.42
552.342	80116.83
552.686	80116.94
553.03	80117.61
553.373	80116.31
553.717	80114.9
554.061	80114.2
554.405	80113.42
554.748	80113.28
555.092	80113.09
555.436	80112.68
555.779	80111.91
556.123	80111.17
556.466	80111.09
556.81	80110.2
557.153	80109.13
557.496	80107.46
557.839	80106.69
558.183	80105.2
558.526	80105.57
558.869	80105.5
559.212	80105.02
559.555	80104.94
559.898	80106.24
560.241	80105.69
560.584	80106.76
560.927	80107.61
561.269	80106.83
561.612	80108.35
561.955	80110.13
562.297	80111.31
562.64	80111.54
562.983	80112.2
563.325	80112.31
563.668	80113.31
564.01	80113.13
564.352	80113.46
564.695	80114.61
565.037	80114.28
565.379	80115.65
565.721	80117.02
566.063	80116.53
566.406	80117.02
566.748	80118.46
567.09	80117.72
567.431	80116.65
567.773	80114.42
568.115	80113.65
568.457	80114.31
568.799	80114.39
569.14	80111.79
569.482	80109.46
569.824	80109.35
570.165	80109.31
570.507	80108.35
570.848	80107.87
571.19	80106.94
571.531	80105.87
571.872	80106.69
572.214	80109.35
572.555	80108.46
572.896	80109.2
573.237	80108.24
573.578	80107.87
573.919	80106.31
574.26	80107.94
574.601	80108.87
574.942	80109.09
575.283	80107.65
575.624	80107.09
575.964	80104.98
576.305	80103.13
576.646	80104.28
576.986	80104.91
577.327	80105.54
577.667	80106.47
578.008	80105.32
578.348	80106.35
578.689	80107.69
579.029	80107.06
579.369	80106.06
579.71	80106.24
580.05	80104.28
580.39	80104.87
580.73	80103.54
581.07	80103.54
581.41	80102.58
581.75	80101.84
582.09	80101.43
582.43	80100.99
582.769	80099.99
583.109	80101.47
583.449	80103.43
583.789	80102.35
584.128	80100.21
584.468	80099.54
584.807	80097.58
585.147	80099.06
585.486	80096.69
585.825	80095.25
