Data from 24HourExp_27052025_FLMS018081_10-58-22-267.txt Node
Date: Tue May 27 10:58:22 BST 2025
User: adleo
Spectrometer: FLMS01808
Trigger mode: 0
Integration Time (sec): 4.000000E-1
Scans to average: 10
Electric dark correction enabled: true
Nonlinearity correction enabled: true
Boxcar width: 10
XAxis mode: Wavelengths
Number of Pixels in Spectrum: 2048
>>>>>Begin Spectral Data<<<<<
178.471	-119.6
178.857	-111.89
179.244	-105.79
179.631	-99.52
180.017	-90.91
180.404	-81.96
180.79	-72.03
181.176	-63.07
181.563	-54.94
181.949	-44.48
182.335	-34.69
182.722	-20.45
183.108	-3.31
183.494	23.1
183.88	76.03
184.266	127.12
184.653	183.83
185.039	239.17
185.425	295.25
185.811	347.62
186.197	399.21
186.582	450.44
186.968	502.36
187.354	553.35
187.74	603.75
188.126	651.77
188.511	699.4
188.897	746.98
189.283	793.34
189.668	839.46
190.054	883.07
190.439	927.89
190.825	970.51
191.21	1010.51
191.596	1041.92
191.981	1048.97
192.366	1053.98
192.752	1054.35
193.137	1055.92
193.522	1056.47
193.908	1060.59
194.293	1063.85
194.678	1065.41
195.063	1065.53
195.448	1068.28
195.833	1067.56
196.218	1068.32
196.603	1068.17
196.988	1067.75
197.373	1068.44
197.757	1069.56
198.142	1071.56
198.527	1067.96
198.912	1069.33
199.296	1068.61
199.681	1067.02
200.066	1065.37
200.45	1064.78
200.835	1063.76
201.219	1063.43
201.604	1062.48
201.988	1062.38
202.372	1062.48
202.757	1063.39
203.141	1064.41
203.525	1064.93
203.91	1066.97
204.294	1068.02
204.678	1069.11
205.062	1068.27
205.446	1067.28
205.83	1067.52
206.214	1064.67
206.598	1068.75
206.982	1068.3
207.366	1069.86
207.75	1070.68
208.134	1073.59
208.517	1074.66
208.901	1075.25
209.285	1078.39
209.669	1080.88
210.052	1079.36
210.436	1079.74
210.819	1080.03
211.203	1080.54
211.586	1079.41
211.97	1081.34
212.353	1081.04
212.737	1081.85
213.12	1084.55
213.503	1087.08
213.886	1088.08
214.27	1091.83
214.653	1092.87
215.036	1095.26
215.419	1097.39
215.802	1100.37
216.185	1102.25
216.568	1106.1
216.951	1109.08
217.334	1108
217.717	1111.07
218.1	1115.29
218.482	1120.01
218.865	1122.29
219.248	1125.15
219.631	1129.64
220.013	1131.17
220.396	1138.11
220.778	1142.46
221.161	1147.48
221.544	1153.51
221.926	1160.92
222.308	1166.85
222.691	1171.51
223.073	1178.99
223.455	1186.12
223.838	1194.23
224.22	1201.02
224.602	1209.47
224.984	1219.72
225.366	1232.33
225.749	1244.83
226.131	1254.49
226.513	1265.14
226.895	1280.57
227.276	1293.72
227.658	1307.61
228.04	1323.64
228.422	1337.81
228.804	1353.24
229.186	1367.93
229.567	1383.91
229.949	1398.12
230.331	1413.59
230.712	1431.13
231.094	1448.57
231.475	1467.95
231.857	1485.14
232.238	1503.49
232.62	1522.31
233.001	1540.68
233.382	1560.42
233.763	1577.84
234.145	1598.19
234.526	1616.28
234.907	1631.67
235.288	1649.78
235.669	1670.49
236.05	1688.89
236.431	1706.88
236.812	1727.97
237.193	1749.17
237.574	1767.77
237.955	1788.23
238.336	1809.22
238.717	1830.74
239.097	1851.35
239.478	1869.51
239.859	1891.46
240.239	1914.55
240.62	1936.3
241.001	1959.55
241.381	1981
241.762	2002.35
242.142	2024.71
242.522	2049.83
242.903	2076.68
243.283	2101.59
243.663	2124.1
244.044	2150.72
244.424	2177.55
244.804	2204.09
245.184	2232.41
245.564	2259.75
245.944	2288.97
246.324	2319.5
246.704	2346.49
247.084	2374.1
247.464	2404.36
247.844	2435.82
248.224	2465.27
248.604	2495.87
248.983	2524.94
249.363	2555.37
249.743	2585.2
250.122	2614.76
250.502	2643.58
250.882	2672.64
251.261	2704.2
251.641	2734.67
252.02	2766.18
252.399	2797.73
252.779	2832.65
253.158	2865.5
253.537	2902.21
253.917	2941.73
254.296	2974.91
254.675	3014.92
255.054	3054.7
255.433	3095.1
255.812	3132.63
256.191	3169.65
256.57	3208.99
256.949	3249.89
257.328	3291.63
257.707	3335.1
258.086	3380.58
258.465	3426.14
258.843	3473.2
259.222	3520.41
259.601	3571.18
259.979	3622.74
260.358	3674.47
260.736	3721.6
261.115	3774.08
261.493	3823.49
261.872	3871.72
262.25	3927.42
262.629	3979.85
263.007	4033.92
263.385	4089.48
263.763	4150.27
264.142	4212.6
264.52	4274.27
264.898	4337.14
265.276	4400.13
265.654	4466.87
266.032	4533.02
266.41	4598.13
266.788	4666.36
267.166	4738.2
267.544	4809.74
267.921	4881.74
268.299	4957.1
268.677	5035.78
269.055	5114.97
269.432	5198.73
269.81	5280.92
270.188	5359.08
270.565	5443.17
270.943	5533.63
271.32	5621.6
271.697	5708.38
272.075	5800.85
272.452	5891.49
272.829	5981.9
273.207	6078.68
273.584	6178.11
273.961	6281.21
274.338	6391.15
274.715	6502.33
275.092	6614.11
275.469	6731.94
275.846	6850.63
276.223	6967.1
276.6	7084.05
276.977	7203.37
277.354	7325.82
277.731	7449.84
278.108	7577.5
278.484	7704
278.861	7828.6
279.238	7964.56
279.614	8097.96
279.991	8234.03
280.367	8374.13
280.744	8520.98
281.12	8665.18
281.497	8807.18
281.873	8953.9
282.249	9095.22
282.625	9235.97
283.002	9379.86
283.378	9520.12
283.754	9665.47
284.13	9816.8
284.506	9970.76
284.882	10122.64
285.258	10273.6
285.634	10424.7
286.01	10583.43
286.386	10743.49
286.762	10903.38
287.138	11063.03
287.513	11224.76
287.889	11382.63
288.265	11541.3
288.641	11695.98
289.016	11854.36
289.392	12017.01
289.767	12175.47
290.143	12340.52
290.518	12500.02
290.894	12662.11
291.269	12823.53
291.644	12978.55
292.02	13127.75
292.395	13279.55
292.77	13435.22
293.145	13586.04
293.52	13740.54
293.895	13889.33
294.27	14040.69
294.646	14188.44
295.02	14328.83
295.395	14477.74
295.77	14628.6
296.145	14784.19
296.52	14937.74
296.895	15088.02
297.269	15237.89
297.644	15387.17
298.019	15534.9
298.393	15684.76
298.768	15834.96
299.143	15983.79
299.517	16132.64
299.891	16292.1
300.266	16451.46
300.64	16602.69
301.015	16758.89
301.389	16926.65
301.763	17095.55
302.137	17255.93
302.512	17436.05
302.886	17613.02
303.26	17791.85
303.634	17968.54
304.008	18140.79
304.382	18315.82
304.756	18497.57
305.13	18678.17
305.504	18849.88
305.877	19037.91
306.251	19239.89
306.625	19433.9
306.999	19630.59
307.372	19839.83
307.746	20047.55
308.119	20250.23
308.493	20455.01
308.866	20663.68
309.24	20869.24
309.613	21072.68
309.987	21281.57
310.36	21469.84
310.733	21673.44
311.107	21883.71
311.48	22091.75
311.853	22313.93
312.226	22536.43
312.599	22755.23
312.972	22973.41
313.345	23199.71
313.718	23420
314.091	23632.09
314.464	23858.24
314.837	24081.8
315.21	24286.14
315.582	24495.46
315.955	24699.38
316.328	24914.94
316.7	25126.19
317.073	25339.07
317.446	25556.04
317.818	25776.4
318.191	26005.44
318.563	26221.85
318.936	26425.28
319.308	26625.28
319.68	26820.6
320.053	27011.44
320.425	27195.8
320.797	27380.89
321.169	27540.56
321.541	27683.58
321.913	27813.93
322.285	27928.68
322.657	28049.02
323.029	28193.54
323.401	28333.18
323.773	28498.3
324.145	28666.99
324.517	28846.58
324.889	29023.11
325.26	29216.02
325.632	29427.13
326.004	29651.78
326.375	29901.86
326.747	30168.44
327.118	30467.23
327.49	30747.05
327.861	31050.38
328.233	31353.43
328.604	31645.83
328.975	31950.26
329.346	32253.01
329.718	32552.56
330.089	32846.08
330.46	33135.55
330.831	33400.19
331.202	33655.87
331.573	33892.57
331.944	34118.96
332.315	34344.95
332.686	34551.21
333.057	34750.31
333.428	34925.83
333.799	35092.03
334.169	35243.77
334.54	35385.7
334.911	35494.7
335.281	35625.15
335.652	35744.79
336.022	35879.42
336.393	36021.51
336.763	36190.17
337.134	36370.7
337.504	36566.28
337.874	36767.29
338.245	36967.27
338.615	37182.68
338.985	37399.32
339.355	37618.37
339.726	37838.25
340.096	38051.84
340.466	38300.27
340.836	38530.74
341.206	38772.6
341.576	39016.14
341.945	39247.87
342.315	39464.06
342.685	39707.32
343.055	39945.28
343.425	40176.05
343.794	40395.3
344.164	40622.3
344.533	40847.23
344.903	41069.3
345.273	41297.26
345.642	41518.61
346.011	41748.26
346.381	41983
346.75	42208.23
347.12	42458.06
347.489	42694.78
347.858	42939.89
348.227	43145.82
348.596	43368.07
348.965	43597.85
349.334	43817.13
349.704	44054.69
350.072	44299.45
350.441	44524.92
350.81	44763.79
351.179	44995.06
351.548	45225.46
351.917	45448.4
352.285	45642.84
352.654	45840.82
353.023	46042.13
353.391	46239.33
353.76	46445.3
354.129	46621.39
354.497	46861.86
354.865	47077.9
355.234	47308.81
355.602	47517.46
355.971	47760.17
356.339	47974.78
356.707	48188.83
357.075	48411.19
357.443	48629.84
357.811	48839.51
358.18	49051.11
358.548	49249.75
358.916	49459.3
359.284	49674.42
359.651	49891.19
360.019	50103.17
360.387	50314.19
360.755	50520.41
361.123	50744.46
361.49	50969.27
361.858	51187.76
362.226	51375.98
362.593	51569.79
362.961	51747
363.328	51944.06
363.696	52111.83
364.063	52321.4
364.43	52520.42
364.798	52725.63
365.165	52902.67
365.532	53088.47
365.899	53274.08
366.267	53447.03
366.634	53593.75
367.001	53758.42
367.368	53891.63
367.735	54065.93
368.102	54236
368.469	54424.42
368.835	54601.75
369.202	54756.45
369.569	54948.26
369.936	55131.63
370.303	55312.75
370.669	55513.21
371.036	55675.39
371.402	55873.63
371.769	56048.92
372.135	56203.2
372.502	56327.8
372.868	56471.89
373.235	56602.63
373.601	56735.65
373.967	56894.34
374.333	57076.39
374.7	57257.78
375.066	57454.62
375.432	57646.07
375.798	57820.95
376.164	57974.68
376.53	58118.42
376.896	58283.33
377.262	58445.42
377.628	58570.74
377.993	58708.82
378.359	58842.88
378.725	58999.08
379.091	59136.23
379.456	59267.35
379.822	59390.98
380.187	59537.58
380.553	59713.38
380.918	59912.07
381.284	60085.67
381.649	60261.39
382.015	60401.33
382.38	60516.51
382.745	60683.73
383.11	60823.97
383.476	60967.64
383.841	61105.44
384.206	61261.87
384.571	61384.46
384.936	61514.19
385.301	61677.91
385.666	61806
386.031	61955.01
386.396	62118.17
386.76	62273.32
387.125	62452.2
387.49	62646.11
387.855	62831.51
388.219	62994.2
388.584	63154.07
388.948	63334.55
389.313	63494.06
389.677	63682.2
390.042	63902.12
390.406	64047.27
390.771	64232.45
391.135	64407.73
391.499	64616.63
391.863	64839.43
392.227	65068.52
392.592	65260.82
392.956	65452.25
393.32	65646.96
393.684	65852.04
394.048	66014.31
394.412	66186.1
394.775	66332.94
395.139	66475.25
395.503	66629.27
395.867	66777.08
396.231	66919.12
396.594	67020.56
396.958	67150.53
397.321	67304.46
397.685	67417.32
398.048	67550.9
398.412	67676.74
398.775	67802.23
399.139	67929.88
399.502	68027.84
399.865	68165.44
400.228	68350.93
400.592	68484.25
400.955	68674.58
401.318	68804.05
401.681	68965.92
402.044	69100.58
402.407	69249.69
402.77	69399.14
403.133	69569.78
403.496	69703.57
403.859	69852.24
404.221	70082.04
404.584	70309.28
404.947	70537.59
405.309	70736.11
405.672	70960.63
406.034	71182.32
406.397	71431.6
406.759	71636.46
407.122	71813.84
407.484	71978.92
407.847	72164.97
408.209	72398.39
408.571	72619.85
408.933	72875.31
409.296	73099.46
409.658	73322.97
410.02	73604.42
410.382	73933.74
410.744	74188.31
411.106	74458.47
411.468	74722
411.83	74960.76
412.191	75149.42
412.553	75331.9
412.915	75562.73
413.277	75784.91
413.638	75991.54
414	76138.27
414.361	76343.11
414.723	76605.11
415.084	76858.81
415.446	77078.21
415.807	77269.08
416.169	77426.57
416.53	77568.71
416.891	77742.93
417.252	77943.6
417.614	78082.75
417.975	78174.87
418.336	78306.72
418.697	78453.82
419.058	78582.17
419.419	78692.98
419.78	78819.76
420.141	78927.22
420.501	79026.17
420.862	79113.3
421.223	79193.73
421.584	79328.19
421.944	79411.11
422.305	79473
422.666	79519.24
423.026	79544.63
423.387	79588.76
423.747	79625.74
424.107	79667.74
424.468	79708.99
424.828	79736.76
425.188	79755.24
425.549	79776.9
425.909	79794.27
426.269	79797.98
426.629	79810.05
426.989	79820.51
427.349	79833.51
427.709	79843.83
428.069	79849.25
428.429	79862.29
428.789	79877.66
429.149	79888.4
429.508	79898.03
429.868	79906.67
430.228	79917.33
430.587	79927.25
430.947	79937.25
431.306	79951.75
431.666	79958.94
432.025	79963.41
432.385	79967.26
432.744	79970.88
433.103	79973.61
433.463	79977.34
433.822	79991.28
434.181	79999.52
434.54	80006.35
434.899	80008.86
435.258	80015.37
435.618	80020.91
435.976	80024.72
436.335	80026.83
436.694	80029.16
437.053	80030.04
437.412	80031.71
437.771	80034.41
438.129	80037.88
438.488	80039.36
438.847	80038.51
439.205	80042.13
439.564	80042.43
439.922	80043.02
440.281	80043.43
440.639	80045.53
440.997	80045.57
441.356	80047.31
441.714	80048.12
442.072	80047.49
442.431	80049.42
442.789	80048.83
443.147	80048.05
443.505	80049.27
443.863	80051.75
444.221	80051.64
444.579	80052.04
444.937	80053.19
445.294	80052.75
445.652	80053.34
446.01	80053.12
446.368	80053.82
446.725	80052.86
447.083	80054.34
447.441	80056.19
447.798	80056.52
448.156	80057.81
448.513	80057.85
448.87	80058.26
449.228	80060.11
449.585	80061.11
449.942	80061.33
450.3	80061.74
450.657	80064.4
451.014	80064.84
451.371	80062.59
451.728	80062.77
452.085	80063.07
452.442	80063.14
452.799	80063.21
453.156	80064.44
453.513	80066.77
453.869	80068.88
454.226	80068.47
454.583	80068.54
454.939	80069.06
455.296	80069.32
455.653	80067.73
456.009	80069.32
456.366	80068.76
456.722	80068.1
457.078	80069.17
457.435	80070.5
457.791	80071.35
458.147	80070.8
458.503	80071.95
458.86	80072.46
459.216	80072.09
459.572	80071.1
459.928	80070.73
460.284	80070.84
460.64	80069.76
460.996	80068.32
461.351	80067.99
461.707	80067.28
462.063	80068.32
462.419	80068.43
462.774	80068.99
463.13	80071.35
463.486	80072.13
463.841	80071.8
464.197	80073.57
464.552	80071.17
464.908	80070.21
465.263	80071.06
465.618	80071.98
465.974	80071.47
466.329	80072.24
466.684	80073.24
467.039	80076.09
467.394	80076.31
467.749	80078.24
468.104	80079.83
468.459	80081.75
468.814	80081.12
469.169	80083.71
469.524	80083.94
469.879	80084.05
470.233	80086.64
470.588	80086.64
470.943	80087.3
471.297	80088.49
471.652	80088.49
472.006	80091.82
472.361	80093.15
472.715	80092.08
473.07	80091.45
473.424	80093.22
473.778	80093.22
474.133	80095
474.487	80094.71
474.841	80096.96
475.195	80097.67
475.549	80098.07
475.903	80097.78
476.257	80099.78
476.611	80099.3
476.965	80100.15
477.319	80101.11
477.673	80099.26
478.026	80099.48
478.38	80100
478.734	80100.78
479.087	80100.26
479.441	80100.55
479.795	80100.63
480.148	80101.89
480.502	80103.92
480.855	80103.37
481.208	80103.96
481.562	80104.14
481.915	80104.18
482.268	80103
482.621	80104.51
482.974	80104.03
483.328	80103.7
483.681	80103.37
484.034	80103.85
484.387	80102.66
484.739	80102.85
485.092	80104.4
485.445	80106.14
485.798	80106.4
486.151	80105.51
486.503	80105.77
486.856	80105.55
487.209	80104.81
487.561	80104.63
487.914	80102.63
488.266	80102.22
488.618	80102.11
488.971	80101.66
489.323	80102.03
489.675	80102.55
490.028	80101
490.38	80100.85
490.732	80102.11
491.084	80100.66
491.436	80102.22
491.788	80103.85
492.14	80104.11
492.492	80103.37
492.844	80103.77
493.196	80103.96
493.548	80104.48
493.899	80103.52
494.251	80104.4
494.603	80105.7
494.954	80105.33
495.306	80106
495.657	80105.4
496.009	80105.96
496.36	80104.92
496.712	80105.59
497.063	80105.55
497.414	80107.66
497.765	80109.44
498.117	80107.96
498.468	80108.03
498.819	80106.07
499.17	80106
499.521	80106.14
499.872	80106.81
500.223	80105.26
500.574	80103.37
500.924	80104.18
501.275	80106.33
501.626	80106.22
501.977	80106.4
502.327	80106.96
502.678	80106.96
503.029	80107.85
503.379	80107.66
503.73	80108.81
504.08	80106.22
504.43	80105.85
504.781	80103.04
505.131	80102.33
505.481	80103
505.831	80104.37
506.182	80105.07
506.532	80104.74
506.882	80104.59
507.232	80103.85
507.582	80103.52
507.932	80105.51
508.281	80105.48
508.631	80103.77
508.981	80103.48
509.331	80104.66
509.681	80104.48
510.03	80104.29
510.38	80103.96
510.729	80104.29
511.079	80104
511.428	80105.59
511.778	80106.25
512.127	80105.92
512.476	80106.33
512.826	80106.74
513.175	80106.66
513.524	80106.77
513.873	80107.74
514.222	80108.14
514.571	80109.29
514.92	80110.59
515.269	80110.73
515.618	80110.07
515.967	80110.77
516.316	80111.03
516.665	80107.99
517.014	80108.62
517.362	80109.55
517.711	80109.22
518.059	80108.14
518.408	80108.22
518.757	80108.7
519.105	80108.33
519.453	80108.88
519.802	80109.29
520.15	80109.22
520.498	80108.96
520.847	80108.11
521.195	80107.14
521.543	80107.25
521.891	80107
522.239	80105.07
522.587	80104.07
522.935	80104.77
523.283	80104
523.631	80102.81
523.979	80104.03
524.326	80104.63
524.674	80103.07
525.022	80103.81
525.369	80104.37
525.717	80104.88
526.064	80106.77
526.412	80107.88
526.759	80108.59
527.107	80107.81
527.454	80106.03
527.801	80105.59
528.149	80105.59
528.496	80105.66
528.843	80104.77
529.19	80102.55
529.537	80102.11
529.884	80102.55
530.231	80102.78
530.578	80103.52
530.925	80103.92
531.272	80103.59
531.619	80101.89
531.966	80102.29
532.312	80102.07
532.659	80102.41
533.006	80102.74
533.352	80101.11
533.699	80100.26
534.045	80099.11
534.392	80099.67
534.738	80101.29
535.084	80103.15
535.431	80103.7
535.777	80103.22
536.123	80105.44
536.469	80107.29
536.815	80108.7
537.161	80108.62
537.507	80107.37
537.853	80107.07
538.199	80107.22
538.545	80108.37
538.891	80109.07
539.237	80110.48
539.582	80110.85
539.928	80111.33
540.274	80110.4
540.619	80111.36
540.965	80111.36
541.31	80112.1
541.656	80111.22
542.001	80111.1
542.347	80110.77
542.692	80109.55
543.037	80109.33
543.382	80106.55
543.728	80106.7
544.073	80107.55
544.418	80107.37
544.763	80108.55
545.108	80109.59
545.453	80108.7
545.798	80109.44
546.142	80109.7
546.487	80109.96
546.832	80108.4
547.177	80108.66
547.521	80108
547.866	80107.81
548.211	80108.18
548.555	80108.59
548.9	80107.81
549.244	80107
549.588	80105.18
549.933	80106.77
550.277	80107.85
550.621	80107.96
550.965	80106.4
551.31	80106.22
551.654	80106.11
551.998	80103.89
552.342	80103.37
552.686	80104.96
553.03	80103.81
553.373	80103.66
553.717	80100.74
554.061	80101.52
554.405	80101.81
554.748	80101.89
555.092	80101.26
555.436	80101.22
555.779	80100.96
556.123	80103.89
556.466	80104.18
556.81	80103.52
557.153	80104.63
557.496	80102.7
557.839	80103.41
558.183	80104.07
558.526	80101.81
558.869	80102.26
559.212	80104.04
559.555	80102.7
559.898	80102.44
560.241	80101.56
560.584	80101.22
560.927	80103.89
561.269	80103.66
561.612	80102.7
561.955	80103.22
562.297	80102.74
562.64	80100.96
562.983	80101.37
563.325	80100.67
563.668	80101.26
564.01	80100.92
564.352	80099.78
564.695	80100.63
565.037	80100.26
565.379	80101.11
565.721	80101.55
566.063	80101.07
566.406	80101.18
566.748	80102.29
567.09	80100.55
567.431	80100.29
567.773	80099.63
568.115	80098.41
568.457	80098.3
568.799	80098
569.14	80097.07
569.482	80095.82
569.824	80097.26
570.165	80095.11
570.507	80092.41
570.848	80093.08
571.19	80094.41
571.531	80093.67
571.872	80092.56
572.214	80093.26
572.555	80093.37
572.896	80093.67
573.237	80092.6
573.578	80090.71
573.919	80089.82
574.26	80090.12
574.601	80088.86
574.942	80088.56
575.283	80086.86
575.624	80085.31
575.964	80085.16
576.305	80085.16
576.646	80085.16
576.986	80084.45
577.327	80085.6
577.667	80087.56
578.008	80085.97
578.348	80085.64
578.689	80085.64
579.029	80086.64
579.369	80085.38
579.71	80084.45
580.05	80085.75
580.39	80085.9
580.73	80086.93
581.07	80087.01
581.41	80087.08
581.75	80089.12
582.09	80089.89
582.43	80090.12
582.769	80090.56
583.109	80090.86
583.449	80091.23
583.789	80091.08
584.128	80091.97
584.468	80091.63
584.807	80089.89
585.147	80090
585.486	80088.6
585.825	80090.15
586.165	80088.71
586.504	80089.23
