Data from 24HourExp_27052025_FLMS018081_05-28-20-059.txt Node
Date: Wed May 28 05:28:20 BST 2025
User: adleo
Spectrometer: FLMS01808
Trigger mode: 0
Integration Time (sec): 4.000000E-1
Scans to average: 10
Electric dark correction enabled: true
Nonlinearity correction enabled: true
Boxcar width: 10
XAxis mode: Wavelengths
Number of Pixels in Spectrum: 2048
>>>>>Begin Spectral Data<<<<<
178.471	-128.36
178.857	-120.41
179.244	-112.94
179.631	-105.98
180.017	-98.2
180.404	-90.21
180.79	-78.12
181.176	-68.48
181.563	-59.67
181.949	-49.18
182.335	-38.88
182.722	-23.24
183.108	-3.43
183.494	23
183.88	76.42
184.266	130.03
184.653	183.8
185.039	237.47
185.425	293.81
185.811	348.17
186.197	400.43
186.582	451.58
186.968	502.51
187.354	555.28
187.74	606.04
188.126	656.48
188.511	707.61
188.897	753.89
189.283	800.93
189.668	847.55
190.054	891.93
190.439	937.39
190.825	981.43
191.21	1019.66
191.596	1051.7
191.981	1059.08
192.366	1063.06
192.752	1065.55
193.137	1069.87
193.522	1070.61
193.908	1070.07
194.293	1074.34
194.678	1076.88
195.063	1078.68
195.448	1079.48
195.833	1080.55
196.218	1080.32
196.603	1079.82
196.988	1079.36
197.373	1079.47
197.757	1080.2
198.142	1078.93
198.527	1076.06
198.912	1074.52
199.296	1075.03
199.681	1074.1
200.066	1072.51
200.45	1071.88
200.835	1071.76
201.219	1071.99
201.604	1071.83
201.988	1073.52
202.372	1074.56
202.757	1075.56
203.141	1076.13
203.525	1076.34
203.91	1076.23
204.294	1076.71
204.678	1075.65
205.062	1075.72
205.446	1075.98
205.83	1075.52
206.214	1075.98
206.598	1077.49
206.982	1079.08
207.366	1079.08
207.75	1079.38
208.134	1082.45
208.517	1084.63
208.901	1085.45
209.285	1085.81
209.669	1086.58
210.052	1086.31
210.436	1085.95
210.819	1086.04
211.203	1085.27
211.586	1084.47
211.97	1084.87
212.353	1085.88
212.737	1087.8
213.12	1089.95
213.503	1091.65
213.886	1092.89
214.27	1094.44
214.653	1095.5
215.036	1096.8
215.419	1099.13
215.802	1102.73
216.185	1102.89
216.568	1105.7
216.951	1108.8
217.334	1111.68
217.717	1115.9
218.1	1117.81
218.482	1121.38
218.865	1125.74
219.248	1130.9
219.631	1134.7
220.013	1140.86
220.396	1148.21
220.778	1153.45
221.161	1158.49
221.544	1164.18
221.926	1173.09
222.308	1181.58
222.691	1190.4
223.073	1199.67
223.455	1207.27
223.838	1217.29
224.22	1225.74
224.602	1236.03
224.984	1245.48
225.366	1256.21
225.749	1269.2
226.131	1284.11
226.513	1296.11
226.895	1310.16
227.276	1325.75
227.658	1342.03
228.04	1356.07
228.422	1369.91
228.804	1387.41
229.186	1401.52
229.567	1419.18
229.949	1434.05
230.331	1451.17
230.712	1468.42
231.094	1486.17
231.475	1506.22
231.857	1523.42
232.238	1543.02
232.62	1561.76
233.001	1582.27
233.382	1603.75
233.763	1623.37
234.145	1642.05
234.526	1660.93
234.907	1679.41
235.288	1699.33
235.669	1719.13
236.05	1739.43
236.431	1758.42
236.812	1777.61
237.193	1802.65
237.574	1822.89
237.955	1845.48
238.336	1866.38
238.717	1887.91
239.097	1910.79
239.478	1930.35
239.859	1952.44
240.239	1977.7
240.62	2001.74
241.001	2025.28
241.381	2048.34
241.762	2069.36
242.142	2094.3
242.522	2121.1
242.903	2148
243.283	2173.41
243.663	2198.92
244.044	2227.52
244.424	2257.28
244.804	2285.03
245.184	2311.91
245.564	2340.91
245.944	2371.52
246.324	2401.55
246.704	2430.26
247.084	2457.9
247.464	2491.13
247.844	2524.02
248.224	2555.52
248.604	2586.37
248.983	2618.14
249.363	2651.19
249.743	2683.28
250.122	2714.54
250.502	2743.71
250.882	2771.61
251.261	2801.49
251.641	2832.47
252.02	2864.21
252.399	2898.05
252.779	2933.59
253.158	2968.74
253.537	3006.05
253.917	3046.62
254.296	3086.01
254.675	3125.06
255.054	3166.12
255.433	3206.4
255.812	3244.05
256.191	3283.25
256.57	3323.69
256.949	3365.59
257.328	3408.67
257.707	3452.45
258.086	3498.62
258.465	3547.97
258.843	3602.92
259.222	3654.97
259.601	3709.71
259.979	3763.49
260.358	3816.15
260.736	3868.55
261.115	3924.67
261.493	3979.91
261.872	4030.62
262.25	4086.78
262.629	4143.88
263.007	4204.2
263.385	4264.04
263.763	4327.64
264.142	4392.21
264.52	4457.2
264.898	4522.74
265.276	4588.97
265.654	4658.95
266.032	4728.48
266.41	4797.94
266.788	4867.59
267.166	4942.28
267.544	5017
267.921	5092.28
268.299	5169.99
268.677	5249.77
269.055	5334.35
269.432	5419.78
269.81	5507.69
270.188	5595.94
270.565	5685.54
270.943	5775.49
271.32	5866.64
271.697	5961.8
272.075	6055.58
272.452	6151.77
272.829	6249.2
273.207	6348.46
273.584	6450.8
273.961	6557.57
274.338	6670.85
274.715	6786.09
275.092	6904.09
275.469	7024.72
275.846	7147.99
276.223	7268.87
276.6	7392.08
276.977	7515.07
277.354	7639.84
277.731	7762.8
278.108	7891.49
278.484	8020.36
278.861	8153.9
279.238	8293.13
279.614	8431.7
279.991	8575.8
280.367	8719.52
280.744	8869.76
281.12	9018.72
281.497	9167.76
281.873	9319.67
282.249	9465.39
282.625	9610.21
283.002	9756.25
283.378	9907.39
283.754	10056.21
284.13	10210.31
284.506	10369.71
284.882	10526.87
285.258	10682.36
285.634	10842.02
286.01	11002.9
286.386	11169.1
286.762	11334.25
287.138	11494.46
287.513	11656.16
287.889	11815.31
288.265	11980.65
288.641	12141.85
289.016	12301.19
289.392	12467.27
289.767	12629.6
290.143	12798.55
290.518	12963.77
290.894	13127.65
291.269	13281.68
291.644	13442.55
292.02	13600.61
292.395	13747.73
292.77	13904.22
293.145	14062.02
293.52	14218.65
293.895	14368.19
294.27	14519.93
294.646	14666.28
295.02	14817.46
295.395	14968.61
295.77	15126.93
296.145	15281.73
296.52	15435.95
296.895	15593.96
297.269	15745.9
297.644	15897.96
298.019	16047.61
298.393	16200.35
298.768	16355.5
299.143	16510.73
299.517	16664.67
299.891	16820.57
300.266	16986.14
300.64	17144.69
301.015	17306.36
301.389	17474.66
301.763	17652.01
302.137	17825.41
302.512	18009.82
302.886	18190.05
303.26	18374.29
303.634	18555.06
304.008	18727.63
304.382	18910.31
304.756	19091.31
305.13	19280.26
305.504	19458.78
305.877	19648.93
306.251	19856.51
306.625	20057.92
306.999	20270.83
307.372	20483.3
307.746	20700.97
308.119	20911.01
308.493	21125.64
308.866	21339.79
309.24	21550.82
309.613	21753.52
309.987	21960.22
310.36	22151.23
310.733	22354.88
311.107	22573.21
311.48	22789.87
311.853	23025.27
312.226	23250.67
312.599	23483.16
312.972	23706.24
313.345	23946.54
313.718	24175.42
314.091	24393.59
314.464	24625.33
314.837	24846.62
315.21	25058.94
315.582	25276.95
315.955	25489.71
316.328	25705.34
316.7	25917.92
317.073	26146.4
317.446	26374.05
317.818	26604.06
318.191	26835.92
318.563	27066.49
318.936	27269.33
319.308	27471.61
319.68	27668.32
320.053	27867.53
320.425	28052.5
320.797	28235.65
321.169	28392.77
321.541	28537.86
321.913	28675.69
322.285	28791.97
322.657	28919.58
323.029	29059.24
323.401	29200.15
323.773	29369.23
324.145	29544.36
324.517	29730.75
324.889	29901.06
325.26	30096.15
325.632	30310.28
326.004	30546.39
326.375	30799.83
326.747	31076.33
327.118	31383.44
327.49	31673.18
327.861	31983.96
328.233	32290.19
328.604	32601.17
328.975	32917.09
329.346	33237.97
329.718	33545.75
330.089	33851.5
330.46	34144.34
330.831	34426.4
331.202	34683.66
331.573	34928.46
331.944	35154.39
332.315	35385.46
332.686	35608.16
333.057	35811.16
333.428	35984.4
333.799	36153.08
334.169	36311.27
334.54	36456.12
334.911	36563.75
335.281	36694.13
335.652	36812.68
336.022	36952.62
336.393	37096.85
336.763	37256.16
337.134	37432.98
337.504	37623.87
337.874	37825.26
338.245	38032.12
338.615	38246.63
338.985	38475.94
339.355	38700.4
339.726	38922.72
340.096	39140.46
340.466	39387.59
340.836	39627.5
341.206	39880.37
341.576	40126.24
341.945	40364.86
342.315	40594.42
342.685	40848.68
343.055	41102.26
343.425	41339.24
343.794	41567.97
344.164	41801.04
344.533	42038.17
344.903	42274.44
345.273	42515.34
345.642	42744.61
346.011	42977.57
346.381	43206.69
346.75	43440.71
347.12	43688.39
347.489	43943.37
347.858	44188.81
348.227	44397.74
348.596	44620.67
348.965	44855.22
349.334	45088.65
349.704	45329.21
350.072	45575.85
350.441	45802.27
350.81	46038.38
351.179	46269.71
351.548	46506.52
351.917	46721.86
352.285	46918.51
352.654	47122.21
353.023	47325.2
353.391	47524.58
353.76	47731.85
354.129	47924.8
354.497	48151.36
354.865	48367.34
355.234	48598.2
355.602	48822.11
355.971	49072.83
356.339	49289.2
356.707	49505.68
357.075	49724.64
357.443	49943.61
357.811	50160.52
358.18	50376.8
358.548	50579.14
358.916	50789.22
359.284	51005.72
359.651	51224.82
360.019	51446.17
360.387	51643.82
360.755	51845.51
361.123	52073.66
361.49	52296.62
361.858	52510.4
362.226	52712.34
362.593	52908.42
362.961	53084.23
363.328	53277.55
363.696	53445.8
364.063	53663.27
364.43	53868.13
364.798	54081.28
365.165	54259.49
365.532	54434.09
365.899	54616.96
366.267	54787.93
366.634	54937.14
367.001	55096.25
367.368	55236.12
367.735	55410.6
368.102	55588.78
368.469	55777.52
368.835	55961.45
369.202	56127.3
369.569	56323.31
369.936	56505.38
370.303	56693.73
370.669	56895.34
371.036	57061.51
371.402	57262.34
371.769	57449.96
372.135	57595.03
372.502	57718.89
372.868	57868.11
373.235	58014.95
373.601	58156.3
373.967	58330.82
374.333	58520.46
374.7	58712.24
375.066	58914.42
375.432	59099.86
375.798	59273.04
376.164	59444.25
376.53	59583.66
376.896	59757.75
377.262	59927.38
377.628	60053.53
377.993	60196.92
378.359	60337.96
378.725	60493.11
379.091	60641.77
379.456	60767.46
379.822	60908.73
380.187	61056.1
380.553	61235.53
380.918	61430.56
381.284	61609.71
381.649	61777.13
382.015	61919.27
382.38	62039.83
382.745	62204.97
383.11	62359.96
383.476	62507.99
383.841	62635.8
384.206	62794.39
384.571	62901.29
384.936	63034.88
385.301	63216.6
385.666	63347.16
386.031	63502.31
386.396	63663.42
386.76	63814.2
387.125	64003.31
387.49	64200.78
387.855	64395.06
388.219	64567.38
388.584	64736.47
388.948	64915.22
389.313	65077.02
389.677	65280.1
390.042	65510.75
390.406	65671.18
390.771	65857.74
391.135	66042.11
391.499	66272.57
391.863	66497.25
392.227	66738.91
392.592	66942.77
392.956	67136.57
393.32	67336.06
393.684	67546.31
394.048	67727.88
394.412	67908.84
394.775	68053.53
395.139	68197.94
395.503	68358.05
395.867	68503.89
396.231	68649.36
396.594	68758.07
396.958	68900.27
397.321	69054.44
397.685	69170.97
398.048	69308.43
398.412	69449.97
398.775	69580.59
399.139	69701.38
399.502	69815.43
399.865	69966.63
400.228	70154.97
400.592	70289
400.955	70490.49
401.318	70627.35
401.681	70787.37
402.044	70929.13
402.407	71086.66
402.77	71257.41
403.133	71446.2
403.496	71590.78
403.859	71745.2
404.221	71983.6
404.584	72222.11
404.947	72467.4
405.309	72685.14
405.672	72918.47
406.034	73129.44
406.397	73380.46
406.759	73604.25
407.122	73789.4
407.484	73958.43
407.847	74144.21
408.209	74390.68
408.571	74614.15
408.933	74872.76
409.296	75122.37
409.658	75362.26
410.02	75636.58
410.382	75935.24
410.744	76190.99
411.106	76481.14
411.468	76755.05
411.83	76993.52
412.191	77189.72
412.553	77358.75
412.915	77562.73
413.277	77768.5
413.638	77966.63
414	78137.74
414.361	78312.6
414.723	78533.76
415.084	78741.38
415.446	78902.01
415.807	79034.16
416.169	79139.24
416.53	79224.03
416.891	79320.56
417.252	79435.72
417.614	79507.03
417.975	79543.57
418.336	79587.19
418.697	79633.67
419.058	79673.82
419.419	79703.26
419.78	79736.79
420.141	79764.48
420.501	79787.1
420.862	79804.71
421.223	79819.62
421.584	79848.83
421.944	79864.66
422.305	79874.8
422.666	79881.25
423.026	79884.94
423.387	79893.82
423.747	79900.68
424.107	79909.86
424.468	79919.3
424.828	79925.35
425.188	79930.85
425.549	79938.86
425.909	79943.55
426.269	79940.31
426.629	79945.88
426.989	79950.13
427.349	79954.12
427.709	79956.48
428.069	79958.58
428.429	79963.05
428.789	79967.37
429.149	79972.65
429.508	79975.35
429.868	79979.08
430.228	79983.89
430.587	79987.54
430.947	79993.31
431.306	79997.89
431.666	80000.21
432.025	80003.21
432.385	80004.72
432.744	80004.94
433.103	80004.06
433.463	80006.98
433.822	80016.03
434.181	80017.69
434.54	80019.76
434.899	80020.28
435.258	80023.6
435.618	80025.49
435.976	80027.63
436.335	80028.48
436.694	80029.11
437.053	80030.29
437.412	80031.11
437.771	80032
438.129	80033.88
438.488	80033.36
438.847	80035.62
439.205	80037.17
439.564	80037.91
439.922	80040.24
440.281	80042.35
440.639	80045.27
440.997	80046.34
441.356	80045.97
441.714	80047.49
442.072	80045.9
442.431	80048.38
442.789	80048.12
443.147	80048.75
443.505	80048.93
443.863	80050.56
444.221	80052.59
444.579	80052.89
444.937	80053.85
445.294	80052.85
445.652	80054.3
446.01	80054.33
446.368	80054.48
446.725	80053.78
447.083	80053.67
447.441	80054.11
447.798	80055.22
448.156	80055.55
448.513	80052.78
448.87	80053.37
449.228	80053.19
449.585	80054.59
449.942	80053.19
450.3	80055.15
450.657	80053.74
451.014	80054.55
451.371	80054.85
451.728	80053.7
452.085	80055.11
452.442	80053.96
452.799	80054.7
453.156	80053.96
453.513	80054.96
453.869	80055.74
454.226	80056
454.583	80057.48
454.939	80058.44
455.296	80058.22
455.653	80056.11
456.009	80058.55
456.366	80059.84
456.722	80060.88
457.078	80061.99
457.435	80064.17
457.791	80064.02
458.147	80065.28
458.503	80065.06
458.86	80064.84
459.216	80065.76
459.572	80067.58
459.928	80068.54
460.284	80069.98
460.64	80068.61
460.996	80068.69
461.351	80068.02
461.707	80069.91
462.063	80071.87
462.419	80071.76
462.774	80071.87
463.13	80073.75
463.486	80072.83
463.841	80073.42
464.197	80073.46
464.552	80072.24
464.908	80071.72
465.263	80072.68
465.618	80074.53
465.974	80075.72
466.329	80077.16
466.684	80078.2
467.039	80078.23
467.394	80079.08
467.749	80079.97
468.104	80081.45
468.459	80083.23
468.814	80086.71
469.169	80086.6
469.524	80083.41
469.879	80084.12
470.233	80083.49
470.588	80083.93
470.943	80086.67
471.297	80086.15
471.652	80086.34
472.006	80088.11
472.361	80089.15
472.715	80090.48
473.07	80090.89
473.424	80091.37
473.778	80090.93
474.133	80090.15
474.487	80090.67
474.841	80091.81
475.195	80093.22
475.549	80094.11
475.903	80093.18
476.257	80092.33
476.611	80091.44
476.965	80093.85
477.319	80094.22
477.673	80095.22
478.026	80095.44
478.38	80094.18
478.734	80094.52
479.087	80095.89
479.441	80096.66
479.795	80097.48
480.148	80096.44
480.502	80095.96
480.855	80096.81
481.208	80096.26
481.562	80097.96
481.915	80096.18
482.268	80094.59
482.621	80093.15
482.974	80093.18
483.328	80093.11
483.681	80093.48
484.034	80093.89
484.387	80094.03
484.739	80093.74
485.092	80094
485.445	80093.59
485.798	80094.66
486.151	80094.15
486.503	80093.48
486.856	80093
487.209	80092.74
487.561	80092.55
487.914	80092.96
488.266	80092.66
488.618	80094.26
488.971	80092.96
489.323	80095
489.675	80096.81
490.028	80097.85
490.38	80098.11
490.732	80099.92
491.084	80098.85
491.436	80100.73
491.788	80100.59
492.14	80101.84
492.492	80102.07
492.844	80104.88
493.196	80104.62
493.548	80105.55
493.899	80105.07
494.251	80107.4
494.603	80106.58
494.954	80104.99
495.306	80103.47
495.657	80102.59
496.009	80102.55
496.36	80103.44
496.712	80102.85
497.063	80102.36
497.414	80101.48
497.765	80102.48
498.117	80102.48
498.468	80102.48
498.819	80100.51
499.17	80101.77
499.521	80101.07
499.872	80102.74
500.223	80102.7
500.574	80101.29
500.924	80102.07
501.275	80104.92
501.626	80104.22
501.977	80104.07
502.327	80106.25
502.678	80107.95
503.029	80108.32
503.379	80107.36
503.73	80107.58
504.08	80107.32
504.43	80107.92
504.781	80107.77
505.131	80106.51
505.481	80106.33
505.831	80106.95
506.182	80108.66
506.532	80107.47
506.882	80107.32
507.232	80106.18
507.582	80103.59
507.932	80106.36
508.281	80107.51
508.631	80106.4
508.981	80105.36
509.331	80106.73
509.681	80106.84
510.03	80106.03
510.38	80107.99
510.729	80108.88
511.079	80108.99
511.428	80109.66
511.778	80109.99
512.127	80110.8
512.476	80110.8
512.826	80109.21
513.175	80109.03
513.524	80110.18
513.873	80110.32
514.222	80108.88
514.571	80108.47
514.92	80109.77
515.269	80107.84
515.618	80105.29
515.967	80105.21
516.316	80106.1
516.665	80106.81
517.014	80106.51
517.362	80108.18
517.711	80106.25
518.059	80104.03
518.408	80105.25
518.757	80104.1
519.105	80104.59
519.453	80105.66
519.802	80107.03
520.15	80108.14
520.498	80106.66
520.847	80104.77
521.195	80106.14
521.543	80108.33
521.891	80108.7
522.239	80109.14
522.587	80111.92
522.935	80114.32
523.283	80114.47
523.631	80114.73
523.979	80111.55
524.326	80112.07
524.674	80111.03
525.022	80111.44
525.369	80113.32
525.717	80113.32
526.064	80115.32
526.412	80113.73
526.759	80111.99
527.107	80112.14
527.454	80112.14
527.801	80112.92
528.149	80113.92
528.496	80112.66
528.843	80113.88
529.19	80113.62
529.537	80112.99
529.884	80110.81
530.231	80108.81
530.578	80109.58
530.925	80107.95
531.272	80111.06
531.619	80109.92
531.966	80109.47
532.312	80110.25
532.659	80110.66
533.006	80110.84
533.352	80109.88
533.699	80110.66
534.045	80110.58
534.392	80107.51
534.738	80108.1
535.084	80110.14
535.431	80109.69
535.777	80109.95
536.123	80107.95
536.469	80108.77
536.815	80109.36
537.161	80109.62
537.507	80109.47
537.853	80107.88
538.199	80106.1
538.545	80103.48
538.891	80104.73
539.237	80105.84
539.582	80105.4
539.928	80104.47
540.274	80104.1
540.619	80104.96
540.965	80103.22
541.31	80103.51
541.656	80106.29
542.001	80105.44
542.347	80104.14
542.692	80104.47
543.037	80105.18
543.382	80105.81
543.728	80104.96
544.073	80105.47
544.418	80105.44
544.763	80106.88
545.108	80108.14
545.453	80110.17
545.798	80110.58
546.142	80109.8
546.487	80110.51
546.832	80111.1
547.177	80112.77
547.521	80111.1
547.866	80110.21
548.211	80110.17
548.555	80109.66
548.9	80107.66
549.244	80107.14
549.588	80108.1
549.933	80108.51
550.277	80107.92
550.621	80106.44
550.965	80106.58
551.31	80105.03
551.654	80105.29
551.998	80104.77
552.342	80102.7
552.686	80103.44
553.03	80103.73
553.373	80102.7
553.717	80101.92
554.061	80100.44
554.405	80100.03
554.748	80099.96
555.092	80099.51
555.436	80101.66
555.779	80103.22
556.123	80104.36
556.466	80104.07
556.81	80102.33
557.153	80102.1
557.496	80101.99
557.839	80103.18
558.183	80103.84
558.526	80104.84
558.869	80105.88
559.212	80105.55
559.555	80105.84
559.898	80106.07
560.241	80107.66
560.584	80108.18
560.927	80108.25
561.269	80109.1
561.612	80108.73
561.955	80108.84
562.297	80109.32
562.64	80109.32
562.983	80108.47
563.325	80108.1
563.668	80109.25
564.01	80110.21
564.352	80108.92
564.695	80109.1
565.037	80108.47
565.379	80108.43
565.721	80108.14
566.063	80106.66
566.406	80106.95
566.748	80107.88
567.09	80106.43
567.431	80104.81
567.773	80105.47
568.115	80104.44
568.457	80104.44
568.799	80103.03
569.14	80101.77
569.482	80100.99
569.824	80100.1
570.165	80099.36
570.507	80100.77
570.848	80101.55
571.19	80100.1
571.531	80100.59
571.872	80098.77
572.214	80099.59
572.555	80097.85
572.896	80098.37
573.237	80097.37
573.578	80094.89
573.919	80094.11
574.26	80094.44
574.601	80094.92
574.942	80094.18
575.283	80093.55
575.624	80092.85
575.964	80093.29
576.305	80094.11
576.646	80093.07
576.986	80092.15
577.327	80093.04
577.667	80091.92
578.008	80090.63
578.348	80092.07
578.689	80091.44
579.029	80091.33
579.369	80089.48
579.71	80089.96
580.05	80087.89
580.39	80087.33
580.73	80087.74
581.07	80088.48
581.41	80088.67
581.75	80087.63
582.09	80087.11
582.43	80087.67
582.769	80088.33
583.109	80089.3
583.449	80088.85
583.789	80089.56
584.128	80090.41
584.468	80088.96
584.807	80088.59
585.147	80088.37
585.486	80085.78
585.825	80085.74
