Data from 24HourExp_27052025_FLMS018081_16-58-19-552.txt Node
Date: Tue May 27 16:58:19 BST 2025
User: adleo
Spectrometer: FLMS01808
Trigger mode: 0
Integration Time (sec): 4.000000E-1
Scans to average: 10
Electric dark correction enabled: true
Nonlinearity correction enabled: true
Boxcar width: 10
XAxis mode: Wavelengths
Number of Pixels in Spectrum: 2048
>>>>>Begin Spectral Data<<<<<
178.471	-125.21
178.857	-117.53
179.244	-111.07
179.631	-104.15
180.017	-97.41
180.404	-89.66
180.79	-76.09
181.176	-67.09
181.563	-58.63
181.949	-48.68
182.335	-38.64
182.722	-22.25
183.108	-2.71
183.494	24.72
183.88	77.28
184.266	130.65
184.653	187.42
185.039	241.31
185.425	295.58
185.811	349.85
186.197	403.61
186.582	454.89
186.968	506.08
187.354	556.2
187.74	608.79
188.126	659.93
188.511	711.38
188.897	756.2
189.283	802.33
189.668	848.39
190.054	893.53
190.439	939.11
190.825	983.17
191.21	1023.35
191.596	1055.62
191.981	1064.42
192.366	1068.78
192.752	1069.96
193.137	1073.66
193.522	1073.29
193.908	1074.34
194.293	1077.47
194.678	1079.61
195.063	1082.39
195.448	1085.86
195.833	1087.44
196.218	1087.58
196.603	1086.86
196.988	1087.09
197.373	1087.98
197.757	1088.94
198.142	1089.53
198.527	1087.22
198.912	1086.44
199.296	1086.31
199.681	1085.73
200.066	1084.04
200.45	1085.61
200.835	1086.29
201.219	1085.64
201.604	1086.91
201.988	1088.52
202.372	1088.84
202.757	1090.39
203.141	1092.5
203.525	1091.89
203.91	1091.12
204.294	1092.46
204.678	1092.97
205.062	1091.99
205.446	1092.01
205.83	1092.6
206.214	1092.62
206.598	1095.05
206.982	1095.42
207.366	1094.99
207.75	1095.87
208.134	1097.02
208.517	1095.57
208.901	1096.29
209.285	1098.74
209.669	1098.71
210.052	1097.81
210.436	1097.76
210.819	1096.23
211.203	1093.59
211.586	1094.2
211.97	1094.81
212.353	1095.15
212.737	1096.48
213.12	1100.12
213.503	1103.11
213.886	1103.39
214.27	1105.25
214.653	1105.47
215.036	1107.41
215.419	1108.98
215.802	1111.68
216.185	1113.54
216.568	1116.27
216.951	1118.47
217.334	1120.74
217.717	1124.78
218.1	1128.29
218.482	1132.41
218.865	1136.11
219.248	1140.89
219.631	1145.8
220.013	1150.05
220.396	1156.33
220.778	1159.8
221.161	1165.56
221.544	1171.23
221.926	1179.89
222.308	1187.74
222.691	1194.67
223.073	1202.81
223.455	1210.83
223.838	1217.86
224.22	1227.07
224.602	1238.98
224.984	1250.38
225.366	1261.35
225.749	1275.07
226.131	1286.52
226.513	1298.64
226.895	1312.92
227.276	1327.04
227.658	1342.55
228.04	1359.21
228.422	1374.62
228.804	1391.98
229.186	1406.76
229.567	1424.07
229.949	1439.54
230.331	1455.95
230.712	1474.83
231.094	1492.17
231.475	1512.75
231.857	1534.4
232.238	1553.2
232.62	1572.43
233.001	1592.7
233.382	1613.55
233.763	1632.97
234.145	1655.02
234.526	1676.09
234.907	1695.78
235.288	1715.28
235.669	1735.88
236.05	1755.85
236.431	1775.23
236.812	1795.82
237.193	1816.21
237.574	1836.62
237.955	1858.88
238.336	1879.76
238.717	1901.88
239.097	1925.91
239.478	1948.33
239.859	1969.64
240.239	1994.31
240.62	2016.71
241.001	2039.83
241.381	2063.69
241.762	2087.01
242.142	2108.68
242.522	2133.39
242.903	2158.2
243.283	2184.66
243.663	2209.75
244.044	2235.57
244.424	2267.22
244.804	2294.66
245.184	2324.83
245.564	2354.27
245.944	2385.69
246.324	2415.69
246.704	2445.72
247.084	2473.05
247.464	2502.72
247.844	2535.79
248.224	2567.07
248.604	2600.69
248.983	2632.92
249.363	2664.44
249.743	2696.34
250.122	2729.37
250.502	2758.77
250.882	2792.48
251.261	2824.54
251.641	2856.06
252.02	2889.21
252.399	2921.86
252.779	2958.94
253.158	2994.14
253.537	3033.13
253.917	3075.32
254.296	3113.13
254.675	3154.83
255.054	3196.06
255.433	3240.47
255.812	3279.79
256.191	3322.14
256.57	3363.2
256.949	3405.57
257.328	3451.72
257.707	3496.56
258.086	3544.04
258.465	3592.82
258.843	3644.61
259.222	3697.56
259.601	3753.37
259.979	3810.87
260.358	3863.8
260.736	3919.73
261.115	3977.88
261.493	4031.07
261.872	4082.47
262.25	4143.66
262.629	4200.06
263.007	4259.88
263.385	4320.15
263.763	4383.46
264.142	4446.75
264.52	4513.04
264.898	4578.78
265.276	4644.38
265.654	4713.61
266.032	4783.8
266.41	4856.8
266.788	4928.89
267.166	5003.96
267.544	5077.74
267.921	5150.29
268.299	5230.11
268.677	5307.93
269.055	5387.52
269.432	5473.23
269.81	5559.46
270.188	5644.28
270.565	5734.35
270.943	5825.74
271.32	5913.63
271.697	6008.61
272.075	6101.21
272.452	6195.85
272.829	6294.25
273.207	6395.39
273.584	6500.61
273.961	6606.98
274.338	6716.15
274.715	6827.25
275.092	6943.53
275.469	7064.79
275.846	7187.59
276.223	7306.23
276.6	7430.35
276.977	7553.83
277.354	7678.25
277.731	7803.46
278.108	7933.43
278.484	8062.54
278.861	8193.5
279.238	8335.93
279.614	8470.75
279.991	8612.38
280.367	8755.43
280.744	8900.62
281.12	9048.9
281.497	9194.74
281.873	9344.05
282.249	9492.77
282.625	9642.07
283.002	9787.62
283.378	9933.6
283.754	10077.17
284.13	10232.02
284.506	10387.5
284.882	10547
285.258	10702.15
285.634	10858.04
286.01	11017.08
286.386	11176.68
286.762	11341.02
287.138	11498.31
287.513	11662.59
287.889	11826.09
288.265	11989.38
288.641	12152.86
289.016	12310.77
289.392	12473.78
289.767	12633.56
290.143	12794.97
290.518	12960.21
290.894	13123.93
291.269	13283.11
291.644	13447.39
292.02	13599.85
292.395	13753.29
292.77	13905.44
293.145	14059.13
293.52	14214.19
293.895	14364.2
294.27	14514.96
294.646	14667.34
295.02	14816.44
295.395	14963.39
295.77	15117.3
296.145	15271.38
296.52	15423.09
296.895	15579.75
297.269	15735.06
297.644	15890.56
298.019	16044.27
298.393	16191.39
298.768	16339.38
299.143	16488.51
299.517	16636.36
299.891	16790.2
300.266	16944.87
300.64	17100.47
301.015	17266.38
301.389	17439.96
301.763	17614.45
302.137	17787.34
302.512	17966.27
302.886	18142.7
303.26	18325.53
303.634	18505.09
304.008	18676.48
304.382	18858.5
304.756	19037.48
305.13	19218.36
305.504	19395.31
305.877	19583.1
306.251	19787.41
306.625	19993.1
306.999	20203.92
307.372	20422.94
307.746	20647.2
308.119	20861.93
308.493	21078.28
308.866	21286.67
309.24	21496.81
309.613	21703.28
309.987	21911.1
310.36	22104.64
310.733	22314.07
311.107	22531.24
311.48	22744.64
311.853	22976.15
312.226	23201.19
312.599	23433.3
312.972	23653.82
313.345	23888.52
313.718	24120.23
314.091	24335.27
314.464	24560.86
314.837	24787.91
315.21	24995.42
315.582	25206.64
315.955	25415.86
316.328	25634.35
316.7	25851.87
317.073	26068.71
317.446	26288.96
317.818	26516.9
318.191	26748.37
318.563	26973.02
318.936	27180.41
319.308	27386.02
319.68	27588.5
320.053	27785.78
320.425	27971.08
320.797	28159.44
321.169	28316.14
321.541	28457.35
321.913	28594.42
322.285	28711.18
322.657	28833.1
323.029	28981.07
323.401	29126.5
323.773	29298.74
324.145	29464.76
324.517	29650.15
324.889	29827.37
325.26	30027.68
325.632	30239.79
326.004	30475.82
326.375	30732.36
326.747	31006.43
327.118	31314.8
327.49	31603.39
327.861	31908.16
328.233	32215.69
328.604	32521.73
328.975	32841.52
329.346	33160
329.718	33467.73
330.089	33776.51
330.46	34072.97
330.831	34342.91
331.202	34601.38
331.573	34841.83
331.944	35074.72
332.315	35301.32
332.686	35522.44
333.057	35727.53
333.428	35909.33
333.799	36078.19
334.169	36227.62
334.54	36367.59
334.911	36480.75
335.281	36614.14
335.652	36739.33
336.022	36870.12
336.393	37016.31
336.763	37182.45
337.134	37364.4
337.504	37566.36
337.874	37772.23
338.245	37979.98
338.615	38201.12
338.985	38428.51
339.355	38654.36
339.726	38878.25
340.096	39101
340.466	39348.84
340.836	39585.27
341.206	39834.04
341.576	40080.59
341.945	40325.51
342.315	40562.77
342.685	40805.85
343.055	41047.85
343.425	41287.04
343.794	41517.1
344.164	41749.9
344.533	41981.11
344.903	42212.28
345.273	42443.37
345.642	42668.18
346.011	42893.1
346.381	43129.98
346.75	43357.66
347.12	43598.18
347.489	43845.9
347.858	44094.09
348.227	44308.7
348.596	44541.52
348.965	44778.22
349.334	45002.71
349.704	45236
350.072	45483.02
350.441	45706.61
350.81	45940.55
351.179	46174.56
351.548	46413.93
351.917	46634.83
352.285	46830.8
352.654	47034.52
353.023	47241.56
353.391	47434.9
353.76	47641.47
354.129	47823.11
354.497	48056.55
354.865	48273.47
355.234	48504.16
355.602	48721.31
355.971	48965.4
356.339	49167.89
356.707	49381.52
357.075	49605.57
357.443	49829.32
357.811	50035.63
358.18	50255.32
358.548	50471.24
358.916	50678.62
359.284	50896.31
359.651	51110.38
360.019	51328.25
360.387	51530.11
360.755	51730.07
361.123	51965.25
361.49	52194.79
361.858	52413.61
362.226	52609.4
362.593	52809.59
362.961	52982.96
363.328	53181.62
363.696	53347.39
364.063	53568.94
364.43	53772.04
364.798	53981.15
365.165	54165.07
365.532	54349.8
365.899	54537.53
366.267	54699.33
366.634	54843.73
367.001	55009.18
367.368	55150.46
367.735	55332.98
368.102	55509.65
368.469	55700.87
368.835	55872.12
369.202	56034.84
369.569	56222.33
369.936	56408.01
370.303	56592.06
370.669	56799.71
371.036	56960.49
371.402	57160.14
371.769	57338.89
372.135	57490.14
372.502	57616.67
372.868	57759.88
373.235	57902.92
373.601	58037.51
373.967	58211.07
374.333	58407.42
374.7	58591.2
375.066	58792.33
375.432	58978.55
375.798	59158.38
376.164	59326.21
376.53	59471.12
376.896	59640.88
377.262	59819.21
377.628	59952.29
377.993	60106.4
378.359	60248.7
378.725	60402.13
379.091	60559.25
379.456	60689.37
379.822	60818.9
380.187	60961.79
380.553	61149.6
380.918	61348.71
381.284	61528
381.649	61699.93
382.015	61833.82
382.38	61953.83
382.745	62122.78
383.11	62269.74
383.476	62412.74
383.841	62544.51
384.206	62707.6
384.571	62820.44
384.936	62949.57
385.301	63117.32
385.666	63242.19
386.031	63396.96
386.396	63560.23
386.76	63708.16
387.125	63895.29
387.49	64095.59
387.855	64289.24
388.219	64443.44
388.584	64608.06
388.948	64794.18
389.313	64959.5
389.677	65162.41
390.042	65386.31
390.406	65543.77
390.771	65734.85
391.135	65918.2
391.499	66142.58
391.863	66380.59
392.227	66629.53
392.592	66826.06
392.956	67020.57
393.32	67221.97
393.684	67437.07
394.048	67613.2
394.412	67785.94
394.775	67940.74
395.139	68093.17
395.503	68248.82
395.867	68405.85
396.231	68551.96
396.594	68661.4
396.958	68794.82
397.321	68950.52
397.685	69078.44
398.048	69214.83
398.412	69342.48
398.775	69473.95
399.139	69597.03
399.502	69702.98
399.865	69839.43
400.228	70032.26
400.592	70163.46
400.955	70362.52
401.318	70493.38
401.681	70654.12
402.044	70796.15
402.407	70953.65
402.77	71106.63
403.133	71301.35
403.496	71449.34
403.859	71604.75
404.221	71844.63
404.584	72082.71
404.947	72331.35
405.309	72539.18
405.672	72771.46
406.034	72995.38
406.397	73249.48
406.759	73480.12
407.122	73663.95
407.484	73838.42
407.847	74022.68
408.209	74274.28
408.571	74505.77
408.933	74770.96
409.296	75023.15
409.658	75265.91
410.02	75535.96
410.382	75846.17
410.744	76108.73
411.106	76397.44
411.468	76672.88
411.83	76907.06
412.191	77110.54
412.553	77283.91
412.915	77500.27
413.277	77710.22
413.638	77908.18
414	78075.74
414.361	78246.34
414.723	78467.91
415.084	78681.28
415.446	78849.1
415.807	78985.87
416.169	79087.07
416.53	79170.86
416.891	79275.51
417.252	79399.38
417.614	79474.71
417.975	79516.33
418.336	79560.67
418.697	79611.11
419.058	79653.75
419.419	79685.37
419.78	79720.09
420.141	79746.06
420.501	79767.39
420.862	79787.93
421.223	79805.85
421.584	79841
421.944	79861.54
422.305	79875.18
422.666	79881.92
423.026	79887.68
423.387	79899.61
423.747	79908.09
424.107	79918.56
424.468	79927.01
424.828	79933.8
425.188	79936.68
425.549	79943.51
425.909	79948.34
426.269	79945.54
426.629	79948.83
426.989	79952.63
427.349	79957.06
427.709	79961.86
428.069	79964.82
428.429	79968.36
428.789	79973.75
429.149	79978.04
429.508	79980.7
429.868	79983.1
430.228	79989.57
430.587	79993.89
430.947	79999.51
431.306	80006.01
431.666	80010.04
432.025	80013.81
432.385	80015.11
432.744	80017.99
433.103	80020.65
433.463	80024.57
433.822	80032.58
434.181	80036.72
434.54	80040.5
434.899	80041.68
435.258	80043.01
435.618	80044.67
435.976	80049.74
436.335	80051.37
436.694	80051.44
437.053	80052.03
437.412	80052.03
437.771	80053.47
438.129	80054.77
438.488	80054.81
438.847	80055.21
439.205	80054.66
439.564	80055.03
439.922	80055.69
440.281	80056.91
440.639	80058.13
440.997	80056.8
441.356	80057.65
441.714	80059.02
442.072	80057.1
442.431	80058.58
442.789	80060.32
443.147	80060.91
443.505	80059.61
443.863	80059.73
444.221	80060.1
444.579	80062.13
444.937	80063.79
445.294	80064.39
445.652	80064.87
446.01	80065.05
446.368	80065.46
446.725	80065.98
447.083	80065.24
447.441	80066.01
447.798	80067.46
448.156	80066.87
448.513	80066.68
448.87	80068.24
449.228	80067.05
449.585	80068.6
449.942	80069.71
450.3	80070.05
450.657	80070.57
451.014	80070.57
451.371	80070.82
451.728	80070.53
452.085	80070.01
452.442	80070.16
452.799	80070.68
453.156	80071.49
453.513	80071.64
453.869	80071.19
454.226	80071.08
454.583	80073.12
454.939	80073.23
455.296	80071.9
455.653	80072.6
456.009	80074.3
456.366	80071.93
456.722	80072.27
457.078	80074.04
457.435	80074.01
457.791	80074.08
458.147	80074.41
458.503	80075.97
458.86	80075.45
459.216	80076.11
459.572	80076.19
459.928	80075.97
460.284	80074.52
460.64	80073.78
460.996	80074.23
461.351	80072.9
461.707	80072.23
462.063	80071.16
462.419	80070.97
462.774	80071.97
463.13	80072.16
463.486	80073.56
463.841	80075.45
464.197	80076.26
464.552	80076.34
464.908	80076.04
465.263	80077.11
465.618	80077.89
465.974	80078.08
466.329	80079.59
466.684	80081
467.039	80081.93
467.394	80082.67
467.749	80084.22
468.104	80084.41
468.459	80084.7
468.814	80086.7
469.169	80088.36
469.524	80089.55
469.879	80089.96
470.233	80091.18
470.588	80092.55
470.943	80092.25
471.297	80093.1
471.652	80093.62
472.006	80092.92
472.361	80094.99
472.715	80094.88
473.07	80095.43
473.424	80095.91
473.778	80096.17
474.133	80096.91
474.487	80096.43
474.841	80098.88
475.195	80099.14
475.549	80101.06
475.903	80102.62
476.257	80103.5
476.611	80104.24
476.965	80104.98
477.319	80106.61
477.673	80104.72
478.026	80104.21
478.38	80104.47
478.734	80103.98
479.087	80104.35
479.441	80105.5
479.795	80105.02
480.148	80105.06
480.502	80105.69
480.855	80106.35
481.208	80106.76
481.562	80106.91
481.915	80108.06
482.268	80106.43
482.621	80106.32
482.974	80106.65
483.328	80106.24
483.681	80106.46
484.034	80106.5
484.387	80106.13
484.739	80105.91
485.092	80108.2
485.445	80109.2
485.798	80109.5
486.151	80110.5
486.503	80112.2
486.856	80112.72
487.209	80111.39
487.561	80110.94
487.914	80111.94
488.266	80111.57
488.618	80111.24
488.971	80110.28
489.323	80109.8
489.675	80110.43
490.028	80109.35
490.38	80108.21
490.732	80108.87
491.084	80108.98
491.436	80109.69
491.788	80110.43
492.14	80108.91
492.492	80108.09
492.844	80109.09
493.196	80107.95
493.548	80107.72
493.899	80106.35
494.251	80104.61
494.603	80106.32
494.954	80106.28
495.306	80105.84
495.657	80106.91
496.009	80107.8
496.36	80108.35
496.712	80108.39
497.063	80107.76
497.414	80110.06
497.765	80110.61
498.117	80110.76
498.468	80111.24
498.819	80111.61
499.17	80112.5
499.521	80115.31
499.872	80114.2
500.223	80113.8
500.574	80116.06
500.924	80116.72
501.275	80118.43
501.626	80119.31
501.977	80118.28
502.327	80119.39
502.678	80119.54
503.029	80120.46
503.379	80119.76
503.73	80120.31
504.08	80119.83
504.43	80119.17
504.781	80118.83
505.131	80120.13
505.481	80119.24
505.831	80117.65
506.182	80115.61
506.532	80114.24
506.882	80110.98
507.232	80110.95
507.582	80110.06
507.932	80110.02
508.281	80110.65
508.631	80108.8
508.981	80109.5
509.331	80110.8
509.681	80111.69
510.03	80112.06
510.38	80109.91
510.729	80111.06
511.079	80110.06
511.428	80110.17
511.778	80110.91
512.127	80110.28
512.476	80109.39
512.826	80109.61
513.175	80111.91
513.524	80112.43
513.873	80113.69
514.222	80115.28
514.571	80116.72
514.92	80117.91
515.269	80117.2
515.618	80116.05
515.967	80116.94
516.316	80117.61
516.665	80116.94
517.014	80115.83
517.362	80115.09
517.711	80115.13
518.059	80112.8
518.408	80112.02
518.757	80111.76
519.105	80112.32
519.453	80112.72
519.802	80112.57
520.15	80114.54
520.498	80114.83
520.847	80116.13
521.195	80115.46
521.543	80117.31
521.891	80117.13
522.239	80118.13
522.587	80118.57
522.935	80119.39
523.283	80117.76
523.631	80117.24
523.979	80117.13
524.326	80116.65
524.674	80116.35
525.022	80116.65
525.369	80117.43
525.717	80119.68
526.064	80121.65
526.412	80122.24
526.759	80123.13
527.107	80122.61
527.454	80121.83
527.801	80120.79
528.149	80121.05
528.496	80119.91
528.843	80117.57
529.19	80118.98
529.537	80118.24
529.884	80118.65
530.231	80118.8
530.578	80121.35
530.925	80122.13
531.272	80123.02
531.619	80123.94
531.966	80124.28
532.312	80124.05
532.659	80123.87
533.006	80122.98
533.352	80121.98
533.699	80123.5
534.045	80123.54
534.392	80124.54
534.738	80123.98
535.084	80125.28
535.431	80124.98
535.777	80126.72
536.123	80128.2
536.469	80125.94
536.815	80123.91
537.161	80123.42
537.507	80122.54
537.853	80120.46
538.199	80119.61
538.545	80118.5
538.891	80118.35
539.237	80117.98
539.582	80118.72
539.928	80118.65
540.274	80118.65
540.619	80118.46
540.965	80116.94
541.31	80116.87
541.656	80116.09
542.001	80115.72
542.347	80113.94
542.692	80113.43
543.037	80112.72
543.382	80112.28
543.728	80114.09
544.073	80114.94
544.418	80115.09
544.763	80114.09
545.108	80114.42
545.453	80112.61
545.798	80112.02
546.142	80111.5
546.487	80112.98
546.832	80111.91
547.177	80112.35
547.521	80111.61
547.866	80113.02
548.211	80111.8
548.555	80110.8
548.9	80111.02
549.244	80109.61
549.588	80108.47
549.933	80107.73
550.277	80108.65
550.621	80108.84
550.965	80106.91
551.31	80106.28
551.654	80105.76
551.998	80106.28
552.342	80106.06
552.686	80108.72
553.03	80109.65
553.373	80110.65
553.717	80108.91
554.061	80109.32
554.405	80111.13
554.748	80112.39
555.092	80111.65
555.436	80111.83
555.779	80112.76
556.123	80113.69
556.466	80114.5
556.81	80115.8
557.153	80115.94
557.496	80115.13
557.839	80115.68
558.183	80116.72
558.526	80116.5
558.869	80115.68
559.212	80116.46
559.555	80117.65
559.898	80118.13
560.241	80119.54
560.584	80119.5
560.927	80119.31
561.269	80118.68
561.612	80117.57
561.955	80116.91
562.297	80114.94
562.64	80115.13
562.983	80114.46
563.325	80112.65
563.668	80113.43
564.01	80112.43
564.352	80113.61
564.695	80112.61
565.037	80110.98
565.379	80111.28
565.721	80112.02
566.063	80112.17
566.406	80110.8
566.748	80110.54
567.09	80108.32
567.431	80106.65
567.773	80104.84
568.115	80104.72
568.457	80105.69
568.799	80105.06
569.14	80104.65
569.482	80104.24
569.824	80105.13
570.165	80104.21
570.507	80104.58
570.848	80104.13
571.19	80105.84
571.531	80105.8
571.872	80107.24
572.214	80108.95
572.555	80107.58
572.896	80106.32
573.237	80106.06
573.578	80106.8
573.919	80105.58
574.26	80105.32
574.601	80104.36
574.942	80104.21
575.283	80103.02
575.624	80100.77
575.964	80099.77
576.305	80098.66
576.646	80099.32
576.986	80098.4
577.327	80098.58
577.667	80097.77
578.008	80098.69
578.348	80098.17
578.689	80096.43
579.029	80094.55
579.369	80093.77
579.71	80094.36
580.05	80095.62
580.39	80094.84
580.73	80094.58
581.07	80095.06
581.41	80095.03
581.75	80094.29
582.09	80094.14
582.43	80094.47
582.769	80095.77
583.109	80096.69
583.449	80097.03
583.789	80097.84
584.128	80097.88
584.468	80096.4
584.807	80096.95
585.147	80094.58
585.486	80091.55
585.825	80092.7
