Data from 24HourExp_27052025_FLMS018081_20-08-19-015.txt Node
Date: Tue May 27 20:08:19 BST 2025
User: adleo
Spectrometer: FLMS01808
Trigger mode: 0
Integration Time (sec): 4.000000E-1
Scans to average: 10
Electric dark correction enabled: true
Nonlinearity correction enabled: true
Boxcar width: 10
XAxis mode: Wavelengths
Number of Pixels in Spectrum: 2048
>>>>>Begin Spectral Data<<<<<
178.471	-129.83
178.857	-122.15
179.244	-116.6
179.631	-108.33
180.017	-99.4
180.404	-88.94
180.79	-77.87
181.176	-70.17
181.563	-60.81
181.949	-50.16
182.335	-39.29
182.722	-24
183.108	-5.35
183.494	21.05
183.88	76.02
184.266	130.18
184.653	187.29
185.039	242.41
185.425	299.11
185.811	352.81
186.197	408.26
186.582	460.49
186.968	513.05
187.354	566.55
187.74	618.67
188.126	670.08
188.511	719.43
188.897	767.51
189.283	815.75
189.668	861.63
190.054	905.4
190.439	951.21
190.825	996.25
191.21	1037.46
191.596	1070.82
191.981	1077.16
192.366	1082.03
192.752	1083.29
193.137	1086.38
193.522	1087.27
193.908	1089.28
194.293	1091.88
194.678	1093.93
195.063	1096.99
195.448	1098.19
195.833	1098.44
196.218	1096.44
196.603	1095.69
196.988	1094.31
197.373	1095.94
197.757	1097.75
198.142	1099.38
198.527	1097.24
198.912	1096.22
199.296	1096.03
199.681	1093.7
200.066	1092.82
200.45	1091.35
200.835	1090.96
201.219	1091.31
201.604	1089.29
201.988	1090.13
202.372	1089.96
202.757	1089.87
203.141	1089.73
203.525	1091
203.91	1092.05
204.294	1093.66
204.678	1093.28
205.062	1094.64
205.446	1094.35
205.83	1095.94
206.214	1094.01
206.598	1095.15
206.982	1097.04
207.366	1096.83
207.75	1099.35
208.134	1101.11
208.517	1102.15
208.901	1103.74
209.285	1105.95
209.669	1108.01
210.052	1108.44
210.436	1109.1
210.819	1110.96
211.203	1109.91
211.586	1109.19
211.97	1109.81
212.353	1109.56
212.737	1111.55
213.12	1113.73
213.503	1116.07
213.886	1115.86
214.27	1118.94
214.653	1120.28
215.036	1120.47
215.419	1124.23
215.802	1127.2
216.185	1127.81
216.568	1130.12
216.951	1131.97
217.334	1132.21
217.717	1134.92
218.1	1136.4
218.482	1139.69
218.865	1143.71
219.248	1149.59
219.631	1155.58
220.013	1159.83
220.396	1166.29
220.778	1171.21
221.161	1175.34
221.544	1180.79
221.926	1187.45
222.308	1194.96
222.691	1202.78
223.073	1211.29
223.455	1218.56
223.838	1227.52
224.22	1239.12
224.602	1250.15
224.984	1260.71
225.366	1273.82
225.749	1289.4
226.131	1302.72
226.513	1315.87
226.895	1330.07
227.276	1343.26
227.658	1357.43
228.04	1373.89
228.422	1390.5
228.804	1406.41
229.186	1423.27
229.567	1440.7
229.949	1458.83
230.331	1476.39
230.712	1492.29
231.094	1509.65
231.475	1529.61
231.857	1548.11
232.238	1567.48
232.62	1588.62
233.001	1609.34
233.382	1631.62
233.763	1650.52
234.145	1673.38
234.526	1693.36
234.907	1712.02
235.288	1731.66
235.669	1752.78
236.05	1772.84
236.431	1793.41
236.812	1816.25
237.193	1838.36
237.574	1860.03
237.955	1881.48
238.336	1903.73
238.717	1927.23
239.097	1954.34
239.478	1976.27
239.859	1999.2
240.239	2024.22
240.62	2049.65
241.001	2072.56
241.381	2095.17
241.762	2118.91
242.142	2142.73
242.522	2169.05
242.903	2195.46
243.283	2224.25
243.663	2251.12
244.044	2279.52
244.424	2308.47
244.804	2337.66
245.184	2369.65
245.564	2398.13
245.944	2428.77
246.324	2461.15
246.704	2492.34
247.084	2520.58
247.464	2554.07
247.844	2588.22
248.224	2618.43
248.604	2649.86
248.983	2683.48
249.363	2719.13
249.743	2750.38
250.122	2783.13
250.502	2815.46
250.882	2850.13
251.261	2882.52
251.641	2917.14
252.02	2951.92
252.399	2988.51
252.779	3026.79
253.158	3064.18
253.537	3108.7
253.917	3153.89
254.296	3195.2
254.675	3236.83
255.054	3277.83
255.433	3322.99
255.812	3364.45
256.191	3409.08
256.57	3454.02
256.949	3500.32
257.328	3544.92
257.707	3594.06
258.086	3643.44
258.465	3694.68
258.843	3747.03
259.222	3799.84
259.601	3856.32
259.979	3911.56
260.358	3965.3
260.736	4019.9
261.115	4078.85
261.493	4132.43
261.872	4186.68
262.25	4243.55
262.629	4303.04
263.007	4367.86
263.385	4429.58
263.763	4495.04
264.142	4561.47
264.52	4624.7
264.898	4691.51
265.276	4758.9
265.654	4828.55
266.032	4899.21
266.41	4969.89
266.788	5042.81
267.166	5121.87
267.544	5196.9
267.921	5274.85
268.299	5359.31
268.677	5441.9
269.055	5524.93
269.432	5612.82
269.81	5697.07
270.188	5786.89
270.565	5878.68
270.943	5970.76
271.32	6060.29
271.697	6155.31
272.075	6250.48
272.452	6349.66
272.829	6450.19
273.207	6550.39
273.584	6657.25
273.961	6764.56
274.338	6878.72
274.715	6994.96
275.092	7114.44
275.469	7237.93
275.846	7363.71
276.223	7485.15
276.6	7610.05
276.977	7737.32
277.354	7862.63
277.731	7992.77
278.108	8125.78
278.484	8256.21
278.861	8388.54
279.238	8530.91
279.614	8670.46
279.991	8815.33
280.367	8963.41
280.744	9115.88
281.12	9268.55
281.497	9414.87
281.873	9569.67
282.249	9720.38
282.625	9869.21
283.002	10016.67
283.378	10165.11
283.754	10312.77
284.13	10466.11
284.506	10625.04
284.882	10779.9
285.258	10935.85
285.634	11094.93
286.01	11253.51
286.386	11417.61
286.762	11582.41
287.138	11748.04
287.513	11911.85
287.889	12079.32
288.265	12241.21
288.641	12397.62
289.016	12557.85
289.392	12724.55
289.767	12886.86
290.143	13053.42
290.518	13216.85
290.894	13379.03
291.269	13541.54
291.644	13701.37
292.02	13857.07
292.395	14008.54
292.77	14164.96
293.145	14322.02
293.52	14477.25
293.895	14629.98
294.27	14784.5
294.646	14940.45
295.02	15087.92
295.395	15241.85
295.77	15394.59
296.145	15554.35
296.52	15709.55
296.895	15864.26
297.269	16021.33
297.644	16174.27
298.019	16331.55
298.393	16485.23
298.768	16643.23
299.143	16793.03
299.517	16949.01
299.891	17110.57
300.266	17273.65
300.64	17431.66
301.015	17598.3
301.389	17770.08
301.763	17947.97
302.137	18119.87
302.512	18301.05
302.886	18482.19
303.26	18668.07
303.634	18848.86
304.008	19022.98
304.382	19212.1
304.756	19404.25
305.13	19595
305.504	19776.77
305.877	19966.09
306.251	20174.73
306.625	20376.64
306.999	20598.77
307.372	20811.09
307.746	21030.85
308.119	21245.97
308.493	21461.37
308.866	21672.6
309.24	21887.25
309.613	22094.2
309.987	22308.03
310.36	22506.59
310.733	22714.63
311.107	22932.19
311.48	23151.03
311.853	23381.24
312.226	23604.97
312.599	23831.39
312.972	24054
313.345	24290.23
313.718	24521.62
314.091	24744.51
314.464	24973.55
314.837	25196.85
315.21	25414.87
315.582	25631.7
315.955	25841.69
316.328	26066.39
316.7	26287.55
317.073	26512.05
317.446	26742.5
317.818	26977.49
318.191	27213.53
318.563	27442.3
318.936	27654.01
319.308	27865.39
319.68	28078.5
320.053	28282.14
320.425	28476.98
320.797	28661.57
321.169	28827.27
321.541	28977.48
321.913	29110.81
322.285	29232.53
322.657	29355.44
323.029	29508.09
323.401	29655.47
323.773	29833.75
324.145	30012.28
324.517	30206.73
324.889	30385.82
325.26	30589.06
325.632	30802.67
326.004	31037.07
326.375	31293.24
326.747	31574.9
327.118	31884.36
327.49	32171.47
327.861	32488.49
328.233	32796.89
328.604	33115.28
328.975	33431.91
329.346	33746.88
329.718	34061.47
330.089	34371.2
330.46	34669.32
330.831	34942.09
331.202	35201.99
331.573	35445.99
331.944	35670.72
332.315	35895.31
332.686	36123.15
333.057	36326.36
333.428	36510
333.799	36685.26
334.169	36845.73
334.54	36986.5
334.911	37095.92
335.281	37223.84
335.652	37347.76
336.022	37489.21
336.393	37629.59
336.763	37804.52
337.134	37991.62
337.504	38191.31
337.874	38402.67
338.245	38605.62
338.615	38834.42
338.985	39071.34
339.355	39292.49
339.726	39519.82
340.096	39740.09
340.466	39989.49
340.836	40228.61
341.206	40480.79
341.576	40731.64
341.945	40976.06
342.315	41204.85
342.685	41460.44
343.055	41712.54
343.425	41948.99
343.794	42175.3
344.164	42414.42
344.533	42649.1
344.903	42880.67
345.273	43119.84
345.642	43348.99
346.011	43583.99
346.381	43807.49
346.75	44035.53
347.12	44287.52
347.489	44545.66
347.858	44791.92
348.227	45002.55
348.596	45225.83
348.965	45462.13
349.334	45683.36
349.704	45923.34
350.072	46174.85
350.441	46405.24
350.81	46649.01
351.179	46881.08
351.548	47122.69
351.917	47344.96
352.285	47539.83
352.654	47748.25
353.023	47953.96
353.391	48153.79
353.76	48372.15
354.129	48566.31
354.497	48802.52
354.865	49022.81
355.234	49251.88
355.602	49475.19
355.971	49722.4
356.339	49947.53
356.707	50158.62
357.075	50380.53
357.443	50598.49
357.811	50809.98
358.18	51020.02
358.548	51243.8
358.916	51461.72
359.284	51679.64
359.651	51895.61
360.019	52113.32
360.387	52315.68
360.755	52520.3
361.123	52743.07
361.49	52969.46
361.858	53187.49
362.226	53389.13
362.593	53584.51
362.961	53765.34
363.328	53967.12
363.696	54137.27
364.063	54352.54
364.43	54557.04
364.798	54773.16
365.165	54956.95
365.532	55146.34
365.899	55340.3
366.267	55496.48
366.634	55640.11
367.001	55796.93
367.368	55943.99
367.735	56127.93
368.102	56304.34
368.469	56501.31
368.835	56682.66
369.202	56843.05
369.569	57030.69
369.936	57215.94
370.303	57408.07
370.669	57614.94
371.036	57784.69
371.402	57991.92
371.769	58177.27
372.135	58333.77
372.502	58463.76
372.868	58610.21
373.235	58755.59
373.601	58890.17
373.967	59065.85
374.333	59258.8
374.7	59452.14
375.066	59649.54
375.432	59834.13
375.798	60013.03
376.164	60172.91
376.53	60323.02
376.896	60498.12
377.262	60676.5
377.628	60806.76
377.993	60956.28
378.359	61097.89
378.725	61248.51
379.091	61402.22
379.456	61530.31
379.822	61663.63
380.187	61814.62
380.553	62001.68
380.918	62205.68
381.284	62390.99
381.649	62554.6
382.015	62694.27
382.38	62821.62
382.745	62996.28
383.11	63156.47
383.476	63296.82
383.841	63433.19
384.206	63593.86
384.571	63714.48
384.936	63857.04
385.301	64031.54
385.666	64168.11
386.031	64314.11
386.396	64491.11
386.76	64640.51
387.125	64841.65
387.49	65047.87
387.855	65245.76
388.219	65413.24
388.584	65578.84
388.948	65776.91
389.313	65949.74
389.677	66159.52
390.042	66392.72
390.406	66553.51
390.771	66739.21
391.135	66938.12
391.499	67177.25
391.863	67412.31
392.227	67652.51
392.592	67846.94
392.956	68046.4
393.32	68247.5
393.684	68475.68
394.048	68642.26
394.412	68826.51
394.775	68971.45
395.139	69115.39
395.503	69271.67
395.867	69438.83
396.231	69584.41
396.594	69676.84
396.958	69814.62
397.321	69975.82
397.685	70101.38
398.048	70234.16
398.412	70375.03
398.775	70502.47
399.139	70620.05
399.502	70726.57
399.865	70870.23
400.228	71067.45
400.592	71204.82
400.955	71406.75
401.318	71548.38
401.681	71721.52
402.044	71858.9
402.407	72017.67
402.77	72189.78
403.133	72381.13
403.496	72522.1
403.859	72674.16
404.221	72921.51
404.584	73166.2
404.947	73412.84
405.309	73629.69
405.672	73876.26
406.034	74101.12
406.397	74364.44
406.759	74598.46
407.122	74798.19
407.484	74977.65
407.847	75161.45
408.209	75404.86
408.571	75625.64
408.933	75874.24
409.296	76128.37
409.658	76385.29
410.02	76648.5
410.382	76928.73
410.744	77168.3
411.106	77437.48
411.468	77698.32
411.83	77904.62
412.191	78074.35
412.553	78211.66
412.915	78379.77
413.277	78544.39
413.638	78696.51
414	78827.63
414.361	78955.63
414.723	79127.64
415.084	79290.96
415.446	79411.61
415.807	79504.18
416.169	79568.95
416.53	79615.53
416.891	79666.17
417.252	79728.74
417.614	79762.96
417.975	79777.27
418.336	79795.77
418.697	79812.73
419.058	79825.87
419.419	79837.25
419.78	79850.29
420.141	79862.34
420.501	79873.22
420.862	79880.48
421.223	79886.93
421.584	79903.06
421.944	79911.43
422.305	79917.22
422.666	79919.95
423.026	79921.28
423.387	79927.14
423.747	79929.95
424.107	79934.41
424.468	79940.17
424.828	79942.65
425.188	79944.97
425.549	79950.25
425.909	79953.09
426.269	79951.77
426.629	79956.93
426.989	79960.04
427.349	79963.07
427.709	79964.36
428.069	79963.77
428.429	79967.31
428.789	79970.23
429.149	79971.86
429.508	79973.81
429.868	79974.92
430.228	79979.28
430.587	79982.68
430.947	79986.48
431.306	79989.14
431.666	79989.73
432.025	79989.77
432.385	79990.84
432.744	79993.98
433.103	79994.58
433.463	79996.83
433.822	80003.18
434.181	80003.59
434.54	80004.07
434.899	80006.69
435.258	80008.91
435.618	80010.28
435.976	80011.76
436.335	80012.5
436.694	80013.24
437.053	80015.45
437.412	80017.34
437.771	80016.93
438.129	80017.97
438.488	80018.74
438.847	80021.59
439.205	80021.59
439.564	80023.96
439.922	80025.07
440.281	80024.36
440.639	80024.7
440.997	80023.77
441.356	80023.85
441.714	80025.43
442.072	80027.69
442.431	80027.69
442.789	80028.02
443.147	80028.8
443.505	80029.69
443.863	80029.5
444.221	80029.87
444.579	80028.65
444.937	80029.32
445.294	80029.87
445.652	80029.09
446.01	80028.95
446.368	80028.28
446.725	80030.2
447.083	80029.46
447.441	80029.72
447.798	80029.91
448.156	80031.35
448.513	80032.72
448.87	80034.16
449.228	80033.68
449.585	80032.2
449.942	80031.83
450.3	80031.46
450.657	80032.94
451.014	80031.24
451.371	80031.83
451.728	80033.38
452.085	80032.46
452.442	80032.57
452.799	80032.38
453.156	80032.57
453.513	80032.94
453.869	80034.71
454.226	80035.05
454.583	80035.23
454.939	80036.19
455.296	80036.38
455.653	80036.12
456.009	80035.64
456.366	80035.27
456.722	80036.9
457.078	80038.67
457.435	80039.15
457.791	80039.41
458.147	80038.86
458.503	80040.48
458.86	80042.26
459.216	80042.48
459.572	80043.66
459.928	80042.52
460.284	80043.29
460.64	80044.81
460.996	80044.96
461.351	80043.74
461.707	80042.74
462.063	80042.74
462.419	80042.41
462.774	80042.63
463.13	80044.55
463.486	80043.66
463.841	80044.14
464.197	80043.29
464.552	80042.66
464.908	80042.92
465.263	80044.29
465.618	80044.33
465.974	80044.37
466.329	80042.55
466.684	80042.52
467.039	80043.22
467.394	80043.52
467.749	80044.44
468.104	80044.48
468.459	80046.29
468.814	80047.66
469.169	80049.66
469.524	80051.51
469.879	80051.65
470.233	80052.84
470.588	80052.65
470.943	80055.54
471.297	80055.13
471.652	80055.76
472.006	80056.17
472.361	80056.87
472.715	80056.5
473.07	80058.27
473.424	80058.42
473.778	80060.71
474.133	80063.16
474.487	80065.01
474.841	80066.86
475.195	80067.78
475.549	80067.19
475.903	80066.82
476.257	80066.86
476.611	80066.56
476.965	80066.6
477.319	80066.93
477.673	80066.37
478.026	80067.93
478.38	80067.6
478.734	80067.82
479.087	80067.93
479.441	80068.74
479.795	80070.33
480.148	80069.59
480.502	80069.41
480.855	80070.26
481.208	80070.45
481.562	80069.56
481.915	80069.71
482.268	80070.67
482.621	80072.15
482.974	80073.59
483.328	80073.07
483.681	80073.22
484.034	80074.18
484.387	80073.37
484.739	80075.18
485.092	80077.62
485.445	80075.74
485.798	80076.22
486.151	80077.18
486.503	80078.47
486.856	80080.07
487.209	80077.73
487.561	80080.14
487.914	80080.55
488.266	80079.77
488.618	80080.21
488.971	80081.21
489.323	80080.14
489.675	80079.66
490.028	80077.85
490.38	80076.66
490.732	80077.36
491.084	80077.73
491.436	80078.85
491.788	80079.03
492.14	80078.88
492.492	80076.4
492.844	80077.29
493.196	80077.85
493.548	80077.77
493.899	80076.66
494.251	80075.26
494.603	80075.26
494.954	80073.66
495.306	80073.59
495.657	80075.59
496.009	80076.03
496.36	80073.85
496.712	80073.85
497.063	80073.48
497.414	80072.85
497.765	80073.81
498.117	80073.03
498.468	80072.22
498.819	80071.07
499.17	80072.41
499.521	80072.92
499.872	80073.74
500.223	80073.55
500.574	80072.26
500.924	80072.22
501.275	80072.55
501.626	80072.55
501.977	80074.59
502.327	80074.74
502.678	80075.51
503.029	80075.22
503.379	80075.44
503.73	80077.47
504.08	80077.36
504.43	80077.22
504.781	80079.29
505.131	80079.21
505.481	80079.21
505.831	80078.66
506.182	80078.84
506.532	80077.62
506.882	80077.14
507.232	80076.85
507.582	80076.44
507.932	80076.7
508.281	80076.66
508.631	80075.81
508.981	80076.11
509.331	80075.48
509.681	80075.55
510.03	80074.85
510.38	80073.7
510.729	80073
511.079	80072.33
511.428	80071.52
511.778	80069.93
512.127	80068.22
512.476	80067.15
512.826	80067.56
513.175	80068.08
513.524	80067.45
513.873	80068
514.222	80067.6
514.571	80067.3
514.92	80067.48
515.269	80067.34
515.618	80066.23
515.967	80067
516.316	80068.41
516.665	80067.26
517.014	80066.89
517.362	80066.93
517.711	80068.37
518.059	80070
518.408	80070.11
518.757	80070.3
519.105	80072.41
519.453	80073.15
519.802	80075.07
520.15	80075.18
520.498	80077.7
520.847	80077.7
521.195	80076.96
521.543	80076.96
521.891	80078.77
522.239	80079.84
522.587	80081.69
522.935	80083.88
523.283	80084.54
523.631	80083.14
523.979	80083.95
524.326	80086.28
524.674	80086.39
525.022	80087.32
525.369	80085.54
525.717	80085.47
526.064	80087.32
526.412	80088.28
526.759	80088.02
527.107	80087.39
527.454	80087.8
527.801	80085.06
528.149	80086.17
528.496	80088.24
528.843	80088.36
529.19	80089.02
529.537	80088.76
529.884	80086.8
530.231	80085.1
530.578	80086.06
530.925	80086.39
531.272	80086.25
531.619	80082.51
531.966	80082.25
532.312	80079.47
532.659	80079.22
533.006	80078.88
533.352	80076.85
533.699	80073.7
534.045	80072.96
534.392	80071.89
534.738	80071.56
535.084	80072.85
535.431	80073.48
535.777	80071.96
536.123	80072
536.469	80069.6
536.815	80068.26
537.161	80069.41
537.507	80068.74
537.853	80065.78
538.199	80066.64
538.545	80066.34
538.891	80068.78
539.237	80069.78
539.582	80071.93
539.928	80072.63
540.274	80072.04
540.619	80073.81
540.965	80075.81
541.31	80076.48
541.656	80078.59
542.001	80078.22
542.347	80077.99
542.692	80076.18
543.037	80075.66
543.382	80075
543.728	80075.29
544.073	80075.51
544.418	80074.66
544.763	80074.52
545.108	80075.51
545.453	80074.03
545.798	80074.85
546.142	80074.11
546.487	80073.07
546.832	80072.41
547.177	80070.93
547.521	80071.78
547.866	80071.81
548.211	80071.37
548.555	80071.18
548.9	80070.07
549.244	80069.44
549.588	80067.82
549.933	80069.08
550.277	80069.22
550.621	80068.41
550.965	80067.97
551.31	80068.22
551.654	80068.96
551.998	80071.22
552.342	80071
552.686	80071.33
553.03	80070.19
553.373	80070.26
553.717	80069.7
554.061	80069.11
554.405	80069.85
554.748	80069.11
555.092	80068.41
555.436	80068.37
555.779	80068.96
556.123	80070.37
556.466	80072.18
556.81	80072.37
557.153	80070.48
557.496	80070.63
557.839	80071.63
558.183	80072.59
558.526	80073.26
558.869	80073.44
559.212	80072.41
559.555	80074.07
559.898	80074.11
560.241	80074.37
560.584	80074.81
560.927	80074.66
561.269	80075.7
561.612	80075.88
561.955	80075.29
562.297	80075.18
562.64	80075.37
562.983	80076.59
563.325	80075.33
563.668	80074.4
564.01	80075.44
564.352	80076.44
564.695	80076.03
565.037	80075.25
565.379	80074.74
565.721	80075
566.063	80074.63
566.406	80073.89
566.748	80072.41
567.09	80070.81
567.431	80070.81
567.773	80069.15
568.115	80068.82
568.457	80069.67
568.799	80070
569.14	80070.41
569.482	80070.63
569.824	80070.22
570.165	80066.23
570.507	80065.82
570.848	80064.67
571.19	80064.67
571.531	80064.93
571.872	80066.52
572.214	80067.71
572.555	80068.12
572.896	80066.82
573.237	80064.9
573.578	80064.19
573.919	80063.75
574.26	80064.6
574.601	80063.9
574.942	80065.01
575.283	80065.34
575.624	80063.34
575.964	80063.08
576.305	80062.2
576.646	80062.57
576.986	80062.68
577.327	80063.79
577.667	80063.45
578.008	80063.79
578.348	80063.42
578.689	80063.19
579.029	80060.23
579.369	80059.05
579.71	80058.9
580.05	80057.42
580.39	80057.35
580.73	80057.2
581.07	80058.01
581.41	80058.27
581.75	80057.65
582.09	80055.2
582.43	80052.25
582.769	80051.65
583.109	80050.73
583.449	80050.91
583.789	80048.95
584.128	80048.36
584.468	80049.77
584.807	80050.73
585.147	80050.4
585.486	80048.77
