Data from 24HourExp_27052025_FLMS018081_18-48-21-511.txt Node
Date: Tue May 27 18:48:21 BST 2025
User: adleo
Spectrometer: FLMS01808
Trigger mode: 0
Integration Time (sec): 4.000000E-1
Scans to average: 10
Electric dark correction enabled: true
Nonlinearity correction enabled: true
Boxcar width: 10
XAxis mode: Wavelengths
Number of Pixels in Spectrum: 2048
>>>>>Begin Spectral Data<<<<<
178.471	-138.28
178.857	-131.08
179.244	-122.39
179.631	-113.16
180.017	-105.14
180.404	-97.61
180.79	-86.29
181.176	-76.06
181.563	-66.09
181.949	-55.45
182.335	-45.06
182.722	-27.75
183.108	-6.27
183.494	20.86
183.88	74.38
184.266	127.51
184.653	182.87
185.039	237.91
185.425	293.01
185.811	348.25
186.197	401.33
186.582	453.96
186.968	507.55
187.354	559.62
187.74	610.08
188.126	661.51
188.511	712.96
188.897	761.54
189.283	808.74
189.668	854.02
190.054	898.06
190.439	944.47
190.825	989.61
191.21	1028.83
191.596	1062.62
191.981	1071.69
192.366	1076.29
192.752	1078.76
193.137	1082.89
193.522	1085.19
193.908	1085.36
194.293	1088.52
194.678	1090.38
195.063	1090.68
195.448	1091.61
195.833	1092.95
196.218	1090.42
196.603	1089.32
196.988	1088.95
197.373	1089.59
197.757	1089.87
198.142	1090.38
198.527	1087.74
198.912	1086.35
199.296	1088.44
199.681	1088.27
200.066	1085.09
200.45	1086
200.835	1087.06
201.219	1086.64
201.604	1086.77
201.988	1087.23
202.372	1088.86
202.757	1088.48
203.141	1089.71
203.525	1090.4
203.91	1089.75
204.294	1092.67
204.678	1093.51
205.062	1091.52
205.446	1091.18
205.83	1093.11
206.214	1094.26
206.598	1094.66
206.982	1096.67
207.366	1094.26
207.75	1095.82
208.134	1100.18
208.517	1101.38
208.901	1100.12
209.285	1101.16
209.669	1101.44
210.052	1102.9
210.436	1101.45
210.819	1103.42
211.203	1104.02
211.586	1104.85
211.97	1106.51
212.353	1106.58
212.737	1107.74
213.12	1111
213.503	1112.61
213.886	1112.86
214.27	1114.24
214.653	1115.12
215.036	1115.73
215.419	1119.03
215.802	1121.66
216.185	1122.85
216.568	1124.12
216.951	1126.32
217.334	1127.93
217.717	1131.23
218.1	1132.76
218.482	1136.8
218.865	1140.19
219.248	1143.11
219.631	1147.67
220.013	1152.54
220.396	1160.43
220.778	1166.6
221.161	1171.93
221.544	1178.06
221.926	1186.59
222.308	1193.98
222.691	1201.48
223.073	1209.15
223.455	1215.94
223.838	1222.49
224.22	1231.75
224.602	1242.18
224.984	1254.15
225.366	1266.39
225.749	1278.37
226.131	1292.29
226.513	1304.02
226.895	1319.03
227.276	1332.88
227.658	1346.48
228.04	1361.92
228.422	1376.47
228.804	1392.1
229.186	1409.6
229.567	1426.31
229.949	1442.16
230.331	1458.82
230.712	1477.32
231.094	1497.36
231.475	1518.87
231.857	1540.1
232.238	1559.63
232.62	1579.67
233.001	1601.11
233.382	1623.75
233.763	1644
234.145	1665.21
234.526	1686.76
234.907	1706.67
235.288	1727.51
235.669	1749.49
236.05	1767.91
236.431	1787.84
236.812	1810.03
237.193	1830.68
237.574	1854.42
237.955	1876.73
238.336	1899.03
238.717	1921.61
239.097	1944.57
239.478	1966.96
239.859	1989.13
240.239	2013.45
240.62	2038.24
241.001	2060.05
241.381	2081.44
241.762	2106.09
242.142	2131.22
242.522	2155.8
242.903	2181.06
243.283	2208.58
243.663	2236.59
244.044	2268.71
244.424	2298.53
244.804	2325.82
245.184	2355.29
245.564	2383.2
245.944	2415.09
246.324	2448.25
246.704	2480.97
247.084	2511.02
247.464	2545.54
247.844	2579.28
248.224	2611.22
248.604	2643.89
248.983	2677.09
249.363	2710.06
249.743	2741.42
250.122	2772.69
250.502	2805.4
250.882	2838.66
251.261	2872.49
251.641	2906.15
252.02	2937.93
252.399	2974.22
252.779	3014.1
253.158	3053.46
253.537	3093.47
253.917	3136.63
254.296	3174.43
254.675	3216.06
255.054	3258.41
255.433	3300.33
255.812	3339.81
256.191	3382.65
256.57	3426.11
256.949	3471.96
257.328	3520.35
257.707	3568.46
258.086	3616.37
258.465	3667.32
258.843	3720.22
259.222	3774.35
259.601	3828.43
259.979	3883.08
260.358	3937.3
260.736	3991.22
261.115	4045.55
261.493	4102.08
261.872	4152.78
262.25	4215.05
262.629	4274.61
263.007	4334.66
263.385	4394.28
263.763	4459.5
264.142	4523.69
264.52	4588.7
264.898	4656.03
265.276	4720.28
265.654	4792.81
266.032	4867.26
266.41	4938.63
266.788	5011.18
267.166	5087.69
267.544	5164.36
267.921	5243.65
268.299	5323.28
268.677	5405.48
269.055	5490.51
269.432	5574.85
269.81	5664.76
270.188	5751.61
270.565	5841.26
270.943	5933.99
271.32	6024.86
271.697	6122.15
272.075	6221.77
272.452	6318.72
272.829	6416.47
273.207	6520.07
273.584	6623.58
273.961	6726.98
274.338	6839.13
274.715	6959.07
275.092	7078.45
275.469	7198.8
275.846	7322.39
276.223	7446.11
276.6	7569.25
276.977	7696.76
277.354	7824.29
277.731	7954.4
278.108	8085.94
278.484	8215.73
278.861	8349.91
279.238	8495.27
279.614	8631.78
279.991	8772.95
280.367	8921.16
280.744	9075.29
281.12	9226.94
281.497	9375.59
281.873	9530.35
282.249	9681.58
282.625	9822.31
283.002	9968.99
283.378	10118.14
283.754	10269.35
284.13	10425.17
284.506	10585.34
284.882	10743.86
285.258	10908.6
285.634	11062.34
286.01	11223.23
286.386	11383.03
286.762	11549.83
287.138	11710.16
287.513	11880.51
287.889	12043.28
288.265	12205.93
288.641	12362.51
289.016	12522.95
289.392	12688.44
289.767	12852.5
290.143	13023.01
290.518	13188.72
290.894	13352.23
291.269	13512.8
291.644	13676.11
292.02	13830.33
292.395	13985.76
292.77	14142.12
293.145	14288.56
293.52	14449.37
293.895	14596.75
294.27	14756.04
294.646	14905.15
295.02	15053.7
295.395	15202.06
295.77	15361.02
296.145	15518.35
296.52	15674.25
296.895	15827.28
297.269	15983.5
297.644	16137.72
298.019	16286.38
298.393	16443.01
298.768	16597.52
299.143	16754.48
299.517	16907.35
299.891	17066.24
300.266	17223.97
300.64	17382.18
301.015	17549.94
301.389	17724.45
301.763	17905.12
302.137	18079.15
302.512	18263.66
302.886	18444.28
303.26	18630.87
303.634	18808.43
304.008	18986.65
304.382	19163.78
304.756	19354.26
305.13	19537.99
305.504	19720.61
305.877	19914.81
306.251	20119.57
306.625	20324.97
306.999	20535.66
307.372	20744.61
307.746	20967.42
308.119	21178.7
308.493	21391.07
308.866	21602.42
309.24	21810.99
309.613	22019.54
309.987	22224.77
310.36	22420.09
310.733	22633.68
311.107	22849.99
311.48	23072.38
311.853	23304.09
312.226	23539.76
312.599	23768.79
312.972	23998.55
313.345	24234.27
313.718	24464.42
314.091	24688.5
314.464	24919.99
314.837	25144.88
315.21	25359.44
315.582	25574.58
315.955	25791.49
316.328	26015.86
316.7	26236.85
317.073	26462.17
317.446	26687.65
317.818	26920.88
318.191	27158.66
318.563	27382.18
318.936	27592.82
319.308	27798.24
319.68	27996.58
320.053	28198.24
320.425	28385.77
320.797	28566.68
321.169	28725.4
321.541	28867.5
321.913	28994.83
322.285	29115.41
322.657	29241.85
323.029	29399.67
323.401	29540.1
323.773	29708.63
324.145	29876.09
324.517	30073.44
324.889	30251.14
325.26	30448.56
325.632	30672.63
326.004	30912.4
326.375	31170.06
326.747	31447.14
327.118	31757.89
327.49	32062.6
327.861	32377.78
328.233	32694.51
328.604	33014.62
328.975	33337.17
329.346	33661.68
329.718	33979.13
330.089	34282.59
330.46	34580.25
330.831	34850.33
331.202	35117.66
331.573	35373.12
331.944	35608.29
332.315	35827.69
332.686	36044.87
333.057	36251.55
333.428	36428.76
333.799	36590.92
334.169	36747.85
334.54	36894.5
334.911	37004.57
335.281	37127.79
335.652	37248.94
336.022	37381.27
336.393	37528.84
336.763	37700.36
337.134	37884
337.504	38089.19
337.874	38297.93
338.245	38508.4
338.615	38730.46
338.985	38964.9
339.355	39181.47
339.726	39407.69
340.096	39630.21
340.466	39883.45
340.836	40130.17
341.206	40377.5
341.576	40633.76
341.945	40880.33
342.315	41108.51
342.685	41359.42
343.055	41611.86
343.425	41849.75
343.794	42089.08
344.164	42317.96
344.533	42551.76
344.903	42779.55
345.273	43011.54
345.642	43245.33
346.011	43471.98
346.381	43705.59
346.75	43931.32
347.12	44180.1
347.489	44432.75
347.858	44685.2
348.227	44899.89
348.596	45115.59
348.965	45354.59
349.334	45587.16
349.704	45831.23
350.072	46084.94
350.441	46321.95
350.81	46563.56
351.179	46803.73
351.548	47033.31
351.917	47261.08
352.285	47456.43
352.654	47666.04
353.023	47876.76
353.391	48072.02
353.76	48293.67
354.129	48479.47
354.497	48706.02
354.865	48927.55
355.234	49160.86
355.602	49377.46
355.971	49625.81
356.339	49847.69
356.707	50060.42
357.075	50274.42
357.443	50491.18
357.811	50694.99
358.18	50905.34
358.548	51112.44
358.916	51317.32
359.284	51533.57
359.651	51749.59
360.019	51965.19
360.387	52166.79
360.755	52367.24
361.123	52601.17
361.49	52818.67
361.858	53036.49
362.226	53239.71
362.593	53444.48
362.961	53625.77
363.328	53829.05
363.696	54003.71
364.063	54223.11
364.43	54428.09
364.798	54643.36
365.165	54828.91
365.532	55021.64
365.899	55207.51
366.267	55370.57
366.634	55519.29
367.001	55689.25
367.368	55823.17
367.735	56008.91
368.102	56188.97
368.469	56378.94
368.835	56558.39
369.202	56725.95
369.569	56926.48
369.936	57120.3
370.303	57306.78
370.669	57505.68
371.036	57670.42
371.402	57875.37
371.769	58055.09
372.135	58214.41
372.502	58337.86
372.868	58477.11
373.235	58617.86
373.601	58754.53
373.967	58928.12
374.333	59119.17
374.7	59303.15
375.066	59514.67
375.432	59711.21
375.798	59892.08
376.164	60062.81
376.53	60206.13
376.896	60374.83
377.262	60545.08
377.628	60675.15
377.993	60820.12
378.359	60968.71
378.725	61132.88
379.091	61279.05
379.456	61417.41
379.822	61549.26
380.187	61708.85
380.553	61901.75
380.918	62107.86
381.284	62291.17
381.649	62465.52
382.015	62611.29
382.38	62736.36
382.745	62906.21
383.11	63047.97
383.476	63194.82
383.841	63332.75
384.206	63493.49
384.571	63618.99
384.936	63755.89
385.301	63934.46
385.666	64069.15
386.031	64225.83
386.396	64390.25
386.76	64543.16
387.125	64741.43
387.49	64942.78
387.855	65137.3
388.219	65306.48
388.584	65478.86
388.948	65673.77
389.313	65843.22
389.677	66049.69
390.042	66289.38
390.406	66439.24
390.771	66639.28
391.135	66821.68
391.499	67048.87
391.863	67285.95
392.227	67524.44
392.592	67726.13
392.956	67923.21
393.32	68128.38
393.684	68344.92
394.048	68519.1
394.412	68703.72
394.775	68843.29
395.139	68996.59
395.503	69153.02
395.867	69313.55
396.231	69457.65
396.594	69563.74
396.958	69700.58
397.321	69861
397.685	69986.49
398.048	70137.97
398.412	70263.07
398.775	70396.45
399.139	70529.79
399.502	70641.65
399.865	70791.19
400.228	70985.43
400.592	71118.43
400.955	71317.74
401.318	71457.31
401.681	71615.66
402.044	71753.49
402.407	71917.84
402.77	72081.1
403.133	72274.65
403.496	72410.64
403.859	72566.3
404.221	72800.96
404.584	73042.31
404.947	73287.09
405.309	73495.75
405.672	73736.99
406.034	73969.83
406.397	74233.7
406.759	74458.37
407.122	74648.55
407.484	74820.53
407.847	75003.42
408.209	75248.25
408.571	75471.7
408.933	75723.21
409.296	75983.86
409.658	76238.47
410.02	76501.78
410.382	76788.15
410.744	77027.89
411.106	77305.07
411.468	77562.98
411.83	77779.68
412.191	77956.99
412.553	78100.84
412.915	78276.46
413.277	78443.86
413.638	78599.76
414	78734.93
414.361	78868.71
414.723	79049.25
415.084	79219.67
415.446	79346.89
415.807	79447.58
416.169	79512.89
416.53	79564.29
416.891	79619.77
417.252	79690.99
417.614	79729.12
417.975	79746.52
418.336	79766.22
418.697	79785.08
419.058	79801.31
419.419	79814.3
419.78	79831.38
420.141	79842.65
420.501	79855.14
420.862	79863.03
421.223	79870.37
421.584	79888.73
421.944	79897.17
422.305	79900.9
422.666	79905.66
423.026	79908.09
423.387	79914.92
423.747	79922.48
424.107	79928.16
424.468	79934.32
424.828	79935.39
425.188	79938.64
425.549	79942.29
425.909	79947.09
426.269	79946.83
426.629	79949.2
426.989	79952.45
427.349	79953.37
427.709	79955.84
428.069	79957.14
428.429	79958.83
428.789	79962.9
429.149	79966.04
429.508	79968.7
429.868	79972.5
430.228	79976.86
430.587	79980.04
430.947	79982.29
431.306	79985.17
431.666	79987.98
432.025	79990.72
432.385	79993.45
432.744	79996.48
433.103	79998.77
433.463	79999.51
433.822	80005.97
434.181	80009.56
434.54	80012.55
434.899	80015.44
435.258	80017.21
435.618	80018.21
435.976	80021.35
436.335	80022.42
436.694	80022.6
437.053	80023.86
437.412	80024.53
437.771	80025.67
438.129	80024.68
438.488	80023.49
438.847	80024.9
439.205	80024.53
439.564	80024.97
439.922	80024.86
440.281	80025.16
440.639	80025.97
440.997	80026.04
441.356	80025.16
441.714	80025.19
442.072	80025.01
442.431	80027.71
442.789	80028.34
443.147	80028.3
443.505	80027.41
443.863	80027.38
444.221	80028.3
444.579	80028.97
444.937	80029.45
445.294	80028
445.652	80028.74
446.01	80031.59
446.368	80031.44
446.725	80031.26
447.083	80031.81
447.441	80033.37
447.798	80033.55
448.156	80032.59
448.513	80033.03
448.87	80032.48
449.228	80031.66
449.585	80030.74
449.942	80029.15
450.3	80029.11
450.657	80029.56
451.014	80030.22
451.371	80029.22
451.728	80029.45
452.085	80029.67
452.442	80029.52
452.799	80031.52
453.156	80032.85
453.513	80032.63
453.869	80032.03
454.226	80033.4
454.583	80033.96
454.939	80032.85
455.296	80033.07
455.653	80034.55
456.009	80035.18
456.366	80037.84
456.722	80039.54
457.078	80039.39
457.435	80040.46
457.791	80041.8
458.147	80042.57
458.503	80042.83
458.86	80043.76
459.216	80044.27
459.572	80044.27
459.928	80043.39
460.284	80041.43
460.64	80040.24
460.996	80040.46
461.351	80041.06
461.707	80041.5
462.063	80041.83
462.419	80042.24
462.774	80042.46
463.13	80041.91
463.486	80042.09
463.841	80041.83
464.197	80041.46
464.552	80042.94
464.908	80041.8
465.263	80040.13
465.618	80039.54
465.974	80040.69
466.329	80041.28
466.684	80043.24
467.039	80043.57
467.394	80046.72
467.749	80049.19
468.104	80051.75
468.459	80052.86
468.814	80053
469.169	80053.26
469.524	80053.85
469.879	80054.04
470.233	80054.74
470.588	80056.89
470.943	80057.26
471.297	80056.44
471.652	80055.89
472.006	80056.52
472.361	80059.14
472.715	80061.07
473.07	80062.14
473.424	80063.84
473.778	80064.58
474.133	80062.77
474.487	80063.4
474.841	80061.55
475.195	80060.4
475.549	80058.92
475.903	80059.07
476.257	80060.14
476.611	80059.22
476.965	80059.74
477.319	80061.14
477.673	80060.59
478.026	80059.03
478.38	80058.96
478.734	80061.29
479.087	80062.29
479.441	80061.73
479.795	80060.22
480.148	80060.77
480.502	80062.73
480.855	80063.18
481.208	80064.1
481.562	80064.99
481.915	80066.32
482.268	80068.43
482.621	80069.24
482.974	80069.54
483.328	80069.06
483.681	80070.54
484.034	80073.2
484.387	80073.46
484.739	80074.57
485.092	80075.57
485.445	80076.83
485.798	80079.2
486.151	80079.2
486.503	80081.27
486.856	80081.97
487.209	80082.53
487.561	80081.71
487.914	80080.45
488.266	80079.86
488.618	80078.86
488.971	80078.27
489.323	80076.68
489.675	80076.24
490.028	80075.05
490.38	80075.35
490.732	80076.24
491.084	80077.27
491.436	80075.57
491.788	80073.5
492.14	80073.8
492.492	80075.2
492.844	80076.27
493.196	80076.39
493.548	80076.53
493.899	80076.5
494.251	80076.87
494.603	80076.9
494.954	80076.64
495.306	80077.38
495.657	80077.13
496.009	80076.13
496.36	80078.38
496.712	80079.94
497.063	80080.35
497.414	80081.12
497.765	80081.94
498.117	80080.64
498.468	80077.98
498.819	80078.79
499.17	80080.12
499.521	80078.86
499.872	80077.53
500.223	80079.01
500.574	80077.2
500.924	80077.61
501.275	80076.87
501.626	80078.2
501.977	80078.16
502.327	80078.64
502.678	80078.49
503.029	80078.35
503.379	80080.34
503.73	80078.86
504.08	80077.79
504.43	80079.38
504.781	80080.71
505.131	80081.31
505.481	80082.56
505.831	80083.9
506.182	80084.82
506.532	80084.97
506.882	80085.3
507.232	80085.45
507.582	80083.67
507.932	80084.27
508.281	80080.9
508.631	80080.79
508.981	80078.94
509.331	80079.05
509.681	80080.08
510.03	80079.23
510.38	80078.86
510.729	80078.75
511.079	80079.38
511.428	80080.71
511.778	80078.01
512.127	80076.57
512.476	80076.35
512.826	80076.24
513.175	80073.91
513.524	80072.5
513.873	80072.09
514.222	80073.2
514.571	80074.2
514.92	80073.79
515.269	80072.31
515.618	80074.87
515.967	80074.24
516.316	80075.39
516.665	80076.35
517.014	80075.53
517.362	80074.83
517.711	80076.42
518.059	80075.94
518.408	80074.87
518.757	80073.91
519.105	80074.35
519.453	80076.13
519.802	80075.83
520.15	80075.09
520.498	80077.31
520.847	80077.46
521.195	80078.86
521.543	80080.12
521.891	80079.72
522.239	80079.53
522.587	80081.9
522.935	80083.6
523.283	80082.57
523.631	80083.53
523.979	80084.01
524.326	80084.05
524.674	80086.67
525.022	80084.45
525.369	80084.12
525.717	80085.71
526.064	80086.01
526.412	80085.75
526.759	80084.82
527.107	80085.38
527.454	80085.75
527.801	80084.93
528.149	80084.71
528.496	80083.75
528.843	80083.38
529.19	80083.31
529.537	80083.19
529.884	80082.64
530.231	80080.79
530.578	80082.3
530.925	80081.75
531.272	80080.12
531.619	80080.6
531.966	80079.23
532.312	80080.82
532.659	80082.27
533.006	80081.38
533.352	80080.42
533.699	80081.53
534.045	80082.27
534.392	80080.93
534.738	80081.34
535.084	80081.68
535.431	80083.56
535.777	80083.6
536.123	80082.56
536.469	80081.53
536.815	80080.12
537.161	80080.9
537.507	80080.49
537.853	80080.71
538.199	80078.42
538.545	80079.23
538.891	80079.75
539.237	80081.16
539.582	80080.27
539.928	80079.64
540.274	80079.71
540.619	80081.23
540.965	80079.71
541.31	80078.35
541.656	80079.16
542.001	80078.64
542.347	80078.68
542.692	80077.24
543.037	80076.01
543.382	80074.09
543.728	80074.64
544.073	80075.2
544.418	80075.09
544.763	80076.01
545.108	80075.9
545.453	80077.09
545.798	80076.61
546.142	80076.05
546.487	80075.01
546.832	80075.09
547.177	80075.38
547.521	80074.24
547.866	80073.94
548.211	80073.61
548.555	80074.79
548.9	80073.42
549.244	80074.13
549.588	80073.35
549.933	80073.13
550.277	80074.57
550.621	80076.01
550.965	80074.57
551.31	80075.38
551.654	80073.68
551.998	80073.57
552.342	80075.64
552.686	80076.75
553.03	80076.2
553.373	80075.46
553.717	80074.5
554.061	80074.28
554.405	80074.46
554.748	80074.13
555.092	80074.53
555.436	80076.68
555.779	80076.5
556.123	80077.72
556.466	80077.61
556.81	80077.98
557.153	80078.83
557.496	80079.53
557.839	80079.68
558.183	80082.86
558.526	80083.34
558.869	80084.19
559.212	80084.16
559.555	80082.53
559.898	80081.05
560.241	80082.01
560.584	80081.93
560.927	80081.71
561.269	80083.49
561.612	80083.01
561.955	80083.49
562.297	80082.19
562.64	80080.38
562.983	80080.12
563.325	80080.2
563.668	80080.12
564.01	80079.27
564.352	80078.64
564.695	80076.86
565.037	80077.23
565.379	80074.64
565.721	80075.05
566.063	80075.13
566.406	80075.01
566.748	80074.39
567.09	80074.05
567.431	80073.2
567.773	80073.61
568.115	80074.42
568.457	80072.94
568.799	80072.57
569.14	80074.24
569.482	80074.94
569.824	80074.68
570.165	80074.83
570.507	80075.27
570.848	80075.68
571.19	80076.16
571.531	80074.46
571.872	80074.57
572.214	80073.09
572.555	80073.05
572.896	80071.31
573.237	80069.72
573.578	80067.95
573.919	80068.65
574.26	80070.35
574.601	80070.32
574.942	80070.39
575.283	80070.69
575.624	80069.32
575.964	80067.65
576.305	80066.21
576.646	80067.13
576.986	80068.13
577.327	80067.06
577.667	80067.02
578.008	80066.62
578.348	80066.62
578.689	80067.76
579.029	80068.65
579.369	80069.76
579.71	80069.43
580.05	80069.91
580.39	80072.43
580.73	80073.87
581.07	80071.39
581.41	80069.61
581.75	80069.72
582.09	80069.76
582.43	80069.35
582.769	80070.46
583.109	80070.24
583.449	80069.76
583.789	80067.95
584.128	80068.61
584.468	80069.87
584.807	80069.8
585.147	80068.39
585.486	80068.39
