Data from 24HourExp_27052025_FLMS018081_10-08-22-355.txt Node
Date: Tue May 27 10:08:22 BST 2025
User: adleo
Spectrometer: FLMS01808
Trigger mode: 0
Integration Time (sec): 4.000000E-1
Scans to average: 10
Electric dark correction enabled: true
Nonlinearity correction enabled: true
Boxcar width: 10
XAxis mode: Wavelengths
Number of Pixels in Spectrum: 2048
>>>>>Begin Spectral Data<<<<<
178.471	-124.35
178.857	-116.8
179.244	-111.36
179.631	-103.61
180.017	-95.94
180.404	-88.65
180.79	-78.44
181.176	-69.97
181.563	-60.08
181.949	-49.26
182.335	-39.7
182.722	-23.65
183.108	-6.25
183.494	19.39
183.88	72.68
184.266	126.39
184.653	183.59
185.039	237.32
185.425	290.88
185.811	344.38
186.197	395.21
186.582	446.53
186.968	498.9
187.354	551.38
187.74	602.77
188.126	653.96
188.511	705.09
188.897	752.01
189.283	799.6
189.668	844.84
190.054	887.48
190.439	934.4
190.825	978.93
191.21	1021.49
191.596	1055
191.981	1061.36
192.366	1066.43
192.752	1067.63
193.137	1071.77
193.522	1072.68
193.908	1075.27
194.293	1080.3
194.678	1080.26
195.063	1080.65
195.448	1081.46
195.833	1081.07
196.218	1080.35
196.603	1081.18
196.988	1081.93
197.373	1082.69
197.757	1083.19
198.142	1086.32
198.527	1082.93
198.912	1081.2
199.296	1080.91
199.681	1079.54
200.066	1080.26
200.45	1078.18
200.835	1078.19
201.219	1077.4
201.604	1077.87
201.988	1077.11
202.372	1077.88
202.757	1079.35
203.141	1080.63
203.525	1081.82
203.91	1082.73
204.294	1083.31
204.678	1081.2
205.062	1081.11
205.446	1081.82
205.83	1082.84
206.214	1081.07
206.598	1082.05
206.982	1081.87
207.366	1081.01
207.75	1083.76
208.134	1083.31
208.517	1085.32
208.901	1085.41
209.285	1086.7
209.669	1086.86
210.052	1087.59
210.436	1085.36
210.819	1087.08
211.203	1087.83
211.586	1088.36
211.97	1089.76
212.353	1091.12
212.737	1092.95
213.12	1095.93
213.503	1096.79
213.886	1097.69
214.27	1098.81
214.653	1101.41
215.036	1105.08
215.419	1107.66
215.802	1109.09
216.185	1113
216.568	1115.94
216.951	1119.83
217.334	1122.6
217.717	1126.82
218.1	1130.26
218.482	1135.88
218.865	1139.11
219.248	1142.64
219.631	1147.43
220.013	1151.06
220.396	1155.89
220.778	1160.94
221.161	1164.22
221.544	1169.78
221.926	1175.6
222.308	1184.68
222.691	1189.85
223.073	1197.06
223.455	1206.39
223.838	1215.03
224.22	1222.78
224.602	1232.79
224.984	1240.39
225.366	1251.88
225.749	1264.04
226.131	1275.82
226.513	1287.81
226.895	1301.31
227.276	1313.2
227.658	1327.18
228.04	1343
228.422	1358.22
228.804	1374.15
229.186	1391.73
229.567	1409.77
229.949	1427.3
230.331	1442.69
230.712	1460.94
231.094	1478.02
231.475	1497.75
231.857	1515.81
232.238	1533.75
232.62	1551.85
233.001	1572.92
233.382	1591.73
233.763	1611.74
234.145	1631.27
234.526	1649.91
234.907	1668.75
235.288	1688.97
235.669	1708.58
236.05	1729.3
236.431	1749.04
236.812	1768.43
237.193	1789.4
237.574	1809.02
237.955	1830.28
238.336	1851.76
238.717	1875.03
239.097	1898.92
239.478	1918.5
239.859	1941.53
240.239	1964.5
240.62	1988.21
241.001	2012.43
241.381	2036.63
241.762	2058.95
242.142	2082.51
242.522	2106.05
242.903	2132.35
243.283	2159.13
243.663	2184.86
244.044	2209.9
244.424	2237
244.804	2264.7
245.184	2292.1
245.564	2320.38
245.944	2350.14
246.324	2382.14
246.704	2410.56
247.084	2436.59
247.464	2464.49
247.844	2494.57
248.224	2527.03
248.604	2556.78
248.983	2586.31
249.363	2616.53
249.743	2646.94
250.122	2676.44
250.502	2707.45
250.882	2737.18
251.261	2767.84
251.641	2798.61
252.02	2830.96
252.399	2863.94
252.779	2899.32
253.158	2932.17
253.537	2968.03
253.917	3008.85
254.296	3044.51
254.675	3083.6
255.054	3124.37
255.433	3166.68
255.812	3205.38
256.191	3244.88
256.57	3287.36
256.949	3331.55
257.328	3375.34
257.707	3420.1
258.086	3467.14
258.465	3516.18
258.843	3566.03
259.222	3615.85
259.601	3668.5
259.979	3720.32
260.358	3773.31
260.736	3825.6
261.115	3882.75
261.493	3936.45
261.872	3985.44
262.25	4041.74
262.629	4095.62
263.007	4153.61
263.385	4212.16
263.763	4272.72
264.142	4335.64
264.52	4397.35
264.898	4459.34
265.276	4522.62
265.654	4586.86
266.032	4654.23
266.41	4722.43
266.788	4792.6
267.166	4865.53
267.544	4938.54
267.921	5015.72
268.299	5094.08
268.677	5172.11
269.055	5252.18
269.432	5338.15
269.81	5426.67
270.188	5513.99
270.565	5601.3
270.943	5691
271.32	5781.67
271.697	5877.15
272.075	5974.79
272.452	6071.98
272.829	6168.46
273.207	6268.5
273.584	6374.91
273.961	6480.67
274.338	6592.97
274.715	6707.13
275.092	6825.15
275.469	6944.58
275.846	7064.44
276.223	7183.76
276.6	7306.3
276.977	7432.4
277.354	7556.46
277.731	7679.44
278.108	7806.16
278.484	7937.13
278.861	8068.77
279.238	8208.2
279.614	8348.54
279.991	8486.74
280.367	8627.33
280.744	8778.6
281.12	8928.69
281.497	9076.11
281.873	9226.67
282.249	9374.72
282.625	9521.8
283.002	9668.63
283.378	9819.21
283.754	9969.18
284.13	10127.26
284.506	10286.5
284.882	10441.72
285.258	10597.07
285.634	10757.42
286.01	10924.73
286.386	11087.34
286.762	11255.41
287.138	11416.7
287.513	11575.55
287.889	11738.04
288.265	11898.67
288.641	12057.91
289.016	12221.5
289.392	12385.06
289.767	12547.99
290.143	12715
290.518	12881.37
290.894	13049.43
291.269	13208.21
291.644	13371.74
292.02	13525.11
292.395	13681.14
292.77	13839.8
293.145	13998.09
293.52	14153.76
293.895	14302.72
294.27	14462.04
294.646	14609.69
295.02	14758.49
295.395	14914.74
295.77	15073.69
296.145	15234.08
296.52	15391.1
296.895	15548.01
297.269	15703.37
297.644	15858.68
298.019	16012.55
298.393	16162.77
298.768	16314.81
299.143	16472.11
299.517	16623.13
299.891	16781.78
300.266	16942.92
300.64	17100.92
301.015	17265.91
301.389	17436.18
301.763	17608.58
302.137	17776.04
302.512	17961.79
302.886	18146.12
303.26	18327.03
303.634	18507.54
304.008	18684.94
304.382	18865.59
304.756	19048.26
305.13	19238.35
305.504	19422.07
305.877	19607.55
306.251	19817.36
306.625	20021.12
306.999	20233.67
307.372	20447.22
307.746	20664.68
308.119	20874.12
308.493	21085.28
308.866	21297.5
309.24	21510.38
309.613	21716.5
309.987	21928.14
310.36	22119.04
310.733	22325.21
311.107	22543.21
311.48	22761.51
311.853	22995.86
312.226	23221.04
312.599	23452.89
312.972	23676.47
313.345	23910.1
313.718	24141.68
314.091	24357.53
314.464	24589.08
314.837	24811.09
315.21	25023.27
315.582	25241.19
315.955	25456.7
316.328	25684.93
316.7	25901.66
317.073	26121.47
317.446	26345.15
317.818	26573.92
318.191	26806.37
318.563	27031.83
318.936	27241.9
319.308	27447.3
319.68	27648.41
320.053	27849.27
320.425	28036.93
320.797	28219.5
321.169	28383.31
321.541	28529.49
321.913	28666.79
322.285	28779.9
322.657	28901.86
323.029	29055.03
323.401	29197.53
323.773	29368.56
324.145	29531.24
324.517	29721.24
324.889	29898.26
325.26	30106.44
325.632	30323.43
326.004	30563.78
326.375	30819.69
326.747	31096.71
327.118	31394.11
327.49	31680.1
327.861	31989.05
328.233	32299.6
328.604	32612.55
328.975	32922.92
329.346	33234.33
329.718	33540.8
330.089	33851.46
330.46	34150.81
330.831	34418.95
331.202	34679.41
331.573	34922.7
331.944	35155.7
332.315	35379.95
332.686	35602.41
333.057	35802.46
333.428	35981.3
333.799	36152.88
334.169	36310.09
334.54	36448.05
334.911	36572.09
335.281	36701.31
335.652	36827.61
336.022	36955.35
336.393	37101.68
336.763	37275.41
337.134	37460.7
337.504	37657.81
337.874	37859.7
338.245	38063.88
338.615	38283.89
338.985	38511.96
339.355	38733.27
339.726	38965.07
340.096	39188.24
340.466	39443.31
340.836	39683.91
341.206	39933.8
341.576	40174.42
341.945	40415.93
342.315	40651.6
342.685	40891.17
343.055	41138.48
343.425	41375.59
343.794	41611.68
344.164	41836.37
344.533	42062.52
344.903	42299.21
345.273	42539.35
345.642	42762.23
346.011	42992.91
346.381	43225.95
346.75	43454.94
347.12	43698.21
347.489	43943.79
347.858	44184.59
348.227	44390.43
348.596	44614.47
348.965	44848.04
349.334	45082.27
349.704	45315.38
350.072	45557.01
350.441	45787.38
350.81	46036.16
351.179	46261.79
351.548	46502
351.917	46727.45
352.285	46921.57
352.654	47123
353.023	47323.84
353.391	47526.13
353.76	47736.13
354.129	47921.29
354.497	48160.48
354.865	48379.5
355.234	48608.73
355.602	48830.34
355.971	49078.16
356.339	49289.14
356.707	49502.21
357.075	49717.15
357.443	49950.99
357.811	50162.73
358.18	50375.29
358.548	50581.58
358.916	50795.74
359.284	51013.25
359.651	51228.06
360.019	51452.87
360.387	51661.38
360.755	51862.41
361.123	52091.94
361.49	52322.12
361.858	52542.99
362.226	52737.95
362.593	52944.36
362.961	53125.35
363.328	53329.93
363.696	53498.68
364.063	53716.15
364.43	53926.13
364.798	54142.74
365.165	54314.54
365.532	54505.39
365.899	54701.12
366.267	54867.51
366.634	55021.34
367.001	55178.71
367.368	55321.35
367.735	55500.6
368.102	55671.38
368.469	55864.61
368.835	56043.62
369.202	56205.85
369.569	56389.93
369.936	56569.36
370.303	56755.98
370.669	56953.27
371.036	57113.24
371.402	57312.81
371.769	57496.78
372.135	57647.01
372.502	57771.43
372.868	57918.91
373.235	58060.45
373.601	58193.69
373.967	58367.82
374.333	58555.14
374.7	58736.06
375.066	58943.27
375.432	59124.71
375.798	59311.84
376.164	59480.07
376.53	59628.04
376.896	59797.59
377.262	59976.94
377.628	60109.14
377.993	60253.88
378.359	60402.02
378.725	60556.16
379.091	60712.84
379.456	60839.86
379.822	60975.57
380.187	61124.29
380.553	61308.88
380.918	61502.08
381.284	61676.8
381.649	61842.5
382.015	61983.98
382.38	62108.07
382.745	62268.64
383.11	62423.78
383.476	62565.88
383.841	62694.45
384.206	62856.65
384.571	62969.21
384.936	63105.11
385.301	63283.13
385.666	63414.45
386.031	63563.38
386.396	63731.49
386.76	63882.28
387.125	64072.72
387.49	64274.19
387.855	64467.12
388.219	64636.89
388.584	64813.67
388.948	65004.41
389.313	65167.56
389.677	65366.56
390.042	65600.49
390.406	65762.59
390.771	65945.97
391.135	66134.03
391.499	66365.92
391.863	66587.69
392.227	66833.95
392.592	67032.51
392.956	67221.76
393.32	67420.61
393.684	67635.79
394.048	67804.14
394.412	67970.83
394.775	68119.39
395.139	68268.64
395.503	68420.5
395.867	68572.87
396.231	68710.87
396.594	68814.72
396.958	68961.05
397.321	69119.68
397.685	69249.99
398.048	69394.34
398.412	69533.72
398.775	69655.27
399.139	69781.23
399.502	69904.41
399.865	70039.7
400.228	70230.37
400.592	70367.24
400.955	70557.03
401.318	70685.41
401.681	70847.48
402.044	71001.54
402.407	71159.48
402.77	71312.63
403.133	71516.3
403.496	71656.83
403.859	71817.86
404.221	72062.45
404.584	72299.55
404.947	72550.13
405.309	72756.74
405.672	72994.75
406.034	73221
406.397	73479.91
406.759	73705.47
407.122	73882.85
407.484	74068.67
407.847	74258.51
408.209	74516.2
408.571	74754.06
408.933	75023.93
409.296	75285.18
409.658	75530.04
410.02	75805.09
410.382	76110.64
410.744	76361.71
411.106	76649.09
411.468	76918.92
411.83	77150.5
412.191	77344.7
412.553	77511.81
412.915	77712.99
413.277	77904.71
413.638	78091.59
414	78255.38
414.361	78425.04
414.723	78641.28
415.084	78840.28
415.446	78994.54
415.807	79115.5
416.169	79210.99
416.53	79286.9
416.891	79377.36
417.252	79483.1
417.614	79549.63
417.975	79583.91
418.336	79624.12
418.697	79667.66
419.058	79703.46
419.419	79730.96
419.78	79761
420.141	79781.81
420.501	79803.22
420.862	79819.37
421.223	79834.39
421.584	79861.39
421.944	79874.65
422.305	79884.71
422.666	79889.25
423.026	79892.49
423.387	79902.22
423.747	79909.04
424.107	79917.56
424.468	79925.6
424.828	79931.77
425.188	79935.57
425.549	79942.69
425.909	79946.98
426.269	79944.39
426.629	79949.27
426.989	79952.85
427.349	79955.69
427.709	79958.24
428.069	79960.49
428.429	79965.26
428.789	79970.02
429.149	79974.46
429.508	79978.63
429.868	79981.11
430.228	79985.87
430.587	79991.19
430.947	79993.78
431.306	79996.33
431.666	79999.65
432.025	80001.46
432.385	80002.13
432.744	80002.94
433.103	80004.05
433.463	80006.45
433.822	80014.39
434.181	80018.2
434.54	80020.75
434.899	80023.08
435.258	80026.29
435.618	80028.92
435.976	80030.92
436.335	80032.4
436.694	80034.02
437.053	80034.5
437.412	80035.02
437.771	80036.43
438.129	80035.58
438.488	80037.31
438.847	80039.27
439.205	80041.42
439.564	80042.45
439.922	80043.75
440.281	80045.48
440.639	80046.67
440.997	80046.85
441.356	80047.41
441.714	80045.82
442.072	80045.19
442.431	80046.15
442.789	80045.41
443.147	80045.41
443.505	80046.3
443.863	80044.63
444.221	80043.93
444.579	80043.75
444.937	80044.74
445.294	80044.74
445.652	80045.93
446.01	80045.63
446.368	80046.48
446.725	80045.85
447.083	80044.71
447.441	80045.19
447.798	80045.71
448.156	80046.19
448.513	80046.26
448.87	80047.22
449.228	80048.55
449.585	80048.37
449.942	80047.41
450.3	80049.22
450.657	80049.85
451.014	80050.18
451.371	80050.26
451.728	80049.85
452.085	80050.77
452.442	80051.33
452.799	80053.03
453.156	80053.73
453.513	80054.51
453.869	80055.21
454.226	80055.77
454.583	80058.69
454.939	80059.24
455.296	80058.65
455.653	80057.51
456.009	80057.28
456.366	80055.32
456.722	80055.55
457.078	80057.14
457.435	80055.92
457.791	80056.36
458.147	80053.88
458.503	80053.36
458.86	80055.03
459.216	80057.21
459.572	80058.47
459.928	80060.17
460.284	80059.25
460.64	80059.8
460.996	80061.35
461.351	80061.87
461.707	80061.47
462.063	80060.36
462.419	80061.17
462.774	80062.65
463.13	80064.54
463.486	80065.28
463.841	80067.16
464.197	80066.53
464.552	80067.68
464.908	80069.34
465.263	80068.83
465.618	80070.9
465.974	80070.9
466.329	80070.93
466.684	80070.38
467.039	80069.86
467.394	80068.53
467.749	80068.49
468.104	80068.49
468.459	80067.86
468.814	80067.72
469.169	80068.05
469.524	80068.57
469.879	80069.9
470.233	80069.6
470.588	80070.23
470.943	80070.42
471.297	80070.64
471.652	80072.97
472.006	80072.16
472.361	80073.67
472.715	80074.34
473.07	80073.93
473.424	80074.64
473.778	80075.63
474.133	80076.26
474.487	80076.97
474.841	80076.89
475.195	80078.11
475.549	80079.52
475.903	80080.04
476.257	80081.7
476.611	80082.85
476.965	80083.18
477.319	80082.26
477.673	80082.33
478.026	80082.52
478.38	80084.03
478.734	80085.18
479.087	80084.74
479.441	80086.22
479.795	80086.62
480.148	80087.33
480.502	80088.99
480.855	80090.51
481.208	80091.25
481.562	80091.51
481.915	80090.77
482.268	80092.18
482.621	80092.73
482.974	80093.84
483.328	80093.88
483.681	80092.99
484.034	80093.14
484.387	80093.84
484.739	80095.14
485.092	80095.36
485.445	80095.91
485.798	80096.66
486.151	80095.62
486.503	80095.51
486.856	80095.77
487.209	80095.88
487.561	80096.03
487.914	80095.32
488.266	80092.99
488.618	80091.95
488.971	80092.07
489.323	80092.95
489.675	80093.14
490.028	80093.44
490.38	80091.07
490.732	80093.14
491.084	80094.51
491.436	80095.21
491.788	80096.99
492.14	80095.88
492.492	80097.99
492.844	80098.73
493.196	80099.54
493.548	80100.99
493.899	80100.99
494.251	80100.69
494.603	80099.84
494.954	80099.65
495.306	80101.17
495.657	80103.54
496.009	80106.06
496.36	80106.58
496.712	80107.84
497.063	80107.58
497.414	80108.13
497.765	80109.65
498.117	80107.8
498.468	80107.54
498.819	80107.8
499.17	80107.17
499.521	80108.28
499.872	80106.69
500.223	80105.8
500.574	80105.58
500.924	80105.5
501.275	80107.35
501.626	80107.58
501.977	80109.13
502.327	80110.02
502.678	80110.94
503.029	80109.95
503.379	80108.87
503.73	80108.83
504.08	80108.5
504.43	80108.35
504.781	80107.21
505.131	80106.65
505.481	80106.02
505.831	80105.32
506.182	80105.91
506.532	80105.61
506.882	80104.84
507.232	80104.5
507.582	80103.54
507.932	80104.24
508.281	80105.21
508.631	80104.28
508.981	80103.76
509.331	80102.87
509.681	80102.73
510.03	80101.62
510.38	80102.62
510.729	80102.73
511.079	80103.36
511.428	80102.76
511.778	80103.58
512.127	80103.91
512.476	80104.95
512.826	80104.58
513.175	80106.91
513.524	80107.5
513.873	80106.5
514.222	80107.95
514.571	80109.72
514.92	80111.17
515.269	80108.65
515.618	80106.43
515.967	80106.24
516.316	80106.95
516.665	80108.47
517.014	80108.24
517.362	80108.87
517.711	80109.17
518.059	80109.5
518.408	80108.87
518.757	80108.39
519.105	80108.43
519.453	80109.65
519.802	80109.58
520.15	80110.02
520.498	80108.24
520.847	80106.91
521.195	80108.47
521.543	80108.21
521.891	80108.58
522.239	80107.69
522.587	80108.28
522.935	80110.39
523.283	80110.91
523.631	80110.32
523.979	80108.5
524.326	80109.06
524.674	80107.84
525.022	80107.76
525.369	80106.84
525.717	80107.02
526.064	80107.54
526.412	80107.28
526.759	80106.32
527.107	80105.06
527.454	80105.91
527.801	80106.32
528.149	80108.5
528.496	80107.76
528.843	80106.13
529.19	80103.21
529.537	80103.21
529.884	80103.28
530.231	80102.13
530.578	80099.88
530.925	80099.14
531.272	80099.8
531.619	80098.54
531.966	80100.36
532.312	80100.62
532.659	80100.73
533.006	80100.95
533.352	80101.84
533.699	80102.06
534.045	80101.91
534.392	80101.43
534.738	80101.06
535.084	80101.8
535.431	80099.32
535.777	80100.54
536.123	80100.51
536.469	80101.28
536.815	80100.25
537.161	80099.43
537.507	80100.4
537.853	80100.77
538.199	80100.8
538.545	80100.28
538.891	80100.54
539.237	80097.77
539.582	80095.66
539.928	80095.1
540.274	80095.14
540.619	80093.18
540.965	80094.1
541.31	80093.7
541.656	80095.18
542.001	80096.69
542.347	80094.18
542.692	80094.4
543.037	80092.92
543.382	80092.95
543.728	80093.44
544.073	80095.66
544.418	80094.88
544.763	80093.66
545.108	80095.18
545.453	80096.66
545.798	80096.54
546.142	80096.4
546.487	80098.88
546.832	80101.02
547.177	80101.06
547.521	80101.51
547.866	80101.95
548.211	80100.84
548.555	80100.32
548.9	80099.88
549.244	80097.69
549.588	80099.1
549.933	80099.58
550.277	80099.8
550.621	80100.36
550.965	80100.39
551.31	80098.95
551.654	80101.1
551.998	80100.36
552.342	80100.28
552.686	80099.58
553.03	80099.91
553.373	80101.1
553.717	80098.91
554.061	80098.14
554.405	80097.65
554.748	80095.4
555.092	80096.32
555.436	80096.84
555.779	80096.8
556.123	80098.28
556.466	80099.47
556.81	80100.69
557.153	80101.21
557.496	80101.25
557.839	80099.73
558.183	80099.69
558.526	80098.66
558.869	80098.77
559.212	80100.06
559.555	80099.36
559.898	80099.1
560.241	80098.62
560.584	80098.14
560.927	80100.21
561.269	80100.21
561.612	80101.91
561.955	80103.21
562.297	80102.32
562.64	80103.5
562.983	80105.1
563.325	80103.47
563.668	80104.17
564.01	80103.5
564.352	80100.54
564.695	80099.95
565.037	80102.21
565.379	80101.17
565.721	80101.95
566.063	80099.91
566.406	80099.03
566.748	80099.77
567.09	80099.43
567.431	80100.47
567.773	80099.21
568.115	80099.51
568.457	80099.1
568.799	80098.03
569.14	80097.4
569.482	80096.92
569.824	80094.47
570.165	80092.25
570.507	80092.25
570.848	80091.59
571.19	80090.51
571.531	80092.4
571.872	80092.62
572.214	80092.07
572.555	80091.51
572.896	80091.95
573.237	80091.55
573.578	80090.59
573.919	80089.18
574.26	80090.55
574.601	80089.73
574.942	80090.55
575.283	80088.25
575.624	80086.74
575.964	80085.14
576.305	80087.11
576.646	80087.88
576.986	80088.85
577.327	80088.51
577.667	80087.96
578.008	80087.7
578.348	80088.44
578.689	80088.18
579.029	80088.74
579.369	80089.33
579.71	80089.55
580.05	80090.66
580.39	80092.29
580.73	80093.62
581.07	80093.66
581.41	80092.18
581.75	80090.7
582.09	80089.29
582.43	80090.33
582.769	80091.62
583.109	80093.44
583.449	80091.84
583.789	80089.66
584.128	80088.03
584.468	80087.92
584.807	80087.48
585.147	80086.81
585.486	80084.85
585.825	80084.59
586.165	80083.26
