Data from 24HourExp_27052025_FLMS018081_14-38-19-935.txt Node
Date: Tue May 27 14:38:19 BST 2025
User: adleo
Spectrometer: FLMS01808
Trigger mode: 0
Integration Time (sec): 4.000000E-1
Scans to average: 10
Electric dark correction enabled: true
Nonlinearity correction enabled: true
Boxcar width: 10
XAxis mode: Wavelengths
Number of Pixels in Spectrum: 2048
>>>>>Begin Spectral Data<<<<<
178.471	-127.95
178.857	-121.27
179.244	-115.54
179.631	-109.19
180.017	-99.75
180.404	-91.72
180.79	-80.63
181.176	-70.76
181.563	-61.18
181.949	-50.15
182.335	-39.78
182.722	-24.26
183.108	-5.36
183.494	20.76
183.88	73.79
184.266	127.7
184.653	184.09
185.039	240.62
185.425	295.82
185.811	349.28
186.197	403.1
186.582	454.2
186.968	506.66
187.354	559
187.74	611.32
188.126	661.16
188.511	711.96
188.897	759.43
189.283	806.14
189.668	852.27
190.054	894.43
190.439	939.22
190.825	982.7
191.21	1023.81
191.596	1057.29
191.981	1065.07
192.366	1068.89
192.752	1070.78
193.137	1071.57
193.522	1072.83
193.908	1074.78
194.293	1077.23
194.678	1080
195.063	1082.19
195.448	1083.45
195.833	1083.88
196.218	1084.15
196.603	1082.2
196.988	1081.22
197.373	1081.12
197.757	1080.68
198.142	1083.37
198.527	1080.74
198.912	1081.15
199.296	1079.66
199.681	1078.14
200.066	1076.22
200.45	1075.72
200.835	1075.53
201.219	1076.34
201.604	1078
201.988	1078.92
202.372	1079.01
202.757	1078.55
203.141	1078.18
203.525	1080.04
203.91	1081.06
204.294	1081.59
204.678	1083.34
205.062	1083.84
205.446	1083.97
205.83	1086.54
206.214	1084.64
206.598	1086.24
206.982	1087.24
207.366	1087.66
207.75	1088.9
208.134	1090.2
208.517	1093.11
208.901	1093.55
209.285	1093.2
209.669	1092.61
210.052	1092.54
210.436	1092.3
210.819	1093.96
211.203	1096.21
211.586	1096.72
211.97	1097.43
212.353	1096.9
212.737	1097.53
213.12	1099.49
213.503	1101.52
213.886	1099.91
214.27	1102.59
214.653	1103.74
215.036	1105.21
215.419	1106.97
215.802	1109.43
216.185	1111.9
216.568	1114.31
216.951	1117.4
217.334	1120.89
217.717	1124.39
218.1	1125.99
218.482	1131.25
218.865	1132.89
219.248	1136.22
219.631	1139.38
220.013	1142.31
220.396	1149.7
220.778	1155.64
221.161	1159.32
221.544	1164.65
221.926	1173.01
222.308	1179.09
222.691	1186.87
223.073	1195.53
223.455	1203.47
223.838	1212.51
224.22	1222.31
224.602	1231.83
224.984	1241.43
225.366	1252.29
225.749	1266.15
226.131	1280.43
226.513	1291.72
226.895	1306.94
227.276	1319.61
227.658	1333.76
228.04	1348.2
228.422	1364.07
228.804	1381.07
229.186	1397.45
229.567	1415.59
229.949	1432.44
230.331	1451.11
230.712	1468.89
231.094	1483.79
231.475	1503.4
231.857	1521.9
232.238	1540.42
232.62	1557.6
233.001	1578.23
233.382	1597.42
233.763	1614.08
234.145	1633.75
234.526	1653.74
234.907	1672.18
235.288	1691.35
235.669	1710.66
236.05	1731.27
236.431	1748.98
236.812	1767.7
237.193	1788.54
237.574	1807.71
237.955	1828.74
238.336	1849.17
238.717	1869.59
239.097	1893.51
239.478	1915.3
239.859	1936.88
240.239	1960.37
240.62	1986.18
241.001	2008.02
241.381	2032.11
241.762	2055.12
242.142	2078.48
242.522	2103.09
242.903	2128.09
243.283	2155.53
243.663	2183.48
244.044	2213.72
244.424	2243.22
244.804	2270.05
245.184	2300.29
245.564	2328.83
245.944	2358.29
246.324	2388.5
246.704	2419.76
247.084	2448.57
247.464	2479
247.844	2510.53
248.224	2540.07
248.604	2570.71
248.983	2601
249.363	2632.49
249.743	2663.53
250.122	2691.37
250.502	2719.67
250.882	2750.85
251.261	2781.05
251.641	2810.32
252.02	2839.93
252.399	2871.2
252.779	2905.29
253.158	2939.53
253.537	2977.82
253.917	3018.96
254.296	3056.99
254.675	3093.79
255.054	3133.74
255.433	3174.94
255.812	3210.67
256.191	3251.2
256.57	3291.28
256.949	3333.22
257.328	3376.57
257.707	3420.24
258.086	3469.44
258.465	3519.37
258.843	3568.51
259.222	3618.09
259.601	3671.72
259.979	3723.37
260.358	3777.03
260.736	3831.07
261.115	3884.5
261.493	3936.61
261.872	3989.08
262.25	4044.67
262.629	4101.02
263.007	4157.22
263.385	4215.41
263.763	4278.19
264.142	4341.92
264.52	4404.79
264.898	4469.82
265.276	4532.37
265.654	4599.67
266.032	4666.62
266.41	4734.59
266.788	4805.24
267.166	4879.29
267.544	4952.41
267.921	5028.13
268.299	5105.86
268.677	5184.12
269.055	5267.44
269.432	5352.61
269.81	5435.67
270.188	5522.61
270.565	5609.89
270.943	5703.4
271.32	5788.63
271.697	5883.62
272.075	5976.93
272.452	6073.26
272.829	6170.08
273.207	6270.59
273.584	6374.03
273.961	6478.72
274.338	6588.38
274.715	6702.83
275.092	6818.87
275.469	6939.15
275.846	7056.52
276.223	7177.36
276.6	7299.89
276.977	7422.99
277.354	7546.24
277.731	7672.81
278.108	7798.41
278.484	7928
278.861	8056.48
279.238	8199.53
279.614	8337.16
279.991	8477.83
280.367	8621.85
280.744	8772.35
281.12	8923.51
281.497	9070.79
281.873	9223.98
282.249	9376.92
282.625	9523.11
283.002	9668.51
283.378	9815
283.754	9965.53
284.13	10117.74
284.506	10277.91
284.882	10432.8
285.258	10589.35
285.634	10747.62
286.01	10912.91
286.386	11073.87
286.762	11237.14
287.138	11398.28
287.513	11560.31
287.889	11724.84
288.265	11885.22
288.641	12043.93
289.016	12200.36
289.392	12367.17
289.767	12529.39
290.143	12690.22
290.518	12850.05
290.894	13014.93
291.269	13176.72
291.644	13336.86
292.02	13492.3
292.395	13640.48
292.77	13798.3
293.145	13950.19
293.52	14103.98
293.895	14249.59
294.27	14407.48
294.646	14560.78
295.02	14708.49
295.395	14861.42
295.77	15015.38
296.145	15169.88
296.52	15324.95
296.895	15477.16
297.269	15628.06
297.644	15781.41
298.019	15935
298.393	16088.81
298.768	16241.54
299.143	16394.03
299.517	16548.09
299.891	16703.91
300.266	16868.95
300.64	17027.84
301.015	17194.33
301.389	17363.61
301.763	17538.57
302.137	17707.62
302.512	17886.41
302.886	18061.9
303.26	18238.54
303.634	18414.14
304.008	18590.35
304.382	18770.29
304.756	18960.13
305.13	19143.88
305.504	19322.51
305.877	19512.8
306.251	19716.76
306.625	19919.84
306.999	20126.63
307.372	20339.78
307.746	20560.23
308.119	20770.09
308.493	20977.25
308.866	21183.21
309.24	21392.99
309.613	21599.63
309.987	21804.18
310.36	21995.01
310.733	22207.16
311.107	22425.48
311.48	22641.59
311.853	22869.18
312.226	23090.53
312.599	23313.97
312.972	23534.3
313.345	23761.7
313.718	23989.38
314.091	24209.67
314.464	24435.04
314.837	24660.23
315.21	24868.83
315.582	25079.52
315.955	25287.48
316.328	25505.59
316.7	25722.04
317.073	25942.73
317.446	26165
317.818	26396.33
318.191	26629.71
318.563	26853.28
318.936	27059.6
319.308	27265.63
319.68	27468.73
320.053	27671.45
320.425	27859.06
320.797	28048.75
321.169	28208.73
321.541	28351.35
321.913	28483.49
322.285	28603.16
322.657	28723.76
323.029	28873.01
323.401	29013.14
323.773	29175.42
324.145	29351.73
324.517	29542.29
324.889	29710.68
325.26	29913.2
325.632	30129.21
326.004	30366.7
326.375	30616.84
326.747	30892.92
327.118	31195.65
327.49	31481.17
327.861	31781.43
328.233	32084.33
328.604	32388.24
328.975	32704.1
329.346	33015.01
329.718	33320.5
330.089	33623.08
330.46	33918.63
330.831	34187.59
331.202	34449.52
331.573	34694.5
331.944	34918.39
332.315	35143.24
332.686	35369.12
333.057	35560.71
333.428	35730.95
333.799	35898.19
334.169	36053.32
334.54	36194.38
334.911	36306.65
335.281	36436.57
335.652	36564.43
336.022	36704.42
336.393	36852.82
336.763	37016.45
337.134	37197.77
337.504	37395.11
337.874	37595.99
338.245	37803.07
338.615	38019.42
338.985	38248.95
339.355	38472.78
339.726	38697.05
340.096	38916.72
340.466	39163.9
340.836	39411.73
341.206	39663.18
341.576	39904.93
341.945	40147.75
342.315	40375.95
342.685	40621.19
343.055	40870.26
343.425	41105.01
343.794	41335.79
344.164	41566.21
344.533	41799.71
344.903	42028.25
345.273	42265.98
345.642	42490.21
346.011	42718.31
346.381	42948.15
346.75	43173.77
347.12	43419.79
347.489	43668.43
347.858	43910.26
348.227	44121.34
348.596	44341.96
348.965	44570.94
349.334	44798.81
349.704	45032.38
350.072	45277.46
350.441	45511.62
350.81	45740.9
351.179	45967.51
351.548	46200.52
351.917	46423.94
352.285	46624.53
352.654	46834
353.023	47040.88
353.391	47242.27
353.76	47454.44
354.129	47648.51
354.497	47881.1
354.865	48099.61
355.234	48324.39
355.602	48541.68
355.971	48787.88
356.339	48998.06
356.707	49221.27
357.075	49443.42
357.443	49662.02
357.811	49879.64
358.18	50087.89
358.548	50302.68
358.916	50516.35
359.284	50728.5
359.651	50935.48
360.019	51148.45
360.387	51346.91
360.755	51545.53
361.123	51775.99
361.49	51996.37
361.858	52204.55
362.226	52397.89
362.593	52599.26
362.961	52785.63
363.328	52985.09
363.696	53152.68
364.063	53368.62
364.43	53569.28
364.798	53781.43
365.165	53963.03
365.532	54142.65
365.899	54331.65
366.267	54500.36
366.634	54651.42
367.001	54815.33
367.368	54955.23
367.735	55138.41
368.102	55312.42
368.469	55500.21
368.835	55671.84
369.202	55836.37
369.569	56035.56
369.936	56224.35
370.303	56409.33
370.669	56603.56
371.036	56772.19
371.402	56973.07
371.769	57153.72
372.135	57304.42
372.502	57424.2
372.868	57565.62
373.235	57704.06
373.601	57831.02
373.967	58001.98
374.333	58186.17
374.7	58369.32
375.066	58575.63
375.432	58760.41
375.798	58934.77
376.164	59103.24
376.53	59255.62
376.896	59426.43
377.262	59598.14
377.628	59726.63
377.993	59868.74
378.359	60008.32
378.725	60160.02
379.091	60306.14
379.456	60438.96
379.822	60567.71
380.187	60721.96
380.553	60913.54
380.918	61112.92
381.284	61293.19
381.649	61459.96
382.015	61604.22
382.38	61722.09
382.745	61885.54
383.11	62031.06
383.476	62178.01
383.841	62303.58
384.206	62457.52
384.571	62570.65
384.936	62693.28
385.301	62869.26
385.666	62997.12
386.031	63149.68
386.396	63313.36
386.76	63468.35
387.125	63658.33
387.49	63858.52
387.855	64046.38
388.219	64211.11
388.584	64375.35
388.948	64566.77
389.313	64727.56
389.677	64930.93
390.042	65164.97
390.406	65314.53
390.771	65504.42
391.135	65688.55
391.499	65915.88
391.863	66146.28
392.227	66384.47
392.592	66590.17
392.956	66777.79
393.32	66972.81
393.684	67192.88
394.048	67363.13
394.412	67531.15
394.775	67667.97
395.139	67818.66
395.503	67977.73
395.867	68128.66
396.231	68265.25
396.594	68370.08
396.958	68509.45
397.321	68657.42
397.685	68777.6
398.048	68919.65
398.412	69053.1
398.775	69187.87
399.139	69313.66
399.502	69421.46
399.865	69555.29
400.228	69739.19
400.592	69874.57
400.955	70082.28
401.318	70210.88
401.681	70371.95
402.044	70520.78
402.407	70683.17
402.77	70837.62
403.133	71020.88
403.496	71156.82
403.859	71314.63
404.221	71544.41
404.584	71779.85
404.947	72029.63
405.309	72240
405.672	72467.78
406.034	72683.16
406.397	72934.12
406.759	73157.48
407.122	73336.72
407.484	73517.19
407.847	73709.33
408.209	73958.15
408.571	74179.81
408.933	74438.67
409.296	74687.69
409.658	74921.4
410.02	75197.58
410.382	75510.75
410.744	75775.51
411.106	76070.95
411.468	76350.32
411.83	76597.41
412.191	76802.59
412.553	76977.5
412.915	77196.34
413.277	77418.46
413.638	77627.98
414	77801.37
414.361	77984.07
414.723	78223.65
415.084	78447.75
415.446	78624.97
415.807	78769.22
416.169	78886.44
416.53	78988.93
416.891	79108.67
417.252	79249.79
417.614	79337.35
417.975	79384.77
418.336	79443.03
418.697	79505.57
419.058	79562.58
419.419	79606.32
419.78	79652.54
420.141	79688.38
420.501	79721.35
420.862	79747.71
421.223	79769.28
421.584	79812.36
421.944	79837.28
422.305	79851.67
422.666	79861.84
423.026	79866.23
423.387	79880.52
423.747	79891.39
424.107	79904.03
424.468	79914.98
424.828	79920.92
425.188	79926.09
425.549	79935.06
425.909	79940.67
426.269	79939.16
426.629	79945.43
426.989	79950.45
427.349	79956.22
427.709	79961.09
428.069	79963.42
428.429	79968.92
428.789	79975.68
429.149	79979.41
429.508	79983.62
429.868	79988.94
430.228	79994.26
430.587	80000.25
430.947	80005.31
431.306	80011.41
431.666	80015.44
432.025	80018.03
432.385	80021.61
432.744	80025.16
433.103	80029.64
433.463	80033.26
433.822	80041.64
434.181	80045.08
434.54	80047.26
434.899	80047.63
435.258	80051.22
435.618	80052.55
435.976	80056.29
436.335	80055.66
436.694	80057.91
437.053	80059.91
437.412	80061.72
437.771	80061.46
438.129	80062.76
438.488	80063.72
438.847	80065.09
439.205	80062.91
439.564	80063.83
439.922	80063.94
440.281	80063.35
440.639	80063.83
440.997	80064.02
441.356	80065.76
441.714	80067.64
442.072	80067.79
442.431	80069.38
442.789	80072.16
443.147	80072.82
443.505	80072.49
443.863	80074.3
444.221	80076.15
444.579	80076.19
444.937	80075.12
445.294	80076.82
445.652	80076.97
446.01	80077.15
446.368	80076.82
446.725	80078.89
447.083	80080
447.441	80079.89
447.798	80080.33
448.156	80079.19
448.513	80080.37
448.87	80079.34
449.228	80078.34
449.585	80078.78
449.942	80077.34
450.3	80074.75
450.657	80074.3
451.014	80072.97
451.371	80074.3
451.728	80071.27
452.085	80071.93
452.442	80072.97
452.799	80074.08
453.156	80075.12
453.513	80075.97
453.869	80077.52
454.226	80077.19
454.583	80077.04
454.939	80078.48
455.296	80077.38
455.653	80076.86
456.009	80076.15
456.366	80077.15
456.722	80078.63
457.078	80078.12
457.435	80080.34
457.791	80080.45
458.147	80082.26
458.503	80084.63
458.86	80083.18
459.216	80085.4
459.572	80084.89
459.928	80084.74
460.284	80084.37
460.64	80083.11
460.996	80082.89
461.351	80082.78
461.707	80083.22
462.063	80082.74
462.419	80084.33
462.774	80086.51
463.13	80089.14
463.486	80090.18
463.841	80091.14
464.197	80091.47
464.552	80092.51
464.908	80092.1
465.263	80092.36
465.618	80092.84
465.974	80092.51
466.329	80093.25
466.684	80093.99
467.039	80094.62
467.394	80094.99
467.749	80095.84
468.104	80098.21
468.459	80099.1
468.814	80098.95
469.169	80100.1
469.524	80100.84
469.879	80101.02
470.233	80100.21
470.588	80099.88
470.943	80100.69
471.297	80101.1
471.652	80101.21
472.006	80102.02
472.361	80103.5
472.715	80103.24
473.07	80102.87
473.424	80104.47
473.778	80105.43
474.133	80105.76
474.487	80106.69
474.841	80107.87
475.195	80107.8
475.549	80106.95
475.903	80107.28
476.257	80107.13
476.611	80109.02
476.965	80109.65
477.319	80109.8
477.673	80110.94
478.026	80112.24
478.38	80111.09
478.734	80110.61
479.087	80110.13
479.441	80110.57
479.795	80110.8
480.148	80112.83
480.502	80114.83
480.855	80114.91
481.208	80115.54
481.562	80116.54
481.915	80116.28
482.268	80116.72
482.621	80117.09
482.974	80117.05
483.328	80116.98
483.681	80118.35
484.034	80117.61
484.387	80118.65
484.739	80118.2
485.092	80118.57
485.445	80118.65
485.798	80119.61
486.151	80121.65
486.503	80123.2
486.856	80124.24
487.209	80125.02
487.561	80126.16
487.914	80124.76
488.266	80123.57
488.618	80124.09
488.971	80123.57
489.323	80125.02
489.675	80125.05
490.028	80124.79
490.38	80125.5
490.732	80126.09
491.084	80125.13
491.436	80126.13
491.788	80126.83
492.14	80127.57
492.492	80128.72
492.844	80129.61
493.196	80130.28
493.548	80129.09
493.899	80128.76
494.251	80128.61
494.603	80128.53
494.954	80127.87
495.306	80128.2
495.657	80128.65
496.009	80128.61
496.36	80129.31
496.712	80128.94
497.063	80128.39
497.414	80129.68
497.765	80130.83
498.117	80131.42
498.468	80133.02
498.819	80133.64
499.17	80132.53
499.521	80132.42
499.872	80132.13
500.223	80131.39
500.574	80132.09
500.924	80133.42
501.275	80134.05
501.626	80132.83
501.977	80132.68
502.327	80132.68
502.678	80132.42
503.029	80133.64
503.379	80132.98
503.73	80132.27
504.08	80131.46
504.43	80132.35
504.781	80131.09
505.131	80129.83
505.481	80130.76
505.831	80130.72
506.182	80128.79
506.532	80129.31
506.882	80128.79
507.232	80128.87
507.582	80129.79
507.932	80128.02
508.281	80126.39
508.631	80125.42
508.981	80126.35
509.331	80126.28
509.681	80125.98
510.03	80126.09
510.38	80126.39
510.729	80126.87
511.079	80127.39
511.428	80128.05
511.778	80127.72
512.127	80128.39
512.476	80129.39
512.826	80127.76
513.175	80127.72
513.524	80129.76
513.873	80130.05
514.222	80131.2
514.571	80130.64
514.92	80129.02
515.269	80128.76
515.618	80128.9
515.967	80128.9
516.316	80128.57
516.665	80127.42
517.014	80126.46
517.362	80126.9
517.711	80125.2
518.059	80125.79
518.408	80124.72
518.757	80123.28
519.105	80122.16
519.453	80121.87
519.802	80122.54
520.15	80123.31
520.498	80123.65
520.847	80120.13
521.195	80119.68
521.543	80119.17
521.891	80119.91
522.239	80120.2
522.587	80120.94
522.935	80121.54
523.283	80121.13
523.631	80122.17
523.979	80123.5
524.326	80125.46
524.674	80124.42
525.022	80125.57
525.369	80125.17
525.717	80126.94
526.064	80129.13
526.412	80130.5
526.759	80130.5
527.107	80129.94
527.454	80129.24
527.801	80128.98
528.149	80130.57
528.496	80130.76
528.843	80130.5
529.19	80130.68
529.537	80129.83
529.884	80131.39
530.231	80132.2
530.578	80134.05
530.925	80133.87
531.272	80134.24
531.619	80134.46
531.966	80136.98
532.312	80136.16
532.659	80135.76
533.006	80134.42
533.352	80133.09
533.699	80133.91
534.045	80133.68
534.392	80132.5
534.738	80132.28
535.084	80132.2
535.431	80133.2
535.777	80132.16
536.123	80131.79
536.469	80130.68
536.815	80131.94
537.161	80132.09
537.507	80130.35
537.853	80128.53
538.199	80128.2
538.545	80127.87
538.891	80126.39
539.237	80125.2
539.582	80126.57
539.928	80126.28
540.274	80125.65
540.619	80126.76
540.965	80126.09
541.31	80127.02
541.656	80128.13
542.001	80129.61
542.347	80130.05
542.692	80128.72
543.037	80129.13
543.382	80128.39
543.728	80129.2
544.073	80130.13
544.418	80128.87
544.763	80129.53
545.108	80130.46
545.453	80130.27
545.798	80130.9
546.142	80130.83
546.487	80130.5
546.832	80128.68
547.177	80128.83
547.521	80129.42
547.866	80130.28
548.211	80129.2
548.555	80128.9
548.9	80129.2
549.244	80127.28
549.588	80126.02
549.933	80125.83
550.277	80126.65
550.621	80128.09
550.965	80127.35
551.31	80126.31
551.654	80126.68
551.998	80126.46
552.342	80127.57
552.686	80127.87
553.03	80127.53
553.373	80128.83
553.717	80128.35
554.061	80128.72
554.405	80129.16
554.748	80129.68
555.092	80129.28
555.436	80129.72
555.779	80130.42
556.123	80131.02
556.466	80131.5
556.81	80131.83
557.153	80133.39
557.496	80132.68
557.839	80133.5
558.183	80134.57
558.526	80133.65
558.869	80133.42
559.212	80133.76
559.555	80132.57
559.898	80130.94
560.241	80130.05
560.584	80129.57
560.927	80129.76
561.269	80131.5
561.612	80132.35
561.955	80131.79
562.297	80131.46
562.64	80132.24
562.983	80130.68
563.325	80129.24
563.668	80129.27
564.01	80129.16
564.352	80127.83
564.695	80126.5
565.037	80125.76
565.379	80124.31
565.721	80123.83
566.063	80123.09
566.406	80124.05
566.748	80122.87
567.09	80124.53
567.431	80123.79
567.773	80123.83
568.115	80123.2
568.457	80121.02
568.799	80120.83
569.14	80120.61
569.482	80120.39
569.824	80119.35
570.165	80118.46
570.507	80117.46
570.848	80118.2
571.19	80117.61
571.531	80118.46
571.872	80118.8
572.214	80117.2
572.555	80117.68
572.896	80120.09
573.237	80119.46
573.578	80118.2
573.919	80118.83
574.26	80117.46
574.601	80117.43
574.942	80116.02
575.283	80116.28
575.624	80116.43
575.964	80114.17
576.305	80114.46
576.646	80111.76
576.986	80111.5
577.327	80112.94
577.667	80112.28
578.008	80110.91
578.348	80110.76
578.689	80110.39
579.029	80111.13
579.369	80111.91
579.71	80112.76
580.05	80110.32
580.39	80109.65
580.73	80108.17
581.07	80108.35
581.41	80108.72
581.75	80108.58
582.09	80108.76
582.43	80109.17
582.769	80109.24
583.109	80110.98
583.449	80109.98
583.789	80113.35
584.128	80113.31
584.468	80112.57
584.807	80113.13
585.147	80111.24
585.486	80110.95
585.825	80110.24
