Data from 24HourExp_27052025_FLMS018081_05-58-20-051.txt Node
Date: Wed May 28 05:58:20 BST 2025
User: adleo
Spectrometer: FLMS01808
Trigger mode: 0
Integration Time (sec): 4.000000E-1
Scans to average: 10
Electric dark correction enabled: true
Nonlinearity correction enabled: true
Boxcar width: 10
XAxis mode: Wavelengths
Number of Pixels in Spectrum: 2048
>>>>>Begin Spectral Data<<<<<
178.471	-130.03
178.857	-122.13
179.244	-114.74
179.631	-106.05
180.017	-98.18
180.404	-90.01
180.79	-79.06
181.176	-70.06
181.563	-61.52
181.949	-50.22
182.335	-40.01
182.722	-25.12
183.108	-7.16
183.494	19.2
183.88	72.3
184.266	127.35
184.653	183.53
185.039	239.48
185.425	295.17
185.811	348.41
186.197	401.44
186.582	451.11
186.968	503.2
187.354	552.98
187.74	601.53
188.126	651.24
188.511	701.02
188.897	747.61
189.283	795.55
189.668	841.96
190.054	885.07
190.439	930.2
190.825	973.14
191.21	1012.33
191.596	1045.44
191.981	1054.96
192.366	1058.84
192.752	1060.38
193.137	1064.27
193.522	1064.8
193.908	1065.85
194.293	1070.86
194.678	1072.84
195.063	1075.06
195.448	1080.11
195.833	1081.72
196.218	1083.13
196.603	1082.53
196.988	1081.62
197.373	1080.56
197.757	1080.48
198.142	1081.49
198.527	1079.09
198.912	1079.06
199.296	1079.76
199.681	1078.32
200.066	1074.39
200.45	1073.24
200.835	1071.84
201.219	1070.27
201.604	1069.41
201.988	1069.64
202.372	1069.24
202.757	1071.5
203.141	1070.3
203.525	1068.62
203.91	1069.56
204.294	1068.91
204.678	1067.75
205.062	1068.63
205.446	1068.89
205.83	1071.28
206.214	1071.72
206.598	1073.09
206.982	1074.9
207.366	1076.21
207.75	1075.85
208.134	1078.58
208.517	1081.03
208.901	1082.29
209.285	1083.25
209.669	1084.97
210.052	1087.46
210.436	1086.43
210.819	1086.27
211.203	1086.56
211.586	1086.18
211.97	1087.66
212.353	1087.69
212.737	1091.13
213.12	1092.95
213.503	1095.26
213.886	1095.75
214.27	1096.84
214.653	1098.32
215.036	1099.53
215.419	1100.59
215.802	1105.52
216.185	1107.16
216.568	1110.09
216.951	1114.31
217.334	1116.26
217.717	1119.78
218.1	1120.56
218.482	1124.27
218.865	1127.49
219.248	1132.43
219.631	1137.94
220.013	1140.72
220.396	1147.58
220.778	1153.02
221.161	1158.07
221.544	1162.41
221.926	1170.22
222.308	1178.15
222.691	1186.84
223.073	1195.88
223.455	1205.93
223.838	1215.37
224.22	1225.12
224.602	1233.55
224.984	1244.04
225.366	1256.45
225.749	1271.18
226.131	1285.17
226.513	1299.88
226.895	1315.35
227.276	1329.14
227.658	1343.77
228.04	1360.42
228.422	1377.86
228.804	1395.26
229.186	1411.4
229.567	1429.39
229.949	1443.88
230.331	1459.33
230.712	1476.39
231.094	1494.51
231.475	1513.28
231.857	1530.05
232.238	1550.43
232.62	1570.77
233.001	1588.91
233.382	1610.09
233.763	1627.05
234.145	1645.93
234.526	1662.43
234.907	1680.96
235.288	1701.01
235.669	1720.6
236.05	1739.42
236.431	1755.54
236.812	1774.36
237.193	1796.51
237.574	1818.18
237.955	1840.58
238.336	1865.04
238.717	1886.58
239.097	1907.91
239.478	1928.39
239.859	1948.72
240.239	1971.66
240.62	1994.97
241.001	2017.97
241.381	2039.45
241.762	2062.79
242.142	2085.4
242.522	2111.5
242.903	2136.82
243.283	2164.1
243.663	2189.85
244.044	2219.55
244.424	2248.53
244.804	2275.45
245.184	2301.32
245.564	2328.54
245.944	2359.14
246.324	2387.14
246.704	2414.91
247.084	2442.75
247.464	2472.53
247.844	2505.79
248.224	2535.06
248.604	2564.42
248.983	2594.36
249.363	2626.41
249.743	2656.5
250.122	2688.45
250.502	2719.31
250.882	2751.41
251.261	2780.59
251.641	2811.19
252.02	2841.08
252.399	2874.72
252.779	2912.92
253.158	2949.75
253.537	2987.96
253.917	3029.97
254.296	3065.38
254.675	3107.45
255.054	3146.45
255.433	3188.24
255.812	3226.75
256.191	3269.33
256.57	3311.16
256.949	3357.1
257.328	3399.89
257.707	3444.88
258.086	3489.04
258.465	3535.74
258.843	3584.86
259.222	3634.49
259.601	3690.58
259.979	3744.99
260.358	3798.45
260.736	3847.87
261.115	3903.4
261.493	3955.36
261.872	4002.45
262.25	4062.01
262.629	4115.07
263.007	4175.6
263.385	4233.19
263.763	4294.62
264.142	4355.75
264.52	4422.16
264.898	4483.7
265.276	4550.9
265.654	4620.86
266.032	4690.53
266.41	4757.75
266.788	4827.08
267.166	4905.58
267.544	4977.99
267.921	5049.83
268.299	5129.62
268.677	5210.3
269.055	5289.63
269.432	5374.11
269.81	5459.87
270.188	5542.76
270.565	5632.24
270.943	5722.68
271.32	5813.42
271.697	5906.91
272.075	6000.64
272.452	6094.44
272.829	6191.87
273.207	6289.55
273.584	6394.71
273.961	6502.42
274.338	6616.83
274.715	6735.54
275.092	6848.76
275.469	6969.84
275.846	7091.86
276.223	7209.38
276.6	7330.97
276.977	7460.61
277.354	7585.27
277.731	7713
278.108	7845.06
278.484	7976.08
278.861	8109.82
279.238	8250.44
279.614	8388.6
279.991	8530.84
280.367	8672
280.744	8823.51
281.12	8974.37
281.497	9118.04
281.873	9267.79
282.249	9415.56
282.625	9562.38
283.002	9707.17
283.378	9851.22
283.754	10004.4
284.13	10156.29
284.506	10313.55
284.882	10467.97
285.258	10625.04
285.634	10781.35
286.01	10941.55
286.386	11099.68
286.762	11260.77
287.138	11424.83
287.513	11587.18
287.889	11747.29
288.265	11912.1
288.641	12070.2
289.016	12227.29
289.392	12389.18
289.767	12551.21
290.143	12716.26
290.518	12876.87
290.894	13044.35
291.269	13206.48
291.644	13366.63
292.02	13519.71
292.395	13671.63
292.77	13823.4
293.145	13973.49
293.52	14129.74
293.895	14280.65
294.27	14438.7
294.646	14591.53
295.02	14734.7
295.395	14886.15
295.77	15044.16
296.145	15196.16
296.52	15354.6
296.895	15509.79
297.269	15666.62
297.644	15816.9
298.019	15969.45
298.393	16121.22
298.768	16268.8
299.143	16420.87
299.517	16569.41
299.891	16729.95
300.266	16890.13
300.64	17051.21
301.015	17220.54
301.389	17391.63
301.763	17562.75
302.137	17727.39
302.512	17906.39
302.886	18085.67
303.26	18267.42
303.634	18447.06
304.008	18625.6
304.382	18804.64
304.756	18986.75
305.13	19170.89
305.504	19351.87
305.877	19543.97
306.251	19744.57
306.625	19949.58
306.999	20159.44
307.372	20371.4
307.746	20591.19
308.119	20804.05
308.493	21014.48
308.866	21224.33
309.24	21436.7
309.613	21645.52
309.987	21857.29
310.36	22050.75
310.733	22255.17
311.107	22469.31
311.48	22682.29
311.853	22913.62
312.226	23132.73
312.599	23362.88
312.972	23587.55
313.345	23819.04
313.718	24041.24
314.091	24263.35
314.464	24487.87
314.837	24709.93
315.21	24921.08
315.582	25135
315.955	25344.92
316.328	25565.84
316.7	25783.6
317.073	25999.6
317.446	26222.33
317.818	26449.21
318.191	26678.32
318.563	26907.52
318.936	27119.71
319.308	27330.6
319.68	27525.5
320.053	27720.77
320.425	27903.11
320.797	28086.57
321.169	28247.6
321.541	28395.92
321.913	28524.67
322.285	28645.95
322.657	28767.21
323.029	28921.86
323.401	29057.8
323.773	29223.27
324.145	29387.33
324.517	29568.73
324.889	29743.63
325.26	29939.71
325.632	30152.53
326.004	30390.29
326.375	30640.94
326.747	30915.13
327.118	31207.68
327.49	31497.84
327.861	31810.38
328.233	32123.56
328.604	32429.26
328.975	32747.73
329.346	33051.82
329.718	33359.39
330.089	33656.64
330.46	33947.84
330.831	34208.73
331.202	34471.91
331.573	34718.5
331.944	34952.23
332.315	35181.46
332.686	35397.77
333.057	35599.29
333.428	35779.01
333.799	35945.77
334.169	36098.37
334.54	36234.08
334.911	36351.86
335.281	36483.28
335.652	36607.22
336.022	36738.76
336.393	36884.13
336.763	37046.58
337.134	37234.9
337.504	37438.98
337.874	37648.02
338.245	37855.9
338.615	38077.31
338.985	38302.37
339.355	38520.45
339.726	38737.6
340.096	38963.27
340.466	39211.37
340.836	39450.91
341.206	39695.52
341.576	39946.9
341.945	40192.57
342.315	40429.18
342.685	40674.8
343.055	40923.39
343.425	41159.57
343.794	41390.75
344.164	41625.37
344.533	41852.91
344.903	42082.53
345.273	42312.62
345.642	42537.56
346.011	42771.72
346.381	43003.53
346.75	43231.3
347.12	43475.05
347.489	43728.29
347.858	43972.91
348.227	44189.63
348.596	44412.39
348.965	44652.64
349.334	44867.67
349.704	45102.07
350.072	45346.52
350.441	45576.62
350.81	45814.37
351.179	46048.19
351.548	46290.66
351.917	46513.53
352.285	46710.68
352.654	46912.91
353.023	47119.7
353.391	47322.97
353.76	47533.06
354.129	47715.87
354.497	47955.64
354.865	48171.97
355.234	48398.69
355.602	48607.92
355.971	48851.44
356.339	49063.5
356.707	49275.2
357.075	49499.27
357.443	49717.22
357.811	49926.05
358.18	50138.11
358.548	50347.91
358.916	50553.25
359.284	50760.1
359.651	50969.54
360.019	51189.6
360.387	51398.01
360.755	51595.15
361.123	51821.66
361.49	52043.76
361.858	52263.86
362.226	52456.36
362.593	52661.58
362.961	52842.34
363.328	53039.19
363.696	53213.37
364.063	53433.09
364.43	53634.86
364.798	53847.38
365.165	54029.52
365.532	54212.41
365.899	54401.87
366.267	54564.38
366.634	54715.53
367.001	54880.87
367.368	55013.24
367.735	55194.72
368.102	55366.15
368.469	55563.77
368.835	55735.41
369.202	55897.62
369.569	56086.45
369.936	56270.33
370.303	56452.57
370.669	56654.26
371.036	56823.02
371.402	57014.67
371.769	57193.69
372.135	57346.49
372.502	57472.37
372.868	57614.22
373.235	57753.83
373.601	57890.98
373.967	58060.57
374.333	58247.52
374.7	58424.5
375.066	58624.72
375.432	58811.36
375.798	58987.71
376.164	59151.1
376.53	59304.2
376.896	59475.58
377.262	59651.12
377.628	59777.63
377.993	59917.97
378.359	60057.75
378.725	60214.49
379.091	60370.77
379.456	60498.87
379.822	60632.88
380.187	60775.78
380.553	60969.91
380.918	61165.41
381.284	61326.24
381.649	61493.34
382.015	61628.92
382.38	61747.5
382.745	61919.47
383.11	62066.9
383.476	62217.58
383.841	62339.41
384.206	62499.75
384.571	62614.28
384.936	62743.72
385.301	62917.22
385.666	63055.92
386.031	63206.32
386.396	63368.74
386.76	63513.48
387.125	63705.74
387.49	63903
387.855	64104.69
388.219	64261.16
388.584	64425.4
388.948	64624.73
389.313	64791.01
389.677	64993.09
390.042	65233.61
390.406	65386.67
390.771	65568.64
391.135	65746.92
391.499	65976.67
391.863	66199.39
392.227	66437.74
392.592	66637.81
392.956	66830.21
393.32	67028.64
393.684	67245.06
394.048	67409.59
394.412	67587.8
394.775	67730.78
395.139	67875.36
395.503	68029.75
395.867	68185.89
396.231	68337.33
396.594	68433.5
396.958	68571.99
397.321	68735.12
397.685	68846.79
398.048	68987.62
398.412	69125.64
398.775	69249.41
399.139	69372.34
399.502	69480.28
399.865	69623.84
400.228	69812.14
400.592	69940.29
400.955	70131.33
401.318	70260.72
401.681	70424.4
402.044	70562
402.407	70721.11
402.77	70877.61
403.133	71057.83
403.496	71194.76
403.859	71342.6
404.221	71588.36
404.584	71824.41
404.947	72063.31
405.309	72276.69
405.672	72513.54
406.034	72732.93
406.397	72990.63
406.759	73208.55
407.122	73387.12
407.484	73556.06
407.847	73747
408.209	73998.14
408.571	74227.95
408.933	74487.83
409.296	74740.2
409.658	74984.4
410.02	75258.97
410.382	75574.22
410.744	75837.45
411.106	76124.75
411.468	76400.21
411.83	76636.02
412.191	76831.83
412.553	77006.1
412.915	77224.03
413.277	77434.78
413.638	77637.24
414	77810.62
414.361	78000.23
414.723	78237.63
415.084	78460.66
415.446	78633.1
415.807	78781.7
416.169	78897.43
416.53	78996.17
416.891	79110.94
417.252	79242.57
417.614	79326.2
417.975	79371.34
418.336	79429.81
418.697	79493.71
419.058	79552.41
419.419	79598.44
419.78	79648.56
420.141	79687.82
420.501	79718.07
420.862	79741.34
421.223	79764.89
421.584	79807.94
421.944	79831.47
422.305	79845.57
422.666	79854.19
423.026	79859.98
423.387	79874.12
423.747	79884.39
424.107	79897.1
424.468	79907.8
424.828	79914.66
425.188	79920.46
425.549	79929.49
425.909	79934.66
426.269	79934.18
426.629	79938.94
426.989	79942.45
427.349	79946.7
427.709	79949.91
428.069	79953.09
428.429	79959.88
428.789	79963.83
429.149	79968.78
429.508	79973.47
429.868	79979.09
430.228	79985.66
430.587	79988.8
430.947	79993.57
431.306	79998.85
431.666	80001.99
432.025	80004.95
432.385	80008.5
432.744	80010.53
433.103	80012.75
433.463	80015.97
433.822	80024.97
434.181	80029.04
434.54	80032.15
434.899	80035.66
435.258	80037.66
435.618	80038.84
435.976	80040.21
436.335	80042.17
436.694	80041.2
437.053	80041.94
437.412	80043.02
437.771	80043.28
438.129	80045.2
438.488	80047.05
438.847	80049.08
439.205	80053.48
439.564	80053.19
439.922	80052.93
440.281	80052.15
440.639	80053.34
440.997	80053.78
441.356	80055.74
441.714	80054.74
442.072	80054.74
442.431	80054.34
442.789	80054.59
443.147	80055.78
443.505	80056.96
443.863	80058.44
444.221	80059.07
444.579	80059.73
444.937	80060.29
445.294	80061.55
445.652	80062.25
446.01	80061.36
446.368	80060.44
446.725	80058.59
447.083	80059.73
447.441	80060.25
447.798	80062.47
448.156	80062.1
448.513	80062.69
448.87	80061.69
449.228	80062.36
449.585	80063.51
449.942	80065.51
450.3	80066.02
450.657	80067.65
451.014	80068.17
451.371	80066.06
451.728	80066.91
452.085	80067.32
452.442	80068.35
452.799	80068.54
453.156	80068.58
453.513	80069.21
453.869	80069.91
454.226	80068.98
454.583	80069.39
454.939	80069.72
455.296	80069.17
455.653	80068.58
456.009	80068.69
456.366	80069.43
456.722	80070.2
457.078	80070.94
457.435	80069.43
457.791	80070.13
458.147	80070.06
458.503	80071.35
458.86	80072.02
459.216	80072.72
459.572	80072.46
459.928	80072.2
460.284	80071.57
460.64	80072.39
460.996	80073.28
461.351	80074.64
461.707	80076.94
462.063	80078.2
462.419	80078.86
462.774	80079.6
463.13	80081.23
463.486	80082.08
463.841	80083.12
464.197	80083.53
464.552	80084.01
464.908	80086.86
465.263	80086.89
465.618	80087.49
465.974	80087.56
466.329	80088.23
466.684	80090.04
467.039	80090.67
467.394	80089.93
467.749	80090.19
468.104	80089.08
468.459	80089.11
468.814	80087.97
469.169	80088.26
469.524	80088.26
469.879	80089.67
470.233	80088.23
470.588	80089.86
470.943	80089.78
471.297	80089.08
471.652	80087.89
472.006	80088.75
472.361	80087.19
472.715	80087.6
473.07	80088.41
473.424	80088.3
473.778	80089.67
474.133	80090.08
474.487	80090.71
474.841	80091.56
475.195	80093.93
475.549	80096.52
475.903	80096.18
476.257	80097.63
476.611	80099.55
476.965	80099.78
477.319	80099.89
477.673	80102.88
478.026	80102.48
478.38	80104.55
478.734	80105.88
479.087	80108.18
479.441	80107.66
479.795	80108.21
480.148	80110.1
480.502	80110.58
480.855	80111.73
481.208	80112.88
481.562	80111.92
481.915	80112.84
482.268	80114.4
482.621	80115.73
482.974	80115.62
483.328	80117.58
483.681	80116.55
484.034	80115.99
484.387	80115.25
484.739	80114.92
485.092	80113.95
485.445	80115.03
485.798	80114.69
486.151	80114.43
486.503	80114.84
486.856	80113.69
487.209	80113.69
487.561	80111.44
487.914	80111.84
488.266	80111.44
488.618	80110.92
488.971	80110.77
489.323	80109.55
489.675	80109.33
490.028	80108.47
490.38	80108.55
490.732	80107.21
491.084	80108.66
491.436	80108.14
491.788	80107.77
492.14	80108.7
492.492	80110.73
492.844	80111.36
493.196	80110.66
493.548	80109.62
493.899	80110.18
494.251	80111.58
494.603	80111.29
494.954	80112.07
495.306	80110.07
495.657	80109.77
496.009	80109.73
496.36	80110.07
496.712	80110.92
497.063	80110.55
497.414	80110.33
497.765	80110.44
498.117	80109.81
498.468	80110.4
498.819	80109.81
499.17	80110.92
499.521	80110.18
499.872	80108.03
500.223	80107.03
500.574	80109.29
500.924	80110.99
501.275	80110.81
501.626	80110.73
501.977	80110.92
502.327	80110.99
502.678	80113.14
503.029	80114.62
503.379	80113.51
503.73	80114.25
504.08	80113.84
504.43	80113.88
504.781	80111.92
505.131	80112.18
505.481	80112.1
505.831	80111.99
506.182	80112.21
506.532	80111.88
506.882	80112.14
507.232	80111.47
507.582	80112.14
507.932	80111.29
508.281	80111.03
508.631	80109.4
508.981	80109.47
509.331	80110.33
509.681	80110.96
510.03	80109.44
510.38	80108.47
510.729	80109.4
511.079	80107.33
511.428	80108.36
511.778	80107.96
512.127	80109.47
512.476	80108.25
512.826	80109.14
513.175	80109.55
513.524	80108.88
513.873	80110.47
514.222	80110.14
514.571	80112.29
514.92	80113.18
515.269	80111.58
515.618	80111.81
515.967	80114.29
516.316	80114.36
516.665	80113.88
517.014	80114.4
517.362	80115.1
517.711	80116.4
518.059	80116.73
518.408	80117.77
518.757	80116.25
519.105	80116.32
519.453	80117.36
519.802	80119.03
520.15	80120.4
520.498	80119.84
520.847	80119.99
521.195	80118.47
521.543	80117.99
521.891	80117.03
522.239	80115.62
522.587	80115.58
522.935	80115.58
523.283	80114.84
523.631	80113.69
523.979	80113.14
524.326	80112.88
524.674	80113.36
525.022	80112.66
525.369	80114.06
525.717	80115.51
526.064	80115.4
526.412	80115.47
526.759	80115.81
527.107	80115.43
527.454	80113.44
527.801	80112.73
528.149	80114.1
528.496	80115.1
528.843	80116.95
529.19	80118.8
529.537	80117.32
529.884	80119.06
530.231	80120.62
530.578	80120.77
530.925	80123.06
531.272	80123.36
531.619	80122.58
531.966	80121.21
532.312	80121.29
532.659	80119.44
533.006	80118.36
533.352	80120.21
533.699	80120.29
534.045	80118.73
534.392	80117.47
534.738	80117.88
535.084	80118.62
535.431	80118.03
535.777	80118.36
536.123	80116.47
536.469	80114.29
536.815	80115.66
537.161	80114.58
537.507	80112.55
537.853	80110.4
538.199	80108.4
538.545	80107.62
538.891	80106.88
539.237	80108.25
539.582	80108.44
539.928	80108.88
540.274	80109.81
540.619	80108.62
540.965	80108.62
541.31	80107.73
541.656	80109.33
542.001	80110.21
542.347	80109.81
542.692	80108.7
543.037	80109.59
543.382	80110.03
543.728	80110.81
544.073	80109.66
544.418	80107.96
544.763	80109.22
545.108	80110.03
545.453	80110.07
545.798	80110.18
546.142	80111.81
546.487	80110.7
546.832	80110.36
547.177	80110.59
547.521	80109.1
547.866	80109.62
548.211	80109.81
548.555	80111.36
548.9	80109.84
549.244	80108.25
549.588	80108.33
549.933	80108.73
550.277	80107.07
550.621	80107.14
550.965	80106.29
551.31	80107.58
551.654	80109.84
551.998	80109.03
552.342	80109.73
552.686	80110.44
553.03	80111.21
553.373	80109.84
553.717	80109.84
554.061	80109.51
554.405	80108.99
554.748	80108.25
555.092	80108.7
555.436	80108.36
555.779	80106.7
556.123	80108.4
556.466	80109.92
556.81	80110.29
557.153	80112.58
557.496	80113.47
557.839	80115.25
558.183	80116.88
558.526	80116.21
558.869	80116.66
559.212	80115.51
559.555	80115.03
559.898	80114.36
560.241	80114.44
560.584	80114.62
560.927	80114.55
561.269	80115.69
561.612	80115.62
561.955	80116.92
562.297	80116.84
562.64	80117.4
562.983	80118.62
563.325	80118.66
563.668	80118.51
564.01	80117.92
564.352	80114.77
564.695	80112.1
565.037	80110.29
565.379	80109.77
565.721	80109.25
566.063	80108.81
566.406	80111.4
566.748	80111.14
567.09	80111.33
567.431	80112.14
567.773	80112.25
568.115	80112.25
568.457	80111.36
568.799	80110.07
569.14	80109.07
569.482	80108.66
569.824	80107.44
570.165	80107.11
570.507	80106.36
570.848	80106.11
571.19	80105.77
571.531	80108.25
571.872	80109.59
572.214	80108.1
572.555	80105.48
572.896	80105.07
573.237	80103.14
573.578	80102.22
573.919	80102.14
574.26	80102.33
574.601	80101.33
574.942	80102.14
575.283	80102.44
575.624	80100.77
575.964	80101.66
576.305	80103.51
576.646	80103.48
576.986	80104.92
577.327	80105.22
577.667	80103.74
578.008	80104.66
578.348	80105.25
578.689	80102.29
579.029	80103.37
579.369	80104.37
579.71	80105.59
580.05	80104.77
580.39	80105.33
580.73	80102.59
581.07	80104.59
581.41	80103.51
581.75	80104.29
582.09	80103.85
582.43	80102.96
582.769	80103.37
583.109	80102.7
583.449	80101.89
583.789	80101.66
584.128	80099.74
584.468	80099.26
584.807	80096.96
585.147	80096.33
585.486	80095.74
585.825	80097
