Data from 24HourExp_27052025_FLMS018081_01-38-20-629.txt Node
Date: Wed May 28 01:38:20 BST 2025
User: adleo
Spectrometer: FLMS01808
Trigger mode: 0
Integration Time (sec): 4.000000E-1
Scans to average: 10
Electric dark correction enabled: true
Nonlinearity correction enabled: true
Boxcar width: 10
XAxis mode: Wavelengths
Number of Pixels in Spectrum: 2048
>>>>>Begin Spectral Data<<<<<
178.471	-133.75
178.857	-124.06
179.244	-116.76
179.631	-108.92
180.017	-100.55
180.404	-93.3
180.79	-81.35
181.176	-72.99
181.563	-62.55
181.949	-52.53
182.335	-42.5
182.722	-25.64
183.108	-4.78
183.494	23.2
183.88	76.83
184.266	132.27
184.653	190.3
185.039	244.95
185.425	300.14
185.811	355.04
186.197	408.42
186.582	461.77
186.968	512.81
187.354	563.77
187.74	615.4
188.126	666.94
188.511	717.83
188.897	765.23
189.283	814.36
189.668	860.28
190.054	905.99
190.439	952.33
190.825	995.15
191.21	1035.26
191.596	1068.43
191.981	1076.49
192.366	1079.55
192.752	1080.12
193.137	1084.61
193.522	1085.39
193.908	1085.6
194.293	1089.16
194.678	1089.82
195.063	1092.13
195.448	1094.96
195.833	1095.42
196.218	1094.27
196.603	1093.55
196.988	1091.96
197.373	1089.5
197.757	1089.5
198.142	1089.37
198.527	1086.37
198.912	1086.48
199.296	1086.51
199.681	1084.01
200.066	1082.88
200.45	1083.44
200.835	1081.95
201.219	1080.83
201.604	1080.93
201.988	1083.47
202.372	1084.46
202.757	1085.63
203.141	1087.52
203.525	1087.39
203.91	1087.88
204.294	1090.14
204.678	1091.9
205.062	1092.21
205.446	1093.91
205.83	1093.41
206.214	1092.93
206.598	1095.7
206.982	1096.53
207.366	1095.2
207.75	1096.7
208.134	1097.67
208.517	1097.65
208.901	1097.89
209.285	1098.42
209.669	1098.54
210.052	1097.39
210.436	1097.5
210.819	1096.48
211.203	1094.74
211.586	1093.95
211.97	1094.67
212.353	1093.91
212.737	1094.49
213.12	1098.98
213.503	1101.81
213.886	1103.43
214.27	1106.04
214.653	1107.41
215.036	1109.19
215.419	1112.2
215.802	1115.9
216.185	1116.96
216.568	1122.06
216.951	1126.36
217.334	1128.22
217.717	1132.44
218.1	1135.06
218.482	1137.91
218.865	1141.77
219.248	1147.47
219.631	1154.73
220.013	1159.28
220.396	1166.76
220.778	1172.06
221.161	1175.48
221.544	1180.15
221.926	1187.73
222.308	1194.33
222.691	1200.6
223.073	1208.73
223.455	1216.04
223.838	1224.39
224.22	1236.02
224.602	1245.84
224.984	1257.64
225.366	1269.57
225.749	1283.46
226.131	1297.16
226.513	1311.2
226.895	1326.03
227.276	1340.63
227.658	1355.12
228.04	1369.51
228.422	1384.25
228.804	1401.42
229.186	1417.7
229.567	1436.39
229.949	1453.59
230.331	1471.02
230.712	1489.68
231.094	1507.7
231.475	1528.44
231.857	1547.52
232.238	1565.58
232.62	1584.71
233.001	1604.24
233.382	1626.5
233.763	1645.78
234.145	1665.47
234.526	1687.18
234.907	1706.54
235.288	1723.62
235.669	1743.56
236.05	1765
236.431	1783.44
236.812	1804.4
237.193	1827.31
237.574	1846.44
237.955	1868.18
238.336	1891.83
238.717	1912.95
239.097	1938.54
239.478	1961.65
239.859	1984.1
240.239	2008.09
240.62	2033.18
241.001	2055.46
241.381	2079.04
241.762	2102.15
242.142	2126.84
242.522	2150.29
242.903	2178.69
243.283	2206.41
243.663	2231.73
244.044	2261.48
244.424	2292.14
244.804	2320.61
245.184	2348.64
245.564	2378.19
245.944	2409.58
246.324	2440.54
246.704	2469.18
247.084	2496.64
247.464	2527.95
247.844	2559.64
248.224	2592.54
248.604	2624.9
248.983	2656.8
249.363	2688.1
249.743	2720.88
250.122	2752.52
250.502	2783.77
250.882	2813.49
251.261	2846.27
251.641	2880.74
252.02	2914.29
252.399	2948.91
252.779	2984.56
253.158	3023.31
253.537	3063.78
253.917	3106.92
254.296	3145.93
254.675	3190.61
255.054	3231.95
255.433	3274.69
255.812	3315.56
256.191	3356.35
256.57	3396.62
256.949	3442.71
257.328	3487.89
257.707	3533.64
258.086	3584.11
258.465	3632.83
258.843	3684.97
259.222	3736.5
259.601	3789.18
259.979	3841.62
260.358	3895.21
260.736	3947.61
261.115	4001.84
261.493	4055.5
261.872	4108.22
262.25	4164.3
262.629	4220.48
263.007	4279.44
263.385	4340.5
263.763	4405.09
264.142	4468.87
264.52	4534.7
264.898	4598.03
265.276	4667.27
265.654	4737.75
266.032	4809.31
266.41	4878.49
266.788	4951.08
267.166	5029.63
267.544	5107.05
267.921	5185.28
268.299	5266.13
268.677	5351.85
269.055	5434.49
269.432	5520.88
269.81	5608.77
270.188	5696.57
270.565	5787.08
270.943	5882.09
271.32	5972.05
271.697	6064.48
272.075	6162.46
272.452	6259.29
272.829	6359.66
273.207	6459.31
273.584	6564.19
273.961	6668.96
274.338	6785.82
274.715	6903.44
275.092	7020.65
275.469	7142.32
275.846	7264.52
276.223	7383.07
276.6	7502.36
276.977	7630.66
277.354	7757.01
277.731	7883.52
278.108	8016.27
278.484	8148.65
278.861	8283.04
279.238	8425.11
279.614	8566.78
279.991	8707.17
280.367	8854.25
280.744	9004.91
281.12	9157.49
281.497	9306.1
281.873	9457.88
282.249	9606.37
282.625	9751.57
283.002	9897.19
283.378	10044.21
283.754	10195.38
284.13	10353.95
284.506	10514.71
284.882	10672.32
285.258	10831.91
285.634	10987.42
286.01	11150.77
286.386	11310.13
286.762	11473.23
287.138	11634.53
287.513	11800.77
287.889	11966.73
288.265	12128.51
288.641	12291.81
289.016	12449.17
289.392	12615.84
289.767	12777.07
290.143	12945.98
290.518	13110.24
290.894	13275.35
291.269	13436.34
291.644	13594.81
292.02	13749.22
292.395	13907.1
292.77	14061.89
293.145	14214.46
293.52	14372.74
293.895	14519.83
294.27	14677.19
294.646	14831.49
295.02	14981.05
295.395	15133.26
295.77	15291.81
296.145	15447.73
296.52	15600.15
296.895	15755.94
297.269	15910.05
297.644	16065.95
298.019	16216.12
298.393	16371.11
298.768	16526.83
299.143	16684.86
299.517	16842.71
299.891	17001.04
300.266	17156.9
300.64	17314.4
301.015	17480.14
301.389	17652.29
301.763	17829
302.137	18001.22
302.512	18181.67
302.886	18358.86
303.26	18545.25
303.634	18722.82
304.008	18904.56
304.382	19090.04
304.756	19276.4
305.13	19454.04
305.504	19637.76
305.877	19828.89
306.251	20035.81
306.625	20235.12
306.999	20443.11
307.372	20659.16
307.746	20875.91
308.119	21094.7
308.493	21306.56
308.866	21520.14
309.24	21732.95
309.613	21941.9
309.987	22151.95
310.36	22347.76
310.733	22563.01
311.107	22774.47
311.48	22996.09
311.853	23222.14
312.226	23446.94
312.599	23678.54
312.972	23912.48
313.345	24143.59
313.718	24376.79
314.091	24592.61
314.464	24829.74
314.837	25050.15
315.21	25259.38
315.582	25480.84
315.955	25692.96
316.328	25921.07
316.7	26139.96
317.073	26361.58
317.446	26586.74
317.818	26818.74
318.191	27048.34
318.563	27266.94
318.936	27477.4
319.308	27679.69
319.68	27883.2
320.053	28083.46
320.425	28276.71
320.797	28464.44
321.169	28627.96
321.541	28771.26
321.913	28914.9
322.285	29028.7
322.657	29162.77
323.029	29312.85
323.401	29454.15
323.773	29616.5
324.145	29784.21
324.517	29975.55
324.889	30152.15
325.26	30357.98
325.632	30572.85
326.004	30815.65
326.375	31080.03
326.747	31361.96
327.118	31669.57
327.49	31964.35
327.861	32273.37
328.233	32571.2
328.604	32883.8
328.975	33203.02
329.346	33516.44
329.718	33817.31
330.089	34125.81
330.46	34420.27
330.831	34691.74
331.202	34953.44
331.573	35204.32
331.944	35435.95
332.315	35662.11
332.686	35886.41
333.057	36082.89
333.428	36262.27
333.799	36433.2
334.169	36587.95
334.54	36723.06
334.911	36841.04
335.281	36970.71
335.652	37101.19
336.022	37247.44
336.393	37391.28
336.763	37556.49
337.134	37744.32
337.504	37949.9
337.874	38156.42
338.245	38362.7
338.615	38588.39
338.985	38819.64
339.355	39046.85
339.726	39274.95
340.096	39502.11
340.466	39755.97
340.836	40002.64
341.206	40251.27
341.576	40502.33
341.945	40745.59
342.315	40982.17
342.685	41229.13
343.055	41477.45
343.425	41710.43
343.794	41940.9
344.164	42171.94
344.533	42408.46
344.903	42636.71
345.273	42868.47
345.642	43096.34
346.011	43326.54
346.381	43557.79
346.75	43792.51
347.12	44036.71
347.489	44285.18
347.858	44524.72
348.227	44734.35
348.596	44959.62
348.965	45201.02
349.334	45428.43
349.704	45669.57
350.072	45923.75
350.441	46155.83
350.81	46397.64
351.179	46636.31
351.548	46867.41
351.917	47089.3
352.285	47283.55
352.654	47490.81
353.023	47697.32
353.391	47895.51
353.76	48111.88
354.129	48300.51
354.497	48532.22
354.865	48751.13
355.234	48980.59
355.602	49196.98
355.971	49444.4
356.339	49655.68
356.707	49870.01
357.075	50087.47
357.443	50302.84
357.811	50508.48
358.18	50714.3
358.548	50920.46
358.916	51128.46
359.284	51352.98
359.651	51570.8
360.019	51787.8
360.387	51994.61
360.755	52198.47
361.123	52429.56
361.49	52650.41
361.858	52867.7
362.226	53066.32
362.593	53269.19
362.961	53456.97
363.328	53659.76
363.696	53825.14
364.063	54046.3
364.43	54251.94
364.798	54468.06
365.165	54651.77
365.532	54838.72
365.899	55033.94
366.267	55204.69
366.634	55355.16
367.001	55516.33
367.368	55656.49
367.735	55837.58
368.102	56020.95
368.469	56215.56
368.835	56393.88
369.202	56564.68
369.569	56762.78
369.936	56948.55
370.303	57128.32
370.669	57323.5
371.036	57489.13
371.402	57692.37
371.769	57867.77
372.135	58014.42
372.502	58134.67
372.868	58278
373.235	58422.15
373.601	58558.05
373.967	58730.91
374.333	58915.44
374.7	59100.42
375.066	59305.94
375.432	59499.83
375.798	59673.29
376.164	59837.9
376.53	59983.28
376.896	60151.35
377.262	60324.74
377.628	60451.8
377.993	60605.27
378.359	60755.42
378.725	60914.57
379.091	61070.49
379.456	61211.2
379.822	61344.57
380.187	61499.97
380.553	61694.88
380.918	61887.78
381.284	62060.42
381.649	62228.05
382.015	62377.18
382.38	62501.85
382.745	62675
383.11	62821.15
383.476	62962.31
383.841	63096.59
384.206	63259.87
384.571	63376.55
384.936	63503.35
385.301	63680.84
385.666	63817.75
386.031	63964
386.396	64130.4
386.76	64281.96
387.125	64474.92
387.49	64678.1
387.855	64868.52
388.219	65038.76
388.584	65214
388.948	65412.8
389.313	65584.62
389.677	65785.31
390.042	66018.92
390.406	66166.48
390.771	66358.86
391.135	66551.04
391.499	66781.73
391.863	67012.57
392.227	67261.83
392.592	67464.55
392.956	67659.86
393.32	67854.4
393.684	68074.63
394.048	68244.29
394.412	68420.89
394.775	68569.1
395.139	68721.3
395.503	68885.25
395.867	69031.09
396.231	69177.4
396.594	69272.63
396.958	69414.36
397.321	69576.77
397.685	69703.94
398.048	69849.76
398.412	69982.95
398.775	70111.09
399.139	70234.48
399.502	70343.74
399.865	70482.43
400.228	70671.43
400.592	70811.17
400.955	71011.96
401.318	71149.36
401.681	71318.5
402.044	71458.82
402.407	71613.31
402.77	71776.24
403.133	71959.23
403.496	72105.22
403.859	72256.84
404.221	72510.56
404.584	72741.74
404.947	72980.66
405.309	73187.5
405.672	73423.57
406.034	73655.83
406.397	73918.03
406.759	74144.21
407.122	74335.91
407.484	74511.63
407.847	74704.54
408.209	74947.44
408.571	75171.44
408.933	75427.17
409.296	75680.05
409.658	75934.59
410.02	76201.39
410.382	76495.06
410.744	76748.14
411.106	77029.5
411.468	77297.85
411.83	77515.09
412.191	77702.72
412.553	77861.64
412.915	78052.24
413.277	78236.47
413.638	78402.15
414	78549.54
414.361	78701.66
414.723	78897.33
415.084	79079.22
415.446	79214.52
415.807	79323.75
416.169	79403.51
416.53	79466.1
416.891	79536.99
417.252	79620.78
417.614	79671.12
417.975	79694.88
418.336	79721.53
418.697	79748.04
419.058	79770.31
419.419	79789
419.78	79810.23
420.141	79824.88
420.501	79838.29
420.862	79850.44
421.223	79859.39
421.584	79878.45
421.944	79889.25
422.305	79895.29
422.666	79899.87
423.026	79901.16
423.387	79910.67
423.747	79917.49
424.107	79923.24
424.468	79930.29
424.828	79935.42
425.188	79939.48
425.549	79942.95
425.909	79946.39
426.269	79946.28
426.629	79950
426.989	79951.22
427.349	79951.3
427.709	79952.52
428.069	79953.99
428.429	79957.54
428.789	79962.01
429.149	79964.78
429.508	79968.25
429.868	79970.43
430.228	79973.64
430.587	79977.19
430.947	79979.04
431.306	79983.17
431.666	79986.68
432.025	79988.71
432.385	79990.45
432.744	79990.67
433.103	79993.04
433.463	79996.11
433.822	80001.28
434.181	80002.57
434.54	80006.3
434.899	80009.92
435.258	80011.66
435.618	80012.84
435.976	80014.36
436.335	80013.03
436.694	80014.43
437.053	80014.99
437.412	80016.32
437.771	80016.32
438.129	80017.43
438.488	80019.35
438.847	80021.31
439.205	80022.16
439.564	80021.97
439.922	80021.79
440.281	80022.71
440.639	80023.71
440.997	80023.45
441.356	80025.15
441.714	80027
442.072	80025.34
442.431	80025.04
442.789	80028
443.147	80028.74
443.505	80027.59
443.863	80029.26
444.221	80029.96
444.579	80029.96
444.937	80030.25
445.294	80031.22
445.652	80030.85
446.01	80029.7
446.368	80028.07
446.725	80030.48
447.083	80031.33
447.441	80028.92
447.798	80029.29
448.156	80028.19
448.513	80028.78
448.87	80027.08
449.228	80027.41
449.585	80028.33
449.942	80029.07
450.3	80027.3
450.657	80027.67
451.014	80030.74
451.371	80030.77
451.728	80030.14
452.085	80030.33
452.442	80030.29
452.799	80031.29
453.156	80031.4
453.513	80032.59
453.869	80033.51
454.226	80030.4
454.583	80030.29
454.939	80033.69
455.296	80033.95
455.653	80034.95
456.009	80035.65
456.366	80036.43
456.722	80035.84
457.078	80036.1
457.435	80035.99
457.791	80035.84
458.147	80037.35
458.503	80036.58
458.86	80037.21
459.216	80038.13
459.572	80039.35
459.928	80039.72
460.284	80039.72
460.64	80040.9
460.996	80040.83
461.351	80041.83
461.707	80043.38
462.063	80044.45
462.419	80044.34
462.774	80044.82
463.13	80045.9
463.486	80045.01
463.841	80047.34
464.197	80048.89
464.552	80048.71
464.908	80049.15
465.263	80049.3
465.618	80048.71
465.974	80049.15
466.329	80050.63
466.684	80051.78
467.039	80052.07
467.394	80052.07
467.749	80052.11
468.104	80052.66
468.459	80053.96
468.814	80053.52
469.169	80053.11
469.524	80053.18
469.879	80055
470.233	80055.59
470.588	80054.88
470.943	80055.7
471.297	80055.51
471.652	80055
472.006	80057.4
472.361	80059.73
472.715	80061.54
473.07	80061.69
473.424	80061.14
473.778	80063.13
474.133	80063.13
474.487	80064.21
474.841	80064.65
475.195	80064.8
475.549	80065.61
475.903	80065.87
476.257	80067.39
476.611	80068.83
476.965	80069.72
477.319	80069.61
477.673	80069.72
478.026	80071.46
478.38	80074.09
478.734	80074.34
479.087	80076.97
479.441	80077.23
479.795	80076.38
480.148	80077.86
480.502	80078.93
480.855	80080.82
481.208	80080.15
481.562	80081.3
481.915	80081.45
482.268	80083
482.621	80083.67
482.974	80083.45
483.328	80084.3
483.681	80084.85
484.034	80085.04
484.387	80086.04
484.739	80084
485.092	80085.04
485.445	80085.41
485.798	80084.48
486.151	80085.07
486.503	80083.52
486.856	80083.74
487.209	80082.41
487.561	80082.85
487.914	80083.85
488.266	80081.78
488.618	80080.75
488.971	80080.45
489.323	80079.64
489.675	80080.71
490.028	80081.3
490.38	80082
490.732	80081.19
491.084	80081.52
491.436	80083.56
491.788	80083.23
492.14	80085
492.492	80085.37
492.844	80085.19
493.196	80085.15
493.548	80085.45
493.899	80085.52
494.251	80084.56
494.603	80085.78
494.954	80084.22
495.306	80082.23
495.657	80083.22
496.009	80084.93
496.36	80086.04
496.712	80086.59
497.063	80086.59
497.414	80087.59
497.765	80086.19
498.117	80086.96
498.468	80085.67
498.819	80084
499.17	80084.59
499.521	80083.59
499.872	80083.85
500.223	80084.78
500.574	80085.59
500.924	80085.93
501.275	80086.59
501.626	80087.37
501.977	80087.56
502.327	80087.15
502.678	80088.18
503.029	80089
503.379	80088.04
503.73	80087
504.08	80086.26
504.43	80085.96
504.781	80083.52
505.131	80084.15
505.481	80083.59
505.831	80082.52
506.182	80082.97
506.532	80081.6
506.882	80081.26
507.232	80079.64
507.582	80078.23
507.932	80076.71
508.281	80075.93
508.631	80075.34
508.981	80075.6
509.331	80076.97
509.681	80076.97
510.03	80076.71
510.38	80075.27
510.729	80076.05
511.079	80076.97
511.428	80077.71
511.778	80075.86
512.127	80077.56
512.476	80077.05
512.826	80077.16
513.175	80079.86
513.524	80080.56
513.873	80080.01
514.222	80081.19
514.571	80081.49
514.92	80081.63
515.269	80081.97
515.618	80081.3
515.967	80081.71
516.316	80080.67
516.665	80080.08
517.014	80079.93
517.362	80079.34
517.711	80080.52
518.059	80079.34
518.408	80078.12
518.757	80078.78
519.105	80078.97
519.453	80078.04
519.802	80078.75
520.15	80080.45
520.498	80077.97
520.847	80074.83
521.195	80076.93
521.543	80076.71
521.891	80076.16
522.239	80077.08
522.587	80077.42
522.935	80079.23
523.283	80078.64
523.631	80078.08
523.979	80078.34
524.326	80080.56
524.674	80081.12
525.022	80081.26
525.369	80082
525.717	80082.89
526.064	80083.74
526.412	80085.97
526.759	80086.67
527.107	80085.56
527.454	80084.63
527.801	80086
528.149	80089.33
528.496	80087.93
528.843	80086.78
529.19	80089.33
529.537	80087.78
529.884	80087.7
530.231	80087
530.578	80088.04
530.925	80090.52
531.272	80089.7
531.619	80089.04
531.966	80088.74
532.312	80089.48
532.659	80089.07
533.006	80088.7
533.352	80087.26
533.699	80086.33
534.045	80084.71
534.392	80086.08
534.738	80085.52
535.084	80085.11
535.431	80083.85
535.777	80083.78
536.123	80085
536.469	80083.67
536.815	80085.19
537.161	80086.07
537.507	80084.63
537.853	80083.74
538.199	80081.37
538.545	80080.3
538.891	80080.41
539.237	80080.26
539.582	80077.49
539.928	80077.49
540.274	80076.42
540.619	80077.45
540.965	80077.86
541.31	80078.38
541.656	80079.12
542.001	80079.71
542.347	80081.12
542.692	80080.56
543.037	80081.78
543.382	80082.71
543.728	80084.04
544.073	80083.3
544.418	80083.93
544.763	80085.08
545.108	80084.82
545.453	80085.89
545.798	80087
546.142	80086.04
546.487	80087.19
546.832	80089.55
547.177	80089.18
547.521	80089.81
547.866	80088.96
548.211	80086.93
548.555	80087.55
548.9	80087.22
549.244	80085.96
549.588	80084.52
549.933	80084.96
550.277	80083.82
550.621	80083.04
550.965	80081
551.31	80080.38
551.654	80079.45
551.998	80079.38
552.342	80079.49
552.686	80079.23
553.03	80078.78
553.373	80078.67
553.717	80077.67
554.061	80076.49
554.405	80077.01
554.748	80076.05
555.092	80076.42
555.436	80077.71
555.779	80077.9
556.123	80077.45
556.466	80078.78
556.81	80078.82
557.153	80079.34
557.496	80079.97
557.839	80080.74
558.183	80083.26
558.526	80084.04
558.869	80084.63
559.212	80084.48
559.555	80085.33
559.898	80085.11
560.241	80085.78
560.584	80085.33
560.927	80086.44
561.269	80087.78
561.612	80088.07
561.955	80088.26
562.297	80087.55
562.64	80087.11
562.983	80086.93
563.325	80088.37
563.668	80088.3
564.01	80088.41
564.352	80088.33
564.695	80088.41
565.037	80087.55
565.379	80085.26
565.721	80085.41
566.063	80084.59
566.406	80084.19
566.748	80081.97
567.09	80081.23
567.431	80079.23
567.773	80079.82
568.115	80077.34
568.457	80077.86
568.799	80077.86
569.14	80078.97
569.482	80078.27
569.824	80078.08
570.165	80077.71
570.507	80076.23
570.848	80075.2
571.19	80073.35
571.531	80071.87
571.872	80071.83
572.214	80071.68
572.555	80071.68
572.896	80071.31
573.237	80068.87
573.578	80068.24
573.919	80068.79
574.26	80069.24
574.601	80071.31
574.942	80069.65
575.283	80069.79
575.624	80067.31
575.964	80065.76
576.305	80065.02
576.646	80065.43
576.986	80066.13
577.327	80065.87
577.667	80064.39
578.008	80063.02
578.348	80064.61
578.689	80064.61
579.029	80064.24
579.369	80062.95
579.71	80064.13
580.05	80063.76
580.39	80065.43
580.73	80065.87
581.07	80066.2
581.41	80067.2
581.75	80065.35
582.09	80066.5
582.43	80068.28
582.769	80068.57
583.109	80068.76
583.449	80068.79
583.789	80069.16
584.128	80069.39
584.468	80069.27
584.807	80068.5
585.147	80069.87
585.486	80069.05
585.825	80069.57
586.165	80069.5
586.504	80070.13
