Data from 24HourExp_27052025_FLMS018081_12-08-20-093.txt Node
Date: Tue May 27 12:08:20 BST 2025
User: adleo
Spectrometer: FLMS01808
Trigger mode: 0
Integration Time (sec): 4.000000E-1
Scans to average: 10
Electric dark correction enabled: true
Nonlinearity correction enabled: true
Boxcar width: 10
XAxis mode: Wavelengths
Number of Pixels in Spectrum: 2048
>>>>>Begin Spectral Data<<<<<
178.471	-119.96
178.857	-112.78
179.244	-107.36
179.631	-99.72
180.017	-93.49
180.404	-85.51
180.79	-73.71
181.176	-65.15
181.563	-56.81
181.949	-46.01
182.335	-37.87
182.722	-21.93
183.108	-2.46
183.494	22.91
183.88	75.13
184.266	128.03
184.653	185.95
185.039	240.5
185.425	296.37
185.811	350.32
186.197	400.22
186.582	452.28
186.968	503.49
187.354	555.92
187.74	606.47
188.126	657.52
188.511	708.06
188.897	755.52
189.283	803.77
189.668	849.4
190.054	893.72
190.439	941.08
190.825	984.73
191.21	1024.59
191.596	1058.79
191.981	1068.6
192.366	1074.11
192.752	1073.95
193.137	1077.12
193.522	1078.28
193.908	1079.56
194.293	1085.02
194.678	1087.94
195.063	1090.78
195.448	1092.51
195.833	1093.46
196.218	1094.62
196.603	1093.08
196.988	1090.8
197.373	1090.93
197.757	1092.45
198.142	1091.94
198.527	1090.05
198.912	1088.55
199.296	1088.13
199.681	1085.67
200.066	1082.67
200.45	1081.66
200.835	1083.05
201.219	1081.79
201.604	1079.29
201.988	1080.14
202.372	1079.82
202.757	1079.07
203.141	1079.53
203.525	1079.82
203.91	1080.72
204.294	1081.08
204.678	1081.88
205.062	1084.59
205.446	1085.5
205.83	1086.07
206.214	1086.39
206.598	1086.46
206.982	1087.95
207.366	1088.2
207.75	1090.82
208.134	1094.62
208.517	1095.45
208.901	1093.49
209.285	1095.49
209.669	1097.78
210.052	1098.48
210.436	1096.94
210.819	1098.6
211.203	1099.42
211.586	1099.19
211.97	1100.43
212.353	1101.54
212.737	1104.12
213.12	1104.42
213.503	1104.74
213.886	1106.24
214.27	1108.58
214.653	1109.69
215.036	1111.08
215.419	1112.9
215.802	1114.94
216.185	1114.85
216.568	1118.23
216.951	1121.52
217.334	1122
217.717	1125.97
218.1	1126.87
218.482	1132.22
218.865	1134.64
219.248	1136.74
219.631	1141.45
220.013	1145.54
220.396	1152.84
220.778	1158.08
221.161	1163.78
221.544	1169.12
221.926	1174.77
222.308	1183.41
222.691	1190.75
223.073	1199.94
223.455	1208.89
223.838	1217.97
224.22	1227.69
224.602	1235.78
224.984	1248.55
225.366	1260.46
225.749	1273.28
226.131	1285.02
226.513	1296.55
226.895	1311.66
227.276	1326.42
227.658	1341.72
228.04	1356.01
228.422	1367.5
228.804	1382.79
229.186	1397.41
229.567	1416.01
229.949	1432.88
230.331	1447.04
230.712	1465.56
231.094	1482.11
231.475	1499.78
231.857	1516.61
232.238	1534.28
232.62	1554.2
233.001	1573.25
233.382	1595.26
233.763	1614.03
234.145	1634.04
234.526	1654.65
234.907	1672.06
235.288	1690.68
235.669	1711.55
236.05	1731.05
236.431	1751.24
236.812	1770.25
237.193	1790.54
237.574	1808.89
237.955	1831.44
238.336	1851.99
238.717	1873.04
239.097	1896.05
239.478	1917.62
239.859	1940.68
240.239	1964.95
240.62	1987.14
241.001	2008.81
241.381	2030.7
241.762	2051.36
242.142	2075.57
242.522	2098.26
242.903	2122.95
243.283	2148.84
243.663	2172.96
244.044	2201.03
244.424	2228.95
244.804	2254.81
245.184	2282.64
245.564	2310.05
245.944	2338.46
246.324	2367.76
246.704	2395.6
247.084	2423.46
247.464	2454.41
247.844	2483.53
248.224	2511.93
248.604	2541.65
248.983	2571.37
249.363	2602.88
249.743	2632.88
250.122	2661.12
250.502	2691.36
250.882	2722.26
251.261	2753.43
251.641	2783.71
252.02	2813.9
252.399	2847.08
252.779	2882.47
253.158	2918.98
253.537	2956.56
253.917	2995.31
254.296	3032.82
254.675	3074.34
255.054	3111.82
255.433	3149.89
255.812	3188.8
256.191	3227.81
256.57	3268.61
256.949	3309.05
257.328	3347.98
257.707	3391.06
258.086	3437.02
258.465	3482.73
258.843	3533.08
259.222	3580.35
259.601	3632.91
259.979	3683.18
260.358	3732.49
260.736	3785.33
261.115	3838.84
261.493	3890.51
261.872	3940.53
262.25	3995.99
262.629	4048.91
263.007	4107.17
263.385	4165.52
263.763	4225.12
264.142	4289.83
264.52	4353.68
264.898	4418.37
265.276	4484.51
265.654	4554.43
266.032	4625.39
266.41	4694.85
266.788	4761.53
267.166	4835.34
267.544	4908.16
267.921	4983.94
268.299	5063.53
268.677	5141.58
269.055	5221.15
269.432	5306.16
269.81	5390.37
270.188	5476.26
270.565	5564.82
270.943	5653.62
271.32	5740.87
271.697	5835.68
272.075	5929.8
272.452	6023.16
272.829	6117.94
273.207	6217.38
273.584	6319.86
273.961	6420.23
274.338	6530.8
274.715	6645.7
275.092	6762.15
275.469	6882.83
275.846	7001.68
276.223	7118.64
276.6	7236.74
276.977	7360.26
277.354	7481.04
277.731	7607.54
278.108	7733.47
278.484	7864.09
278.861	7996.06
279.238	8137.43
279.614	8274.69
279.991	8412.25
280.367	8556.71
280.744	8708.81
281.12	8860.8
281.497	9007.84
281.873	9162.07
282.249	9308.93
282.625	9455.34
283.002	9600.35
283.378	9744.41
283.754	9892.54
284.13	10047.31
284.506	10207.91
284.882	10364.33
285.258	10519.59
285.634	10676.77
286.01	10836.94
286.386	10996.9
286.762	11162.9
287.138	11323.8
287.513	11486.6
287.889	11650.05
288.265	11813.71
288.641	11967.84
289.016	12120.58
289.392	12280.87
289.767	12440.67
290.143	12607.19
290.518	12770.08
290.894	12933.34
291.269	13093.23
291.644	13258.2
292.02	13416.18
292.395	13565.65
292.77	13722.26
293.145	13880.42
293.52	14037.1
293.895	14188.99
294.27	14340.92
294.646	14491.41
295.02	14638.66
295.395	14793.66
295.77	14948.96
296.145	15101.22
296.52	15258.52
296.895	15417.8
297.269	15572.07
297.644	15730.54
298.019	15881.78
298.393	16035.85
298.768	16192.27
299.143	16349.08
299.517	16497.42
299.891	16653.43
300.266	16815.96
300.64	16971.52
301.015	17132.68
301.389	17300.2
301.763	17478.78
302.137	17648.28
302.512	17824.98
302.886	18002.41
303.26	18184.1
303.634	18361.47
304.008	18537.78
304.382	18718.9
304.756	18901.6
305.13	19089.01
305.504	19265.84
305.877	19454.95
306.251	19661.15
306.625	19861.18
306.999	20070.13
307.372	20282.14
307.746	20499.62
308.119	20713.09
308.493	20924.64
308.866	21132.07
309.24	21340.48
309.613	21538.84
309.987	21746
310.36	21941.38
310.733	22149.92
311.107	22361.13
311.48	22572.58
311.853	22804.55
312.226	23026.67
312.599	23250.38
312.972	23474.44
313.345	23701.48
313.718	23931.23
314.091	24146.89
314.464	24374.12
314.837	24593.4
315.21	24810.06
315.582	25024.03
315.955	25233.62
316.328	25452.39
316.7	25669.1
317.073	25890.44
317.446	26118.13
317.818	26349.51
318.191	26582.34
318.563	26799.92
318.936	27008.65
319.308	27217.55
319.68	27412.82
320.053	27616.49
320.425	27803.31
320.797	27986.59
321.169	28149.67
321.541	28286.49
321.913	28416.53
322.285	28535.08
322.657	28657.78
323.029	28798.68
323.401	28935.87
323.773	29100.9
324.145	29271.32
324.517	29460.84
324.889	29638.65
325.26	29840.24
325.632	30049.3
326.004	30281.3
326.375	30544.23
326.747	30820.06
327.118	31122.84
327.49	31415.05
327.861	31714.84
328.233	32020.01
328.604	32314.82
328.975	32628.18
329.346	32945.27
329.718	33254.48
330.089	33559.97
330.46	33857.31
330.831	34131.04
331.202	34393.75
331.573	34642.06
331.944	34866.72
332.315	35090.34
332.686	35302.1
333.057	35494.54
333.428	35675.64
333.799	35843.63
334.169	35996.34
334.54	36138.08
334.911	36249.45
335.281	36377.27
335.652	36497.6
336.022	36638.15
336.393	36795.27
336.763	36968.19
337.134	37152.94
337.504	37349.46
337.874	37546.11
338.245	37750.51
338.615	37968.39
338.985	38192.08
339.355	38412.37
339.726	38638.25
340.096	38863.97
340.466	39121.05
340.836	39367.74
341.206	39604.61
341.576	39846.35
341.945	40090.66
342.315	40310.7
342.685	40552.36
343.055	40793.91
343.425	41038.9
343.794	41269.62
344.164	41497.24
344.533	41722.7
344.903	41949.52
345.273	42186.2
345.642	42413.83
346.011	42641.39
346.381	42868.99
346.75	43098.57
347.12	43337.01
347.489	43583.41
347.858	43827.02
348.227	44033.67
348.596	44249.48
348.965	44490.7
349.334	44721.22
349.704	44951.26
350.072	45202.51
350.441	45438.22
350.81	45682.31
351.179	45912.05
351.548	46144.74
351.917	46367.26
352.285	46555.74
352.654	46756.73
353.023	46955.52
353.391	47155.32
353.76	47364.41
354.129	47555.96
354.497	47789.06
354.865	48007.8
355.234	48239.53
355.602	48455.01
355.971	48703.09
356.339	48918.48
356.707	49132.34
357.075	49352.7
357.443	49572.24
357.811	49782.07
358.18	49989.79
358.548	50193.71
358.916	50399.21
359.284	50618.22
359.651	50828.56
360.019	51055.03
360.387	51260.89
360.755	51466.48
361.123	51695.82
361.49	51918.24
361.858	52128.51
362.226	52318.31
362.593	52514.82
362.961	52692.04
363.328	52889.58
363.696	53052.75
364.063	53261.98
364.43	53466.91
364.798	53674.75
365.165	53852.37
365.532	54035.46
365.899	54224.34
366.267	54388.18
366.634	54540.36
367.001	54700.98
367.368	54842.79
367.735	55022.23
368.102	55198.9
368.469	55389.33
368.835	55561.5
369.202	55727.87
369.569	55918.35
369.936	56110.32
370.303	56306.61
370.669	56509.32
371.036	56677.38
371.402	56883.05
371.769	57067.47
372.135	57218.65
372.502	57343.66
372.868	57485.64
373.235	57622.84
373.601	57759.22
373.967	57934.01
374.333	58114.92
374.7	58291.15
375.066	58491.53
375.432	58672.76
375.798	58848.48
376.164	59009.66
376.53	59161.28
376.896	59324.87
377.262	59499.69
377.628	59626.54
377.993	59765.31
378.359	59904.96
378.725	60051.83
379.091	60195.9
379.456	60329.58
379.822	60459.51
380.187	60609.14
380.553	60799.8
380.918	60999.91
381.284	61175.8
381.649	61343.98
382.015	61491.72
382.38	61612.51
382.745	61777.86
383.11	61926.88
383.476	62071.18
383.841	62205.63
384.206	62355.93
384.571	62478.49
384.936	62609.29
385.301	62775.83
385.666	62906.51
386.031	63054.47
386.396	63221.7
386.76	63371.99
387.125	63557.19
387.49	63754.91
387.855	63944.1
388.219	64109.86
388.584	64273.89
388.948	64460.55
389.313	64628.9
389.677	64824.74
390.042	65060.81
390.406	65213.45
390.771	65399.7
391.135	65584.69
391.499	65808.54
391.863	66042.88
392.227	66280.16
392.592	66476.67
392.956	66673.88
393.32	66872.68
393.684	67087.23
394.048	67257.29
394.412	67434.77
394.775	67581.49
395.139	67734.77
395.503	67893.02
395.867	68042.86
396.231	68186.26
396.594	68295
396.958	68428.03
397.321	68587.84
397.685	68710.03
398.048	68856.79
398.412	68992.22
398.775	69125.49
399.139	69246.19
399.502	69355.21
399.865	69492.95
400.228	69688.76
400.592	69824.17
400.955	70022.33
401.318	70148.4
401.681	70309.06
402.044	70450.98
402.407	70615.53
402.77	70772.3
403.133	70958.39
403.496	71102.55
403.859	71253.86
404.221	71484.36
404.584	71720.12
404.947	71959.84
405.309	72163.28
405.672	72390.21
406.034	72612.31
406.397	72862.6
406.759	73085.14
407.122	73258.41
407.484	73428.5
407.847	73604.85
408.209	73848.54
408.571	74071.07
408.933	74341
409.296	74584.58
409.658	74818.36
410.02	75085.53
410.382	75395.65
410.744	75658.04
411.106	75944.52
411.468	76223.62
411.83	76465.45
412.191	76662.4
412.553	76841.5
412.915	77061.53
413.277	77280.16
413.638	77485.07
414	77657.86
414.361	77846.99
414.723	78094.4
415.084	78323.3
415.446	78512.87
415.807	78668.09
416.169	78791.18
416.53	78893.87
416.891	79020.43
417.252	79165.61
417.614	79258.79
417.975	79311.96
418.336	79374.91
418.697	79443.88
419.058	79508.02
419.419	79557.53
419.78	79617
420.141	79659.37
420.501	79695.08
420.862	79723.95
421.223	79747.28
421.584	79792.41
421.944	79820.78
422.305	79836.21
422.666	79850.31
423.026	79855.21
423.387	79869.54
423.747	79880.63
424.107	79896.03
424.468	79909.63
424.828	79918.56
425.188	79923.32
425.549	79933.25
425.909	79939.52
426.269	79939.15
426.629	79944.21
426.989	79951.22
427.349	79954.36
427.709	79956.84
428.069	79959.83
428.429	79965.92
428.789	79971.83
429.149	79978.11
429.508	79982.36
429.868	79987.13
430.228	79991.71
430.587	79997.55
430.947	80000.61
431.306	80005.71
431.666	80006.45
432.025	80008.56
432.385	80011.07
432.744	80013.99
433.103	80015.14
433.463	80019.57
433.822	80028.14
434.181	80032.69
434.54	80033.28
434.899	80036.54
435.258	80040.49
435.618	80044.04
435.976	80047.18
436.335	80048.59
436.694	80049
437.053	80049.33
437.412	80048.88
437.771	80049.59
438.129	80050.1
438.488	80053.4
438.847	80055.91
439.205	80058.8
439.564	80061.16
439.922	80059.83
440.281	80060.87
440.639	80062.46
440.997	80063.12
441.356	80062.53
441.714	80062.05
442.072	80064.64
442.431	80064.27
442.789	80065.68
443.147	80066.64
443.505	80066.57
443.863	80068.01
444.221	80068.12
444.579	80068.6
444.937	80071.19
445.294	80073.63
445.652	80075.19
446.01	80074.48
446.368	80072.45
446.725	80072.63
447.083	80072.63
447.441	80075.11
447.798	80076
448.156	80075.93
448.513	80076.04
448.87	80077.22
449.228	80078.48
449.585	80078.7
449.942	80079.51
450.3	80080.03
450.657	80079.63
451.014	80079.4
451.371	80080.14
451.728	80079.74
452.085	80080.44
452.442	80079.96
452.799	80076.44
453.156	80075.37
453.513	80075.48
453.869	80077.81
454.226	80077.48
454.583	80076.85
454.939	80075.85
455.296	80074.96
455.653	80075.44
456.009	80073.89
456.366	80075
456.722	80075.74
457.078	80074.78
457.435	80074.59
457.791	80075.26
458.147	80076.22
458.503	80075.45
458.86	80075.96
459.216	80075.3
459.572	80075.3
459.928	80075.85
460.284	80077.89
460.64	80078.26
460.996	80078.7
461.351	80077.81
461.707	80078.41
462.063	80078.55
462.419	80079.74
462.774	80079.96
463.13	80080.29
463.486	80082.81
463.841	80082.4
464.197	80081.74
464.552	80081.55
464.908	80082.81
465.263	80081.74
465.618	80081.96
465.974	80083.14
466.329	80082.7
466.684	80084.25
467.039	80084.47
467.394	80084.66
467.749	80084.84
468.104	80084.95
468.459	80085.99
468.814	80085.73
469.169	80086.14
469.524	80087.69
469.879	80088.58
470.233	80089.03
470.588	80088.14
470.943	80088.17
471.297	80087.8
471.652	80088.14
472.006	80089.65
472.361	80089.62
472.715	80090.02
473.07	80090.36
473.424	80092.1
473.778	80092.69
474.133	80093.76
474.487	80094.06
474.841	80094.87
475.195	80095.95
475.549	80096.8
475.903	80097.5
476.257	80099.32
476.611	80099.98
476.965	80099.54
477.319	80100.2
477.673	80102.31
478.026	80102.94
478.38	80102.5
478.734	80103.72
479.087	80104.68
479.441	80105.53
479.795	80105.39
480.148	80107.2
480.502	80107.05
480.855	80106.09
481.208	80106.46
481.562	80106.42
481.915	80107.83
482.268	80108.68
482.621	80111.05
482.974	80112.31
483.328	80112.87
483.681	80113.13
484.034	80115.79
484.387	80115.53
484.739	80114.98
485.092	80114.64
485.445	80115.64
485.798	80116.57
486.151	80117.53
486.503	80117.83
486.856	80119.05
487.209	80121.09
487.561	80121.49
487.914	80121.83
488.266	80123.05
488.618	80125.2
488.971	80126.64
489.323	80127.86
489.675	80128.31
490.028	80125.83
490.38	80126.31
490.732	80125.86
491.084	80126.09
491.436	80124.86
491.788	80126.05
492.14	80127.68
492.492	80127.75
492.844	80130.75
493.196	80130.6
493.548	80130.46
493.899	80130.05
494.251	80129.86
494.603	80128.46
494.954	80127.6
495.306	80126.75
495.657	80126.61
496.009	80126.68
496.36	80125.9
496.712	80124.64
497.063	80123.98
497.414	80124.57
497.765	80122.49
498.117	80123.68
498.468	80124.27
498.819	80123.12
499.17	80123.57
499.521	80122.83
499.872	80123.72
500.223	80121.75
500.574	80121.72
500.924	80121.86
501.275	80122.46
501.626	80121.27
501.977	80121.83
502.327	80122.05
502.678	80123.31
503.029	80122.12
503.379	80119.83
503.73	80120.75
504.08	80121.49
504.43	80120.83
504.781	80121.79
505.131	80123.9
505.481	80123.01
505.831	80122.94
506.182	80122.64
506.532	80122.01
506.882	80121.72
507.232	80120.38
507.582	80120.12
507.932	80121.2
508.281	80119.53
508.631	80118.35
508.981	80118.53
509.331	80117.9
509.681	80117.42
510.03	80116.98
510.38	80118.6
510.729	80118.79
511.079	80116.72
511.428	80116.38
511.778	80117.49
512.127	80117.27
512.476	80116.35
512.826	80116.46
513.175	80116.23
513.524	80117.27
513.873	80117.75
514.222	80118.68
514.571	80118.75
514.92	80118.97
515.269	80117.94
515.618	80117.9
515.967	80119.27
516.316	80119.9
516.665	80121.38
517.014	80121.23
517.362	80121.05
517.711	80120.72
518.059	80120.68
518.408	80121.34
518.757	80121.12
519.105	80120.49
519.453	80120.01
519.802	80120.75
520.15	80121.05
520.498	80121.83
520.847	80122.2
521.195	80122.6
521.543	80122.83
521.891	80123.01
522.239	80123.6
522.587	80123.79
522.935	80125.31
523.283	80124.6
523.631	80123.75
523.979	80123.12
524.326	80123.31
524.674	80124.38
525.022	80124.75
525.369	80124.86
525.717	80126.68
526.064	80125.68
526.412	80126.75
526.759	80128.46
527.107	80127.6
527.454	80127.38
527.801	80125.64
528.149	80125.27
528.496	80126.97
528.843	80127.68
529.19	80127.79
529.537	80127.23
529.884	80128.9
530.231	80129.68
530.578	80130.2
530.925	80131.05
531.272	80130.68
531.619	80130.38
531.966	80129.64
532.312	80129.57
532.659	80130.2
533.006	80129.97
533.352	80131.97
533.699	80131.27
534.045	80130.09
534.392	80130.34
534.738	80129.97
535.084	80131.05
535.431	80129.83
535.777	80127.49
536.123	80125.71
536.469	80125.05
536.815	80123.9
537.161	80122.31
537.507	80121.2
537.853	80119.12
538.199	80117.83
538.545	80118.12
538.891	80119.2
539.237	80120.75
539.582	80120.12
539.928	80120.79
540.274	80119.49
540.619	80117.94
540.965	80116.53
541.31	80115.72
541.656	80117.42
542.001	80118.49
542.347	80116.98
542.692	80116.94
543.037	80117.01
543.382	80115.42
543.728	80116.87
544.073	80117.94
544.418	80117.72
544.763	80117.53
545.108	80118.35
545.453	80119.27
545.798	80118.68
546.142	80117.72
546.487	80117.01
546.832	80117.27
547.177	80116.05
547.521	80115.94
547.866	80116.57
548.211	80116.24
548.555	80116.46
548.9	80113.9
549.244	80111.98
549.588	80112.24
549.933	80114.2
550.277	80113.5
550.621	80114.79
550.965	80114.49
551.31	80113.61
551.654	80114.24
551.998	80114.57
552.342	80115.46
552.686	80115.49
553.03	80115.98
553.373	80117.12
553.717	80116.01
554.061	80115.2
554.405	80117.01
554.748	80116.68
555.092	80115.72
555.436	80117.87
555.779	80117.72
556.123	80119.38
556.466	80121.53
556.81	80122.23
557.153	80121.23
557.496	80120.94
557.839	80122.6
558.183	80122.01
558.526	80122.49
558.869	80121.79
559.212	80120.38
559.555	80119.46
559.898	80119.24
560.241	80119.75
560.584	80118.64
560.927	80119.12
561.269	80120.86
561.612	80120.53
561.955	80120.6
562.297	80120.86
562.64	80119.75
562.983	80120.75
563.325	80120.12
563.668	80119.12
564.01	80118.23
564.352	80116.49
564.695	80118.12
565.037	80116.79
565.379	80115.46
565.721	80116.01
566.063	80116.12
566.406	80117.24
566.748	80117.61
567.09	80116.94
567.431	80114.83
567.773	80116.09
568.115	80115.24
568.457	80113.94
568.799	80112.27
569.14	80112.98
569.482	80112.42
569.824	80112.72
570.165	80110.31
570.507	80110.79
570.848	80112.2
571.19	80113.05
571.531	80115.16
571.872	80114.5
572.214	80115.57
572.555	80117.57
572.896	80118.64
573.237	80119.2
573.578	80117.01
573.919	80117.39
574.26	80118.98
574.601	80121.24
574.942	80120.61
575.283	80120.61
575.624	80120.64
575.964	80120.57
576.305	80120.46
576.646	80120.38
576.986	80121.35
577.327	80121.61
577.667	80120.57
578.008	80119.16
578.348	80120.35
578.689	80118.94
579.029	80117.61
579.369	80116.72
579.71	80115.68
580.05	80113.05
580.39	80112.05
580.73	80114.57
581.07	80114.16
581.41	80113.16
581.75	80112.05
582.09	80110.79
582.43	80111.13
582.769	80110.57
583.109	80109.98
583.449	80108.31
583.789	80109.31
584.128	80108.02
584.468	80107.65
584.807	80106.98
585.147	80105.2
585.486	80103.42
585.825	80103.09
