Data from 24HourExp_27052025_FLMS018081_07-48-19-862.txt Node
Date: Wed May 28 07:48:19 BST 2025
User: adleo
Spectrometer: FLMS01808
Trigger mode: 0
Integration Time (sec): 4.000000E-1
Scans to average: 10
Electric dark correction enabled: true
Nonlinearity correction enabled: true
Boxcar width: 10
XAxis mode: Wavelengths
Number of Pixels in Spectrum: 2048
>>>>>Begin Spectral Data<<<<<
178.471	-126.95
178.857	-119.91
179.244	-114.15
179.631	-105.31
180.017	-97.69
180.404	-90.96
180.79	-79.84
181.176	-70.81
181.563	-61.62
181.949	-49.59
182.335	-39.24
182.722	-23.67
183.108	-4.24
183.494	22.03
183.88	75.6
184.266	128.36
184.653	185.86
185.039	238.02
185.425	293.82
185.811	347.47
186.197	401.25
186.582	452.83
186.968	506.07
187.354	560.69
187.74	611.1
188.126	662.07
188.511	713.33
188.897	762.69
189.283	810.83
189.668	857.04
190.054	901.22
190.439	946.78
190.825	990.49
191.21	1029.94
191.596	1064.61
191.981	1072.09
192.366	1075.44
192.752	1076.81
193.137	1082.47
193.522	1084.05
193.908	1086.55
194.293	1088.07
194.678	1088.91
195.063	1090.57
195.448	1090.96
195.833	1092.04
196.218	1091.39
196.603	1091.05
196.988	1088.83
197.373	1087.49
197.757	1088.61
198.142	1088.33
198.527	1087.19
198.912	1087.31
199.296	1088.11
199.681	1085.2
200.066	1084.02
200.45	1085.49
200.835	1084.48
201.219	1082.47
201.604	1081.74
201.988	1082.21
202.372	1083.82
202.757	1086.18
203.141	1084.58
203.525	1082.88
203.91	1082.72
204.294	1083.13
204.678	1083.7
205.062	1082.78
205.446	1084.84
205.83	1085.29
206.214	1084.7
206.598	1085.18
206.982	1087.47
207.366	1087.1
207.75	1087.9
208.134	1088.81
208.517	1089.73
208.901	1091.2
209.285	1093.92
209.669	1093.9
210.052	1093.54
210.436	1094.37
210.819	1092.02
211.203	1094.12
211.586	1095.89
211.97	1097.36
212.353	1099.35
212.737	1100.89
213.12	1104.51
213.503	1104.44
213.886	1104.76
214.27	1105.99
214.653	1108.15
215.036	1108.62
215.419	1111.82
215.802	1115.85
216.185	1118.62
216.568	1120.7
216.951	1122.25
217.334	1123.61
217.717	1128.49
218.1	1132.51
218.482	1135.27
218.865	1140.53
219.248	1143.88
219.631	1148.98
220.013	1152.33
220.396	1157.82
220.778	1161.59
221.161	1166.48
221.544	1172.56
221.926	1180.86
222.308	1189.35
222.691	1195.59
223.073	1205.17
223.455	1212.38
223.838	1220.92
224.22	1230.56
224.602	1240.66
224.984	1253.22
225.366	1264.39
225.749	1279.46
226.131	1290.7
226.513	1303.35
226.895	1315.98
227.276	1329.37
227.658	1344.19
228.04	1360.56
228.422	1375.45
228.804	1392.98
229.186	1408.76
229.567	1427.81
229.949	1441.36
230.331	1457
230.712	1474.11
231.094	1490.63
231.475	1511.53
231.857	1531.15
232.238	1549.63
232.62	1569.49
233.001	1587.71
233.382	1609.46
233.763	1626.63
234.145	1648.46
234.526	1669.13
234.907	1689.29
235.288	1709.46
235.669	1727.75
236.05	1746.22
236.431	1765.79
236.812	1785.94
237.193	1807.97
237.574	1827.27
237.955	1849.3
238.336	1871.96
238.717	1894.84
239.097	1917.8
239.478	1938.81
239.859	1961.85
240.239	1986.35
240.62	2009.78
241.001	2033.16
241.381	2056.77
241.762	2080.15
242.142	2103.33
242.522	2127.59
242.903	2153.08
243.283	2180.18
243.663	2207.87
244.044	2237.09
244.424	2263.42
244.804	2291.47
245.184	2319.27
245.564	2346.49
245.944	2377.41
246.324	2407.85
246.704	2437.29
247.084	2464.12
247.464	2493.99
247.844	2523.78
248.224	2552.16
248.604	2581.81
248.983	2610.98
249.363	2642.38
249.743	2673.36
250.122	2702.12
250.502	2733.38
250.882	2764.09
251.261	2793.15
251.641	2824.25
252.02	2853.49
252.399	2889.19
252.779	2924.32
253.158	2958.22
253.537	2997.74
253.917	3040.67
254.296	3077.83
254.675	3116.38
255.054	3160.28
255.433	3202.64
255.812	3242.99
256.191	3284.93
256.57	3327.66
256.949	3370.31
257.328	3412.88
257.707	3456.26
258.086	3503.52
258.465	3549.6
258.843	3599.95
259.222	3652.32
259.601	3704.5
259.979	3760.99
260.358	3814.77
260.736	3867.6
261.115	3924.14
261.493	3975.73
261.872	4024.68
262.25	4081.64
262.629	4138.08
263.007	4193.83
263.385	4252.64
263.763	4316.13
264.142	4379.47
264.52	4443.64
264.898	4510.67
265.276	4576.37
265.654	4644.73
266.032	4711.78
266.41	4783.87
266.788	4854.39
267.166	4926.83
267.544	5000.15
267.921	5076.81
268.299	5157
268.677	5237.99
269.055	5319.66
269.432	5404.4
269.81	5493.25
270.188	5579.37
270.565	5669.15
270.943	5759.12
271.32	5848.11
271.697	5939.41
272.075	6034.51
272.452	6128.28
272.829	6227.37
273.207	6327.38
273.584	6435.24
273.961	6542.16
274.338	6655.14
274.715	6771.43
275.092	6891.05
275.469	7013.94
275.846	7131.28
276.223	7250.11
276.6	7370.08
276.977	7494.68
277.354	7620.59
277.731	7745.61
278.108	7876.06
278.484	8005.43
278.861	8141.27
279.238	8282.64
279.614	8423.9
279.991	8568.46
280.367	8714.8
280.744	8863.31
281.12	9015.83
281.497	9163.07
281.873	9315.31
282.249	9461.49
282.625	9607.57
283.002	9753.83
283.378	9900.17
283.754	10052.96
284.13	10209.87
284.506	10368.75
284.882	10525.05
285.258	10682.79
285.634	10841.06
286.01	11002.71
286.386	11162.26
286.762	11327.45
287.138	11492.63
287.513	11656.27
287.889	11819.62
288.265	11980.86
288.641	12138.89
289.016	12297.92
289.392	12464.61
289.767	12628.37
290.143	12795.02
290.518	12960.77
290.894	13125.21
291.269	13286.33
291.644	13446.53
292.02	13601.01
292.395	13755.68
292.77	13913.95
293.145	14070.13
293.52	14228.65
293.895	14382.02
294.27	14541.78
294.646	14693.9
295.02	14839.56
295.395	14990.12
295.77	15143.28
296.145	15300
296.52	15461.02
296.895	15617.28
297.269	15767.45
297.644	15927.55
298.019	16081.62
298.393	16234.58
298.768	16387.8
299.143	16545.67
299.517	16698.4
299.891	16857.03
300.266	17019.15
300.64	17178.25
301.015	17341.03
301.389	17509.06
301.763	17683.65
302.137	17848.21
302.512	18031.13
302.886	18210.77
303.26	18393.68
303.634	18574.27
304.008	18754.62
304.382	18935.04
304.756	19120.43
305.13	19303.65
305.504	19478.35
305.877	19670.93
306.251	19874.3
306.625	20077.5
306.999	20282.02
307.372	20494.25
307.746	20709.9
308.119	20923.67
308.493	21136.05
308.866	21347.17
309.24	21562.29
309.613	21763.6
309.987	21978.42
310.36	22168.18
310.733	22378.5
311.107	22597.35
311.48	22812.77
311.853	23040.03
312.226	23258.12
312.599	23484.25
312.972	23712.32
313.345	23944.72
313.718	24174.16
314.091	24397.26
314.464	24627.83
314.837	24850
315.21	25064.76
315.582	25286.7
315.955	25492.43
316.328	25716.67
316.7	25933.17
317.073	26152.23
317.446	26380.73
317.818	26611.29
318.191	26847.47
318.563	27070.34
318.936	27273.76
319.308	27475.78
319.68	27679.2
320.053	27879.95
320.425	28074.13
320.797	28253.85
321.169	28417.95
321.541	28561.1
321.913	28694.98
322.285	28816.04
322.657	28946.25
323.029	29092.12
323.401	29230.76
323.773	29403.32
324.145	29572.55
324.517	29769.97
324.889	29947.73
325.26	30151.9
325.632	30361.28
326.004	30598.17
326.375	30855.69
326.747	31136.41
327.118	31446.66
327.49	31729.8
327.861	32045.92
328.233	32351.74
328.604	32661.94
328.975	32978.68
329.346	33285.65
329.718	33591.98
330.089	33897.7
330.46	34191.02
330.831	34466.51
331.202	34725.44
331.573	34973.1
331.944	35199.03
332.315	35413.2
332.686	35630.48
333.057	35827.31
333.428	36006.56
333.799	36171.36
334.169	36326.4
334.54	36463.97
334.911	36578.61
335.281	36712.36
335.652	36832.16
336.022	36969.17
336.393	37116.86
336.763	37286.34
337.134	37477.11
337.504	37679.81
337.874	37880.13
338.245	38089.61
338.615	38312.28
338.985	38544.68
339.355	38769.96
339.726	38995.54
340.096	39223.98
340.466	39475.41
340.836	39717.33
341.206	39961.35
341.576	40211.19
341.945	40450.67
342.315	40686.75
342.685	40927.97
343.055	41178.65
343.425	41418.88
343.794	41643.88
344.164	41881.3
344.533	42113.64
344.903	42344.76
345.273	42574.3
345.642	42798.55
346.011	43025.43
346.381	43251.28
346.75	43479.2
347.12	43721.74
347.489	43968.26
347.858	44212.04
348.227	44421.65
348.596	44649.12
348.965	44896.52
349.334	45121.87
349.704	45363.39
350.072	45605.39
350.441	45841.33
350.81	46081.09
351.179	46306.83
351.548	46547.95
351.917	46765.88
352.285	46958.18
352.654	47162.78
353.023	47374.05
353.391	47576.54
353.76	47792.27
354.129	47987.13
354.497	48217.59
354.865	48433.54
355.234	48666.84
355.602	48889.84
355.971	49137.44
356.339	49348.08
356.707	49553.9
357.075	49770.75
357.443	49991.68
357.811	50207.94
358.18	50423.35
358.548	50634.77
358.916	50850.32
359.284	51062.34
359.651	51278.13
360.019	51494.68
360.387	51701.03
360.755	51898.54
361.123	52126.22
361.49	52345.35
361.858	52552.77
362.226	52748.28
362.593	52947.93
362.961	53128.39
363.328	53322.54
363.696	53492.72
364.063	53707.81
364.43	53918.67
364.798	54130.49
365.165	54308.86
365.532	54490.32
365.899	54676.17
366.267	54835.65
366.634	54982.78
367.001	55149.51
367.368	55293.13
367.735	55479.81
368.102	55650.36
368.469	55840.17
368.835	56018.43
369.202	56185.33
369.569	56382.06
369.936	56571.6
370.303	56759.63
370.669	56953.98
371.036	57122.95
371.402	57326.46
371.769	57513.75
372.135	57659.38
372.502	57782.75
372.868	57925.88
373.235	58065.51
373.601	58196.63
373.967	58371.79
374.333	58557.76
374.7	58739.17
375.066	58934.36
375.432	59115.25
375.798	59302.5
376.164	59476.81
376.53	59620.03
376.896	59792.63
377.262	59965.04
377.628	60094.55
377.993	60235.19
378.359	60384.87
378.725	60542.56
379.091	60683.24
379.456	60809.77
379.822	60947.16
380.187	61101.32
380.553	61290.77
380.918	61485.21
381.284	61668.83
381.649	61835.54
382.015	61981.86
382.38	62111.2
382.745	62284.24
383.11	62433.16
383.476	62565.88
383.841	62691.73
384.206	62851.32
384.571	62967.47
384.936	63100.31
385.301	63276.8
385.666	63414.11
386.031	63560.47
386.396	63725.4
386.76	63885.51
387.125	64075.29
387.49	64275.96
387.855	64468.32
388.219	64630.56
388.584	64801.81
388.948	64983.31
389.313	65148.95
389.677	65349.38
390.042	65577.99
390.406	65727.03
390.771	65907.25
391.135	66097.05
391.499	66331.12
391.863	66564.46
392.227	66801.73
392.592	66996.77
392.956	67189.11
393.32	67384.64
393.684	67604.98
394.048	67768.53
394.412	67943.92
394.775	68091.54
395.139	68236.83
395.503	68402
395.867	68557.74
396.231	68710.06
396.594	68822.83
396.958	68960.78
397.321	69117.15
397.685	69237.22
398.048	69384.99
398.412	69526.45
398.775	69659.21
399.139	69778.35
399.502	69889.32
399.865	70032.26
400.228	70233.32
400.592	70364.93
400.955	70561.36
401.318	70696.8
401.681	70862.05
402.044	70997.45
402.407	71153.47
402.77	71318.26
403.133	71509.93
403.496	71654.77
403.859	71806.06
404.221	72040.28
404.584	72282.16
404.947	72524.23
405.309	72732.07
405.672	72963.92
406.034	73190.86
406.397	73444.3
406.759	73672.17
407.122	73853.38
407.484	74031.95
407.847	74216.55
408.209	74469.33
408.571	74705.28
408.933	74965.68
409.296	75215.84
409.658	75470.48
410.02	75744.4
410.382	76046.24
410.744	76296.23
411.106	76580.86
411.468	76851.17
411.83	77087.11
412.191	77282.6
412.553	77456.99
412.915	77667.52
413.277	77869.91
413.638	78061.9
414	78229.17
414.361	78395.62
414.723	78618.91
415.084	78820.67
415.446	78977.47
415.807	79103.96
416.169	79198.6
416.53	79279.35
416.891	79379.45
417.252	79488.01
417.614	79556.41
417.975	79596.72
418.336	79638.47
418.697	79683.79
419.058	79725.77
419.419	79756.52
419.78	79789.9
420.141	79813.91
420.501	79833.35
420.862	79849.94
421.223	79860.7
421.584	79887.97
421.944	79904.37
422.305	79913.48
422.666	79920.16
423.026	79923.66
423.387	79934.36
423.747	79942.43
424.107	79953.43
424.468	79961.7
424.828	79968.79
425.188	79973.56
425.549	79977.51
425.909	79982.16
426.269	79982.6
426.629	79985.89
426.989	79989
427.349	79991.55
427.709	79994.32
428.069	79997.68
428.429	80003.78
428.789	80009.61
429.149	80014.09
429.508	80018.75
429.868	80022.37
430.228	80027.36
430.587	80030.8
430.947	80035.75
431.306	80041.26
431.666	80043.26
432.025	80047.81
432.385	80049.29
432.744	80052.51
433.103	80054.32
433.463	80058.13
433.822	80064.12
434.181	80067.78
434.54	80068.89
434.899	80071.7
435.258	80074.92
435.618	80077.29
435.976	80077.25
436.335	80078.21
436.694	80078.77
437.053	80079.73
437.412	80080.8
437.771	80082.21
438.129	80083.98
438.488	80084.47
438.847	80085.72
439.205	80086.46
439.564	80085.39
439.922	80086.83
440.281	80086.5
440.639	80088.02
440.997	80087.35
441.356	80088.2
441.714	80087.65
442.072	80088.76
442.431	80088.2
442.789	80089.91
443.147	80089.68
443.505	80091.09
443.863	80092.75
444.221	80093.24
444.579	80092.98
444.937	80093.01
445.294	80094.9
445.652	80096.57
446.01	80096.05
446.368	80096.94
446.725	80098.57
447.083	80099.01
447.441	80097.98
447.798	80099.72
448.156	80099.01
448.513	80099.83
448.87	80099.86
449.228	80101.71
449.585	80102.97
449.942	80104.23
450.3	80104.31
450.657	80104.49
451.014	80106.64
451.371	80106.16
451.728	80105.6
452.085	80106.45
452.442	80107.08
452.799	80106.12
453.156	80106.12
453.513	80107.3
453.869	80106.16
454.226	80105.82
454.583	80107.12
454.939	80108.23
455.296	80107.27
455.653	80107.38
456.009	80108.45
456.366	80109.56
456.722	80108.82
457.078	80108.64
457.435	80108.27
457.791	80107.27
458.147	80107.78
458.503	80107.67
458.86	80109.08
459.216	80110.6
459.572	80109.49
459.928	80110.12
460.284	80108.78
460.64	80108.82
460.996	80107.89
461.351	80109.49
461.707	80108.64
462.063	80108.23
462.419	80107.67
462.774	80106.75
463.13	80108.93
463.486	80109.01
463.841	80108.97
464.197	80109.49
464.552	80108.93
464.908	80109.3
465.263	80108.34
465.618	80109.04
465.974	80110.12
466.329	80110.82
466.684	80111.08
467.039	80110.97
467.394	80112.26
467.749	80114.15
468.104	80113.23
468.459	80114.67
468.814	80113.04
469.169	80113.89
469.524	80113.89
469.879	80114.34
470.233	80115.3
470.588	80115.52
470.943	80117.08
471.297	80117.86
471.652	80119.34
472.006	80120.93
472.361	80120.37
472.715	80121.3
473.07	80121.6
473.424	80121.67
473.778	80123.04
474.133	80123.89
474.487	80126.56
474.841	80125.74
475.195	80126.63
475.549	80127.82
475.903	80129
476.257	80131.3
476.611	80133.26
476.965	80134.45
477.319	80135.45
477.673	80137.45
478.026	80135.19
478.38	80134.52
478.734	80133.04
479.087	80132.34
479.441	80132.41
479.795	80132.97
480.148	80135.49
480.502	80137.37
480.855	80138
481.208	80137.3
481.562	80137.3
481.915	80137.63
482.268	80138.08
482.621	80137.67
482.974	80140
483.328	80141.34
483.681	80141.78
484.034	80140.52
484.387	80140.34
484.739	80140.19
485.092	80140.3
485.445	80143.52
485.798	80142.08
486.151	80144.56
486.503	80144.41
486.856	80145.45
487.209	80146.12
487.561	80145.86
487.914	80144.49
488.266	80143.41
488.618	80142.6
488.971	80142.34
489.323	80142.08
489.675	80141.56
490.028	80141.45
490.38	80138.82
490.732	80137.56
491.084	80136.52
491.436	80136.85
491.788	80137.34
492.14	80138.48
492.492	80137.15
492.844	80138.15
493.196	80138.82
493.548	80137.22
493.899	80137.89
494.251	80137.04
494.603	80137.59
494.954	80136.3
495.306	80136.78
495.657	80137.63
496.009	80138.56
496.36	80139.48
496.712	80139.04
497.063	80141.41
497.414	80140.52
497.765	80142.82
498.117	80142.08
498.468	80142.67
498.819	80142.63
499.17	80142.78
499.521	80143.41
499.872	80145
500.223	80142.67
500.574	80143.56
500.924	80145
501.275	80145.34
501.626	80146.26
501.977	80146.37
502.327	80147.41
502.678	80147.08
503.029	80146.19
503.379	80147.08
503.73	80146.41
504.08	80146.04
504.43	80143.41
504.781	80144.63
505.131	80143.85
505.481	80143.41
505.831	80144.37
506.182	80144.67
506.532	80143.52
506.882	80141.97
507.232	80140.89
507.582	80141.48
507.932	80141.52
508.281	80140.37
508.631	80139.48
508.981	80139.04
509.331	80139.97
509.681	80139.89
510.03	80140.97
510.38	80142.23
510.729	80139.82
511.079	80139.3
511.428	80140
511.778	80142.15
512.127	80141.37
512.476	80140.23
512.826	80140.63
513.175	80140.3
513.524	80140.41
513.873	80141.85
514.222	80141.08
514.571	80143.23
514.92	80143.78
515.269	80143.15
515.618	80143.19
515.967	80144.23
516.316	80144.52
516.665	80144.04
517.014	80143.6
517.362	80142.41
517.711	80142.15
518.059	80144.41
518.408	80145.78
518.757	80145.52
519.105	80143.34
519.453	80144.78
519.802	80145.86
520.15	80145.78
520.498	80145.67
520.847	80145.15
521.195	80144.78
521.543	80146.19
521.891	80145.3
522.239	80145.78
522.587	80147.04
522.935	80149.12
523.283	80150.56
523.631	80148
523.979	80148.19
524.326	80148.49
524.674	80148.71
525.022	80147.75
525.369	80147.45
525.717	80147.86
526.064	80149.08
526.412	80151.52
526.759	80151.15
527.107	80151.08
527.454	80151.15
527.801	80150.67
528.149	80150.67
528.496	80150.19
528.843	80149.38
529.19	80149.19
529.537	80148.67
529.884	80148.26
530.231	80146.93
530.578	80146.78
530.925	80150.12
531.272	80148.97
531.619	80147.97
531.966	80147.93
532.312	80147.97
532.659	80146.45
533.006	80145.04
533.352	80143.3
533.699	80141.48
534.045	80141.48
534.392	80141.37
534.738	80141.85
535.084	80142.15
535.431	80142.85
535.777	80142.34
536.123	80145.19
536.469	80144.56
536.815	80145.04
537.161	80145.45
537.507	80146.23
537.853	80143.45
538.199	80140.93
538.545	80140.89
538.891	80141.97
539.237	80142.3
539.582	80143.74
539.928	80146.49
540.274	80146.71
540.619	80145.41
540.965	80145.86
541.31	80147.64
541.656	80148.15
542.001	80148.3
542.347	80149.19
542.692	80147.56
543.037	80148.15
543.382	80145.97
543.728	80145.78
544.073	80145.56
544.418	80145.01
544.763	80145.23
545.108	80146.41
545.453	80146.78
545.798	80147.19
546.142	80145.86
546.487	80145.04
546.832	80142.93
547.177	80141.37
547.521	80140.74
547.866	80142.19
548.211	80142.19
548.555	80140.04
548.9	80140.34
549.244	80140.3
549.588	80139.93
549.933	80140.52
550.277	80140.97
550.621	80140.74
550.965	80140.41
551.31	80140.22
551.654	80140.97
551.998	80140.89
552.342	80141.15
552.686	80142.19
553.03	80143.56
553.373	80144.78
553.717	80144.85
554.061	80146.26
554.405	80146.93
554.748	80146.04
555.092	80145.71
555.436	80146.89
555.779	80146.6
556.123	80145.6
556.466	80143.63
556.81	80143.15
557.153	80143.97
557.496	80143.74
557.839	80144.89
558.183	80145.34
558.526	80144.26
558.869	80144.3
559.212	80142.45
559.555	80142.49
559.898	80143.75
560.241	80144.04
560.584	80144.15
560.927	80145.71
561.269	80146.15
561.612	80144.78
561.955	80145.56
562.297	80146
562.64	80146.12
562.983	80145.75
563.325	80147.08
563.668	80147.89
564.01	80148.01
564.352	80147.08
564.695	80146.23
565.037	80144.26
565.379	80145.08
565.721	80146.41
566.063	80145.19
566.406	80147.56
566.748	80146.45
567.09	80144.89
567.431	80144.26
567.773	80144.49
568.115	80143.52
568.457	80142.04
568.799	80143.3
569.14	80143.45
569.482	80143.56
569.824	80141.78
570.165	80141.71
570.507	80140.63
570.848	80140.78
571.19	80140.89
571.531	80141.45
571.872	80142
572.214	80144.26
572.555	80143.23
572.896	80140.89
573.237	80141.37
573.578	80137.52
573.919	80138.19
574.26	80137.23
574.601	80136.6
574.942	80135.6
575.283	80133.74
575.624	80133.45
575.964	80131.93
576.305	80130.74
576.646	80129.71
576.986	80130.48
577.327	80130.41
577.667	80129.6
578.008	80130.26
578.348	80128.34
578.689	80127.11
579.029	80126.3
579.369	80123.22
579.71	80123.08
580.05	80124.3
580.39	80123.19
580.73	80124.82
581.07	80125.41
581.41	80125.45
581.75	80122.37
582.09	80121.67
582.43	80121.71
582.769	80122.67
583.109	80121.74
583.449	80123.67
583.789	80124.41
584.128	80124.04
584.468	80124.26
584.807	80123.67
585.147	80122.26
585.486	80122.45
585.825	80123.11
