Data from 24HourExp_27052025_FLMS018081_11-48-20-135.txt Node
Date: Tue May 27 11:48:20 BST 2025
User: adleo
Spectrometer: FLMS01808
Trigger mode: 0
Integration Time (sec): 4.000000E-1
Scans to average: 10
Electric dark correction enabled: true
Nonlinearity correction enabled: true
Boxcar width: 10
XAxis mode: Wavelengths
Number of Pixels in Spectrum: 2048
>>>>>Begin Spectral Data<<<<<
178.471	-121.95
178.857	-114.42
179.244	-107.88
179.631	-102
180.017	-94.64
180.404	-87.02
180.79	-76.5
181.176	-68.36
181.563	-60.38
181.949	-49.27
182.335	-38.87
182.722	-23.49
183.108	-5.56
183.494	20.31
183.88	71.84
184.266	126.39
184.653	181.03
185.039	233.95
185.425	289.08
185.811	342.33
186.197	394.14
186.582	442.37
186.968	493.87
187.354	546.6
187.74	597.99
188.126	647.74
188.511	697.51
188.897	744.95
189.283	792.42
189.668	839.48
190.054	881.91
190.439	927.65
190.825	970.98
191.21	1011.37
191.596	1045.59
191.981	1054.89
192.366	1057.84
192.752	1059.39
193.137	1063.58
193.522	1064.56
193.908	1065.42
194.293	1068.99
194.678	1073.4
195.063	1074.58
195.448	1075.48
195.833	1074.34
196.218	1074.27
196.603	1073.56
196.988	1073
197.373	1073.64
197.757	1073.4
198.142	1075.45
198.527	1071.9
198.912	1071.74
199.296	1071.28
199.681	1069.08
200.066	1065.7
200.45	1066.12
200.835	1067.4
201.219	1065.41
201.604	1064.57
201.988	1064.68
202.372	1064.98
202.757	1065.39
203.141	1066.4
203.525	1065.42
203.91	1067.37
204.294	1069.53
204.678	1070.25
205.062	1069.03
205.446	1068.3
205.83	1070.54
206.214	1068.78
206.598	1070.14
206.982	1070.4
207.366	1070.67
207.75	1071.34
208.134	1074.73
208.517	1076.51
208.901	1076.94
209.285	1078.7
209.669	1079.74
210.052	1081.77
210.436	1081.31
210.819	1081.11
211.203	1079.97
211.586	1080.43
211.97	1079.68
212.353	1077.63
212.737	1078.15
213.12	1082.19
213.503	1084.61
213.886	1083.72
214.27	1085.38
214.653	1086.85
215.036	1087.48
215.419	1089.89
215.802	1093.34
216.185	1095.32
216.568	1096.68
216.951	1098.37
217.334	1100.47
217.717	1103.76
218.1	1104.77
218.482	1108.64
218.865	1113.12
219.248	1118.67
219.631	1124.87
220.013	1130.35
220.396	1138.96
220.778	1144.47
221.161	1147.73
221.544	1152.81
221.926	1162.55
222.308	1169.87
222.691	1178.27
223.073	1186.91
223.455	1195.85
223.838	1201.95
224.22	1210.12
224.602	1221.95
224.984	1231.96
225.366	1244.44
225.749	1259.25
226.131	1272.01
226.513	1285.06
226.895	1296.95
227.276	1310.14
227.658	1322.4
228.04	1340.12
228.422	1354.51
228.804	1371.08
229.186	1387.82
229.567	1405.34
229.949	1419.11
230.331	1435.94
230.712	1450.23
231.094	1467.6
231.475	1484.24
231.857	1503.65
232.238	1523.38
232.62	1540.16
233.001	1560.82
233.382	1578.73
233.763	1595.46
234.145	1614.73
234.526	1634.84
234.907	1655.7
235.288	1675.07
235.669	1694.76
236.05	1711.12
236.431	1729.56
236.812	1749.73
237.193	1770.11
237.574	1789.77
237.955	1810.82
238.336	1831.91
238.717	1856.43
239.097	1879.46
239.478	1901.64
239.859	1923.34
240.239	1946.84
240.62	1969.83
241.001	1990.05
241.381	2012.44
241.762	2036.16
242.142	2058.88
242.522	2080.41
242.903	2104.45
243.283	2128.92
243.663	2155.24
244.044	2182.84
244.424	2210.6
244.804	2236.22
245.184	2263.74
245.564	2290.07
245.944	2320.19
246.324	2350.41
246.704	2378.58
247.084	2406.66
247.464	2437.42
247.844	2466.5
248.224	2493.79
248.604	2523.59
248.983	2554.97
249.363	2587.94
249.743	2616.56
250.122	2645.44
250.502	2677.08
250.882	2706.3
251.261	2739.02
251.641	2768.84
252.02	2798.02
252.399	2831.37
252.779	2865.32
253.158	2899.2
253.537	2936.85
253.917	2976.16
254.296	3011.3
254.675	3047.72
255.054	3087.21
255.433	3127.8
255.812	3169.18
256.191	3210.61
256.57	3250.9
256.949	3294.16
257.328	3334.19
257.707	3378.59
258.086	3424.33
258.465	3471.58
258.843	3522.9
259.222	3571.44
259.601	3623.82
259.979	3677.56
260.358	3728.65
260.736	3779.71
261.115	3834.7
261.493	3885.27
261.872	3931.96
262.25	3986.24
262.629	4039.31
263.007	4097.2
263.385	4153.71
263.763	4212.07
264.142	4271.15
264.52	4334.72
264.898	4395.67
265.276	4460.65
265.654	4527.31
266.032	4596.9
266.41	4663.09
266.788	4731.51
267.166	4804.16
267.544	4874.9
267.921	4947.97
268.299	5022.66
268.677	5099.56
269.055	5178.99
269.432	5261.34
269.81	5345.83
270.188	5431.62
270.565	5521.7
270.943	5609.85
271.32	5697.57
271.697	5792.54
272.075	5886.46
272.452	5979.88
272.829	6077.45
273.207	6176.87
273.584	6280.14
273.961	6381.56
274.338	6494.67
274.715	6607.05
275.092	6721.68
275.469	6843.36
275.846	6967.51
276.223	7090.15
276.6	7215.1
276.977	7337.53
277.354	7463.29
277.731	7589.08
278.108	7719.12
278.484	7847.12
278.861	7977.04
279.238	8114.93
279.614	8249.68
279.991	8389.4
280.367	8531.81
280.744	8679.96
281.12	8826.4
281.497	8969.81
281.873	9119.24
282.249	9263.24
282.625	9408.6
283.002	9554.66
283.378	9697.67
283.754	9842.73
284.13	9994.34
284.506	10148.71
284.882	10304.66
285.258	10459.69
285.634	10620.49
286.01	10776.53
286.386	10936.53
286.762	11099.1
287.138	11261.9
287.513	11427.66
287.889	11589.73
288.265	11752.16
288.641	11910.12
289.016	12071.45
289.392	12236.54
289.767	12401.61
290.143	12567.12
290.518	12727.07
290.894	12891.4
291.269	13054.42
291.644	13215.59
292.02	13368
292.395	13521.39
292.77	13676.52
293.145	13830.29
293.52	13984.81
293.895	14137.2
294.27	14292.14
294.646	14441.05
295.02	14585.51
295.395	14734.67
295.77	14891.94
296.145	15044.12
296.52	15199.63
296.895	15354.95
297.269	15510.76
297.644	15661.83
298.019	15813.3
298.393	15969.81
298.768	16123.62
299.143	16280.92
299.517	16426.34
299.891	16585.41
300.266	16743.54
300.64	16904.31
301.015	17065.49
301.389	17235.43
301.763	17408.19
302.137	17576.12
302.512	17757.61
302.886	17941.02
303.26	18125.76
303.634	18298.35
304.008	18473.53
304.382	18654.12
304.756	18837.89
305.13	19017.77
305.504	19196.83
305.877	19386.69
306.251	19589.79
306.625	19791.77
306.999	19992.42
307.372	20209.69
307.746	20426.42
308.119	20642.97
308.493	20849.66
308.866	21059.5
309.24	21267.75
309.613	21473.58
309.987	21681.76
310.36	21877.94
310.733	22078.34
311.107	22286.14
311.48	22507.48
311.853	22741.3
312.226	22959.67
312.599	23184.69
312.972	23404.77
313.345	23632.91
313.718	23856.53
314.091	24073.35
314.464	24299.53
314.837	24527.19
315.21	24734.98
315.582	24944.96
315.955	25152.37
316.328	25367.96
316.7	25582.83
317.073	25799.91
317.446	26016.78
317.818	26246.61
318.191	26472.72
318.563	26695.72
318.936	26900.13
319.308	27102.23
319.68	27301.22
320.053	27496.35
320.425	27677.72
320.797	27866.76
321.169	28028.04
321.541	28170.61
321.913	28297.37
322.285	28414.09
322.657	28530.36
323.029	28680.62
323.401	28822.02
323.773	28986.98
324.145	29160.28
324.517	29347.04
324.889	29520.91
325.26	29723.65
325.632	29929.4
326.004	30161.17
326.375	30417.16
326.747	30691.01
327.118	30990.91
327.49	31277.68
327.861	31585.6
328.233	31888.57
328.604	32191.67
328.975	32505
329.346	32818.09
329.718	33132.05
330.089	33438.32
330.46	33731.41
330.831	33996.98
331.202	34255.06
331.573	34493.21
331.944	34723.51
332.315	34946.68
332.686	35160.23
333.057	35360.63
333.428	35544.75
333.799	35712.15
334.169	35860.87
334.54	36004.2
334.911	36121.9
335.281	36250.33
335.652	36377.08
336.022	36515.12
336.393	36658.81
336.763	36827.24
337.134	37012.64
337.504	37212.45
337.874	37411.55
338.245	37618.75
338.615	37830.14
338.985	38059.18
339.355	38282.08
339.726	38504.7
340.096	38729.84
340.466	38980.55
340.836	39218.84
341.206	39460.24
341.576	39708.46
341.945	39950.39
342.315	40182.52
342.685	40424.88
343.055	40668.44
343.425	40900.29
343.794	41132.38
344.164	41362.45
344.533	41587.17
344.903	41811.15
345.273	42036.85
345.642	42256.09
346.011	42478.97
346.381	42712.05
346.75	42941.66
347.12	43184.45
347.489	43433.16
347.858	43676.11
348.227	43885.82
348.596	44108.12
348.965	44342.04
349.334	44565.58
349.704	44801.18
350.072	45043.08
350.441	45275.32
350.81	45510.84
351.179	45745.22
351.548	45984.94
351.917	46210.91
352.285	46408.43
352.654	46616.4
353.023	46822.04
353.391	47022.82
353.76	47240.07
354.129	47430.29
354.497	47656.45
354.865	47869.03
355.234	48096.07
355.602	48309.88
355.971	48555.87
356.339	48771.46
356.707	48986.3
357.075	49210.41
357.443	49429.55
357.811	49642.83
358.18	49850.6
358.548	50057.94
358.916	50269.66
359.284	50478.45
359.651	50688.26
360.019	50906.49
360.387	51105.55
360.755	51303.48
361.123	51532.74
361.49	51752.44
361.858	51972.32
362.226	52172.63
362.593	52383.24
362.961	52558.03
363.328	52755.43
363.696	52920.63
364.063	53137.73
364.43	53342.73
364.798	53552.02
365.165	53735.23
365.532	53914.23
365.899	54098.16
366.267	54263.94
366.634	54411.71
367.001	54581.14
367.368	54720
367.735	54905.11
368.102	55082.54
368.469	55272.13
368.835	55446.67
369.202	55607.39
369.569	55795.29
369.936	55980.2
370.303	56161.41
370.669	56363.97
371.036	56529.94
371.402	56735.4
371.769	56909.54
372.135	57062.33
372.502	57188.51
372.868	57328.27
373.235	57473.88
373.601	57605.47
373.967	57774.91
374.333	57948.89
374.7	58121.65
375.066	58327.85
375.432	58507.8
375.798	58685
376.164	58851.86
376.53	58999.2
376.896	59168.6
377.262	59340.42
377.628	59466.03
377.993	59609.74
378.359	59752.46
378.725	59904.49
379.091	60049.54
379.456	60178.45
379.822	60307.18
380.187	60451.63
380.553	60633.8
380.918	60824.19
381.284	61004.95
381.649	61172.14
382.015	61315.83
382.38	61437.81
382.745	61599.22
383.11	61739.46
383.476	61878.96
383.841	62007.45
384.206	62160.64
384.571	62276.3
384.936	62404.32
385.301	62573.74
385.666	62708.4
386.031	62851.08
386.396	63013.76
386.76	63158.7
387.125	63351.53
387.49	63545.88
387.855	63737.33
388.219	63904.25
388.584	64072.63
388.948	64259.43
389.313	64425.38
389.677	64631.75
390.042	64863.57
390.406	65015.52
390.771	65205.96
391.135	65389.79
391.499	65616.69
391.863	65846.27
392.227	66088.81
392.592	66290.35
392.956	66482.07
393.32	66673.63
393.684	66892.13
394.048	67066.11
394.412	67248.63
394.775	67391.65
395.139	67538.24
395.503	67689
395.867	67844.79
396.231	67982.48
396.594	68087
396.958	68223.73
397.321	68383.63
397.685	68502.19
398.048	68644.04
398.412	68786.17
398.775	68914.95
399.139	69036.44
399.502	69139.87
399.865	69281.66
400.228	69465.13
400.592	69594.5
400.955	69781.76
401.318	69909.98
401.681	70068.47
402.044	70204.15
402.407	70355.21
402.77	70512.62
403.133	70705.88
403.496	70844.92
403.859	71004.64
404.221	71238.4
404.584	71466.3
404.947	71701.78
405.309	71897.43
405.672	72122.18
406.034	72333.17
406.397	72585.68
406.759	72808.62
407.122	72992.51
407.484	73165.55
407.847	73358.83
408.209	73610.65
408.571	73840.64
408.933	74098.22
409.296	74342.3
409.658	74574.22
410.02	74849.44
410.382	75166.05
410.744	75421.91
411.106	75704.1
411.468	75972.18
411.83	76210.8
412.191	76417.77
412.553	76598.37
412.915	76832.41
413.277	77054.89
413.638	77267.48
414	77442.5
414.361	77633.18
414.723	77878.12
415.084	78106.25
415.446	78291.31
415.807	78451.78
416.169	78586.06
416.53	78700.81
416.891	78833.59
417.252	78993.7
417.614	79096.56
417.975	79156.24
418.336	79230.37
418.697	79314.37
419.058	79387.86
419.419	79447.01
419.78	79510.54
420.141	79557.4
420.501	79598.41
420.862	79634.69
421.223	79663.94
421.584	79719.05
421.944	79751.14
422.305	79771.75
422.666	79785.58
423.026	79792.84
423.387	79805.78
423.747	79818.4
424.107	79834.26
424.468	79849.03
424.828	79857.14
425.188	79862.56
425.549	79871.7
425.909	79879.04
426.269	79875.57
426.629	79881.99
426.989	79887.15
427.349	79891.65
427.709	79897.59
428.069	79901.39
428.429	79906.3
428.789	79914.01
429.149	79918.85
429.508	79925.49
429.868	79931.99
430.228	79937.42
430.587	79944.43
430.947	79951.29
431.306	79958.86
431.666	79961.49
432.025	79964.66
432.385	79968.17
432.744	79972.49
433.103	79974.19
433.463	79977.56
433.822	79987.03
434.181	79991.43
434.54	79993.87
434.899	79997.6
435.258	80001.44
435.618	80003.55
435.976	80006.69
436.335	80007.17
436.694	80010.64
437.053	80008.2
437.412	80008.98
437.771	80009.31
438.129	80009.61
438.488	80012.42
438.847	80011.38
439.205	80012.93
439.564	80014.45
439.922	80014.74
440.281	80015.48
440.639	80016.81
440.997	80016.52
441.356	80018.81
441.714	80020.44
442.072	80022.17
442.431	80021.92
442.789	80022.51
443.147	80022.1
443.505	80022.58
443.863	80023.84
444.221	80023.21
444.579	80026.13
444.937	80025.13
445.294	80026.02
445.652	80025.61
446.01	80024.95
446.368	80025.8
446.725	80026.13
447.083	80025.32
447.441	80025.35
447.798	80024.39
448.156	80025.2
448.513	80025.83
448.87	80025.09
449.228	80025.76
449.585	80025.98
449.942	80027.2
450.3	80028.35
450.657	80029.83
451.014	80029.24
451.371	80030.2
451.728	80029.31
452.085	80027.02
452.442	80028.2
452.799	80029.64
453.156	80030.49
453.513	80030.57
453.869	80031.34
454.226	80031.16
454.583	80032.27
454.939	80032.64
455.296	80032.27
455.653	80032.45
456.009	80032.23
456.366	80032.9
456.722	80031.93
457.078	80031.34
457.435	80031.38
457.791	80031.05
458.147	80031.6
458.503	80033.97
458.86	80033.78
459.216	80034.86
459.572	80038.41
459.928	80038.77
460.284	80037.74
460.64	80039.85
460.996	80041.51
461.351	80041.59
461.707	80042.03
462.063	80042.55
462.419	80043.95
462.774	80046.87
463.13	80047.95
463.486	80049.91
463.841	80050.2
464.197	80050.5
464.552	80051.42
464.908	80051.05
465.263	80050.57
465.618	80051.57
465.974	80053.01
466.329	80053.72
466.684	80054.38
467.039	80054.31
467.394	80055.05
467.749	80055.83
468.104	80054.16
468.459	80054.94
468.814	80056.38
469.169	80058.08
469.524	80058.41
469.879	80059.27
470.233	80057.71
470.588	80058.19
470.943	80058.08
471.297	80059.75
471.652	80061.63
472.006	80062.78
472.361	80063.52
472.715	80065.3
473.07	80065.33
473.424	80063.63
473.778	80063.74
474.133	80063.82
474.487	80063.78
474.841	80064.48
475.195	80065.7
475.549	80068.18
475.903	80066.96
476.257	80067.07
476.611	80067
476.965	80067.48
477.319	80066.29
477.673	80066.37
478.026	80066.81
478.38	80066.66
478.734	80068
479.087	80067
479.441	80066.85
479.795	80068.92
480.148	80069.18
480.502	80069.81
480.855	80069.88
481.208	80069.96
481.562	80071.25
481.915	80072.4
482.268	80073.1
482.621	80073.47
482.974	80073.66
483.328	80075.06
483.681	80075.58
484.034	80076.62
484.387	80077.1
484.739	80079.69
485.092	80081.8
485.445	80081.65
485.798	80082.35
486.151	80082.57
486.503	80084.2
486.856	80084.83
487.209	80083.2
487.561	80082.39
487.914	80082.76
488.266	80085.09
488.618	80085.39
488.971	80084.76
489.323	80083.57
489.675	80084.35
490.028	80084.91
490.38	80083.68
490.732	80084.8
491.084	80086.31
491.436	80086.76
491.788	80086.65
492.14	80086.09
492.492	80086.02
492.844	80086.94
493.196	80088.31
493.548	80088.2
493.899	80087.79
494.251	80088.16
494.603	80089.72
494.954	80089.94
495.306	80088.46
495.657	80086.87
496.009	80087.13
496.36	80087.87
496.712	80088.57
497.063	80088.16
497.414	80088.27
497.765	80090.05
498.117	80088.39
498.468	80087.09
498.819	80086.2
499.17	80087.27
499.521	80086.65
499.872	80087.02
500.223	80086.79
500.574	80086.13
500.924	80085.68
501.275	80086.24
501.626	80086.02
501.977	80085.02
502.327	80084.61
502.678	80085.24
503.029	80086.2
503.379	80084.83
503.73	80085.68
504.08	80086.5
504.43	80085.39
504.781	80084.72
505.131	80084.17
505.481	80085.02
505.831	80084.2
506.182	80084.5
506.532	80084.43
506.882	80085.09
507.232	80084.05
507.582	80084.05
507.932	80081.95
508.281	80080.95
508.631	80081.17
508.981	80079.8
509.331	80079.73
509.681	80079.54
510.03	80078.8
510.38	80076.54
510.729	80077.62
511.079	80075.62
511.428	80075.1
511.778	80075.47
512.127	80075.06
512.476	80074.88
512.826	80072.7
513.175	80074.07
513.524	80073.7
513.873	80073.29
514.222	80073.1
514.571	80073.4
514.92	80073.4
515.269	80074.29
515.618	80075.51
515.967	80074.21
516.316	80076.95
516.665	80078.95
517.014	80078.4
517.362	80079.25
517.711	80081.95
518.059	80083.39
518.408	80085.09
518.757	80084.5
519.105	80084.76
519.453	80085.17
519.802	80085.8
520.15	80087.76
520.498	80087.5
520.847	80086.76
521.195	80085.61
521.543	80085.31
521.891	80085.24
522.239	80085.98
522.587	80085.87
522.935	80087.02
523.283	80088.68
523.631	80087.76
523.979	80086.94
524.326	80088.68
524.674	80088.76
525.022	80087.39
525.369	80088.16
525.717	80088.02
526.064	80087.16
526.412	80088.61
526.759	80088.46
527.107	80087.46
527.454	80086.76
527.801	80086.46
528.149	80086.98
528.496	80087.09
528.843	80087.24
529.19	80087.72
529.537	80086.76
529.884	80088.42
530.231	80086.68
530.578	80086.05
530.925	80087.35
531.272	80086.98
531.619	80086.35
531.966	80086.05
532.312	80086.98
532.659	80084.94
533.006	80084.06
533.352	80085.91
533.699	80084.65
534.045	80086.42
534.392	80085.24
534.738	80085.68
535.084	80084.94
535.431	80085.09
535.777	80085.42
536.123	80084.98
536.469	80084.68
536.815	80084.87
537.161	80085.65
537.507	80086.35
537.853	80086.42
538.199	80084.98
538.545	80085.42
538.891	80085.46
539.237	80085.83
539.582	80085.28
539.928	80085.76
540.274	80086.28
540.619	80086.28
540.965	80086.09
541.31	80084.87
541.656	80087.68
542.001	80089.46
542.347	80089.31
542.692	80088.42
543.037	80086.79
543.382	80088.39
543.728	80088.24
544.073	80086.98
544.418	80086.17
544.763	80085.91
545.108	80085.06
545.453	80083.98
545.798	80082.95
546.142	80083.28
546.487	80084.2
546.832	80083.72
547.177	80084.13
547.521	80084.5
547.866	80085.17
548.211	80084.17
548.555	80083.65
548.9	80081.69
549.244	80079.69
549.588	80079.28
549.933	80078.36
550.277	80080.73
550.621	80080.36
550.965	80079.8
551.31	80080.24
551.654	80079.28
551.998	80079.32
552.342	80078.54
552.686	80078.36
553.03	80078.99
553.373	80079.69
553.717	80078.36
554.061	80079.84
554.405	80079.43
554.748	80079.13
555.092	80077.91
555.436	80077.21
555.779	80078.47
556.123	80078.32
556.466	80078.58
556.81	80078.84
557.153	80079.98
557.496	80079.54
557.839	80080.21
558.183	80080.39
558.526	80081.28
558.869	80079.87
559.212	80079.13
559.555	80079.13
559.898	80080.21
560.241	80078.91
560.584	80080.24
560.927	80081.06
561.269	80081.17
561.612	80080.02
561.955	80079.06
562.297	80077.65
562.64	80078.88
562.983	80077.32
563.325	80077.62
563.668	80077.58
564.01	80076.69
564.352	80077.4
564.695	80075.95
565.037	80073.25
565.379	80073.21
565.721	80071.59
566.063	80072.47
566.406	80073.21
566.748	80073.4
567.09	80072.58
567.431	80071.88
567.773	80069.55
568.115	80068.14
568.457	80066.26
568.799	80066.85
569.14	80067.48
569.482	80069.4
569.824	80068.99
570.165	80068.85
570.507	80069.88
570.848	80071.36
571.19	80071.14
571.531	80071.07
571.872	80071.7
572.214	80073.69
572.555	80074.47
572.896	80075.88
573.237	80075.25
573.578	80074.03
573.919	80073.84
574.26	80073.51
574.601	80075.29
574.942	80074.95
575.283	80075.03
575.624	80075.25
575.964	80073.69
576.305	80073.58
576.646	80072.14
576.986	80073.36
577.327	80075.18
577.667	80073.88
578.008	80069.44
578.348	80071.85
578.689	80070.51
579.029	80070.37
579.369	80068.55
579.71	80067.74
580.05	80067.33
580.39	80069.66
580.73	80068.89
581.07	80070.66
581.41	80070.4
581.75	80069.59
582.09	80068.81
582.43	80069.55
582.769	80070.26
583.109	80071.81
583.449	80069.85
583.789	80070.4
584.128	80069.4
584.468	80066.55
584.807	80067
585.147	80068.03
585.486	80066.3
585.825	80067.33
586.165	80067.66
