Data from 24HourExp_27052025_FLMS018081_11-58-20-110.txt Node
Date: Tue May 27 11:58:20 BST 2025
User: adleo
Spectrometer: FLMS01808
Trigger mode: 0
Integration Time (sec): 4.000000E-1
Scans to average: 10
Electric dark correction enabled: true
Nonlinearity correction enabled: true
Boxcar width: 10
XAxis mode: Wavelengths
Number of Pixels in Spectrum: 2048
>>>>>Begin Spectral Data<<<<<
178.471	-129.7
178.857	-121.19
179.244	-114.94
179.631	-106.1
180.017	-97.7
180.404	-89.59
180.79	-79.89
181.176	-70.58
181.563	-60.69
181.949	-49.28
182.335	-39.68
182.722	-24.03
183.108	-5.66
183.494	19.89
183.88	73.09
184.266	126.23
184.653	181.23
185.039	236.77
185.425	291.45
185.811	346.17
186.197	400.11
186.582	450.93
186.968	502.09
187.354	554.75
187.74	605.36
188.126	654.87
188.511	704.24
188.897	752.94
189.283	799.84
189.668	844.52
190.054	886.9
190.439	933.63
190.825	977.75
191.21	1018.97
191.596	1053.1
191.981	1062.44
192.366	1066.63
192.752	1069.58
193.137	1072.29
193.522	1074.96
193.908	1075.33
194.293	1079.17
194.678	1082.39
195.063	1084.44
195.448	1087.15
195.833	1087.5
196.218	1088.13
196.603	1088.64
196.988	1086.87
197.373	1087.34
197.757	1088.75
198.142	1089.4
198.527	1086.76
198.912	1086.28
199.296	1085.21
199.681	1083.62
200.066	1081.09
200.45	1080.72
200.835	1083.17
201.219	1082.52
201.604	1081.4
201.988	1082.18
202.372	1081.81
202.757	1081.31
203.141	1081.9
203.525	1082.66
203.91	1083.63
204.294	1084.3
204.678	1084.57
205.062	1084.37
205.446	1085.39
205.83	1086.63
206.214	1085.35
206.598	1084.96
206.982	1085.54
207.366	1086.53
207.75	1087.85
208.134	1089.68
208.517	1092.19
208.901	1091.22
209.285	1092.35
209.669	1092.84
210.052	1092.54
210.436	1090.5
210.819	1090.99
211.203	1091.62
211.586	1090.86
211.97	1090.82
212.353	1090.74
212.737	1093.33
213.12	1097.06
213.503	1098.4
213.886	1099.39
214.27	1102.87
214.653	1105.31
215.036	1107.04
215.419	1109.16
215.802	1111.82
216.185	1113.88
216.568	1115.82
216.951	1118.01
217.334	1119.92
217.717	1123.09
218.1	1125.18
218.482	1130.47
218.865	1133.06
219.248	1136.59
219.631	1140.42
220.013	1144.85
220.396	1152.78
220.778	1156.37
221.161	1160.09
221.544	1165.29
221.926	1172.26
222.308	1178.66
222.691	1185.4
223.073	1193.6
223.455	1201.28
223.838	1209.55
224.22	1218.3
224.602	1228.15
224.984	1239.98
225.366	1252.13
225.749	1265.66
226.131	1278.13
226.513	1290.29
226.895	1306.33
227.276	1320.81
227.658	1334.94
228.04	1350.63
228.422	1365.33
228.804	1379.9
229.186	1396.78
229.567	1415.31
229.949	1430.37
230.331	1448.44
230.712	1466.6
231.094	1484.12
231.475	1503.58
231.857	1524
232.238	1544.15
232.62	1562.29
233.001	1580.93
233.382	1600.98
233.763	1619.9
234.145	1641.61
234.526	1661.36
234.907	1677.76
235.288	1694.26
235.669	1713.31
236.05	1732.69
236.431	1751.6
236.812	1772.86
237.193	1794.1
237.574	1810.92
237.955	1832.44
238.336	1852.97
238.717	1875.02
239.097	1898.55
239.478	1918.1
239.859	1939.96
240.239	1961.85
240.62	1984.98
241.001	2006.22
241.381	2027.75
241.762	2049.7
242.142	2071.8
242.522	2095.05
242.903	2120.35
243.283	2146.82
243.663	2173.17
244.044	2199.78
244.424	2226.1
244.804	2252.16
245.184	2280.97
245.564	2309.46
245.944	2340.01
246.324	2370.27
246.704	2397.61
247.084	2423.17
247.464	2453.9
247.844	2481.31
248.224	2511.47
248.604	2542.86
248.983	2571.96
249.363	2602.61
249.743	2634.57
250.122	2663.91
250.502	2693.41
250.882	2725.12
251.261	2755.49
251.641	2784.89
252.02	2813.97
252.399	2846.92
252.779	2880.97
253.158	2913.05
253.537	2950.73
253.917	2990.91
254.296	3026.59
254.675	3063.96
255.054	3104.1
255.433	3145.77
255.812	3184.2
256.191	3223.26
256.57	3262.18
256.949	3303.88
257.328	3348.3
257.707	3389.61
258.086	3434.19
258.465	3481.59
258.843	3530.75
259.222	3580.61
259.601	3636.13
259.979	3689.75
260.358	3742.19
260.736	3796.44
261.115	3852.7
261.493	3903.71
261.872	3953.19
262.25	4007.55
262.629	4064.22
263.007	4123.09
263.385	4180.59
263.763	4243.32
264.142	4305.94
264.52	4367.47
264.898	4434.69
265.276	4498.09
265.654	4566.79
266.032	4637.31
266.41	4706.3
266.788	4774.31
267.166	4848.32
267.544	4916.72
267.921	4991.8
268.299	5068.09
268.677	5148.61
269.055	5229.01
269.432	5315.22
269.81	5397.6
270.188	5483.89
270.565	5570.78
270.943	5657.89
271.32	5744.09
271.697	5836.31
272.075	5928.69
272.452	6024.43
272.829	6118.17
273.207	6219.27
273.584	6319.51
273.961	6418.96
274.338	6530.71
274.715	6645.26
275.092	6760.14
275.469	6881.2
275.846	7001.72
276.223	7122.36
276.6	7241.97
276.977	7362.66
277.354	7488.16
277.731	7615.93
278.108	7750.02
278.484	7880.85
278.861	8015.07
279.238	8153.62
279.614	8288.55
279.991	8429.81
280.367	8571.73
280.744	8722.77
281.12	8868.59
281.497	9014.63
281.873	9169.44
282.249	9317.01
282.625	9464.4
283.002	9614.47
283.378	9763.08
283.754	9912.96
284.13	10067.19
284.506	10220.66
284.882	10378.41
285.258	10530.58
285.634	10683.04
286.01	10837.53
286.386	10998.47
286.762	11159.61
287.138	11322.56
287.513	11490.44
287.889	11656.23
288.265	11820.9
288.641	11979
289.016	12141.39
289.392	12307.51
289.767	12469.92
290.143	12633.03
290.518	12792.86
290.894	12954.02
291.269	13111.26
291.644	13275.07
292.02	13429.72
292.395	13588.3
292.77	13744.44
293.145	13904.17
293.52	14065.13
293.895	14219.4
294.27	14373.94
294.646	14527.77
295.02	14680.55
295.395	14834.06
295.77	14991.98
296.145	15147.1
296.52	15303.78
296.895	15460.4
297.269	15618.92
297.644	15771.96
298.019	15928.81
298.393	16083.29
298.768	16235.57
299.143	16390.74
299.517	16538.29
299.891	16697.93
300.266	16858.75
300.64	17021.49
301.015	17181.52
301.389	17355.45
301.763	17525.27
302.137	17697.02
302.512	17878.54
302.886	18051.66
303.26	18232
303.634	18408
304.008	18585.29
304.382	18767.76
304.756	18947.74
305.13	19131.88
305.504	19310.35
305.877	19497.01
306.251	19701.28
306.625	19903.94
306.999	20114.08
307.372	20324.87
307.746	20539.98
308.119	20751.19
308.493	20958.99
308.866	21167.82
309.24	21375.77
309.613	21585.41
309.987	21796.29
310.36	21987.29
310.733	22194.5
311.107	22412.1
311.48	22627.29
311.853	22852.77
312.226	23073.25
312.599	23303.07
312.972	23528.06
313.345	23753.2
313.718	23979.52
314.091	24195.59
314.464	24424.08
314.837	24650.11
315.21	24870.82
315.582	25085.89
315.955	25294.31
316.328	25517.57
316.7	25729.73
317.073	25954.78
317.446	26173.21
317.818	26397.32
318.191	26630.95
318.563	26854.71
318.936	27057.85
319.308	27260.58
319.68	27463.05
320.053	27664.53
320.425	27849.39
320.797	28026.14
321.169	28196.59
321.541	28343.54
321.913	28481.95
322.285	28596.74
322.657	28715.26
323.029	28853.43
323.401	28994
323.773	29160.09
324.145	29326.19
324.517	29518.57
324.889	29689.73
325.26	29895.95
325.632	30110.76
326.004	30347.49
326.375	30598.39
326.747	30867.77
327.118	31168.28
327.49	31452.88
327.861	31757.04
328.233	32059.61
328.604	32368.25
328.975	32679.39
329.346	32993.34
329.718	33297.75
330.089	33599.19
330.46	33892.89
330.831	34165.81
331.202	34431.91
331.573	34676.91
331.944	34900.25
332.315	35125.02
332.686	35334.79
333.057	35532.22
333.428	35706.34
333.799	35865.89
334.169	36027.68
334.54	36171.2
334.911	36289.29
335.281	36429.3
335.652	36552.06
336.022	36695
336.393	36838.31
336.763	37009.5
337.134	37192.1
337.504	37394.17
337.874	37605.21
338.245	37811.04
338.615	38032.13
338.985	38250.08
339.355	38463.98
339.726	38692.56
340.096	38911.88
340.466	39168.6
340.836	39411.08
341.206	39659.74
341.576	39912.94
341.945	40151.08
342.315	40383.82
342.685	40628.08
343.055	40875.1
343.425	41119.49
343.794	41342.42
344.164	41574.77
344.533	41800.86
344.903	42029.99
345.273	42258.93
345.642	42483.48
346.011	42706.53
346.381	42938.9
346.75	43171.85
347.12	43418.23
347.489	43663.76
347.858	43907.22
348.227	44112.95
348.596	44330.38
348.965	44566.81
349.334	44792.19
349.704	45038.3
350.072	45286.94
350.441	45511.23
350.81	45740.07
351.179	45963.91
351.548	46203.45
351.917	46431.82
352.285	46628.17
352.654	46830.79
353.023	47038.6
353.391	47232.23
353.76	47453.11
354.129	47640.13
354.497	47875.26
354.865	48099.96
355.234	48335.85
355.602	48555.56
355.971	48801.28
356.339	49019.97
356.707	49233.63
357.075	49450.59
357.443	49659.06
357.811	49860.41
358.18	50080.58
358.548	50295.75
358.916	50509.94
359.284	50728.33
359.651	50937.42
360.019	51160.02
360.387	51364.22
360.755	51563.45
361.123	51791.87
361.49	52013.27
361.858	52220.9
362.226	52410.35
362.593	52607.73
362.961	52784.97
363.328	52982.31
363.696	53155.23
364.063	53371.16
364.43	53579.59
364.798	53797.48
365.165	53986.67
365.532	54179.33
365.899	54363.4
366.267	54523.9
366.634	54676.2
367.001	54840.19
367.368	54979.62
367.735	55157.1
368.102	55339.17
368.469	55532.35
368.835	55709.11
369.202	55870.14
369.569	56066.52
369.936	56258.34
370.303	56446.62
370.669	56641.94
371.036	56812.98
371.402	57011.57
371.769	57186.22
372.135	57333.42
372.502	57455.87
372.868	57593.16
373.235	57737.28
373.601	57876.92
373.967	58053.05
374.333	58234.85
374.7	58414.11
375.066	58616.64
375.432	58802.91
375.798	58968.32
376.164	59135.18
376.53	59278.65
376.896	59444.42
377.262	59620.16
377.628	59752.72
377.993	59897.28
378.359	60041.53
378.725	60187.64
379.091	60334.65
379.456	60467.52
379.822	60603.31
380.187	60750.3
380.553	60939.88
380.918	61130.78
381.284	61304.98
381.649	61476.24
382.015	61609.29
382.38	61725.32
382.745	61893.92
383.11	62043.06
383.476	62191.48
383.841	62318.99
384.206	62484.71
384.571	62608.46
384.936	62732.02
385.301	62891.99
385.666	63027.65
386.031	63174.39
386.396	63339.29
386.76	63493.3
387.125	63682.08
387.49	63881.84
387.855	64065.63
388.219	64222.42
388.584	64389.35
388.948	64572.5
389.313	64728.26
389.677	64939.59
390.042	65173.03
390.406	65322.25
390.771	65511.18
391.135	65698.13
391.499	65923.62
391.863	66147.25
392.227	66389.15
392.592	66587.45
392.956	66793.37
393.32	66979.66
393.684	67196.52
394.048	67364.19
394.412	67538.07
394.775	67689.56
395.139	67828.48
395.503	67991.17
395.867	68146.49
396.231	68290.17
396.594	68399.99
396.958	68534.56
397.321	68691.14
397.685	68804.94
398.048	68946.46
398.412	69073.98
398.775	69205.2
399.139	69331.71
399.502	69442.52
399.865	69581.6
400.228	69779.59
400.592	69907.8
400.955	70113.62
401.318	70251.05
401.681	70418.3
402.044	70559.79
402.407	70719.06
402.77	70881.45
403.133	71066.8
403.496	71204.33
403.859	71359.34
404.221	71598.93
404.584	71840.75
404.947	72074.55
405.309	72286.52
405.672	72519.83
406.034	72741.6
406.397	72994.01
406.759	73219.31
407.122	73397.18
407.484	73566.88
407.847	73753.6
408.209	74002.22
408.571	74228.3
408.933	74485.85
409.296	74733.03
409.658	74970.24
410.02	75236.77
410.382	75546.22
410.744	75814.07
411.106	76109.98
411.468	76382.5
411.83	76618.81
412.191	76819.71
412.553	77001.49
412.915	77224.21
413.277	77438.1
413.638	77645.18
414	77817.92
414.361	77998.42
414.723	78242.69
415.084	78466.54
415.446	78639.17
415.807	78782.14
416.169	78897.42
416.53	78994.98
416.891	79114.44
417.252	79253.31
417.614	79339.93
417.975	79389.46
418.336	79442.71
418.697	79504.69
419.058	79562.37
419.419	79605.32
419.78	79653.26
420.141	79687.74
420.501	79718.56
420.862	79744.59
421.223	79763.58
421.584	79801.67
421.944	79822.99
422.305	79834.7
422.666	79841.73
423.026	79846.16
423.387	79858.12
423.747	79867.4
424.107	79880.26
424.468	79891.8
424.828	79897.7
425.188	79902.76
425.549	79910.87
425.909	79915.74
426.269	79913.57
426.629	79918.7
426.989	79921.47
427.349	79925.82
427.709	79930.95
428.069	79933.43
428.429	79939.59
428.789	79947.49
429.149	79951.93
429.508	79957.43
429.868	79961.23
430.228	79967.1
430.587	79973.38
430.947	79978.48
431.306	79982.65
431.666	79986.6
432.025	79987.97
432.385	79991.96
432.744	79991.96
433.103	79994.7
433.463	79999.39
433.822	80008.69
434.181	80011.43
434.54	80015.53
434.899	80017.93
435.258	80020.63
435.618	80025.14
435.976	80026.03
436.335	80025.99
436.694	80027.51
437.053	80028.28
437.412	80031.46
437.771	80033.57
438.129	80034.05
438.488	80035.86
438.847	80037.38
439.205	80037.82
439.564	80039.04
439.922	80039.52
440.281	80041.78
440.639	80041.67
440.997	80041.85
441.356	80042.85
441.714	80045.07
442.072	80045.59
442.431	80045.96
442.789	80045.18
443.147	80044.77
443.505	80045.7
443.863	80047.51
444.221	80046.7
444.579	80047.84
444.937	80048.62
445.294	80047.33
445.652	80047.47
446.01	80047.77
446.368	80048.99
446.725	80050.62
447.083	80051.25
447.441	80051.69
447.798	80052.73
448.156	80053.5
448.513	80054.24
448.87	80054.76
449.228	80053.21
449.585	80050.8
449.942	80051.51
450.3	80052.5
450.657	80051.88
451.014	80052.36
451.371	80050.1
451.728	80051.14
452.085	80049.77
452.442	80047.7
452.799	80049.77
453.156	80050.99
453.513	80051.39
453.869	80051.58
454.226	80050.47
454.583	80052.32
454.939	80050.28
455.296	80050.69
455.653	80051.73
456.009	80050.77
456.366	80050.32
456.722	80052.32
457.078	80054.35
457.435	80055.28
457.791	80057.39
458.147	80058.76
458.503	80060.61
458.86	80061.27
459.216	80060.75
459.572	80061.23
459.928	80061.75
460.284	80061.12
460.64	80059.87
460.996	80060.98
461.351	80061.31
461.707	80062.38
462.063	80061.31
462.419	80064.3
462.774	80062.97
463.13	80062.05
463.486	80063.3
463.841	80064.75
464.197	80064.71
464.552	80065.45
464.908	80064.53
465.263	80065.38
465.618	80064.75
465.974	80064.16
466.329	80066.04
466.684	80066.89
467.039	80067.89
467.394	80069.71
467.749	80070.67
468.104	80072.85
468.459	80073.4
468.814	80073.77
469.169	80073.03
469.524	80074.55
469.879	80076.22
470.233	80077.18
470.588	80079.95
470.943	80081.29
471.297	80080.81
471.652	80081.58
472.006	80081.51
472.361	80081.95
472.715	80081.66
473.07	80082.99
473.424	80083.69
473.778	80084.17
474.133	80085.21
474.487	80085.88
474.841	80084.88
475.195	80087.02
475.549	80088.1
475.903	80088.32
476.257	80089.13
476.611	80091.5
476.965	80091.61
477.319	80091.02
477.673	80092.46
478.026	80091.43
478.38	80091.87
478.734	80092.43
479.087	80093.94
479.441	80095.79
479.795	80096.9
480.148	80095.91
480.502	80095.13
480.855	80095.42
481.208	80096.79
481.562	80097.28
481.915	80097.72
482.268	80098.94
482.621	80098.2
482.974	80098.72
483.328	80099.27
483.681	80098.57
484.034	80097.83
484.387	80097.65
484.739	80097.16
485.092	80096.87
485.445	80097.28
485.798	80096.13
486.151	80096.35
486.503	80096.79
486.856	80096.68
487.209	80097.72
487.561	80100.35
487.914	80100.57
488.266	80099.35
488.618	80098.83
488.971	80098.98
489.323	80098.31
489.675	80097.87
490.028	80096.83
490.38	80096.94
490.732	80097.16
491.084	80098.94
491.436	80099.05
491.788	80099.35
492.14	80099.79
492.492	80101.2
492.844	80101.27
493.196	80101.87
493.548	80102.68
493.899	80100.24
494.251	80100.57
494.603	80098.87
494.954	80097.76
495.306	80098.16
495.657	80098.2
496.009	80098.39
496.36	80098.72
496.712	80100.05
497.063	80101.05
497.414	80102.46
497.765	80102.61
498.117	80102.94
498.468	80102.94
498.819	80103.24
499.17	80103.46
499.521	80103.68
499.872	80103.9
500.223	80103.05
500.574	80102.53
500.924	80101.13
501.275	80102.31
501.626	80101.79
501.977	80102.64
502.327	80102.27
502.678	80103.01
503.029	80105.09
503.379	80105.27
503.73	80104.94
504.08	80103.75
504.43	80103.05
504.781	80101.87
505.131	80099.61
505.481	80098.05
505.831	80096.28
506.182	80097.39
506.532	80096.65
506.882	80096.46
507.232	80095.5
507.582	80094.98
507.932	80094.65
508.281	80095.09
508.631	80095.17
508.981	80093.43
509.331	80092.32
509.681	80092.35
510.03	80091.46
510.38	80090.5
510.729	80088.39
511.079	80089.32
511.428	80089.95
511.778	80089.65
512.127	80089.87
512.476	80090.72
512.826	80091.65
513.175	80093.46
513.524	80091.09
513.873	80091.35
514.222	80091.65
514.571	80091.39
514.92	80092.87
515.269	80094.35
515.618	80094.28
515.967	80094.28
516.316	80096.35
516.665	80097.31
517.014	80097.16
517.362	80097.13
517.711	80096.94
518.059	80097.31
518.408	80097.09
518.757	80097.13
519.105	80096.72
519.453	80097.72
519.802	80098.64
520.15	80098.27
520.498	80097.2
520.847	80098.64
521.195	80099.64
521.543	80098.98
521.891	80098.94
522.239	80098.24
522.587	80097.16
522.935	80097.83
523.283	80096.02
523.631	80094.17
523.979	80093.8
524.326	80093.57
524.674	80093.13
525.022	80092.43
525.369	80093.43
525.717	80093.65
526.064	80093.02
526.412	80093.98
526.759	80093.87
527.107	80092.43
527.454	80092.35
527.801	80091.8
528.149	80091.5
528.496	80090.69
528.843	80092.8
529.19	80093.57
529.537	80093.13
529.884	80093.87
530.231	80094.06
530.578	80097.2
530.925	80099.42
531.272	80099.24
531.619	80098.87
531.966	80101.5
532.312	80102.61
532.659	80102.57
533.006	80102.68
533.352	80102.83
533.699	80102.75
534.045	80102.27
534.392	80101.27
534.738	80101.72
535.084	80102.61
535.431	80102.16
535.777	80101.98
536.123	80100.2
536.469	80099.53
536.815	80100.39
537.161	80099.94
537.507	80098.72
537.853	80097.16
538.199	80096.24
538.545	80096.17
538.891	80098.09
539.237	80096.42
539.582	80096.98
539.928	80097.9
540.274	80097.2
540.619	80097.42
540.965	80097.72
541.31	80098.5
541.656	80100.27
542.001	80099.87
542.347	80099.57
542.692	80100.5
543.037	80099.35
543.382	80099.16
543.728	80099.98
544.073	80100.13
544.418	80101.83
544.763	80103.61
545.108	80104.53
545.453	80104.72
545.798	80105.27
546.142	80104.49
546.487	80104.64
546.832	80103.53
547.177	80101.79
547.521	80100.13
547.866	80100.87
548.211	80099.27
548.555	80098.57
548.9	80099.46
549.244	80099.68
549.588	80100.39
549.933	80100.13
550.277	80101.5
550.621	80100.09
550.965	80099.98
551.31	80100.46
551.654	80098.28
551.998	80097.42
552.342	80096.46
552.686	80095.54
553.03	80095.28
553.373	80095.39
553.717	80095.83
554.061	80095.65
554.405	80096.13
554.748	80096.79
555.092	80097.2
555.436	80098.09
555.779	80098.46
556.123	80096.83
556.466	80097.42
556.81	80097.61
557.153	80097.9
557.496	80098.31
557.839	80100.13
558.183	80101.12
558.526	80099.27
558.869	80100.16
559.212	80099.61
559.555	80099.46
559.898	80099.5
560.241	80100.01
560.584	80100.75
560.927	80102.05
561.269	80104.16
561.612	80104.83
561.955	80105.12
562.297	80104.53
562.64	80104.9
562.983	80103.9
563.325	80103.98
563.668	80103.42
564.01	80101.27
564.352	80100.64
564.695	80100.72
565.037	80100.02
565.379	80098.98
565.721	80100.42
566.063	80100.02
566.406	80101.31
566.748	80102.27
567.09	80101.9
567.431	80101.05
567.773	80099.09
568.115	80097.39
568.457	80095.68
568.799	80095.72
569.14	80095.87
569.482	80095.39
569.824	80095.13
570.165	80095.42
570.507	80095.31
570.848	80094.94
571.19	80095.72
571.531	80095.83
571.872	80095.35
572.214	80096.35
572.555	80095.13
572.896	80094.35
573.237	80093.43
573.578	80092.17
573.919	80091.76
574.26	80092.54
574.601	80092.57
574.942	80094.05
575.283	80094.24
575.624	80094.09
575.964	80091.98
576.305	80091.17
576.646	80089.76
576.986	80089.21
577.327	80090.24
577.667	80090.17
578.008	80090.32
578.348	80090.87
578.689	80090.09
579.029	80089.5
579.369	80089.1
579.71	80089.91
580.05	80089.84
580.39	80090.8
580.73	80090.28
581.07	80089.28
581.41	80087.95
581.75	80088.47
582.09	80085.25
582.43	80084.47
582.769	80083.21
583.109	80084.06
583.449	80083.88
583.789	80084.28
584.128	80085.1
584.468	80083.77
584.807	80083.62
585.147	80081.47
585.486	80080.55
585.825	80081.69
