Data from 24HourExp_27052025_FLMS018081_05-38-20-056.txt Node
Date: Wed May 28 05:38:20 BST 2025
User: adleo
Spectrometer: FLMS01808
Trigger mode: 0
Integration Time (sec): 4.000000E-1
Scans to average: 10
Electric dark correction enabled: true
Nonlinearity correction enabled: true
Boxcar width: 10
XAxis mode: Wavelengths
Number of Pixels in Spectrum: 2048
>>>>>Begin Spectral Data<<<<<
178.471	-129.31
178.857	-120.57
179.244	-114.32
179.631	-106.75
180.017	-99.24
180.404	-92.59
180.79	-81.17
181.176	-72.16
181.563	-62.36
181.949	-50.48
182.335	-39.71
182.722	-24.28
183.108	-6.18
183.494	20.13
183.88	73.12
184.266	125.64
184.653	179.86
185.039	234.81
185.425	291.77
185.811	345.64
186.197	400.41
186.582	451.47
186.968	502.85
187.354	554.31
187.74	605.78
188.126	657.42
188.511	708.53
188.897	754.96
189.283	802.81
189.668	846.46
190.054	890.16
190.439	934.33
190.825	978.66
191.21	1020.89
191.596	1053.4
191.981	1062.03
192.366	1067.56
192.752	1069.61
193.137	1072.04
193.522	1072.71
193.908	1073.38
194.293	1075.34
194.678	1076.69
195.063	1077.9
195.448	1082.43
195.833	1083.42
196.218	1083.11
196.603	1082.89
196.988	1082.07
197.373	1081.75
197.757	1083.86
198.142	1083.07
198.527	1080.39
198.912	1079.81
199.296	1078.73
199.681	1079.94
200.066	1078.2
200.45	1077.53
200.835	1077.82
201.219	1078.79
201.604	1078.51
201.988	1079.44
202.372	1080.13
202.757	1082.89
203.141	1084.23
203.525	1083.49
203.91	1082.35
204.294	1081.23
204.678	1080.84
205.062	1081.52
205.446	1081.27
205.83	1082.96
206.214	1083.71
206.598	1084.43
206.982	1087.27
207.366	1087.76
207.75	1087.49
208.134	1088.9
208.517	1088.25
208.901	1089.09
209.285	1090.75
209.669	1092.93
210.052	1094
210.436	1092.06
210.819	1091.05
211.203	1090.1
211.586	1090.19
211.97	1093.34
212.353	1094.84
212.737	1096.9
213.12	1097.88
213.503	1099.67
213.886	1100.76
214.27	1101.15
214.653	1103.35
215.036	1102.78
215.419	1103.98
215.802	1106.31
216.185	1110.29
216.568	1114.95
216.951	1118.73
217.334	1119.68
217.717	1122.21
218.1	1123.25
218.482	1129.22
218.865	1133.14
219.248	1137.41
219.631	1141.63
220.013	1144.58
220.396	1152.14
220.778	1158.57
221.161	1166.3
221.544	1173.04
221.926	1180.59
222.308	1188.59
222.691	1196.56
223.073	1204.42
223.455	1213.63
223.838	1222.23
224.22	1229.13
224.602	1238.61
224.984	1247.44
225.366	1260.24
225.749	1273.84
226.131	1288.98
226.513	1301.85
226.895	1316.11
227.276	1330.13
227.658	1344.62
228.04	1358.81
228.422	1374.42
228.804	1389.15
229.186	1405.36
229.567	1423.57
229.949	1439.31
230.331	1455.45
230.712	1473.24
231.094	1492.77
231.475	1512.24
231.857	1532.29
232.238	1550.79
232.62	1570.36
233.001	1589.83
233.382	1609.92
233.763	1627.67
234.145	1646.74
234.526	1665.86
234.907	1683.03
235.288	1704.47
235.669	1722.72
236.05	1743.82
236.431	1761.5
236.812	1783.33
237.193	1802.95
237.574	1823.68
237.955	1844.51
238.336	1866.73
238.717	1888.43
239.097	1911.46
239.478	1932.3
239.859	1953.53
240.239	1978.78
240.62	2000.96
241.001	2023.85
241.381	2047.81
241.762	2070.44
242.142	2093.15
242.522	2118.48
242.903	2145.78
243.283	2170.74
243.663	2196.95
244.044	2223.91
244.424	2254.07
244.804	2279.52
245.184	2308.09
245.564	2334.57
245.944	2365.15
246.324	2395.15
246.704	2426.64
247.084	2454.75
247.464	2485.49
247.844	2516.39
248.224	2545.63
248.604	2577.11
248.983	2607.83
249.363	2639.68
249.743	2670.37
250.122	2699.26
250.502	2729.66
250.882	2760.15
251.261	2791.39
251.641	2824.02
252.02	2854.96
252.399	2885.71
252.779	2923.11
253.158	2957.24
253.537	2996.13
253.917	3037.73
254.296	3076.4
254.675	3114.06
255.054	3154.14
255.433	3196.26
255.812	3235.58
256.191	3277.17
256.57	3320.37
256.949	3364.94
257.328	3406.84
257.707	3453.84
258.086	3505.07
258.465	3553.09
258.843	3604.33
259.222	3654.14
259.601	3707.15
259.979	3761.03
260.358	3813.93
260.736	3866.29
261.115	3921.87
261.493	3973.07
261.872	4022.16
262.25	4078.73
262.629	4135.21
263.007	4193.82
263.385	4252.43
263.763	4311.76
264.142	4375.46
264.52	4436.38
264.898	4502.09
265.276	4567.12
265.654	4634.48
266.032	4701.62
266.41	4769.55
266.788	4838.43
267.166	4914.75
267.544	4988.01
267.921	5066.88
268.299	5144.88
268.677	5224.76
269.055	5306.73
269.432	5393.7
269.81	5479.55
270.188	5567.06
270.565	5653.47
270.943	5743.37
271.32	5831.62
271.697	5927.98
272.075	6024.07
272.452	6122.49
272.829	6218.64
273.207	6320.3
273.584	6423.68
273.961	6526.95
274.338	6642.14
274.715	6758.28
275.092	6874.6
275.469	6995.65
275.846	7115.7
276.223	7239.65
276.6	7362.73
276.977	7487.31
277.354	7611.02
277.731	7737.38
278.108	7865.07
278.484	7997.65
278.861	8130.34
279.238	8268.76
279.614	8405.65
279.991	8545.7
280.367	8688.54
280.744	8838.01
281.12	8986.24
281.497	9133.64
281.873	9285.1
282.249	9431.2
282.625	9576.57
283.002	9724.9
283.378	9871.78
283.754	10019.06
284.13	10174.21
284.506	10328.95
284.882	10487.49
285.258	10641.48
285.634	10797.84
286.01	10961.19
286.386	11120.89
286.762	11282.94
287.138	11444.22
287.513	11606.97
287.889	11768.75
288.265	11929.8
288.641	12087.89
289.016	12248.58
289.392	12410.77
289.767	12575.11
290.143	12740.52
290.518	12901.62
290.894	13064.49
291.269	13222.88
291.644	13383.18
292.02	13533.95
292.395	13687.43
292.77	13842.39
293.145	14000.04
293.52	14158.76
293.895	14305.79
294.27	14458.24
294.646	14609.97
295.02	14757.53
295.395	14916
295.77	15072.83
296.145	15228.13
296.52	15386.38
296.895	15537.58
297.269	15691.81
297.644	15847.19
298.019	15995.41
298.393	16148.95
298.768	16294.74
299.143	16453.04
299.517	16603.2
299.891	16759.42
300.266	16922.62
300.64	17076.21
301.015	17237.49
301.389	17405.5
301.763	17579.68
302.137	17750.43
302.512	17930.41
302.886	18109.76
303.26	18288.49
303.634	18464.76
304.008	18635.88
304.382	18815.4
304.756	19000.55
305.13	19187.82
305.504	19366.17
305.877	19559.03
306.251	19764.28
306.625	19975.09
306.999	20186.54
307.372	20404.05
307.746	20619.44
308.119	20825.08
308.493	21041.37
308.866	21253.08
309.24	21460.13
309.613	21667.11
309.987	21877.17
310.36	22073.84
310.733	22278.39
311.107	22496.12
311.48	22718.01
311.853	22958.48
312.226	23179.48
312.599	23409.52
312.972	23633.13
313.345	23860.42
313.718	24087.16
314.091	24307.46
314.464	24529.21
314.837	24746.28
315.21	24958.71
315.582	25179.18
315.955	25395.18
316.328	25614.47
316.7	25830.07
317.073	26052.83
317.446	26278.87
317.818	26508.25
318.191	26734.62
318.563	26958.45
318.936	27158.56
319.308	27354.08
319.68	27552.2
320.053	27749.02
320.425	27937.73
320.797	28118.94
321.169	28282.13
321.541	28428.09
321.913	28560.55
322.285	28684.65
322.657	28814.1
323.029	28963.73
323.401	29106.23
323.773	29269.06
324.145	29438.86
324.517	29622.98
324.889	29803.09
325.26	29999.58
325.632	30213.9
326.004	30448.64
326.375	30713.26
326.747	30988.36
327.118	31294.49
327.49	31576.37
327.861	31891.42
328.233	32193.63
328.604	32501.18
328.975	32820.37
329.346	33130.85
329.718	33434.56
330.089	33735.74
330.46	34027.36
330.831	34294.62
331.202	34548.25
331.573	34793.99
331.944	35020.98
332.315	35249.64
332.686	35462.74
333.057	35664.49
333.428	35842.71
333.799	36011.93
334.169	36164.38
334.54	36306.35
334.911	36416.44
335.281	36550.44
335.652	36669.03
336.022	36802.5
336.393	36946.97
336.763	37108.24
337.134	37299.23
337.504	37502.88
337.874	37704.11
338.245	37908.85
338.615	38125.96
338.985	38358.71
339.355	38581.93
339.726	38808.71
340.096	39032.56
340.466	39284.39
340.836	39530.14
341.206	39772.63
341.576	40020.43
341.945	40259.59
342.315	40490.36
342.685	40736.04
343.055	40979.01
343.425	41217.98
343.794	41451.71
344.164	41690.46
344.533	41921.81
344.903	42147.25
345.273	42376.89
345.642	42607.67
346.011	42826.65
346.381	43060.22
346.75	43294.24
347.12	43542.76
347.489	43790.63
347.858	44027.91
348.227	44236.99
348.596	44446.6
348.965	44689.1
349.334	44916.27
349.704	45156.33
350.072	45400.98
350.441	45636.6
350.81	45876.89
351.179	46104.46
351.548	46339.34
351.917	46557.61
352.285	46752.14
352.654	46959.01
353.023	47169.29
353.391	47360.48
353.76	47585.29
354.129	47771.24
354.497	47995.56
354.865	48210.46
355.234	48440.43
355.602	48661.74
355.971	48913.94
356.339	49133.93
356.707	49339.55
357.075	49560.68
357.443	49773.98
357.811	49985.27
358.18	50198.48
358.548	50410.47
358.916	50623.21
359.284	50839.82
359.651	51054.97
360.019	51274.86
360.387	51473.81
360.755	51671.14
361.123	51904.29
361.49	52127.62
361.858	52348.97
362.226	52550.49
362.593	52754.18
362.961	52933.51
363.328	53135.33
363.696	53293.98
364.063	53514.48
364.43	53722.37
364.798	53940.45
365.165	54121
365.532	54311.12
365.899	54494.8
366.267	54658.17
366.634	54801.85
367.001	54966.08
367.368	55109.69
367.735	55291.34
368.102	55462.22
368.469	55652.09
368.835	55832.01
369.202	55987.52
369.569	56172.36
369.936	56349.65
370.303	56527.98
370.669	56723.34
371.036	56890.17
371.402	57097.08
371.769	57271.64
372.135	57422.48
372.502	57540.86
372.868	57686.51
373.235	57826.15
373.601	57958.92
373.967	58127.53
374.333	58321.94
374.7	58501.01
375.066	58698.58
375.432	58882.64
375.798	59066.71
376.164	59233.59
376.53	59376.21
376.896	59550.47
377.262	59722.11
377.628	59850.37
377.993	60003.28
378.359	60151.51
378.725	60308.76
379.091	60461.75
379.456	60592.1
379.822	60723.15
380.187	60865.34
380.553	61051.54
380.918	61246.44
381.284	61420.64
381.649	61597.03
382.015	61733.14
382.38	61857.7
382.745	62022.92
383.11	62175.04
383.476	62313.27
383.841	62442.87
384.206	62605.79
384.571	62724.88
384.936	62851.28
385.301	63028.95
385.666	63160.19
386.031	63310.85
386.396	63460.39
386.76	63607.09
387.125	63798.58
387.49	63999.97
387.855	64201.66
388.219	64366.9
388.584	64536.02
388.948	64730.37
389.313	64883.59
389.677	65084.51
390.042	65311.33
390.406	65460.51
390.771	65648.63
391.135	65841.54
391.499	66073.86
391.863	66301.31
392.227	66540.97
392.592	66748.57
392.956	66937.38
393.32	67137.75
393.684	67349.47
394.048	67527.75
394.412	67712.95
394.775	67865.61
395.139	68013.02
395.503	68171.97
395.867	68322.49
396.231	68460.85
396.594	68562.24
396.958	68700.83
397.321	68862.44
397.685	68988.93
398.048	69135.32
398.412	69261.7
398.775	69390.95
399.139	69508.18
399.502	69617.11
399.865	69753.05
400.228	69940.28
400.592	70081.94
400.955	70264.35
401.318	70399.61
401.681	70556.92
402.044	70683.17
402.407	70838.11
402.77	70992.61
403.133	71172.32
403.496	71312
403.859	71470.72
404.221	71706.95
404.584	71945.17
404.947	72182.87
405.309	72383.21
405.672	72617.16
406.034	72832.39
406.397	73077.02
406.759	73297.9
407.122	73471.1
407.484	73643.1
407.847	73827.88
408.209	74072.29
408.571	74303.32
408.933	74563.93
409.296	74816.91
409.658	75057.31
410.02	75327.15
410.382	75643.43
410.744	75904.48
411.106	76196.85
411.468	76467.03
411.83	76706.94
412.191	76908.21
412.553	77086.03
412.915	77309.27
413.277	77518.05
413.638	77728.31
414	77903.26
414.361	78087.75
414.723	78325.62
415.084	78544.41
415.446	78719.34
415.807	78860.98
416.169	78974.81
416.53	79065.19
416.891	79178.46
417.252	79314.92
417.614	79394.14
417.975	79435.9
418.336	79490.53
418.697	79548.13
419.058	79603.12
419.419	79645.84
419.78	79691.37
420.141	79723.83
420.501	79749.82
420.862	79770.8
421.223	79789.21
421.584	79827.96
421.944	79849.4
422.305	79861.34
422.666	79870.96
423.026	79874.87
423.387	79886.47
423.747	79896.46
424.107	79908.58
424.468	79919.31
424.828	79923.74
425.188	79928.99
425.549	79937.25
425.909	79942.24
426.269	79941.65
426.629	79946
426.989	79950.29
427.349	79955.94
427.709	79960.67
428.069	79964.4
428.429	79969.79
428.789	79977.66
429.149	79982.46
429.508	79987.86
429.868	79993.99
430.228	79999.2
430.587	80002.89
430.947	80007.81
431.306	80014.13
431.666	80017.6
432.025	80020.52
432.385	80024.07
432.744	80027.07
433.103	80028.21
433.463	80031.21
433.822	80039.07
434.181	80042.55
434.54	80044.62
434.899	80045.84
435.258	80048.02
435.618	80049.57
435.976	80052.5
436.335	80051.42
436.694	80052.05
437.053	80052.9
437.412	80053.35
437.771	80053.98
438.129	80054.9
438.488	80055.27
438.847	80056.49
439.205	80057.3
439.564	80059.6
439.922	80059.89
440.281	80059.86
440.639	80062.11
440.997	80061.45
441.356	80062.37
441.714	80063.26
442.072	80064.11
442.431	80063.93
442.789	80063.33
443.147	80062.93
443.505	80063.22
443.863	80066.92
444.221	80067.52
444.579	80068.37
444.937	80069.11
445.294	80070.62
445.652	80071.14
446.01	80073.36
446.368	80072.62
446.725	80073.14
447.083	80071.77
447.441	80071.99
447.798	80072.77
448.156	80072.81
448.513	80073.88
448.87	80074.84
449.228	80074.25
449.585	80074.51
449.942	80075.8
450.3	80077.14
450.657	80079.5
451.014	80079.43
451.371	80077.99
451.728	80078.5
452.085	80078.02
452.442	80076.95
452.799	80075.84
453.156	80076.76
453.513	80075.54
453.869	80075.84
454.226	80075.06
454.583	80075.21
454.939	80076.28
455.296	80077.54
455.653	80079.5
456.009	80079.43
456.366	80078.65
456.722	80079.28
457.078	80080.21
457.435	80079.47
457.791	80080.69
458.147	80079.36
458.503	80080.58
458.86	80081.35
459.216	80080.72
459.572	80081.02
459.928	80082.46
460.284	80083.72
460.64	80083.2
460.996	80084.09
461.351	80084.39
461.707	80085.79
462.063	80086.68
462.419	80086.2
462.774	80087.2
463.13	80086.35
463.486	80086.53
463.841	80087.09
464.197	80087.57
464.552	80087.42
464.908	80086.94
465.263	80086.76
465.618	80088.53
465.974	80086.87
466.329	80086.54
466.684	80087.72
467.039	80087.16
467.394	80087.5
467.749	80087.79
468.104	80090.72
468.459	80091.46
468.814	80093.2
469.169	80093.12
469.524	80091.79
469.879	80092.01
470.233	80091.16
470.588	80092.9
470.943	80094.64
471.297	80093.53
471.652	80095.01
472.006	80094.94
472.361	80097.34
472.715	80098.38
473.07	80098.01
473.424	80100.75
473.778	80098.68
474.133	80100.01
474.487	80101.94
474.841	80103.19
475.195	80103.12
475.549	80102.08
475.903	80101.19
476.257	80101.68
476.611	80103.56
476.965	80106.86
477.319	80109.3
477.673	80109.71
478.026	80108.12
478.38	80107.49
478.734	80109.97
479.087	80109.12
479.441	80111.08
479.795	80111.04
480.148	80110.41
480.502	80111.37
480.855	80112.34
481.208	80115.11
481.562	80114.96
481.915	80115.63
482.268	80115.26
482.621	80115.85
482.974	80116.08
483.328	80118.15
483.681	80117.19
484.034	80117.07
484.387	80116.59
484.739	80116.33
485.092	80116.96
485.445	80117.85
485.798	80118.89
486.151	80119.81
486.503	80120.93
486.856	80119.59
487.209	80119.89
487.561	80120.41
487.914	80119.59
488.266	80118.37
488.618	80117.96
488.971	80117.96
489.323	80117
489.675	80117.52
490.028	80117.48
490.38	80117.33
490.732	80118.15
491.084	80117.48
491.436	80117.26
491.788	80117.45
492.14	80118.08
492.492	80119.37
492.844	80120.11
493.196	80119.19
493.548	80118.63
493.899	80118.93
494.251	80120.04
494.603	80120.48
494.954	80121.41
495.306	80120.52
495.657	80122.37
496.009	80122.78
496.36	80122.74
496.712	80124.59
497.063	80122.63
497.414	80123.85
497.765	80124.56
498.117	80123.3
498.468	80124.63
498.819	80125.11
499.17	80123.78
499.521	80122.04
499.872	80121.26
500.223	80121.67
500.574	80121.7
500.924	80121.56
501.275	80122.45
501.626	80123.19
501.977	80122.19
502.327	80122.37
502.678	80125.52
503.029	80123.67
503.379	80124.04
503.73	80124.56
504.08	80122.74
504.43	80122.82
504.781	80123.26
505.131	80123.56
505.481	80122.78
505.831	80121.71
506.182	80121
506.532	80122.71
506.882	80123.15
507.232	80122.59
507.582	80122.22
507.932	80122.93
508.281	80123.74
508.631	80122.52
508.981	80120.04
509.331	80121.63
509.681	80120.26
510.03	80117.26
510.38	80119.37
510.729	80120.08
511.079	80120.19
511.428	80121.19
511.778	80121.89
512.127	80119.82
512.476	80119.37
512.826	80120.08
513.175	80121.52
513.524	80122.37
513.873	80122.63
514.222	80122.37
514.571	80120.48
514.92	80120.04
515.269	80121.3
515.618	80120.3
515.967	80118.71
516.316	80121.19
516.665	80119.78
517.014	80120.48
517.362	80120.11
517.711	80117.74
518.059	80116.04
518.408	80114.93
518.757	80115.15
519.105	80115.97
519.453	80118.19
519.802	80118.74
520.15	80118.48
520.498	80116.56
520.847	80115.26
521.195	80113.37
521.543	80113.3
521.891	80116.04
522.239	80115.97
522.587	80115.78
522.935	80117
523.283	80118.93
523.631	80117.48
523.979	80118.93
524.326	80119.93
524.674	80122.15
525.022	80122.78
525.369	80124.11
525.717	80125.41
526.064	80123.85
526.412	80123.48
526.759	80122.82
527.107	80122.37
527.454	80122.48
527.801	80123.85
528.149	80124.67
528.496	80125.04
528.843	80124.81
529.19	80122.81
529.537	80123.82
529.884	80123.41
530.231	80122.26
530.578	80122.07
530.925	80122.96
531.272	80122.44
531.619	80120.89
531.966	80120.04
532.312	80120.22
532.659	80121.04
533.006	80121
533.352	80122.22
533.699	80123.3
534.045	80122.11
534.392	80121.85
534.738	80122
535.084	80123
535.431	80123.63
535.777	80124.07
536.123	80125
536.469	80125.63
536.815	80123.33
537.161	80123.22
537.507	80122.07
537.853	80121.44
538.199	80119.96
538.545	80118.67
538.891	80119.3
539.237	80119.26
539.582	80119.3
539.928	80118
540.274	80118.37
540.619	80119.48
540.965	80118.22
541.31	80118.41
541.656	80120.08
542.001	80119.78
542.347	80119.67
542.692	80119.48
543.037	80118.45
543.382	80118.74
543.728	80120.96
544.073	80121.26
544.418	80120.3
544.763	80121.41
545.108	80121.04
545.453	80122.11
545.798	80121.04
546.142	80121.19
546.487	80122.45
546.832	80121.52
547.177	80123.59
547.521	80124.78
547.866	80125.04
548.211	80125.82
548.555	80127.41
548.9	80126.19
549.244	80125.93
549.588	80124.08
549.933	80123.78
550.277	80124.74
550.621	80124.15
550.965	80122.11
551.31	80121.71
551.654	80123.19
551.998	80123.04
552.342	80123.41
552.686	80124.37
553.03	80126.7
553.373	80126.74
553.717	80125.26
554.061	80125.59
554.405	80124.41
554.748	80122.26
555.092	80121.37
555.436	80120.85
555.779	80118.74
556.123	80118.48
556.466	80118.63
556.81	80119.52
557.153	80120
557.496	80119.74
557.839	80120.44
558.183	80120.52
558.526	80121.89
558.869	80120.22
559.212	80120.15
559.555	80119.59
559.898	80118.89
560.241	80118.44
560.584	80118.93
560.927	80120.82
561.269	80121.93
561.612	80121.48
561.955	80121.52
562.297	80120.41
562.64	80121.93
562.983	80124.37
563.325	80124.78
563.668	80125.33
564.01	80124.52
564.352	80122.48
564.695	80120.93
565.037	80120.3
565.379	80120.78
565.721	80120.15
566.063	80119.26
566.406	80119.93
566.748	80120.82
567.09	80122.08
567.431	80121.48
567.773	80120.37
568.115	80118.89
568.457	80118.67
568.799	80117.85
569.14	80118.56
569.482	80118.93
569.824	80117.67
570.165	80114.67
570.507	80114.11
570.848	80114
571.19	80115.34
571.531	80115.71
571.872	80116.59
572.214	80117
572.555	80117.33
572.896	80118.96
573.237	80119.67
573.578	80118.52
573.919	80119.08
574.26	80117.78
574.601	80119.33
574.942	80117.78
575.283	80117.04
575.624	80116.67
575.964	80116.82
576.305	80116.37
576.646	80116.78
576.986	80116.71
577.327	80117.74
577.667	80118.78
578.008	80117.93
578.348	80117.37
578.689	80119.19
579.029	80119.82
579.369	80119.85
579.71	80118.11
580.05	80116.59
580.39	80117.26
580.73	80117.78
581.07	80117.26
581.41	80117.52
581.75	80115.22
582.09	80116.3
582.43	80115.96
582.769	80115.48
583.109	80114.89
583.449	80112.67
583.789	80111.26
584.128	80110.34
584.468	80109.82
584.807	80109.08
585.147	80110.08
585.486	80109.6
