Data from 24HourExp_27052025_FLMS018081_02-18-20-540.txt Node
Date: Wed May 28 02:18:20 BST 2025
User: adleo
Spectrometer: FLMS01808
Trigger mode: 0
Integration Time (sec): 4.000000E-1
Scans to average: 10
Electric dark correction enabled: true
Nonlinearity correction enabled: true
Boxcar width: 10
XAxis mode: Wavelengths
Number of Pixels in Spectrum: 2048
>>>>>Begin Spectral Data<<<<<
178.471	-127.62
178.857	-119.21
179.244	-113.18
179.631	-103.39
180.017	-95.85
180.404	-88.31
180.79	-76.4
181.176	-67.65
181.563	-59.63
181.949	-49.06
182.335	-39.26
182.722	-23.93
183.108	-5.06
183.494	21.38
183.88	75.99
184.266	128.79
184.653	185.36
185.039	239.96
185.425	295.47
185.811	348.65
186.197	401.67
186.582	453.03
186.968	503.23
187.354	555.7
187.74	604.53
188.126	654.7
188.511	704.15
188.897	751.55
189.283	799.4
189.668	846.54
190.054	890.07
190.439	936.25
190.825	979.39
191.21	1020.47
191.596	1052.98
191.981	1060.69
192.366	1065.64
192.752	1067.82
193.137	1071.46
193.522	1074.49
193.908	1075.93
194.293	1078.22
194.678	1080.61
195.063	1085.2
195.448	1085.61
195.833	1087.52
196.218	1087.35
196.603	1087.31
196.988	1086.63
197.373	1087.63
197.757	1087.63
198.142	1089.11
198.527	1086.43
198.912	1085.16
199.296	1083.44
199.681	1082.64
200.066	1081.26
200.45	1080.89
200.835	1080.27
201.219	1079.2
201.604	1077.25
201.988	1077.92
202.372	1078.22
202.757	1078.65
203.141	1079.28
203.525	1081.16
203.91	1080
204.294	1080.78
204.678	1082.69
205.062	1082.6
205.446	1082.46
205.83	1083.56
206.214	1082.58
206.598	1083.19
206.982	1085.34
207.366	1084.67
207.75	1085.83
208.134	1086.92
208.517	1088.62
208.901	1087.88
209.285	1088.21
209.669	1090.03
210.052	1090.7
210.436	1090.38
210.819	1091.37
211.203	1090.13
211.586	1089.34
211.97	1090.25
212.353	1091.3
212.737	1091.33
213.12	1092.36
213.503	1092.75
213.886	1093.46
214.27	1096.31
214.653	1098.88
215.036	1100.56
215.419	1103.71
215.802	1106.11
216.185	1107.52
216.568	1108.73
216.951	1111.71
217.334	1114.68
217.717	1118.39
218.1	1120.89
218.482	1125.53
218.865	1128.57
219.248	1133.12
219.631	1139.16
220.013	1143.86
220.396	1150.05
220.778	1153.34
221.161	1159.52
221.544	1165.93
221.926	1173.67
222.308	1180.54
222.691	1188.14
223.073	1196.88
223.455	1204.82
223.838	1214.54
224.22	1224.19
224.602	1234.95
224.984	1247
225.366	1259.05
225.749	1273.32
226.131	1285.9
226.513	1299.52
226.895	1313.87
227.276	1326.02
227.658	1340.11
228.04	1356.43
228.422	1370.53
228.804	1390.66
229.186	1406.36
229.567	1425.36
229.949	1442.75
230.331	1460.34
230.712	1477.47
231.094	1495.12
231.475	1514.86
231.857	1533.35
232.238	1555.25
232.62	1575.05
233.001	1594.13
233.382	1615.73
233.763	1633.94
234.145	1655.82
234.526	1677.06
234.907	1695.97
235.288	1715.92
235.669	1736.3
236.05	1756.06
236.431	1777.47
236.812	1797.97
237.193	1819.72
237.574	1839.46
237.955	1860.13
238.336	1881.9
238.717	1905.42
239.097	1927.35
239.478	1949.15
239.859	1972.36
240.239	1994.22
240.62	2018.25
241.001	2041.07
241.381	2064.55
241.762	2088.23
242.142	2109.9
242.522	2131.82
242.903	2157.36
243.283	2184.98
243.663	2210.42
244.044	2239.1
244.424	2268.57
244.804	2295.72
245.184	2325.95
245.564	2353.89
245.944	2383.58
246.324	2414.52
246.704	2443.64
247.084	2472.82
247.464	2505.46
247.844	2538.63
248.224	2568.18
248.604	2598.24
248.983	2629.72
249.363	2663.5
249.743	2694.78
250.122	2727.6
250.502	2760.14
250.882	2792.74
251.261	2824.09
251.641	2857.85
252.02	2891.07
252.399	2926.02
252.779	2960.64
253.158	2995
253.537	3035.6
253.917	3079.81
254.296	3117.43
254.675	3157.71
255.054	3199.87
255.433	3242.58
255.812	3280.72
256.191	3325.87
256.57	3367.6
256.949	3414.97
257.328	3455.91
257.707	3501.95
258.086	3548.61
258.465	3596.62
258.843	3649.37
259.222	3702.96
259.601	3756.9
259.979	3809.55
260.358	3863.38
260.736	3918.64
261.115	3976.63
261.493	4029.21
261.872	4079.57
262.25	4136.56
262.629	4192.45
263.007	4252.14
263.385	4311.64
263.763	4374.99
264.142	4436.44
264.52	4503.26
264.898	4565.01
265.276	4631.75
265.654	4700.36
266.032	4769.09
266.41	4840.55
266.788	4910.47
267.166	4986.89
267.544	5060.16
267.921	5139.49
268.299	5216.19
268.677	5295.48
269.055	5376.53
269.432	5462.88
269.81	5551.3
270.188	5638.71
270.565	5728.46
270.943	5817.67
271.32	5907.32
271.697	6001.3
272.075	6097.82
272.452	6194.57
272.829	6295.35
273.207	6397.63
273.584	6501.77
273.961	6607.68
274.338	6720.18
274.715	6835.87
275.092	6953.74
275.469	7074.77
275.846	7194.6
276.223	7319.61
276.6	7443.31
276.977	7570.11
277.354	7695.01
277.731	7819.03
278.108	7950.4
278.484	8083.01
278.861	8220.14
279.238	8362.22
279.614	8499.9
279.991	8639.66
280.367	8782.47
280.744	8930.77
281.12	9080.59
281.497	9229.06
281.873	9380.75
282.249	9529.4
282.625	9677.14
283.002	9822.02
283.378	9968.68
283.754	10119.11
284.13	10272.16
284.506	10431.7
284.882	10588.86
285.258	10743.78
285.634	10903.57
286.01	11065.07
286.386	11225.54
286.762	11387.89
287.138	11548.81
287.513	11716.02
287.889	11878.48
288.265	12037.71
288.641	12194.05
289.016	12353.95
289.392	12519.41
289.767	12682.14
290.143	12848.85
290.518	13007.99
290.894	13170.52
291.269	13330.21
291.644	13490.76
292.02	13641.96
292.395	13793.36
292.77	13946.04
293.145	14104.58
293.52	14261.43
293.895	14409.54
294.27	14566.64
294.646	14721.15
295.02	14865.68
295.395	15015.95
295.77	15174.05
296.145	15335.13
296.52	15497.98
296.895	15653.95
297.269	15804.82
297.644	15959.05
298.019	16112.04
298.393	16268.6
298.768	16418.57
299.143	16570.8
299.517	16722.89
299.891	16880.82
300.266	17043.04
300.64	17204.88
301.015	17363.24
301.389	17534.63
301.763	17712.65
302.137	17880.43
302.512	18054.05
302.886	18232.45
303.26	18409.83
303.634	18587.43
304.008	18762.55
304.382	18940.1
304.756	19124.02
305.13	19312.15
305.504	19491.85
305.877	19682.78
306.251	19889.53
306.625	20092.03
306.999	20307.38
307.372	20517.6
307.746	20732.64
308.119	20940.59
308.493	21153.14
308.866	21365.68
309.24	21573
309.613	21772.54
309.987	21980.74
310.36	22179.67
310.733	22388.6
311.107	22609.01
311.48	22821.26
311.853	23052.14
312.226	23278.3
312.599	23506.33
312.972	23732.79
313.345	23964.62
313.718	24188.38
314.091	24402.71
314.464	24631.03
314.837	24854.94
315.21	25068.77
315.582	25288.95
315.955	25503.23
316.328	25718.42
316.7	25935.3
317.073	26154.66
317.446	26381
317.818	26604.54
318.191	26834.95
318.563	27062.23
318.936	27273.36
319.308	27489.06
319.68	27684.26
320.053	27879.8
320.425	28067.33
320.797	28249.24
321.169	28412.91
321.541	28561.62
321.913	28697.95
322.285	28818.32
322.657	28946.43
323.029	29095.65
323.401	29242.76
323.773	29413.01
324.145	29590.61
324.517	29788.03
324.889	29967.38
325.26	30169.57
325.632	30391.61
326.004	30626.25
326.375	30883.86
326.747	31163.21
327.118	31460.88
327.49	31757.96
327.861	32071.53
328.233	32378.31
328.604	32687.29
328.975	33004.65
329.346	33316.13
329.718	33629.21
330.089	33940.23
330.46	34230.12
330.831	34502.28
331.202	34757.85
331.573	35000.16
331.944	35225.81
332.315	35448.26
332.686	35670.18
333.057	35871.63
333.428	36043.49
333.799	36216.27
334.169	36366.45
334.54	36500.47
334.911	36618.7
335.281	36748.38
335.652	36866.66
336.022	37003.21
336.393	37147.16
336.763	37313.08
337.134	37500.79
337.504	37695.91
337.874	37897.49
338.245	38106.14
338.615	38321.42
338.985	38554.39
339.355	38781.11
339.726	39003.21
340.096	39221.39
340.466	39471.02
340.836	39712.37
341.206	39960.87
341.576	40209.9
341.945	40458.54
342.315	40689.35
342.685	40938.73
343.055	41181.14
343.425	41424.77
343.794	41654.97
344.164	41883.79
344.533	42121.03
344.903	42353.61
345.273	42585.53
345.642	42815.76
346.011	43042.95
346.381	43283.75
346.75	43516.54
347.12	43754.79
347.489	44004.75
347.858	44248.95
348.227	44460.97
348.596	44683.6
348.965	44928.92
349.334	45151.52
349.704	45384.72
350.072	45631.21
350.441	45861.67
350.81	46103.63
351.179	46334.98
351.548	46573.69
351.917	46804.17
352.285	46991.92
352.654	47199.65
353.023	47413.61
353.391	47614.74
353.76	47828
354.129	48010.37
354.497	48241.47
354.865	48467.34
355.234	48699.59
355.602	48920
355.971	49163.91
356.339	49376.2
356.707	49587.3
357.075	49810.34
357.443	50031.49
357.811	50249.25
358.18	50458.9
358.548	50667.99
358.916	50878.91
359.284	51097.82
359.651	51318.98
360.019	51539.22
360.387	51740.09
360.755	51936.19
361.123	52157.95
361.49	52385.48
361.858	52602.77
362.226	52789.84
362.593	52991.33
362.961	53172.98
363.328	53371.1
363.696	53538.37
364.063	53759.23
364.43	53964.56
364.798	54175.38
365.165	54361.14
365.532	54538.78
365.899	54727.83
366.267	54896.72
366.634	55045.02
367.001	55206.59
367.368	55339.27
367.735	55521.18
368.102	55691.2
368.469	55882.58
368.835	56061.35
369.202	56220.18
369.569	56415.31
369.936	56613.05
370.303	56798.29
370.669	56999.07
371.036	57168.82
371.402	57380.12
371.769	57559.32
372.135	57710.55
372.502	57839.7
372.868	57982.17
373.235	58128.77
373.601	58255.72
373.967	58423.48
374.333	58610.94
374.7	58787.95
375.066	58992.16
375.432	59179.25
375.798	59361.83
376.164	59527.67
376.53	59673.34
376.896	59846.35
377.262	60015.82
377.628	60137.09
377.993	60278.85
378.359	60419.03
378.725	60571.43
379.091	60717.41
379.456	60849.89
379.822	60984.7
380.187	61129.17
380.553	61311.17
380.918	61507.66
381.284	61688.28
381.649	61862.59
382.015	61997.21
382.38	62120.52
382.745	62285.56
383.11	62437.23
383.476	62581.17
383.841	62714.99
384.206	62874.25
384.571	62985.2
384.936	63115.38
385.301	63292.8
385.666	63423.63
386.031	63572.78
386.396	63741.56
386.76	63889.16
387.125	64078.41
387.49	64278.31
387.855	64473.15
388.219	64645.89
388.584	64808.56
388.948	65007.52
389.313	65168.51
389.677	65381.22
390.042	65615.08
390.406	65769.91
390.771	65949.99
391.135	66136.14
391.499	66372.22
391.863	66603.56
392.227	66847.33
392.592	67056.24
392.956	67249.05
393.32	67453.97
393.684	67674.85
394.048	67839.84
394.412	68019.99
394.775	68171.5
395.139	68314.92
395.503	68473.14
395.867	68624.89
396.231	68771.53
396.594	68872.91
396.958	69013.7
397.321	69170.09
397.685	69297.08
398.048	69436.4
398.412	69575.33
398.775	69700.77
399.139	69819.06
399.502	69931.61
399.865	70070.28
400.228	70259.57
400.592	70392.6
400.955	70582.11
401.318	70712.56
401.681	70879.63
402.044	71016.86
402.407	71171.92
402.77	71328.19
403.133	71525.75
403.496	71671.21
403.859	71832.38
404.221	72073.44
404.584	72313.16
404.947	72549.78
405.309	72757.57
405.672	72998.17
406.034	73218.91
406.397	73475.14
406.759	73693
407.122	73873.24
407.484	74047.75
407.847	74230.27
408.209	74479
408.571	74711.47
408.933	74979.12
409.296	75235.18
409.658	75485.24
410.02	75759.34
410.382	76071.13
410.744	76320.76
411.106	76607.84
411.468	76879.06
411.83	77107.56
412.191	77300.92
412.553	77472.48
412.915	77678.68
413.277	77873.55
413.638	78066.94
414	78231.55
414.361	78402.7
414.723	78622.38
415.084	78829.31
415.446	78985.46
415.807	79111.88
416.169	79207.58
416.53	79280.76
416.891	79367.58
417.252	79473.51
417.614	79537.89
417.975	79570.89
418.336	79609.12
418.697	79646.65
419.058	79681.9
419.419	79709.73
419.78	79741.1
420.141	79763.43
420.501	79780.91
420.862	79795.98
421.223	79808.02
421.584	79835.12
421.944	79851.24
422.305	79857.84
422.666	79864.51
423.026	79868.83
423.387	79879.84
423.747	79887.87
424.107	79897.31
424.468	79906.75
424.828	79911.91
425.188	79914.54
425.549	79921.92
425.909	79926.46
426.269	79926.23
426.629	79929.41
426.989	79932.33
427.349	79936.24
427.709	79940.41
428.069	79943.81
428.429	79948.12
428.789	79953.04
429.149	79958.17
429.508	79962.05
429.868	79967.22
430.228	79970.17
430.587	79973.68
430.947	79977.26
431.306	79982.43
431.666	79986.24
432.025	79988.49
432.385	79991.78
432.744	79994.89
433.103	79995.07
433.463	79996.92
433.822	80003.01
434.181	80007.19
434.54	80010
434.899	80011.92
435.258	80013.47
435.618	80015.73
435.976	80018.13
436.335	80018.83
436.694	80020.68
437.053	80020.2
437.412	80020.64
437.771	80023.41
438.129	80024.56
438.488	80025.15
438.847	80024.97
439.205	80023.56
439.564	80025.19
439.922	80025.49
440.281	80026.48
440.639	80028.81
440.997	80028.74
441.356	80028.41
441.714	80027.33
442.072	80027.11
442.431	80026.82
442.789	80029.15
443.147	80029.4
443.505	80029.37
443.863	80031.25
444.221	80030.77
444.579	80031.25
444.937	80032.21
445.294	80031.81
445.652	80032.36
446.01	80034.58
446.368	80035.39
446.725	80036.28
447.083	80035.95
447.441	80037.87
447.798	80038.5
448.156	80038.61
448.513	80038.43
448.87	80039.17
449.228	80039.17
449.585	80039.17
449.942	80039.98
450.3	80039.42
450.657	80038.98
451.014	80040.65
451.371	80040.68
451.728	80040.76
452.085	80041.13
452.442	80041.35
452.799	80041.61
453.156	80041.46
453.513	80039.54
453.869	80038.94
454.226	80039.42
454.583	80039.39
454.939	80038.24
455.296	80036.76
455.653	80037.09
456.009	80037.83
456.366	80038.91
456.722	80040.05
457.078	80041.64
457.435	80041.01
457.791	80040.57
458.147	80041.2
458.503	80041.05
458.86	80041.01
459.216	80041.38
459.572	80041.53
459.928	80041.72
460.284	80041.9
460.64	80042.75
460.996	80044.53
461.351	80045.64
461.707	80047.6
462.063	80049.04
462.419	80049.52
462.774	80049.85
463.13	80050.33
463.486	80051.22
463.841	80051.11
464.197	80050.56
464.552	80051.44
464.908	80052.22
465.263	80052.74
465.618	80052.18
465.974	80053.07
466.329	80052.59
466.684	80053
467.039	80054.37
467.394	80055.33
467.749	80056.36
468.104	80057.29
468.459	80058.73
468.814	80059.88
469.169	80058.44
469.524	80058.95
469.879	80058.03
470.233	80059.32
470.588	80059.62
470.943	80059.47
471.297	80059.58
471.652	80060.1
472.006	80059.95
472.361	80062.39
472.715	80063.21
473.07	80064.87
473.424	80065.13
473.778	80066.57
474.133	80066.54
474.487	80066.54
474.841	80066.8
475.195	80067.42
475.549	80067.91
475.903	80066.65
476.257	80065.5
476.611	80066.5
476.965	80067.02
477.319	80069.2
477.673	80069.35
478.026	80069.42
478.38	80071.64
478.734	80070.94
479.087	80072.42
479.441	80073.38
479.795	80072.94
480.148	80074.23
480.502	80075.05
480.855	80075.97
481.208	80076.31
481.562	80077.08
481.915	80078.27
482.268	80078.6
482.621	80078.08
482.974	80076.9
483.328	80078.34
483.681	80079.19
484.034	80080.08
484.387	80080.67
484.739	80082.3
485.092	80084.3
485.445	80083.74
485.798	80083.45
486.151	80085.48
486.503	80086.33
486.856	80087.96
487.209	80088.93
487.561	80088.67
487.914	80088.41
488.266	80088.7
488.618	80089.04
488.971	80089.18
489.323	80089.44
489.675	80089.48
490.028	80091.03
490.38	80092.4
490.732	80091.74
491.084	80092.4
491.436	80092.66
491.788	80092.88
492.14	80092.11
492.492	80090.96
492.844	80092.07
493.196	80092.85
493.548	80093
493.899	80092.88
494.251	80090.37
494.603	80088.74
494.954	80087.44
495.306	80088.04
495.657	80088.29
496.009	80089.41
496.36	80089.48
496.712	80089.81
497.063	80091.7
497.414	80091.85
497.765	80091.63
498.117	80092.22
498.468	80093.81
498.819	80093.29
499.17	80092.63
499.521	80091.74
499.872	80092.07
500.223	80092.66
500.574	80092.37
500.924	80092.22
501.275	80093
501.626	80094.51
501.977	80096.03
502.327	80096.18
502.678	80095.73
503.029	80095.22
503.379	80093.77
503.73	80093.66
504.08	80092.33
504.43	80089.59
504.781	80088.52
505.131	80089.48
505.481	80089.74
505.831	80088.07
506.182	80088.18
506.532	80087.74
506.882	80088.85
507.232	80087.26
507.582	80087.3
507.932	80087.15
508.281	80087
508.631	80085.93
508.981	80085.15
509.331	80084.82
509.681	80085.59
510.03	80084.52
510.38	80085.15
510.729	80086.3
511.079	80087.07
511.428	80087.56
511.778	80088.81
512.127	80088.63
512.476	80087
512.826	80085.37
513.175	80086.74
513.524	80087.48
513.873	80087.89
514.222	80087.04
514.571	80088.55
514.92	80086.78
515.269	80086.44
515.618	80086
515.967	80086.33
516.316	80086.7
516.665	80085.11
517.014	80085.15
517.362	80086.7
517.711	80086.11
518.059	80085.96
518.408	80084.63
518.757	80085
519.105	80084.78
519.453	80085.41
519.802	80086.15
520.15	80087.44
520.498	80086.78
520.847	80084.93
521.195	80085
521.543	80083.71
521.891	80084.15
522.239	80084.63
522.587	80084.96
522.935	80086.74
523.283	80086.56
523.631	80086.3
523.979	80086.85
524.326	80087.92
524.674	80087.33
525.022	80087.26
525.369	80086.7
525.717	80087.63
526.064	80086.67
526.412	80086.74
526.759	80087.11
527.107	80086.56
527.454	80086.11
527.801	80086.15
528.149	80087
528.496	80088.04
528.843	80088.74
529.19	80089.29
529.537	80091.29
529.884	80091.4
530.231	80090.74
530.578	80091.77
530.925	80092.88
531.272	80094.29
531.619	80094.11
531.966	80093.96
532.312	80092.96
532.659	80093.37
533.006	80092.48
533.352	80092
533.699	80092.44
534.045	80092.26
534.392	80091.11
534.738	80091.81
535.084	80092.26
535.431	80092.74
535.777	80091.4
536.123	80091.63
536.469	80089.78
536.815	80088.67
537.161	80087.93
537.507	80088.52
537.853	80087.3
538.199	80085.45
538.545	80083.63
538.891	80083.56
539.237	80084.34
539.582	80085.15
539.928	80085.48
540.274	80086.89
540.619	80088.81
540.965	80088.96
541.31	80088.48
541.656	80090.07
542.001	80088.44
542.347	80087.81
542.692	80088.15
543.037	80087.48
543.382	80088.33
543.728	80089.81
544.073	80089.41
544.418	80090.74
544.763	80089.63
545.108	80090.37
545.453	80090.48
545.798	80091.07
546.142	80091.11
546.487	80090.33
546.832	80091.55
547.177	80091.29
547.521	80090.37
547.866	80089.66
548.211	80088.11
548.555	80087.26
548.9	80085.82
549.244	80086.07
549.588	80085.85
549.933	80086.22
550.277	80088.15
550.621	80087.63
550.965	80086.07
551.31	80086.33
551.654	80084.89
551.998	80084.85
552.342	80084.19
552.686	80084.22
553.03	80084.48
553.373	80084.04
553.717	80084.37
554.061	80083.19
554.405	80082.93
554.748	80082.26
555.092	80082.41
555.436	80084.11
555.779	80086.3
556.123	80088
556.466	80088.52
556.81	80088.11
557.153	80088.37
557.496	80088.26
557.839	80088
558.183	80088.74
558.526	80089.11
558.869	80090.03
559.212	80090.81
559.555	80091.88
559.898	80092.96
560.241	80092.88
560.584	80094.44
560.927	80093.92
561.269	80094.51
561.612	80094.7
561.955	80095.7
562.297	80094.92
562.64	80094.03
562.983	80093.55
563.325	80092.03
563.668	80092.7
564.01	80092.63
564.352	80090.78
564.695	80088.3
565.037	80088.26
565.379	80088.48
565.721	80086.52
566.063	80085.37
566.406	80085.74
566.748	80085.71
567.09	80084.63
567.431	80084.78
567.773	80082.52
568.115	80082.26
568.457	80081.49
568.799	80082.08
569.14	80082.56
569.482	80083.11
569.824	80082.41
570.165	80080.6
570.507	80081.19
570.848	80082.08
571.19	80082.67
571.531	80083.37
571.872	80084.08
572.214	80085.74
572.555	80085.71
572.896	80087.26
573.237	80087.41
573.578	80084.15
573.919	80081.49
574.26	80080.15
574.601	80079.78
574.942	80078.6
575.283	80079.42
575.624	80077.49
575.964	80076.34
576.305	80075.71
576.646	80075.34
576.986	80074.9
577.327	80075.09
577.667	80075.97
578.008	80074.46
578.348	80074.57
578.689	80074.83
579.029	80073.9
579.369	80072.38
579.71	80070.79
580.05	80069.02
580.39	80068.91
580.73	80070.87
581.07	80071.79
581.41	80072.38
581.75	80071.72
582.09	80072.01
582.43	80071.05
582.769	80072.75
583.109	80074.16
583.449	80073.01
583.789	80072.31
584.128	80073.57
584.468	80073.31
584.807	80072.49
585.147	80071.98
585.486	80070.83
585.825	80070.61
586.165	80070.64
