Data from 24HourExp_27052025_FLMS018081_03-18-22-219.txt Node
Date: Wed May 28 03:18:22 BST 2025
User: adleo
Spectrometer: FLMS01808
Trigger mode: 0
Integration Time (sec): 4.000000E-1
Scans to average: 10
Electric dark correction enabled: true
Nonlinearity correction enabled: true
Boxcar width: 10
XAxis mode: Wavelengths
Number of Pixels in Spectrum: 2048
>>>>>Begin Spectral Data<<<<<
178.471	-122.78
178.857	-116.92
179.244	-109.51
179.631	-101.94
180.017	-95.07
180.404	-87.24
180.79	-76.73
181.176	-67.86
181.563	-58.5
181.949	-47.65
182.335	-36.93
182.722	-22.19
183.108	-3.78
183.494	21.77
183.88	76.01
184.266	128.94
184.653	184.52
185.039	238.28
185.425	294.87
185.811	346.37
186.197	398.92
186.582	450.06
186.968	502.98
187.354	554.6
187.74	605.22
188.126	656.22
188.511	707.36
188.897	756.13
189.283	802.98
189.668	848.62
190.054	891.19
190.439	935.64
190.825	979.57
191.21	1020.44
191.596	1053.08
191.981	1060.63
192.366	1066.45
192.752	1068.35
193.137	1072.21
193.522	1073.88
193.908	1074.26
194.293	1077.71
194.678	1080.49
195.063	1081.06
195.448	1081.79
195.833	1083.78
196.218	1083.8
196.603	1081.68
196.988	1081.18
197.373	1082.48
197.757	1084.16
198.142	1087.05
198.527	1085.76
198.912	1085.36
199.296	1084.91
199.681	1084.33
200.066	1083.21
200.45	1082.04
200.835	1083.05
201.219	1082.45
201.604	1081.6
201.988	1084.28
202.372	1085.03
202.757	1087.08
203.141	1087.62
203.525	1087.96
203.91	1087.83
204.294	1088.67
204.678	1089.01
205.062	1087.9
205.446	1088.1
205.83	1087.71
206.214	1085.64
206.598	1086.76
206.982	1086.79
207.366	1086.31
207.75	1085.51
208.134	1086.86
208.517	1089.37
208.901	1089.84
209.285	1092.17
209.669	1092.55
210.052	1091.31
210.436	1091.07
210.819	1090.49
211.203	1091.57
211.586	1092.63
211.97	1090.62
212.353	1090.45
212.737	1092.66
213.12	1094.04
213.503	1093.72
213.886	1094.61
214.27	1097.73
214.653	1097.57
215.036	1098.82
215.419	1100.78
215.802	1104.24
216.185	1106.06
216.568	1108.93
216.951	1111.13
217.334	1111.32
217.717	1115.89
218.1	1118.48
218.482	1122.21
218.865	1125.52
219.248	1129.39
219.631	1134.09
220.013	1141.01
220.396	1148.09
220.778	1154
221.161	1159.16
221.544	1166.76
221.926	1174.18
222.308	1180.92
222.691	1189.07
223.073	1198.33
223.455	1207.23
223.838	1216.67
224.22	1225.4
224.602	1234.75
224.984	1246.04
225.366	1258.67
225.749	1272.02
226.131	1285.17
226.513	1297.33
226.895	1312.6
227.276	1327.34
227.658	1342.56
228.04	1358.37
228.422	1374.01
228.804	1390.19
229.186	1407.41
229.567	1424.6
229.949	1440.95
230.331	1458.76
230.712	1476
231.094	1492.15
231.475	1510.95
231.857	1530.17
232.238	1549.21
232.62	1567.79
233.001	1586.4
233.382	1606.69
233.763	1625.83
234.145	1647.35
234.526	1668.04
234.907	1686.85
235.288	1704.86
235.669	1724.3
236.05	1743.32
236.431	1761.6
236.812	1780.41
237.193	1800.66
237.574	1820.87
237.955	1843
238.336	1864.03
238.717	1887.94
239.097	1913.78
239.478	1933.87
239.859	1955.54
240.239	1980.53
240.62	2006.26
241.001	2028.92
241.381	2051.48
241.762	2074.49
242.142	2097.54
242.522	2121.46
242.903	2146.9
243.283	2175.31
243.663	2200.6
244.044	2229.48
244.424	2256.29
244.804	2285.53
245.184	2315.49
245.564	2345.18
245.944	2376.46
246.324	2407.94
246.704	2435.48
247.084	2462.67
247.464	2495.58
247.844	2527.64
248.224	2558.34
248.604	2588.01
248.983	2620.05
249.363	2652.74
249.743	2685.64
250.122	2718.22
250.502	2750.36
250.882	2780.24
251.261	2812.17
251.641	2846.13
252.02	2877.26
252.399	2913.74
252.779	2950.27
253.158	2983.41
253.537	3021.32
253.917	3062.27
254.296	3099.74
254.675	3142.17
255.054	3183.39
255.433	3226.54
255.812	3265.57
256.191	3305.5
256.57	3345.09
256.949	3388.6
257.328	3435.32
257.707	3479.94
258.086	3524.9
258.465	3571.78
258.843	3623.03
259.222	3671.41
259.601	3722.84
259.979	3779.34
260.358	3831.88
260.736	3885.37
261.115	3943.44
261.493	3997.67
261.872	4050.18
262.25	4105.74
262.629	4159.45
263.007	4218.31
263.385	4276.92
263.763	4341.19
264.142	4405.93
264.52	4472.13
264.898	4537.4
265.276	4602.37
265.654	4672.21
266.032	4743.07
266.41	4814.7
266.788	4886.96
267.166	4966.49
267.544	5041.81
267.921	5119.47
268.299	5199
268.677	5279.85
269.055	5362.19
269.432	5444.72
269.81	5528.59
270.188	5617.14
270.565	5708.29
270.943	5798.28
271.32	5886.14
271.697	5980.46
272.075	6075.45
272.452	6173.44
272.829	6271.87
273.207	6371.58
273.584	6471.99
273.961	6576.46
274.338	6686.98
274.715	6802.58
275.092	6916.66
275.469	7037.22
275.846	7155.49
276.223	7275.01
276.6	7393.27
276.977	7516.32
277.354	7641.77
277.731	7769.79
278.108	7900.89
278.484	8031.8
278.861	8165.37
279.238	8307.28
279.614	8443.39
279.991	8585.3
280.367	8727.59
280.744	8875.14
281.12	9021.28
281.497	9170.86
281.873	9323.82
282.249	9470.67
282.625	9617.21
283.002	9765.75
283.378	9914.2
283.754	10064.13
284.13	10219.9
284.506	10380.13
284.882	10536.15
285.258	10694.44
285.634	10848.83
286.01	11007.01
286.386	11166.08
286.762	11331.06
287.138	11495.14
287.513	11658.35
287.889	11822.52
288.265	11983.68
288.641	12142.81
289.016	12304.95
289.392	12468.94
289.767	12628.54
290.143	12794.77
290.518	12958.43
290.894	13120.03
291.269	13278.65
291.644	13435.89
292.02	13589.72
292.395	13738.14
292.77	13890.9
293.145	14045.27
293.52	14202.83
293.895	14354.03
294.27	14509.67
294.646	14661.52
295.02	14806.2
295.395	14960.59
295.77	15113.38
296.145	15268.9
296.52	15424.59
296.895	15577.52
297.269	15728.95
297.644	15885.2
298.019	16036.37
298.393	16183.04
298.768	16334.45
299.143	16487.94
299.517	16641.77
299.891	16797.8
300.266	16956.71
300.64	17117.34
301.015	17280.13
301.389	17448
301.763	17619.31
302.137	17789.9
302.512	17970.16
302.886	18146.13
303.26	18327.43
303.634	18505.93
304.008	18681.96
304.382	18868.49
304.756	19054.11
305.13	19241.51
305.504	19419.02
305.877	19612.57
306.251	19815.8
306.625	20022.67
306.999	20232.25
307.372	20444.75
307.746	20662.12
308.119	20879.03
308.493	21091.74
308.866	21304.55
309.24	21518.3
309.613	21725.85
309.987	21936.85
310.36	22130.67
310.733	22340.62
311.107	22556.71
311.48	22774.05
311.853	23002.89
312.226	23217.69
312.599	23444.54
312.972	23667.21
313.345	23897.79
313.718	24128.35
314.091	24352.8
314.464	24579.23
314.837	24804.18
315.21	25011.85
315.582	25230.17
315.955	25440.36
316.328	25661.14
316.7	25876.36
317.073	26095.58
317.446	26315.88
317.818	26535.85
318.191	26763.44
318.563	26984.53
318.936	27189.34
319.308	27395.19
319.68	27599.14
320.053	27799.85
320.425	27993.96
320.797	28178.09
321.169	28338.7
321.541	28480.83
321.913	28611.93
322.285	28724.72
322.657	28844.92
323.029	28990.87
323.401	29133.42
323.773	29300.32
324.145	29468.98
324.517	29657.63
324.889	29835.16
325.26	30041.63
325.632	30264.29
326.004	30498.54
326.375	30756.72
326.747	31033.29
327.118	31336.12
327.49	31625.66
327.861	31937.38
328.233	32240.29
328.604	32547.26
328.975	32868.43
329.346	33182.2
329.718	33497.68
330.089	33803.87
330.46	34101.8
330.831	34376.53
331.202	34630.67
331.573	34874.34
331.944	35102.1
332.315	35325.46
332.686	35541.54
333.057	35739.39
333.428	35912.61
333.799	36085.5
334.169	36238.25
334.54	36377.9
334.911	36488.3
335.281	36612.67
335.652	36731.65
336.022	36859.45
336.393	37004.98
336.763	37170.88
337.134	37348.72
337.504	37543.95
337.874	37752.76
338.245	37956.6
338.615	38176.28
338.985	38408.7
339.355	38633.74
339.726	38855.96
340.096	39077.11
340.466	39328.63
340.836	39563.9
341.206	39812.26
341.576	40058.44
341.945	40304.09
342.315	40535.03
342.685	40779.73
343.055	41028.89
343.425	41262.48
343.794	41499.4
344.164	41734.38
344.533	41968.94
344.903	42200.47
345.273	42432.56
345.642	42662.65
346.011	42893.48
346.381	43126.66
346.75	43358.03
347.12	43608.93
347.489	43857.65
347.858	44099.4
348.227	44305.37
348.596	44527.56
348.965	44763.54
349.334	44992.22
349.704	45228.85
350.072	45476.32
350.441	45712.51
350.81	45957.18
351.179	46189.4
351.548	46422.65
351.917	46640.32
352.285	46828.42
352.654	47033.4
353.023	47237.16
353.391	47431.9
353.76	47648.97
354.129	47833.85
354.497	48067.2
354.865	48276.77
355.234	48514.94
355.602	48741
355.971	48998.74
356.339	49217
356.707	49434.24
357.075	49655.07
357.443	49870.32
357.811	50083.99
358.18	50291.33
358.548	50496.7
358.916	50709.01
359.284	50925.5
359.651	51144
360.019	51364.36
360.387	51566.35
360.755	51774.39
361.123	52000.28
361.49	52219.86
361.858	52434.36
362.226	52623.72
362.593	52823.8
362.961	52997.98
363.328	53195.33
363.696	53357.69
364.063	53573.8
364.43	53778.9
364.798	53988.03
365.165	54170.27
365.532	54353.88
365.899	54544.59
366.267	54706.42
366.634	54860.69
367.001	55028.89
367.368	55162.34
367.735	55346.79
368.102	55518.27
368.469	55705.03
368.835	55880.76
369.202	56039.93
369.569	56233.77
369.936	56427.99
370.303	56618.78
370.669	56826.13
371.036	56988.43
371.402	57184.59
371.769	57371.28
372.135	57516.77
372.502	57643.72
372.868	57793.18
373.235	57932.44
373.601	58073.91
373.967	58243.05
374.333	58426.94
374.7	58606.24
375.066	58813.88
375.432	58997.42
375.798	59179.96
376.164	59347.77
376.53	59492.51
376.896	59658.4
377.262	59838.91
377.628	59966.56
377.993	60110.97
378.359	60249.66
378.725	60409.62
379.091	60563.44
379.456	60689.82
379.822	60822.34
380.187	60976.25
380.553	61156.77
380.918	61356.16
381.284	61526.47
381.649	61704.05
382.015	61844.99
382.38	61965
382.745	62129.42
383.11	62275.36
383.476	62421.82
383.841	62550.51
384.206	62711.51
384.571	62835.59
384.936	62963.84
385.301	63131.75
385.666	63261.4
386.031	63402.47
386.396	63561.81
386.76	63712.77
387.125	63902.51
387.49	64100.86
387.855	64291.05
388.219	64451.52
388.584	64618.39
388.948	64810.54
389.313	64972.9
389.677	65183.52
390.042	65416.65
390.406	65563.22
390.771	65755.76
391.135	65941.17
391.499	66170.97
391.863	66397.89
392.227	66638.72
392.592	66837.02
392.956	67033.16
393.32	67237.09
393.684	67469.17
394.048	67639.57
394.412	67820.6
394.775	67965.88
395.139	68117.18
395.503	68275.54
395.867	68432.92
396.231	68570.75
396.594	68665.63
396.958	68804.83
397.321	68960.71
397.685	69084.18
398.048	69232.33
398.412	69363.42
398.775	69491.75
399.139	69613.39
399.502	69724.73
399.865	69861.34
400.228	70051.45
400.592	70178.57
400.955	70367.76
401.318	70493.58
401.681	70655.74
402.044	70787.21
402.407	70952.56
402.77	71110.06
403.133	71290.55
403.496	71434.32
403.859	71587.85
404.221	71831.9
404.584	72055.64
404.947	72292.42
405.309	72497.39
405.672	72727.21
406.034	72950.77
406.397	73202.89
406.759	73419.52
407.122	73596.45
407.484	73771.12
407.847	73955.93
408.209	74209.11
408.571	74434.27
408.933	74693.32
409.296	74941.19
409.658	75186.46
410.02	75450.69
410.382	75759.25
410.744	76018.83
411.106	76304.75
411.468	76582.47
411.83	76817.59
412.191	77024.5
412.553	77195.92
412.915	77407.79
413.277	77618.32
413.638	77811.49
414	77978.07
414.361	78157.8
414.723	78391.19
415.084	78602.41
415.446	78769.8
415.807	78906.65
416.169	79018.13
416.53	79105.88
416.891	79211.88
417.252	79334.81
417.614	79413.92
417.975	79456.42
418.336	79504.77
418.697	79558.69
419.058	79605.4
419.419	79640.53
419.78	79681.6
420.141	79711.68
420.501	79739.71
420.862	79760.83
421.223	79778.29
421.584	79816.89
421.944	79837.77
422.305	79849.56
422.666	79860.17
423.026	79865.12
423.387	79875.5
423.747	79883.91
424.107	79895.55
424.468	79907.42
424.828	79915.02
425.188	79918.31
425.549	79924.07
425.909	79930.3
426.269	79932.04
426.629	79937.76
426.989	79943.59
427.349	79946.47
427.709	79951.27
428.069	79953.63
428.429	79958.43
428.789	79964.71
429.149	79968.74
429.508	79973.09
429.868	79976.75
430.228	79981.96
430.587	79984.88
430.947	79989.68
431.306	79994.71
431.666	79997.74
432.025	80000.77
432.385	80002.1
432.744	80004.24
433.103	80005.46
433.463	80007.75
433.822	80013.26
434.181	80016.21
434.54	80019.72
434.899	80021.98
435.258	80023.2
435.618	80025.45
435.976	80028.71
436.335	80027.67
436.694	80028.85
437.053	80030.67
437.412	80031.7
437.771	80031.66
438.129	80033.51
438.488	80034.51
438.847	80034.4
439.205	80035.33
439.564	80035.44
439.922	80036.18
440.281	80038.02
440.639	80039.87
440.997	80039.54
441.356	80040.13
441.714	80041.72
442.072	80041.09
442.431	80040.32
442.789	80041.2
443.147	80040.95
443.505	80040.35
443.863	80042.09
444.221	80043.16
444.579	80042.83
444.937	80043.61
445.294	80044.72
445.652	80045.94
446.01	80045.98
446.368	80046.31
446.725	80045.49
447.083	80045.97
447.441	80046.64
447.798	80046.97
448.156	80048.05
448.513	80049.93
448.87	80050.56
449.228	80050.27
449.585	80049.71
449.942	80051.93
450.3	80051.45
450.657	80051.78
451.014	80051.78
451.371	80052.71
451.728	80051.78
452.085	80051.71
452.442	80051.89
452.799	80052.34
453.156	80050.23
453.513	80049.93
453.869	80050.52
454.226	80052.56
454.583	80052.82
454.939	80053.48
455.296	80051.82
455.653	80052.89
456.009	80051.86
456.366	80051.23
456.722	80050.64
457.078	80050.6
457.435	80050.38
457.791	80050.41
458.147	80051.78
458.503	80053.41
458.86	80053.78
459.216	80053.71
459.572	80054.15
459.928	80054.08
460.284	80053.93
460.64	80055.74
460.996	80057.48
461.351	80059.29
461.707	80057
462.063	80058.11
462.419	80057.85
462.774	80058.88
463.13	80057.92
463.486	80058.88
463.841	80059.55
464.197	80061.77
464.552	80063.88
464.908	80065.54
465.263	80065.65
465.618	80065.4
465.974	80065.25
466.329	80066.28
466.684	80066.69
467.039	80067.99
467.394	80068.95
467.749	80069.1
468.104	80070.65
468.459	80071.43
468.814	80069.91
469.169	80072.39
469.524	80072.2
469.879	80073.94
470.233	80074.83
470.588	80075.5
470.943	80074.68
471.297	80075.46
471.652	80074.94
472.006	80076.5
472.361	80075.94
472.715	80078.64
473.07	80079.79
473.424	80081.05
473.778	80080.49
474.133	80081.86
474.487	80080.82
474.841	80079.75
475.195	80080.49
475.549	80079.71
475.903	80078.49
476.257	80079.64
476.611	80079.53
476.965	80079.94
477.319	80079.57
477.673	80080.31
478.026	80080.56
478.38	80080.97
478.734	80081.97
479.087	80082.97
479.441	80080.31
479.795	80081.05
480.148	80082.16
480.502	80082.34
480.855	80082.67
481.208	80083.01
481.562	80083.9
481.915	80086.63
482.268	80089.89
482.621	80091.15
482.974	80091.11
483.328	80093.59
483.681	80094.7
484.034	80095.93
484.387	80095.7
484.739	80097.18
485.092	80097.07
485.445	80097.11
485.798	80099.48
486.151	80098.55
486.503	80097.85
486.856	80100.37
487.209	80100.77
487.561	80100.07
487.914	80099.74
488.266	80099.48
488.618	80100.48
488.971	80099.7
489.323	80097.22
489.675	80096.07
490.028	80095.52
490.38	80096.92
490.732	80097.11
491.084	80095.74
491.436	80095.29
491.788	80095.74
492.14	80095.18
492.492	80093.78
492.844	80094
493.196	80091.52
493.548	80092.11
493.899	80091.3
494.251	80089.74
494.603	80088.34
494.954	80087.15
495.306	80088.41
495.657	80088.23
496.009	80088
496.36	80088.3
496.712	80089.56
497.063	80089.78
497.414	80088.6
497.765	80088.52
498.117	80085.6
498.468	80086.93
498.819	80086.71
499.17	80086.56
499.521	80086.89
499.872	80088.89
500.223	80089.34
500.574	80091.85
500.924	80093.41
501.275	80095.41
501.626	80096.22
501.977	80097.81
502.327	80097.81
502.678	80097.15
503.029	80097.22
503.379	80096.66
503.73	80095.85
504.08	80096.37
504.43	80096.18
504.781	80096.78
505.131	80097.22
505.481	80099.29
505.831	80098.22
506.182	80097.78
506.532	80098
506.882	80096.92
507.232	80096.96
507.582	80095.63
507.932	80094.59
508.281	80094.63
508.631	80093.74
508.981	80093.3
509.331	80092.48
509.681	80094.37
510.03	80094.74
510.38	80095.48
510.729	80095.59
511.079	80097.18
511.428	80095.85
511.778	80095.55
512.127	80094.37
512.476	80092.15
512.826	80093.26
513.175	80093.37
513.524	80093.93
513.873	80094.3
514.222	80094.89
514.571	80095.04
514.92	80095.96
515.269	80094.26
515.618	80092.15
515.967	80091.85
516.316	80092.45
516.665	80092.82
517.014	80091.67
517.362	80091.56
517.711	80090.52
518.059	80089.04
518.408	80088.6
518.757	80089.45
519.105	80089.67
519.453	80090.67
519.802	80092.19
520.15	80092.04
520.498	80092.26
520.847	80091.41
521.195	80089.52
521.543	80088.78
521.891	80088.3
522.239	80088.11
522.587	80089.56
522.935	80092.08
523.283	80093.45
523.631	80091.71
523.979	80092.37
524.326	80092.78
524.674	80092.37
525.022	80093.37
525.369	80097
525.717	80097.55
526.064	80094.85
526.412	80095.19
526.759	80095.63
527.107	80096.11
527.454	80096.63
527.801	80097.44
528.149	80098.22
528.496	80100.89
528.843	80103.52
529.19	80103.22
529.537	80103.15
529.884	80104.03
530.231	80103.63
530.578	80102.7
530.925	80105.44
531.272	80105.29
531.619	80106.25
531.966	80105.74
532.312	80104.03
532.659	80102.66
533.006	80101.37
533.352	80104.7
533.699	80105.22
534.045	80105.85
534.392	80104.92
534.738	80103.88
535.084	80105.18
535.431	80105.7
535.777	80103.55
536.123	80100.22
536.469	80101.29
536.815	80101.03
537.161	80100.89
537.507	80098.41
537.853	80096.44
538.199	80094.63
538.545	80093.15
538.891	80092.15
539.237	80093.82
539.582	80095.3
539.928	80094.7
540.274	80095.19
540.619	80095.67
540.965	80095.96
541.31	80095.56
541.656	80096.44
542.001	80096.63
542.347	80094.85
542.692	80093.3
543.037	80093.85
543.382	80095.78
543.728	80095.52
544.073	80097.41
544.418	80096.18
544.763	80099.66
545.108	80101.88
545.453	80102.92
545.798	80103.03
546.142	80102.77
546.487	80100.7
546.832	80101.22
547.177	80101.96
547.521	80102.81
547.866	80101.11
548.211	80097.96
548.555	80097.15
548.9	80097.3
549.244	80095.48
549.588	80095.44
549.933	80097.26
550.277	80098.74
550.621	80098.74
550.965	80097.63
551.31	80096.48
551.654	80097.22
551.998	80096.67
552.342	80095.52
552.686	80095.11
553.03	80095.89
553.373	80095.55
553.717	80095.37
554.061	80092.93
554.405	80092.37
554.748	80091.45
555.092	80091.85
555.436	80092.89
555.779	80091.96
556.123	80091.11
556.466	80093.48
556.81	80093.78
557.153	80093.59
557.496	80092.96
557.839	80093.96
558.183	80094.07
558.526	80092.85
558.869	80092.37
559.212	80090.45
559.555	80090.63
559.898	80090.56
560.241	80090
560.584	80091.11
560.927	80092.08
561.269	80094.15
561.612	80093.89
561.955	80093.81
562.297	80093.15
562.64	80094.52
562.983	80095.22
563.325	80095.37
563.668	80093.3
564.01	80092.41
564.352	80090.37
564.695	80088.37
565.037	80085.38
565.379	80085.63
565.721	80086.37
566.063	80085.34
566.406	80084.67
566.748	80084.86
567.09	80085.01
567.431	80085.12
567.773	80083.3
568.115	80083.27
568.457	80082.01
568.799	80083.01
569.14	80083.04
569.482	80083.78
569.824	80082.53
570.165	80082.08
570.507	80080.93
570.848	80081.9
571.19	80082.67
571.531	80084.27
571.872	80085.71
572.214	80086.15
572.555	80085.97
572.896	80085.82
573.237	80086.93
573.578	80084.6
573.919	80084.41
574.26	80084.16
574.601	80082.68
574.942	80082.42
575.283	80082.05
575.624	80082.6
575.964	80080.94
576.305	80079.97
576.646	80080.57
576.986	80081.01
577.327	80081.12
577.667	80080.05
578.008	80080.09
578.348	80079.2
578.689	80078.27
579.029	80076.94
579.369	80078.75
579.71	80078.12
580.05	80077.09
580.39	80075.05
580.73	80076.09
581.07	80076.38
581.41	80075.24
581.75	80077.57
582.09	80077.53
582.43	80078.57
582.769	80078.24
583.109	80079.46
583.449	80080.34
583.789	80078.2
584.128	80078.01
584.468	80078.2
584.807	80079.2
585.147	80076.87
585.486	80075.42
585.825	80075.46
586.165	80075.83
