Data from 20250702_urea_1.5M_MAYP1162681_11-42-01-245.txt Node
Date: Wed Jul 02 11:42:01 BST 2025
User: adleo
Spectrometer: MAYP116268
Trigger mode: 0
Integration Time (sec): 1.000000E0
Scans to average: 1
Electric dark correction enabled: true
Nonlinearity correction enabled: true
Boxcar width: 10
XAxis mode: Wavelengths
Number of Pixels in Spectrum: 2068
>>>>>Begin Spectral Data<<<<<
179.565	1019.29
179.642	1065.59
179.718	1099.7
179.795	1132.64
179.871	1155.61
179.948	1167.48
180.024	1182
180.101	1201
180.177	1213.27
180.254	1233.65
180.33	1253.6
180.407	1292.08
180.483	1369.38
180.56	1443.73
180.636	1513.23
180.712	1501.64
180.789	1511
180.865	1520.68
180.942	1525.38
181.018	1536.3
181.095	1547.61
181.171	1554.59
181.248	1555.4
181.324	1567.32
181.4	1574.45
181.477	1586.04
181.553	1598.48
181.63	1618.76
181.706	1631.87
181.782	1638.05
181.859	1636.91
181.935	1640.56
182.011	1637.62
182.088	1655.81
182.164	1673.16
182.24	1687.08
182.317	1693.63
182.393	1689.36
182.469	1701.8
182.546	1714.25
182.622	1719
182.698	1711.73
182.775	1719.81
182.851	1733.45
182.927	1729.74
183.003	1723.14
183.08	1720.43
183.156	1728.41
183.232	1723.33
183.308	1713.54
183.385	1722.85
183.461	1738.58
183.537	1742.1
183.613	1753.17
183.69	1744.19
183.766	1736.82
183.842	1741.62
183.918	1749.08
183.995	1764.52
184.071	1767.09
184.147	1764.85
184.223	1753.17
184.299	1765.95
184.375	1757.69
184.452	1759.82
184.528	1808.4
184.604	1818.81
184.68	1829.12
184.756	1836.87
184.832	1842.57
184.908	1845.85
184.985	1841.19
185.061	1827.5
185.137	1831.97
185.213	1823.46
185.289	1825.51
185.365	1816.34
185.441	1814.44
185.517	1823.71
185.593	1818.53
185.669	1817.34
185.745	1826.18
185.822	1841.67
185.898	1835.01
185.974	1842.95
186.05	1836.96
186.126	1801.45
186.202	1793.9
186.278	1789.86
186.354	1781.49
186.43	1786.34
186.506	1788.38
186.582	1790.19
186.658	1794.42
186.734	1778.31
186.81	1778.12
186.886	1779.83
186.962	1794.18
187.038	1791.57
187.114	1783.63
187.19	1791.8
187.266	1780.4
187.341	1780.83
187.417	1775.46
187.493	1777.17
187.569	1782.02
187.645	1779.69
187.721	1770.47
187.797	1780.3
187.873	1783.34
187.949	1777.64
188.025	1773.79
188.101	1776.17
188.176	1783.2
188.252	1780.11
188.328	1786.67
188.404	1790.04
188.48	1785.58
188.556	1777.92
188.632	1776.59
188.707	1777.31
188.783	1772.31
188.859	1769.65
188.935	1758.77
189.011	1764.24
189.086	1755.26
189.162	1746.04
189.238	1740.38
189.314	1737.72
189.39	1730.4
189.465	1725.37
189.541	1741.81
189.617	1728.6
189.693	1721.71
189.768	1724.71
189.844	1746.76
189.92	1741.06
189.996	1747.53
190.071	1759.69
190.147	1759.65
190.223	1770.01
190.298	1763.11
190.374	1754.23
190.45	1766.34
190.526	1775.28
190.601	1770.1
190.677	1773.99
190.753	1799.48
190.828	1805.42
190.904	1817.63
190.98	1833.46
191.055	1840.16
191.131	1830.37
191.207	1847.86
191.282	1857.93
191.358	1848.38
191.433	1835.82
191.509	1845.71
191.585	1842.28
191.66	1842.05
191.736	1847.42
191.811	1837.48
191.887	1851.79
191.963	1871.33
192.038	1875.27
192.114	1875.61
192.189	1879.93
192.265	1876.04
192.34	1857.25
192.416	1857.44
192.491	1852.73
192.567	1852.31
192.642	1856.49
192.718	1858.01
192.793	1848.22
192.869	1844.89
192.944	1847.89
193.02	1853.4
193.095	1857.96
193.171	1863.57
193.246	1863.34
193.322	1862.39
193.397	1864.81
193.473	1850.74
193.548	1833.05
193.624	1836.9
193.699	1834.86
193.775	1848.31
193.85	1850.45
193.925	1857.49
194.001	1855.4
194.076	1852.02
194.152	1842.94
194.227	1834.34
194.302	1823.7
194.378	1828.64
194.453	1826.78
194.529	1838.05
194.604	1824.17
194.679	1815.86
194.755	1798.56
194.83	1810.78
194.905	1806.6
194.981	1815.49
195.056	1813.35
195.131	1817.77
195.207	1816.44
195.282	1808.36
195.357	1792
195.433	1805.93
195.508	1797.28
195.583	1804.64
195.659	1814.72
195.734	1822.66
195.809	1823.61
195.884	1831.93
195.96	1830.64
196.035	1843.48
196.11	1838.15
196.185	1848.7
196.261	1855.36
196.336	1880.74
196.411	1866.52
196.486	1871.89
196.561	1866.66
196.637	1872.12
196.712	1886.77
196.787	1890.19
196.862	1904.4
196.937	1914.72
197.013	1920.19
197.088	1926.32
197.163	1946.49
197.238	1961.52
197.313	1961.04
197.388	1971.6
197.464	1998.66
197.539	2008.55
197.614	1999.66
197.689	2010.93
197.764	2025.34
197.839	2042.27
197.914	2040.75
197.989	2059.15
198.065	2071.66
198.14	2113.11
198.215	2138.56
198.29	2151.45
198.365	2163.58
198.44	2173.43
198.515	2196.41
198.59	2209.92
198.665	2232.47
198.74	2237.42
198.815	2240.13
198.89	2258.59
198.965	2287.2
199.04	2283.53
199.115	2295.62
199.19	2335.25
199.265	2337.15
199.34	2347.77
199.415	2376
199.49	2392.56
199.565	2402.89
199.64	2423.5
199.715	2420.6
199.79	2425.21
199.865	2429.74
199.94	2429.88
200.015	2456.92
200.09	2460.64
200.165	2465.21
200.24	2474.83
200.315	2511.28
200.39	2521.66
200.464	2530.94
200.539	2530.47
200.614	2545.65
200.689	2566.23
200.764	2571.7
200.839	2586.46
200.914	2591.32
200.989	2581.98
201.063	2593.88
201.138	2577.47
201.213	2579.61
201.288	2564.51
201.363	2570.13
201.438	2568.8
201.512	2581.13
201.587	2564.32
201.662	2568.65
201.737	2578.94
201.812	2582.94
201.886	2552.15
201.961	2560.63
202.036	2545.21
202.111	2545.21
202.186	2519.98
202.26	2503.27
202.335	2483.55
202.41	2479.98
202.485	2463.94
202.559	2447.51
202.634	2422.66
202.709	2432.09
202.784	2416.18
202.858	2416.8
202.933	2396.38
203.008	2390.24
203.082	2374.53
203.157	2375.2
203.232	2338.47
203.306	2319.85
203.381	2292.19
203.456	2272.54
203.53	2252.53
203.605	2240.36
203.68	2216.18
203.754	2210.04
203.829	2200.1
203.904	2185.44
203.978	2174.35
204.053	2178.49
204.127	2169.27
204.202	2169.22
204.277	2154.28
204.351	2149.38
204.426	2139.53
204.5	2133.11
204.575	2103.81
204.65	2110.48
204.724	2103.1
204.799	2109.37
204.873	2108.57
204.948	2107.19
205.022	2096.34
205.097	2088.45
205.171	2098.58
205.246	2109.43
205.32	2109
205.395	2107.09
205.469	2096.3
205.544	2099.87
205.618	2084.46
205.693	2093.55
205.767	2081.37
205.842	2100.4
205.916	2091.27
205.991	2083.28
206.065	2091.89
206.14	2105.1
206.214	2103.91
206.289	2100.01
206.363	2109.86
206.438	2108.91
206.512	2114.23
206.586	2132.45
206.661	2143.78
206.735	2122.71
206.81	2122.05
206.884	2136.08
206.958	2126.95
207.033	2143.49
207.107	2151.68
207.181	2179.75
207.256	2173.47
207.33	2193.31
207.405	2202.4
207.479	2220.77
207.553	2227.57
207.628	2211.97
207.702	2225.1
207.776	2218.91
207.851	2220.91
207.925	2235.09
207.999	2234.24
208.073	2233.67
208.148	2235.24
208.222	2222.77
208.296	2251.83
208.371	2265.64
208.445	2274.01
208.519	2298.04
208.593	2309.55
208.668	2306.79
208.742	2308.6
208.816	2310.74
208.89	2322.36
208.965	2320.84
209.039	2326.17
209.113	2344.4
209.187	2362.66
209.261	2360.09
209.336	2378.61
209.41	2396.41
209.484	2397.27
209.558	2417.69
209.632	2430.4
209.707	2440.92
209.781	2460.53
209.855	2477.34
209.929	2493.35
210.003	2500.88
210.077	2504.54
210.151	2550.25
210.226	2580.93
210.3	2611.2
210.374	2638.1
210.448	2645.58
210.522	2661.63
210.596	2677.64
210.67	2690.31
210.744	2739.49
210.818	2773.92
210.892	2800.8
210.966	2806.32
211.041	2832.72
211.115	2842.11
211.189	2876.9
211.263	2905.78
211.337	2933.18
211.411	2963.27
211.485	2979.63
211.559	3010.95
211.633	3032.67
211.707	3025.9
211.781	3057.49
211.855	3052.62
211.929	3071.93
212.003	3086.9
212.077	3128.22
212.151	3174.98
212.225	3221.11
212.299	3252.92
212.373	3287.17
212.447	3326.85
212.52	3399.45
212.594	3451.97
212.668	3517.67
212.742	3563.41
212.816	3623.84
212.89	3680.01
212.964	3747.07
213.038	3820.92
213.112	3908.01
213.186	3998.9
213.26	4067.32
213.333	4113.36
213.407	4208.78
213.481	4302.76
213.555	4415.02
213.629	4502.94
213.703	4593.6
213.777	4700.17
213.85	4792.15
213.924	4938.2
213.998	5060.04
214.072	5173.48
214.146	5287.29
214.219	5412.54
214.293	5539.7
214.367	5675.61
214.441	5823.52
214.515	5956.86
214.588	6080.23
214.662	6198.96
214.736	6334.11
214.81	6488.88
214.883	6661.3
214.957	6809.53
215.031	6966.37
215.105	7104.31
215.178	7261.54
215.252	7423.22
215.326	7570.46
215.4	7725.97
215.473	7853.23
215.547	8010.28
215.621	8179.88
215.694	8359.38
215.768	8511.62
215.842	8684.7
215.915	8850.72
215.989	9012.13
216.063	9182.33
216.136	9364.56
216.21	9553.31
216.284	9747.53
216.357	9933.57
216.431	10108.18
216.504	10303.61
216.578	10508.21
216.652	10711.16
216.725	10890.3
216.799	11083.96
216.873	11269.52
216.946	11462.13
217.02	11648.33
217.093	11829.74
217.167	11990.52
217.24	12168.38
217.314	12354.37
217.387	12530.06
217.461	12701.56
217.535	12889.99
217.608	13064.92
217.682	13240.38
217.755	13411.45
217.829	13575.69
217.902	13753.56
217.976	13927.2
218.049	14087.72
218.123	14250.02
218.196	14419.32
218.27	14588.56
218.343	14745.9
218.417	14925.21
218.49	15093.58
218.563	15271.93
218.637	15436.01
218.71	15622.3
218.784	15787.05
218.857	15965.24
218.931	16119.58
219.004	16279.12
219.077	16439.47
219.151	16591.05
219.224	16747.01
219.298	16907.5
219.371	17065.44
219.444	17198.07
219.518	17352
219.591	17503
219.665	17666.7
219.738	17811.96
219.811	17945.74
219.885	18090.12
219.958	18228.67
220.031	18353.83
220.105	18483.46
220.178	18611.26
220.251	18732.56
220.325	18864.79
220.398	18989.12
220.471	19129.99
220.544	19265.55
220.618	19367.18
220.691	19483.22
220.764	19591.79
220.838	19709.38
220.911	19813.52
220.984	19948.6
221.057	20055.39
221.131	20164.02
221.204	20232.55
221.277	20353.9
221.35	20484.79
221.424	20578.29
221.497	20683.4
221.57	20784.71
221.643	20886.74
221.716	20994.89
221.79	21077.83
221.863	21155.77
221.936	21227.58
222.009	21308.55
222.082	21387.41
222.155	21474.4
222.229	21570.66
222.302	21653.56
222.375	21722.87
222.448	21815.95
222.521	21881.6
222.594	21950.49
222.667	22010.06
222.74	22094.56
222.814	22153.14
222.887	22218.27
222.96	22290
223.033	22347.37
223.106	22412.5
223.179	22480.91
223.252	22532.01
223.325	22596.28
223.398	22658.47
223.471	22721.53
223.544	22774.51
223.617	22839.75
223.69	22902.37
223.763	22946.59
223.837	23002.03
223.91	23063.51
223.983	23082.51
224.056	23115.63
224.129	23169.54
224.202	23210.86
224.275	23240.32
224.348	23260.43
224.42	23280.58
224.493	23308.41
224.566	23344.81
224.639	23387.35
224.712	23406.88
224.785	23436.82
224.858	23466.82
224.931	23490.11
225.004	23514.99
225.077	23534.23
225.15	23527.67
225.223	23540.69
225.296	23577.83
225.369	23593.36
225.442	23595.48
225.514	23620.65
225.587	23648.57
225.66	23657.5
225.733	23683.39
225.806	23714.79
225.879	23739.24
225.952	23749.22
226.025	23775.27
226.097	23810.14
226.17	23823.6
226.243	23822.25
226.316	23840.81
226.389	23857.6
226.461	23876.55
226.534	23885.38
226.607	23902.45
226.68	23941.23
226.753	23961.34
226.825	23955.26
226.898	23974.99
226.971	23990.52
227.044	24013.72
227.117	24022.69
227.189	24040.29
227.262	24060.6
227.335	24070.97
227.407	24068.03
227.48	24078.01
227.553	24081
227.626	24069.67
227.698	24065.47
227.771	24078.68
227.844	24067.83
227.916	24065.61
227.989	24054.62
228.062	24061.47
228.134	24084.18
228.207	24077.09
228.28	24069.09
228.352	24074.25
228.425	24077.48
228.498	24084.18
228.57	24078.69
228.643	24082.98
228.716	24075.21
228.788	24058.52
228.861	24046.95
228.934	24063.78
229.006	24059.73
229.079	24057.61
229.151	24048.83
229.224	24048.39
229.296	24046.32
229.369	24072.75
229.442	24086.16
229.514	24077.67
229.587	24077.1
229.659	24058.86
229.732	24058.28
229.804	24066.15
229.877	24086.65
229.949	24081.29
230.022	24089.25
230.094	24082.84
230.167	24093.3
230.239	24078.74
230.312	24088
230.384	24104.98
230.457	24100.15
230.529	24098.03
230.602	24096.78
230.674	24097.12
230.747	24084.19
230.819	24091.04
230.892	24051.83
230.964	24045.41
231.037	24050.04
231.109	24042.81
231.181	24037.89
231.254	24024.24
231.326	24011.17
231.399	23985.84
231.471	23968.43
231.544	23940.36
231.616	23930.52
231.688	23911.18
231.761	23907.37
231.833	23889.86
231.905	23858.51
231.978	23851.18
232.05	23837.1
232.122	23823.78
232.195	23803.19
232.267	23810.57
232.339	23778.54
232.412	23777.48
232.484	23748.21
232.556	23722.31
232.629	23731.33
232.701	23727.42
232.773	23719.71
232.846	23703.55
232.918	23686.96
232.99	23683.78
233.062	23667.86
233.135	23658.7
233.207	23626
233.279	23615.25
233.351	23595.48
233.424	23578.17
233.496	23543.59
233.568	23548.17
233.64	23523.58
233.713	23501.25
233.785	23482.2
233.857	23482.25
233.929	23457.75
234.001	23462.09
234.074	23459.73
234.146	23420.96
234.218	23387.34
234.29	23361.93
234.362	23340.71
234.434	23304.84
234.507	23269.88
234.579	23251.12
234.651	23225.56
234.723	23217.03
234.795	23201.98
234.867	23182.99
234.939	23175.17
235.012	23163.84
235.084	23142.34
235.156	23124.78
235.228	23103.96
235.3	23082.3
235.372	23061.62
235.444	23047.59
235.516	23004.96
235.588	22989.97
235.66	22967.98
235.732	22952.41
235.804	22968.9
235.876	22949.61
235.948	22952.79
236.02	22927.24
236.092	22903.81
236.164	22886.5
236.236	22862.2
236.308	22838.87
236.38	22824.84
236.452	22789.35
236.524	22763.75
236.596	22742.87
236.668	22723.64
236.74	22700.11
236.812	22668.67
236.884	22640.04
236.956	22617.76
237.028	22583.25
237.1	22548.58
237.172	22541.16
237.244	22520.86
237.316	22476.6
237.388	22446.28
237.46	22410.5
237.532	22400.04
237.604	22368.8
237.675	22353.71
237.747	22337.95
237.819	22291.62
237.891	22258.17
237.963	22225
238.035	22196.56
238.107	22141.56
238.178	22119.77
238.25	22081.74
238.322	22080.68
238.394	22037.97
238.466	22004.47
238.538	21980.07
238.609	21955.54
238.681	21903.67
238.753	21869.49
238.825	21831.99
238.897	21806.06
238.968	21799.79
239.04	21764.51
239.112	21755.93
239.184	21710.76
239.255	21675.72
239.327	21656.53
239.399	21620.29
239.471	21594.74
239.542	21572.81
239.614	21563.46
239.686	21526.97
239.758	21512.37
239.829	21464.12
239.901	21448.65
239.973	21420.79
240.044	21400.93
240.116	21357.41
240.188	21326.51
240.259	21295.57
240.331	21255.52
240.403	21223.95
240.474	21160.61
240.546	21116.03
240.618	21068.37
240.689	21033.38
240.761	20996.55
240.833	20981.71
240.904	20951.35
240.976	20921.75
241.048	20890.43
241.119	20859.39
241.191	20824.21
241.262	20805.99
241.334	20774.66
241.405	20739.96
241.477	20704.59
241.549	20665.69
241.62	20641.6
241.692	20616.87
241.763	20595.57
241.835	20566.61
241.906	20544.15
241.978	20513.4
242.049	20506.56
242.121	20480.34
242.192	20458.27
242.264	20411.86
242.335	20357.45
242.407	20332.39
242.478	20291.91
242.55	20255.43
242.621	20211.48
242.693	20176.01
242.764	20139.14
242.836	20098.8
242.907	20068.68
242.979	20039.77
243.05	20010.18
243.122	19985.07
243.193	19948.78
243.264	19894.71
243.336	19861.99
243.407	19828.74
243.479	19806.52
243.55	19763.59
243.622	19731.78
243.693	19700.5
243.764	19691.25
243.836	19654.48
243.907	19612.17
243.978	19577.86
244.05	19560.85
244.121	19516.76
244.192	19489.19
244.264	19435.75
244.335	19403.46
244.407	19364.76
244.478	19332.53
244.549	19291.08
244.62	19245.3
244.692	19218.22
244.763	19184.05
244.834	19139.96
244.906	19096.83
244.977	19065.6
245.048	19046.04
245.119	18999.2
245.191	18954.67
245.262	18898.96
245.333	18883.35
245.405	18863.98
245.476	18836.41
245.547	18791.11
245.618	18770.05
245.689	18730.59
245.761	18707.17
245.832	18677.29
245.903	18644.62
245.974	18618.21
246.045	18593.44
246.117	18577.92
246.188	18531.32
246.259	18501.68
246.33	18474.7
246.401	18441.83
246.473	18388.1
246.544	18345.5
246.615	18329.65
246.686	18301.6
246.757	18283.77
246.828	18245.26
246.899	18213.12
246.97	18167.68
247.042	18128.59
247.113	18105.27
247.184	18096.26
247.255	18051.44
247.326	18017.51
247.397	17983.64
247.468	17955.01
247.539	17919.25
247.61	17875.83
247.681	17842.63
247.752	17818.97
247.823	17777.14
247.894	17741.67
247.965	17710.15
248.037	17674.1
248.108	17626.44
248.179	17592.9
248.25	17555.16
248.321	17523.16
248.392	17489.67
248.463	17492.37
248.534	17454.2
248.605	17423.65
248.675	17394.06
248.746	17376.42
248.817	17348.85
248.888	17324.13
248.959	17280.22
249.03	17258.63
249.101	17229.72
249.172	17201.52
249.243	17159.74
249.314	17145.81
249.385	17123.79
249.456	17103.79
249.527	17080.08
249.598	17063.64
249.669	17032.27
249.739	17008.84
249.81	16984.36
249.881	16937.8
249.952	16895.01
250.023	16876.93
250.094	16836.35
250.165	16787.2
250.235	16762.23
250.306	16739.77
250.377	16706.9
250.448	16680.06
250.519	16635.48
250.59	16615.62
250.66	16594.7
250.731	16579.71
250.802	16551.28
250.873	16519.9
250.944	16494.94
251.014	16459.71
251.085	16451.56
251.156	16424.23
251.227	16411.03
251.297	16397.96
251.368	16383.41
251.439	16371.46
251.51	16356.23
251.58	16320.99
251.651	16298.53
251.722	16276.17
251.792	16220.98
251.863	16194.71
251.934	16177.17
252.005	16179.19
252.075	16155.82
252.146	16136.54
252.217	16123.09
252.287	16109.16
252.358	16085.35
252.429	16072.68
252.499	16043.61
252.57	16014.79
252.641	16007.95
252.711	15979.65
252.782	15940.9
252.852	15937
252.923	15908.51
252.994	15878.82
253.064	15870.15
253.135	15839.63
253.205	15813.94
253.276	15812.31
253.347	15804.74
253.417	15771.48
253.488	15736.78
253.558	15710.22
253.629	15683.66
253.699	15665.2
253.77	15647.12
253.841	15621.63
253.911	15607.5
253.982	15587.55
254.052	15568.56
254.123	15536.74
254.193	15516.16
254.264	15521.99
254.334	15488.01
254.405	15443.91
254.475	15414.89
254.546	15386.07
254.616	15369.05
254.687	15349.96
254.757	15332.47
254.827	15295.11
254.898	15284.02
254.968	15261.17
255.039	15232.01
255.109	15214.22
255.18	15171.52
255.25	15123.31
255.321	15109.29
255.391	15070.92
255.461	15066.24
255.532	15023.1
255.602	15001.02
255.673	14958.32
255.743	14920.77
255.813	14879.99
255.884	14876.08
255.954	14853.43
256.024	14844.99
256.095	14829.9
256.165	14790.66
256.235	14774.95
256.306	14754.22
256.376	14741.74
256.446	14722.94
256.517	14706.64
256.587	14692.57
256.657	14675.46
256.728	14659.84
256.798	14638.19
256.868	14607.2
256.938	14580.25
257.009	14568.73
257.079	14548.39
257.149	14546.56
257.219	14509.15
257.29	14493.24
257.36	14451.3
257.43	14448.51
257.5	14408.06
257.571	14375.14
257.641	14366.32
257.711	14331.66
257.781	14313.39
257.852	14285.96
257.922	14249.23
257.992	14221.36
258.062	14196.35
258.132	14180.58
258.202	14161.01
258.273	14143.13
258.343	14139.56
258.413	14108.56
258.483	14082.34
258.553	14054.04
258.623	14028.11
258.693	14013.79
258.764	14001.54
258.834	13997.54
258.904	13967.99
258.974	13946.45
259.044	13925.81
259.114	13908.12
259.184	13892.6
259.254	13873.32
259.324	13835.43
259.394	13826.03
259.464	13828.34
259.535	13805.68
259.605	13784.91
259.675	13760.18
259.745	13743.83
259.815	13716.6
259.885	13695.05
259.955	13703.34
260.025	13672.97
260.095	13654.51
260.165	13644.38
260.235	13638.84
260.305	13619.75
260.375	13589.04
260.445	13586.58
260.515	13586.97
260.585	13576.51
260.655	13556.31
260.725	13538.71
260.795	13531.72
260.865	13520.15
260.934	13484.63
261.004	13474.89
261.074	13448.42
261.144	13436.37
261.214	13425.28
261.284	13401.13
261.354	13383.01
261.424	13351.96
261.494	13358.33
261.564	13341.89
261.634	13318.8
261.703	13286.74
261.773	13271.46
261.843	13263.31
261.913	13239.21
261.983	13201.46
262.053	13191.1
262.123	13174.13
262.192	13154.36
262.262	13145.78
262.332	13118.55
