Data from 20250702_urea_1.5M_MAYP1162681_11-41-54-245.txt Node
Date: Wed Jul 02 11:41:54 BST 2025
User: adleo
Spectrometer: MAYP116268
Trigger mode: 0
Integration Time (sec): 1.000000E0
Scans to average: 1
Electric dark correction enabled: true
Nonlinearity correction enabled: true
Boxcar width: 10
XAxis mode: Wavelengths
Number of Pixels in Spectrum: 2068
>>>>>Begin Spectral Data<<<<<
179.565	1017.31
179.642	1062.51
179.718	1095.7
179.795	1128.06
179.871	1154.44
179.948	1170.86
180.024	1186.41
180.101	1205.21
180.177	1215.36
180.254	1235.62
180.33	1254.15
180.407	1291.39
180.483	1370.83
180.56	1446.79
180.636	1516.06
180.712	1502.85
180.789	1512.39
180.865	1523.98
180.942	1531.62
181.018	1541.69
181.095	1552.67
181.171	1556.84
181.248	1558.93
181.324	1574.56
181.4	1578.74
181.477	1589.76
181.553	1599.55
181.63	1617.31
181.706	1629.57
181.782	1638.78
181.859	1637.31
181.935	1641.68
182.011	1638.5
182.088	1654.65
182.164	1669.95
182.24	1682.92
182.317	1690.38
182.393	1688.1
182.469	1699.97
182.546	1712.56
182.622	1714.27
182.698	1711.8
182.775	1723.02
182.851	1735.8
182.927	1729.48
183.003	1728.67
183.08	1722.11
183.156	1729.72
183.232	1730.62
183.308	1723.11
183.385	1730.29
183.461	1745.87
183.537	1747.82
183.613	1760.79
183.69	1753.47
183.766	1742.87
183.842	1750.29
183.918	1756.42
183.995	1770.67
184.071	1771.72
184.147	1766.68
184.223	1758.37
184.299	1770.06
184.375	1759.47
184.452	1763.13
184.528	1813.8
184.604	1818.41
184.68	1828.58
184.756	1837.09
184.832	1838.32
184.908	1840.03
184.985	1840.46
185.061	1824.87
185.137	1830.91
185.213	1821.88
185.289	1823.54
185.365	1819.41
185.441	1815.42
185.517	1828.82
185.593	1822.65
185.669	1820.13
185.745	1830.63
185.822	1846.79
185.898	1840.99
185.974	1850.11
186.05	1841.6
186.126	1803.24
186.202	1799.96
186.278	1794.78
186.354	1783.28
186.43	1790.5
186.506	1789.88
186.582	1788.03
186.658	1794.54
186.734	1779.29
186.81	1780.47
186.886	1781.62
186.962	1790.64
187.038	1787.79
187.114	1779.19
187.19	1787.55
187.266	1781.33
187.341	1778.43
187.417	1769.82
187.493	1764.98
187.569	1767.02
187.645	1764.98
187.721	1753.86
187.797	1762.08
187.873	1768.82
187.949	1765.74
188.025	1756.99
188.101	1759.84
188.176	1763.88
188.252	1759.46
188.328	1765.54
188.404	1766.54
188.48	1762.45
188.556	1758.03
188.632	1756.99
188.707	1757.99
188.783	1755.09
188.859	1751.24
188.935	1742.68
189.011	1749.76
189.086	1743.87
189.162	1734.65
189.238	1732.56
189.314	1730.95
189.39	1726.05
189.465	1718.93
189.541	1733.28
189.617	1720.45
189.693	1717.65
189.768	1719.45
189.844	1740.61
189.92	1731.77
189.996	1738.19
190.071	1747.69
190.147	1747.69
190.223	1757.67
190.298	1752.06
190.374	1740.28
190.45	1751.58
190.526	1759
190.601	1755.48
190.677	1758.95
190.753	1784.91
190.828	1787.38
190.904	1802.64
190.98	1814
191.055	1823.12
191.131	1815.04
191.207	1835.9
191.282	1845.03
191.358	1838.23
191.433	1826.44
191.509	1841.07
191.585	1839.03
191.66	1840.17
191.736	1844.97
191.811	1837.89
191.887	1850.3
191.963	1872.49
192.038	1873.54
192.114	1873.73
192.189	1877.34
192.265	1876.01
192.34	1855.94
192.416	1853.95
192.491	1851.9
192.567	1854
192.642	1855.33
192.718	1854.8
192.793	1842.63
192.869	1840.12
192.944	1841.35
193.02	1847.77
193.095	1849.29
193.171	1852.14
193.246	1850.57
193.322	1850
193.397	1850.15
193.473	1837.93
193.548	1820.57
193.624	1828.13
193.699	1828.18
193.775	1841.35
193.85	1840.97
193.925	1848.48
194.001	1848.39
194.076	1840.31
194.152	1831.75
194.227	1826.04
194.302	1820.96
194.378	1825.24
194.453	1819.39
194.529	1831.7
194.604	1818.68
194.679	1813.83
194.755	1802.33
194.83	1813.08
194.905	1811.56
194.981	1818.5
195.056	1812.7
195.131	1819.78
195.207	1817.64
195.282	1808.09
195.357	1791.64
195.433	1805.52
195.508	1796.01
195.583	1804.61
195.659	1816.31
195.734	1823.44
195.809	1824.11
195.884	1831.95
195.96	1830.95
196.035	1845.59
196.11	1841.36
196.185	1852.71
196.261	1855.19
196.336	1881.52
196.411	1870.97
196.486	1873.63
196.561	1868.97
196.637	1876.14
196.712	1889.22
196.787	1892.74
196.862	1907.81
196.937	1915.7
197.013	1920.21
197.088	1930.01
197.163	1947.7
197.238	1962.21
197.313	1962.88
197.388	1975.33
197.464	1998.64
197.539	2012.05
197.614	2005.77
197.689	2017.52
197.764	2033.59
197.839	2050.9
197.914	2044.76
197.989	2064.41
198.065	2080.1
198.14	2123.17
198.215	2146.9
198.29	2157.56
198.365	2168.88
198.44	2181.11
198.515	2204.37
198.59	2218.07
198.665	2239.53
198.74	2247.62
198.815	2247.81
198.89	2266.18
198.965	2291.12
199.04	2286.03
199.115	2298.4
199.19	2336.99
199.265	2339.13
199.34	2345.6
199.415	2375.6
199.49	2393.63
199.565	2402.58
199.64	2423.67
199.715	2422.14
199.79	2427.05
199.865	2432.57
199.94	2432.38
200.015	2456.09
200.09	2464.04
200.165	2470.71
200.24	2478.56
200.315	2514.4
200.39	2528.21
200.464	2534.4
200.539	2535.02
200.614	2552.15
200.689	2570.82
200.764	2573.35
200.839	2588.96
200.914	2592.48
200.989	2581.62
201.063	2594.38
201.138	2578.58
201.213	2576.54
201.288	2559.01
201.363	2560.96
201.438	2561.2
201.512	2577.72
201.587	2562.15
201.662	2562.82
201.737	2572.29
201.812	2575.96
201.886	2546.17
201.961	2556.61
202.036	2544.85
202.111	2542.99
202.186	2515.44
202.26	2500.34
202.335	2482.72
202.41	2475.44
202.485	2460.87
202.559	2444.35
202.634	2417.93
202.709	2425.83
202.784	2409.12
202.858	2409.88
202.933	2397.13
203.008	2391.7
203.082	2370.9
203.157	2371.76
203.232	2333.98
203.306	2314.84
203.381	2289.04
203.456	2270.19
203.53	2248.8
203.605	2233.3
203.68	2211.45
203.754	2209.31
203.829	2196.51
203.904	2176.48
203.978	2166.72
204.053	2169.86
204.127	2160.21
204.202	2162.59
204.277	2147.18
204.351	2141.85
204.426	2133.71
204.5	2128.43
204.575	2097.47
204.65	2105.7
204.724	2099.42
204.799	2105.45
204.873	2103.5
204.948	2102.17
205.022	2087.95
205.097	2078.1
205.171	2089.61
205.246	2096.56
205.32	2094.28
205.395	2092.8
205.469	2089.05
205.544	2096.71
205.618	2084.01
205.693	2096.71
205.767	2084.06
205.842	2102.9
205.916	2099
205.991	2091.72
206.065	2092.96
206.14	2105.41
206.214	2100.65
206.289	2095.18
206.363	2109.69
206.438	2111.87
206.512	2118.3
206.586	2138.08
206.661	2147.93
206.735	2129.29
206.81	2131.48
206.884	2147.84
206.958	2140.85
207.033	2154.64
207.107	2160.83
207.181	2188.81
207.256	2181.77
207.33	2200.27
207.405	2211.61
207.479	2226.93
207.553	2231.35
207.628	2217.27
207.702	2229.21
207.776	2226.36
207.851	2229.98
207.925	2244.64
207.999	2243.07
208.073	2242.02
208.148	2241.97
208.222	2231.98
208.296	2261.32
208.371	2275.99
208.445	2280.7
208.519	2303.3
208.593	2316.1
208.668	2309.53
208.742	2310.11
208.816	2309.01
208.89	2323.82
208.965	2321.68
209.039	2328.91
209.113	2347.09
209.187	2367.11
209.261	2364.64
209.336	2382.58
209.41	2399.82
209.484	2398.34
209.558	2416.34
209.632	2428.9
209.707	2441.04
209.781	2459.94
209.855	2475.56
209.929	2492.48
210.003	2501.19
210.077	2501.76
210.151	2547.71
210.226	2583.34
210.3	2612.85
210.374	2638.55
210.448	2642.36
210.522	2655.18
210.596	2671.57
210.67	2688.96
210.744	2738.47
210.818	2777.33
210.892	2802.02
210.966	2807.26
211.041	2834.09
211.115	2842.38
211.189	2875.93
211.263	2905.76
211.337	2926.06
211.411	2954.19
211.485	2966.83
211.559	2996.52
211.633	3022.35
211.707	3016.81
211.781	3045.87
211.855	3041.96
211.929	3064.8
212.003	3080.24
212.077	3124.47
212.151	3169.03
212.225	3212.07
212.299	3242.16
212.373	3271.12
212.447	3314.13
212.52	3388.31
212.594	3439.89
212.668	3506.29
212.742	3554.9
212.816	3609.88
212.89	3672.39
212.964	3736.33
213.038	3808.83
213.112	3897.31
213.186	3986.86
213.26	4046.2
213.333	4091.19
213.407	4183.72
213.481	4274.11
213.555	4381.58
213.629	4467.1
213.703	4559.34
213.777	4665.63
213.85	4762.88
213.924	4909.98
213.998	5024.86
214.072	5137.68
214.146	5249.81
214.219	5374.96
214.293	5501.7
214.367	5637.01
214.441	5780.79
214.515	5913.87
214.588	6040.49
214.662	6153.5
214.736	6284.51
214.81	6446.89
214.883	6614.83
214.957	6766.17
215.031	6923.62
215.105	7062.56
215.178	7215.64
215.252	7370.34
215.326	7516.04
215.4	7666.55
215.473	7797.04
215.547	7956.39
215.621	8123.24
215.694	8307.6
215.768	8467.39
215.842	8634.56
215.915	8804.52
215.989	8958.88
216.063	9133.6
216.136	9314.77
216.21	9498.11
216.284	9692.6
216.357	9876.28
216.431	10057.68
216.504	10242.84
216.578	10448.44
216.652	10646.71
216.725	10834.37
216.799	11034.2
216.873	11220.39
216.946	11406.19
217.02	11585.65
217.093	11764.98
217.167	11925.19
217.24	12086.99
217.314	12260.98
217.387	12435.37
217.461	12604.99
217.535	12803.77
217.608	12966.6
217.682	13136.81
217.755	13319.17
217.829	13482.92
217.902	13657.71
217.976	13829.99
218.049	13994.23
218.123	14151.28
218.196	14324.81
218.27	14485.43
218.343	14638.38
218.417	14809.16
218.49	14977.54
218.563	15151.88
218.637	15321.99
218.71	15508.23
218.784	15676.55
218.857	15848
218.931	16012.94
219.004	16178.65
219.077	16335.48
219.151	16496.99
219.224	16656.81
219.298	16811.81
219.371	16971.19
219.444	17100.84
219.518	17243.45
219.591	17390.3
219.665	17552.18
219.738	17697.86
219.811	17835.74
219.885	17975.64
219.958	18122.34
220.031	18256.79
220.105	18396.31
220.178	18523.87
220.251	18638.03
220.325	18772.58
220.398	18900.62
220.471	19016.04
220.544	19144.03
220.618	19252.22
220.691	19371.68
220.764	19481.7
220.838	19602.86
220.911	19712.59
220.984	19846.8
221.057	19957.4
221.131	20066.65
221.204	20141.83
221.277	20260.96
221.35	20381.73
221.424	20469.63
221.497	20555.8
221.57	20648.38
221.643	20746.89
221.716	20847.72
221.79	20932.11
221.863	21009.94
221.936	21091.2
222.009	21184.56
222.082	21268.28
222.155	21345.97
222.229	21435.24
222.302	21511.83
222.375	21577.38
222.448	21651.51
222.521	21714.32
222.594	21786.52
222.667	21840.55
222.74	21924.19
222.814	21978.61
222.887	22036.84
222.96	22116.62
223.033	22183.29
223.106	22241.86
223.179	22300.24
223.252	22352.79
223.325	22410.25
223.398	22476.44
223.471	22535.55
223.544	22589.54
223.617	22631.39
223.69	22681.63
223.763	22721.45
223.837	22775.5
223.91	22829.88
223.983	22862.57
224.056	22903.12
224.129	22946.7
224.202	23004.36
224.275	23040.38
224.348	23063.19
224.42	23087.87
224.493	23110.54
224.566	23140.91
224.639	23190.92
224.712	23210.25
224.785	23241.69
224.858	23265.32
224.931	23275.59
225.004	23298.3
225.077	23334.81
225.15	23346.33
225.223	23372.47
225.296	23408.68
225.369	23417.51
225.442	23434.1
225.514	23450.73
225.587	23471.28
225.66	23493.41
225.733	23516.56
225.806	23515.83
225.879	23536.18
225.952	23555.14
226.025	23584.17
226.097	23615.47
226.17	23621.83
226.243	23614.31
226.316	23613.4
226.389	23637.94
226.461	23654.82
226.534	23665.53
226.607	23655.98
226.68	23682.21
226.753	23685.3
226.825	23681.83
226.898	23710.14
226.971	23719.01
227.044	23736.52
227.117	23748.81
227.189	23752.09
227.262	23766.37
227.335	23794.05
227.407	23798.15
227.48	23797.72
227.553	23799.02
227.626	23788.22
227.698	23791.93
227.771	23815.22
227.844	23814.45
227.916	23815.61
227.989	23812.14
228.062	23810.45
228.134	23833.16
228.207	23842.28
228.28	23835.43
228.352	23830.17
228.425	23824.1
228.498	23818.79
228.57	23812.14
228.643	23830.75
228.716	23827.86
228.788	23816.04
228.861	23800.27
228.934	23804.32
229.006	23810.69
229.079	23804.18
229.151	23798.1
229.224	23778.81
229.296	23774.95
229.369	23802.83
229.442	23812.72
229.514	23807.12
229.587	23819.08
229.659	23796.03
229.732	23782.72
229.804	23794.58
229.877	23813.88
229.949	23815.51
230.022	23829.5
230.094	23824.87
230.167	23811.56
230.239	23799.31
230.312	23791.16
230.384	23813.83
230.457	23811.47
230.529	23804.23
230.602	23803.99
230.674	23798.15
230.747	23805.87
230.819	23806.55
230.892	23785.47
230.964	23777.08
231.037	23780.93
231.109	23760.53
231.181	23765.74
231.254	23742.06
231.326	23740.09
231.399	23728.51
231.471	23703.19
231.544	23669.48
231.616	23663.84
231.688	23654.29
231.761	23646.19
231.833	23623.76
231.905	23585.18
231.978	23571.24
232.05	23550.08
232.122	23527.41
232.195	23511.69
232.267	23510.34
232.339	23486.52
232.412	23473.83
232.484	23447.89
232.556	23415.92
232.629	23425.37
232.701	23403.67
232.773	23394.17
232.846	23360.56
232.918	23335.43
232.99	23337.94
233.062	23336.59
233.135	23327.67
233.207	23292.47
233.279	23275.54
233.351	23266.48
233.424	23243.53
233.496	23207.03
233.568	23212.23
233.64	23181.62
233.713	23165.66
233.785	23137.88
233.857	23124.96
233.929	23085.08
234.001	23086.34
234.074	23088.22
234.146	23047.57
234.218	23036.57
234.29	23016.32
234.362	22993.86
234.434	22963.04
234.507	22930.21
234.579	22892.7
234.651	22865.36
234.723	22854.99
234.795	22840.29
234.867	22819.36
234.939	22819.8
235.012	22804.85
235.084	22784.36
235.156	22784.26
235.228	22756.25
235.3	22733.06
235.372	22702.78
235.444	22695.98
235.516	22646.13
235.588	22622.07
235.66	22593.34
235.732	22563.88
235.804	22590.54
235.876	22578.97
235.948	22573.19
236.02	22547.16
236.092	22520.64
236.164	22496.1
236.236	22462.6
236.308	22429.58
236.38	22407.3
236.452	22373.41
236.524	22358.81
236.596	22344.39
236.668	22319.95
236.74	22298.74
236.812	22273.04
236.884	22270.97
236.956	22244.41
237.028	22213.17
237.1	22180.78
237.172	22178.9
237.244	22159.04
237.316	22089.37
237.388	22053.8
237.46	22019.23
237.532	21995.81
237.604	21959.32
237.675	21944.62
237.747	21927.7
237.819	21902.63
237.891	21865.71
237.963	21830.28
238.035	21794.32
238.107	21726.07
238.178	21701.97
238.25	21662.78
238.322	21653.86
238.394	21596.36
238.466	21564.11
238.538	21546.09
238.609	21512.97
238.681	21459.52
238.753	21422.93
238.825	21401.72
238.897	21366.64
238.968	21340.03
239.04	21310.97
239.112	21308.89
239.184	21263.88
239.255	21221.8
239.327	21184.83
239.399	21163.77
239.471	21133.99
239.542	21112.88
239.614	21103.04
239.686	21050.32
239.758	21034.94
239.829	20981.73
239.901	20964.77
239.973	20929.05
240.044	20891.32
240.116	20856.91
240.188	20826.69
240.259	20801.77
240.331	20763.6
240.403	20747.41
240.474	20709.72
240.546	20666.44
240.618	20609.57
240.689	20581.14
240.761	20552.56
240.833	20534.78
240.904	20509.76
240.976	20475.5
241.048	20437.43
241.119	20410.49
241.191	20380.85
241.262	20354.29
241.334	20322.05
241.405	20287.93
241.477	20256.51
241.549	20218.87
241.62	20188.32
241.692	20158.44
241.763	20128.22
241.835	20092.42
241.906	20049.77
241.978	19998.01
242.049	19977.48
242.121	19962.25
242.192	19935.41
242.264	19893.29
242.335	19847.9
242.407	19808.57
242.478	19770.26
242.55	19745.83
242.621	19698.46
242.693	19661.25
242.764	19618.32
242.836	19584.2
242.907	19549.93
242.979	19518.42
243.05	19492.2
243.122	19466.18
243.193	19425.46
243.264	19367.97
243.336	19337.51
243.407	19325.37
243.479	19311.68
243.55	19279.01
243.622	19244.41
243.693	19210.63
243.764	19189.86
243.836	19151.55
243.907	19111.12
243.978	19080.23
244.05	19045.96
244.121	19004.09
244.192	18986.31
244.264	18945.83
244.335	18916.33
244.407	18869.35
244.478	18838.6
244.549	18807.28
244.62	18761.93
244.692	18726.03
244.763	18708.25
244.834	18669.6
244.906	18623.24
244.977	18596.4
245.048	18571.68
245.119	18535.35
245.191	18487.93
245.262	18431.06
245.333	18404.51
245.405	18377.14
245.476	18346.82
245.547	18313
245.618	18285.57
245.689	18245.48
245.761	18218.83
245.832	18185.72
245.903	18161.2
245.974	18130.98
246.045	18099.37
246.117	18088.09
246.188	18049.49
246.259	18004.14
246.33	17975.32
246.401	17936.09
246.473	17885.69
246.544	17846.89
246.615	17831.38
246.686	17802.8
246.757	17787.28
246.828	17750.03
246.899	17725.31
246.97	17679.91
247.042	17637.6
247.113	17611.09
247.184	17597.5
247.255	17557.4
247.326	17530.56
247.397	17498.51
247.468	17467.77
247.539	17435.62
247.61	17384.01
247.681	17360.39
247.752	17346.56
247.823	17306.22
247.894	17277.89
247.965	17241.11
248.037	17213.16
248.108	17152.1
248.179	17114.99
248.25	17089.26
248.321	17063.33
248.392	17024.63
248.463	17014.31
248.534	16979.61
248.605	16960.58
248.675	16930.5
248.746	16901.73
248.817	16875.22
248.888	16851.51
248.959	16799.22
249.03	16769.34
249.101	16741.1
249.172	16714.88
249.243	16661.77
249.314	16643.89
249.385	16612.12
249.456	16589.04
249.527	16553.08
249.598	16528.46
249.669	16497.42
249.739	16472.21
249.81	16448.06
249.881	16405.02
249.952	16370.03
250.023	16342.51
250.094	16298.12
250.165	16252.14
250.235	16229.59
250.306	16203.85
250.377	16161.68
250.448	16144.23
250.519	16113.43
250.59	16102.83
250.66	16063.45
250.731	16046
250.802	16016.69
250.873	15987.63
250.944	15959.68
251.014	15922.13
251.085	15926.23
251.156	15909.64
251.227	15890.9
251.297	15872.15
251.368	15855.18
251.439	15846.7
251.51	15834.98
251.58	15800.18
251.651	15778.78
251.722	15755.98
251.792	15706.82
251.863	15676.36
251.934	15668.93
252.005	15658.62
252.075	15629.46
252.146	15613.17
252.217	15599.33
252.287	15572.92
252.358	15551.76
252.429	15547.9
252.499	15520.62
252.57	15489.19
252.641	15473.62
252.711	15447.5
252.782	15404.46
252.852	15398.72
252.923	15366.71
252.994	15341.5
253.064	15329.74
253.135	15292.24
253.205	15262.16
253.276	15250.02
253.347	15241.48
253.417	15205.24
253.488	15171.88
253.558	15144.4
253.629	15116.78
253.699	15096.25
253.77	15083.96
253.841	15057.74
253.911	15031.66
253.982	15010.45
254.052	14992.66
254.123	14962.39
254.193	14934
254.264	14944.27
254.334	14912.07
254.405	14875.38
254.475	14852.2
254.546	14818.98
254.616	14813.73
254.687	14792.91
254.757	14779.46
254.827	14756.56
254.898	14731.16
254.968	14708.21
255.039	14673.84
255.109	14666.22
255.18	14629.69
255.25	14585.92
255.321	14562.78
255.391	14521.56
255.461	14515.92
255.532	14465.6
255.602	14443.33
255.673	14404.18
255.743	14372.75
255.813	14327.2
255.884	14314.81
255.954	14287.09
256.024	14288.88
256.095	14257.88
256.165	14225.82
256.235	14206.06
256.306	14175.3
256.376	14169.57
256.446	14149.61
256.517	14134.09
256.587	14123.96
256.657	14106.8
256.728	14093.79
256.798	14077.64
256.868	14057.73
256.938	14032.57
257.009	14024.76
257.079	14002.53
257.149	14004.41
257.219	13961.22
257.29	13951.82
257.36	13913.25
257.43	13900.19
257.5	13852.23
257.571	13825.23
257.641	13815.44
257.711	13779.05
257.781	13770.85
257.852	13750.12
257.922	13715.85
257.992	13693.96
258.062	13658.58
258.132	13656.07
258.202	13628.6
258.273	13610.95
258.343	13603.24
258.413	13572.15
258.483	13546.55
258.553	13523.7
258.623	13491.35
258.693	13486.19
258.764	13480.17
258.834	13472.12
258.904	13455
258.974	13432.97
259.044	13415.57
259.114	13391.71
259.184	13377.44
259.254	13346.88
259.324	13309.32
259.394	13295.68
259.464	13291.87
259.535	13271.43
259.605	13244.44
259.675	13220.43
259.745	13206.98
259.815	13180.71
259.885	13160.85
259.955	13166.05
260.025	13134.72
260.095	13115.97
260.165	13100.2
260.235	13085.16
260.305	13063.23
260.375	13034.11
260.445	13041.15
260.515	13039.85
260.585	13038.55
260.655	13023.36
260.725	13018.93
260.795	13012.52
260.865	13013.53
260.934	12986.49
261.004	12973.81
261.074	12944.88
261.144	12942.96
261.214	12929.75
261.284	12904.34
261.354	12896.39
261.424	12868.72
261.494	12864.72
261.564	12849.73
261.634	12836.66
261.703	12805.52
261.773	12799.88
261.843	12787.15
261.913	12758.18
261.983	12718.99
262.053	12707.9
262.123	12686.55
262.192	12656.57
262.262	12644.13
