Data from 20250702_urea_5M_MAYP1162681_11-43-24-238.txt Node
Date: Wed Jul 02 11:43:24 BST 2025
User: adleo
Spectrometer: MAYP116268
Trigger mode: 0
Integration Time (sec): 1.000000E0
Scans to average: 1
Electric dark correction enabled: true
Nonlinearity correction enabled: true
Boxcar width: 10
XAxis mode: Wavelengths
Number of Pixels in Spectrum: 2068
>>>>>Begin Spectral Data<<<<<
179.565	1005.91
179.642	1051.54
179.718	1088.15
179.795	1118.89
179.871	1148.32
179.948	1161.86
180.024	1178.91
180.101	1198.89
180.177	1208.89
180.254	1228.91
180.33	1246.73
180.407	1286.74
180.483	1368.17
180.56	1442.71
180.636	1513.59
180.712	1505.08
180.789	1512.44
180.865	1523.51
180.942	1529.3
181.018	1540.08
181.095	1550.77
181.171	1556.94
181.248	1559.6
181.324	1573.14
181.4	1580.79
181.477	1591
181.553	1603.25
181.63	1621.45
181.706	1633.42
181.782	1640.87
181.859	1640.87
181.935	1646.19
182.011	1640.78
182.088	1655.79
182.164	1673.14
182.24	1685.44
182.317	1693.18
182.393	1691.8
182.469	1705.2
182.546	1720.4
182.622	1725.92
182.698	1723.82
182.775	1731
182.851	1742.07
182.927	1737.98
183.003	1735.85
183.08	1727.96
183.156	1739.74
183.232	1736.89
183.308	1726.63
183.385	1735.51
183.461	1749.72
183.537	1750.77
183.613	1762.69
183.69	1754.38
183.766	1744.78
183.842	1752
183.918	1757.08
183.995	1767.06
184.071	1770.63
184.147	1764.02
184.223	1752.19
184.299	1762.74
184.375	1755.24
184.452	1762.46
184.528	1811.76
184.604	1817.94
184.68	1829.44
184.756	1831.96
184.832	1836.33
184.908	1840.65
184.985	1838.37
185.061	1824.59
185.137	1833.29
185.213	1824.35
185.289	1823.21
185.365	1815.14
185.441	1812
185.517	1821.89
185.593	1817.42
185.669	1815.57
185.745	1824.45
185.822	1839.75
185.898	1831.62
185.974	1836.71
186.05	1831.24
186.126	1790.88
186.202	1785.27
186.278	1783.89
186.354	1775.76
186.43	1780
186.506	1780.85
186.582	1780.9
186.658	1786.12
186.734	1768.73
186.81	1770.92
186.886	1776
186.962	1791.3
187.038	1785.74
187.114	1778.8
187.19	1789.21
187.266	1778.38
187.341	1778.47
187.417	1769.97
187.493	1769.68
187.569	1772.53
187.645	1764.22
187.721	1755.71
187.797	1764.98
187.873	1765.12
187.949	1760.51
188.025	1754.95
188.101	1757.09
188.176	1762.69
188.252	1760.65
188.328	1766.16
188.404	1764.97
188.48	1760.36
188.556	1752.43
188.632	1754.04
188.707	1755.52
188.783	1752.33
188.859	1749.62
188.935	1738.93
189.011	1749.67
189.086	1746.39
189.162	1739.98
189.238	1738.31
189.314	1737.69
189.39	1730.33
189.465	1725.81
189.541	1738.22
189.617	1725.82
189.693	1722.3
189.768	1724.15
189.844	1743.69
189.92	1737.23
189.996	1747.31
190.071	1757.43
190.147	1755.05
190.223	1765.99
190.298	1759.81
190.374	1748.26
190.45	1759.81
190.526	1768.93
190.601	1763.46
190.677	1764.03
190.753	1790.56
190.828	1792.47
190.904	1805.01
190.98	1818.94
191.055	1827.54
191.131	1820.65
191.207	1841.75
191.282	1848.4
191.358	1841.09
191.433	1829.25
191.509	1840.55
191.585	1835.99
191.66	1839.51
191.736	1847.11
191.811	1838.46
191.887	1854.67
191.963	1876.3
192.038	1881.1
192.114	1881.2
192.189	1884.66
192.265	1882.57
192.34	1862.03
192.416	1861.65
192.491	1854.62
192.567	1858.85
192.642	1861.84
192.718	1863.7
192.793	1852.24
192.869	1849.2
192.944	1851.34
193.02	1859.28
193.095	1863.89
193.171	1868.54
193.246	1864.6
193.322	1862.84
193.397	1862.89
193.473	1849.05
193.548	1830.7
193.624	1833.03
193.699	1828.56
193.775	1842.4
193.85	1841.73
193.925	1851.24
194.001	1852.24
194.076	1845.97
194.152	1834.46
194.227	1827.66
194.302	1817.49
194.378	1820.3
194.453	1817.02
194.529	1829.33
194.604	1816.73
194.679	1811.13
194.755	1793.74
194.83	1805.2
194.905	1801.01
194.981	1807.76
195.056	1802.87
195.131	1810.85
195.207	1809.71
195.282	1805.25
195.357	1786.28
195.433	1802.48
195.508	1790.84
195.583	1796.16
195.659	1810.99
195.734	1818.55
195.809	1818.79
195.884	1826.96
195.96	1826.06
196.035	1839.89
196.11	1833.52
196.185	1840.55
196.261	1843.26
196.336	1870.78
196.411	1855.85
196.486	1861.31
196.561	1853.9
196.637	1860.36
196.712	1872.82
196.787	1876.77
196.862	1889.27
196.937	1900.25
197.013	1902.91
197.088	1909.42
197.163	1927.25
197.238	1943.29
197.313	1941.48
197.388	1951.32
197.464	1980.57
197.539	1991.46
197.614	1986.66
197.689	2000.26
197.764	2015.81
197.839	2030.93
197.914	2026.56
197.989	2047.72
198.065	2062.32
198.14	2106.81
198.215	2129.26
198.29	2140.11
198.365	2151.47
198.44	2160.8
198.515	2185.39
198.59	2199.05
198.665	2225.31
198.74	2233.87
198.815	2233.54
198.89	2253.09
198.965	2282.13
199.04	2276.94
199.115	2292.45
199.19	2329.09
199.265	2330.76
199.34	2338.18
199.415	2370.75
199.49	2388.49
199.565	2397.2
199.64	2416.72
199.715	2417.1
199.79	2427.15
199.865	2432.72
199.94	2431.57
200.015	2461.71
200.09	2468
200.165	2476.9
200.24	2480.38
200.315	2517.78
200.39	2531.5
200.464	2537.88
200.539	2535.64
200.614	2549.63
200.689	2568.26
200.764	2572.45
200.839	2587.01
200.914	2592.11
200.989	2580.96
201.063	2592.77
201.138	2576.49
201.213	2576.83
201.288	2561.49
201.363	2560.68
201.438	2559.49
201.512	2575.39
201.587	2559.43
201.662	2561.29
201.737	2564.86
201.812	2570.77
201.886	2540.6
201.961	2551.22
202.036	2542.66
202.111	2539.99
202.186	2514.58
202.26	2495.43
202.335	2478.24
202.41	2474.86
202.485	2462.24
202.559	2448.68
202.634	2428.11
202.709	2438.86
202.784	2424.82
202.858	2420.96
202.933	2407.3
203.008	2401.3
203.082	2382.07
203.157	2380.88
203.232	2342.53
203.306	2328.25
203.381	2302.74
203.456	2282.37
203.53	2260.55
203.605	2241.19
203.68	2222.49
203.754	2216.87
203.829	2209.97
203.904	2193.23
203.978	2181.43
204.053	2182.47
204.127	2169.96
204.202	2169.63
204.277	2151.08
204.351	2144.32
204.426	2136.99
204.5	2129.76
204.575	2103.84
204.65	2114.64
204.724	2108.69
204.799	2115.92
204.873	2112.59
204.948	2112.59
205.022	2102.27
205.097	2094.84
205.171	2109.35
205.246	2114.35
205.32	2113.92
205.395	2111.54
205.469	2102.13
205.544	2107.31
205.618	2096.85
205.693	2106.17
205.767	2092.9
205.842	2113.55
205.916	2107.98
205.991	2101.89
206.065	2106.98
206.14	2117.68
206.214	2109.83
206.289	2103.83
206.363	2112.73
206.438	2114.3
206.512	2118.82
206.586	2136.41
206.661	2142.36
206.735	2121.68
206.81	2124.15
206.884	2134.57
206.958	2121.06
207.033	2134.23
207.107	2139.51
207.181	2162.36
207.256	2158.03
207.33	2176.2
207.405	2188.1
207.479	2203.75
207.553	2206.7
207.628	2189.35
207.702	2200.19
207.776	2199
207.851	2198.34
207.925	2214.19
207.999	2209.43
208.073	2208.76
208.148	2209.43
208.222	2200.34
208.296	2229.02
208.371	2243.16
208.445	2254.25
208.519	2279.98
208.593	2294.54
208.668	2290.78
208.742	2293.74
208.816	2294.31
208.89	2305.35
208.965	2301.06
209.039	2309.3
209.113	2326.19
209.187	2346.6
209.261	2342.6
209.336	2359.45
209.41	2378.54
209.484	2378.92
209.558	2401.05
209.632	2412.38
209.707	2423.57
209.781	2439.03
209.855	2453.32
209.929	2468.62
210.003	2474.23
210.077	2476.09
210.151	2518.36
210.226	2549.33
210.3	2575.78
210.374	2598.01
210.448	2600.82
210.522	2611.44
210.596	2620.92
210.67	2629.06
210.744	2671.75
210.818	2700.79
210.892	2719.23
210.966	2715.09
211.041	2728.8
211.115	2724.76
211.189	2742.67
211.263	2756.81
211.337	2765.05
211.411	2775.25
211.485	2769.77
211.559	2782.06
211.633	2782.2
211.707	2753.22
211.781	2758.89
211.855	2724.63
211.929	2714.15
212.003	2697.87
212.077	2706.97
212.151	2712.69
212.225	2719.65
212.299	2708.44
212.373	2696.58
212.447	2687.96
212.52	2710.92
212.594	2712.4
212.668	2722.16
212.742	2710.54
212.816	2705.44
212.89	2698.72
212.964	2695.1
213.038	2695.53
213.112	2706.3
213.186	2719.54
213.26	2697.41
213.333	2658.87
213.407	2662.15
213.481	2664.63
213.555	2678.62
213.629	2665.14
213.703	2651.7
213.777	2649.84
213.85	2631.22
213.924	2658.9
213.998	2657.09
214.072	2650.37
214.146	2638.18
214.219	2635.46
214.293	2633.6
214.367	2630.32
214.441	2642.27
214.515	2634.17
214.588	2612.98
214.662	2580.45
214.736	2559.35
214.81	2571.01
214.883	2577.72
214.957	2573.29
215.031	2564.39
215.105	2542.64
215.178	2535.74
215.252	2534.74
215.326	2517.31
215.4	2506.98
215.473	2471
215.547	2464.14
215.621	2461.1
215.694	2472.96
215.768	2460.1
215.842	2455.81
215.915	2456.1
215.989	2440.95
216.063	2444.14
216.136	2457.86
216.21	2473.33
216.284	2498.19
216.357	2512.2
216.431	2523.48
216.504	2544.25
216.578	2585.03
216.652	2616.54
216.725	2635.98
216.799	2667.3
216.873	2694.93
216.946	2726.46
217.02	2750.7
217.093	2776.58
217.167	2786.87
217.24	2802.08
217.314	2831.19
217.387	2863.64
217.461	2891.48
217.535	2942.02
217.608	2969.39
217.682	3008.54
217.755	3057.71
217.829	3090.05
217.902	3130.17
217.976	3177.29
218.049	3219.99
218.123	3253.69
218.196	3307.08
218.27	3356.01
218.343	3391.58
218.417	3450.06
218.49	3502.95
218.563	3572.66
218.637	3635.05
218.71	3714.77
218.784	3784.67
218.857	3855.7
218.931	3925.21
219.004	3996.75
219.077	4067.28
219.151	4141.47
219.224	4208.6
219.298	4272.68
219.371	4357.44
219.444	4421.71
219.518	4498.34
219.591	4573.98
219.665	4673.47
219.738	4750.14
219.811	4820.83
219.885	4916.36
219.958	4998.11
220.031	5082.82
220.105	5168.15
220.178	5250.37
220.251	5324.08
220.325	5411.52
220.398	5501.82
220.471	5589.39
220.544	5679.44
220.618	5752.57
220.691	5843.02
220.764	5930.89
220.838	6025.63
220.911	6110.38
220.984	6219.77
221.057	6315.94
221.131	6404.82
221.204	6466.81
221.277	6571.39
221.35	6687.07
221.424	6758.86
221.497	6848.87
221.57	6937.15
221.643	7026.56
221.716	7122.76
221.79	7203.19
221.863	7292.4
221.936	7377.13
222.009	7463.74
222.082	7549.31
222.155	7636.75
222.229	7733.98
222.302	7823.84
222.375	7912.05
222.448	8003.58
222.521	8088.53
222.594	8164.77
222.667	8241.77
222.74	8329.76
222.814	8410.02
222.887	8484.71
222.96	8581.87
223.033	8666.71
223.106	8751.99
223.179	8838.92
223.252	8919.03
223.325	9006.96
223.398	9082.84
223.471	9164.49
223.544	9248.98
223.617	9326.98
223.69	9414.51
223.763	9480.29
223.837	9561.15
223.91	9635.74
223.983	9692.72
224.056	9756.72
224.129	9841.88
224.202	9925.72
224.275	10005.82
224.348	10064.93
224.42	10133.05
224.493	10193.02
224.566	10261.77
224.639	10338.66
224.712	10403.89
224.785	10465.37
224.858	10532
224.931	10595.61
225.004	10654.82
225.077	10717.03
225.15	10766.46
225.223	10826.31
225.296	10913.58
225.369	10960.18
225.442	11018.83
225.514	11089.95
225.587	11157.76
225.66	11221.08
225.733	11280.84
225.806	11344.99
225.879	11401.13
225.952	11447.3
226.025	11514.1
226.097	11584.81
226.17	11642.65
226.243	11674.41
226.316	11732.01
226.389	11787.87
226.461	11848.94
226.534	11912.13
226.607	11965.24
226.68	12049.45
226.753	12104.35
226.825	12127.49
226.898	12201.67
226.971	12252.24
227.044	12305.16
227.117	12356.69
227.189	12406
227.262	12466.4
227.335	12519.86
227.407	12571.87
227.48	12622.63
227.553	12673.44
227.626	12709.69
227.698	12748.74
227.771	12812.9
227.844	12851.8
227.916	12899.28
227.989	12930.81
228.062	12970.29
228.134	13040.81
228.207	13069.83
228.28	13112.59
228.352	13164.99
228.425	13205.82
228.498	13255.14
228.57	13289.27
228.643	13344.9
228.716	13386.07
228.788	13419.96
228.861	13446.86
228.934	13496.7
229.006	13541.39
229.079	13580.15
229.151	13620.98
229.224	13645.03
229.296	13686.97
229.369	13750.41
229.442	13800.45
229.514	13834
229.587	13883.37
229.659	13895.51
229.732	13934.56
229.804	13975.54
229.877	14024.66
229.949	14067.66
230.022	14117.55
230.094	14159.15
230.167	14186.73
230.239	14209.34
230.312	14244.77
230.384	14299
230.457	14335.1
230.529	14372.41
230.602	14409.34
230.674	14443.76
230.747	14500.01
230.819	14534.92
230.892	14538
230.964	14569.14
231.037	14610.84
231.109	14642.22
231.181	14682.76
231.254	14711.54
231.326	14745.18
231.399	14778.06
231.471	14800.18
231.544	14816.57
231.616	14848.15
231.688	14880.64
231.761	14903
231.833	14927.93
231.905	14934.77
231.978	14970.34
232.05	14995.6
232.122	15015.8
232.195	15036.14
232.267	15066.61
232.339	15093.74
232.412	15136.02
232.484	15166.34
232.556	15184.22
232.629	15227.41
232.701	15257.49
232.773	15281.01
232.846	15286.17
232.918	15308.87
232.99	15334.32
233.062	15367.39
233.135	15397.08
233.207	15408.7
233.279	15439.59
233.351	15466.97
233.424	15487.84
233.496	15495.99
233.568	15535.71
233.64	15549.16
233.713	15571.52
233.785	15587.86
233.857	15605.17
233.929	15614.37
234.001	15638.28
234.074	15672.98
234.146	15672.12
234.218	15682.72
234.29	15701.9
234.362	15726.78
234.434	15727.02
234.507	15735.64
234.579	15734.78
234.651	15744.47
234.723	15766.25
234.795	15789
234.867	15807.08
234.939	15842.7
235.012	15859.76
235.084	15873.3
235.156	15898.75
235.228	15909.12
235.3	15917.16
235.372	15932.44
235.444	15954.33
235.516	15949.17
235.588	15959.19
235.66	15964.59
235.732	15966.23
235.804	16025.18
235.876	16040.75
235.948	16065.04
236.02	16072.89
236.092	16073.23
236.164	16084.51
236.236	16094.25
236.308	16096.99
236.38	16103.45
236.452	16097.76
236.524	16104.42
236.596	16122.68
236.668	16129.19
236.74	16133.24
236.812	16145.38
236.884	16152.95
236.956	16156.9
237.028	16148.13
237.1	16146.15
237.172	16174.98
237.244	16201.39
237.316	16170.79
237.388	16167.7
237.46	16163.07
237.532	16173.97
237.604	16174.59
237.675	16180.57
237.747	16186.98
237.819	16186.59
237.891	16181.1
237.963	16170.98
238.035	16167.99
238.107	16135.7
238.178	16151.17
238.25	16147.17
238.322	16162.16
238.394	16149.29
238.466	16144.03
238.538	16151.79
238.609	16149.24
238.681	16115.26
238.753	16103.16
238.825	16103.31
238.897	16100.27
238.968	16110.73
239.04	16103.69
239.112	16129.33
239.184	16113.33
239.255	16096.37
239.327	16087.84
239.399	16094.1
239.471	16086.97
239.542	16088.85
239.614	16099.21
239.686	16073.04
239.758	16081.52
239.829	16060.12
239.901	16067.3
239.973	16057.47
240.044	16056.46
240.116	16050.72
240.188	16039.73
240.259	16031.01
240.331	16017.95
240.403	16014.29
240.474	15995.78
240.546	15977.8
240.618	15942.42
240.689	15940.59
240.761	15939
240.833	15944.93
240.904	15923
240.976	15927.33
241.048	15908.78
241.119	15897.88
241.191	15891.43
241.262	15890.85
241.334	15875.47
241.405	15859.08
241.477	15840.24
241.549	15825.97
241.62	15818.36
241.692	15815.46
241.763	15808.28
241.835	15790.26
241.906	15775.94
241.978	15750.97
242.049	15752.66
242.121	15749.96
242.192	15738.34
242.264	15709.66
242.335	15678.14
242.407	15678.72
242.478	15647.63
242.55	15637.12
242.621	15613.7
242.693	15595.28
242.764	15575.72
242.836	15558.56
242.907	15546.84
242.979	15547.81
243.05	15526.31
243.122	15507.46
243.193	15490.06
243.264	15443.26
243.336	15416.46
243.407	15410.67
243.479	15404.65
243.55	15391.54
243.622	15376.31
243.693	15362.57
243.764	15364.5
243.836	15340.68
243.907	15314.41
243.978	15301.64
244.05	15291.52
244.121	15257.05
244.192	15242.93
244.264	15201.81
244.335	15179.21
244.407	15147.73
244.478	15123.2
244.549	15108.2
244.62	15076.29
244.692	15056.24
244.763	15056.24
244.834	15038.74
244.906	15004.47
244.977	14989.34
245.048	14968.99
245.119	14938.05
245.191	14905.37
245.262	14859.33
245.333	14856.73
245.405	14833.93
245.476	14822.02
245.547	14795.99
245.618	14790.79
245.689	14768.23
245.761	14761.19
245.832	14748.27
245.903	14728.41
245.974	14713.56
246.045	14691.58
246.117	14690.09
246.188	14656.25
246.259	14623.32
246.33	14596.14
246.401	14570.39
246.473	14533.85
246.544	14510.52
246.615	14501.9
246.686	14471.09
246.757	14466.56
246.828	14430.89
246.899	14424.43
246.97	14382.83
247.042	14353.23
247.113	14328.07
247.184	14317.85
247.255	14283.72
247.326	14256.82
247.397	14232.67
247.468	14207.26
247.539	14184.17
247.61	14146.86
247.681	14133.65
247.752	14121.41
247.823	14091.52
247.894	14074.22
247.965	14039.84
248.037	14011.84
248.108	13976.74
248.179	13957.56
248.25	13928.49
248.321	13908.1
248.392	13873.29
248.463	13876.67
248.534	13857.58
248.605	13850.1
248.675	13835.5
248.746	13824.7
248.817	13804.55
248.888	13791.68
248.959	13753.11
249.03	13737.69
249.101	13714.07
249.172	13688.32
249.243	13645.9
249.314	13641.23
249.385	13623.1
249.456	13616.59
249.527	13593.16
249.598	13577.98
249.669	13559.42
249.739	13537.82
249.81	13528.57
249.881	13492.46
249.952	13464.16
250.023	13440.73
250.094	13407.66
250.165	13361.72
250.235	13331.64
250.306	13308.94
250.377	13271.38
250.448	13255.96
250.519	13217.3
250.59	13208.96
250.66	13185.48
250.731	13189.67
250.802	13161.91
250.873	13142.77
250.944	13111.34
251.014	13077.64
251.085	13069.79
251.156	13052.29
251.227	13042.93
251.297	13029.92
251.368	13026.45
251.439	13018.54
251.51	13004.51
251.58	12975.69
251.651	12953.03
251.722	12948.5
251.792	12914.18
251.863	12898.27
251.934	12887.37
252.005	12896.92
252.075	12874.79
252.146	12863.13
252.217	12848.81
252.287	12841
252.358	12816.03
252.429	12823.89
252.499	12802.58
252.57	12790.63
252.641	12785.23
252.711	12758.91
252.782	12725.16
252.852	12714.12
252.923	12686.79
252.994	12672.33
253.064	12658.88
253.135	12630.58
253.205	12607.49
253.276	12604.7
253.347	12594.14
253.417	12568.01
253.488	12539.28
253.558	12519.47
253.629	12497.54
253.699	12477.58
253.77	12466.88
253.841	12444.23
253.911	12427.45
253.982	12412.84
254.052	12394.62
254.123	12369.56
254.193	12351.19
254.264	12366.52
254.334	12341.12
254.405	12309.06
254.475	12279.13
254.546	12258.64
254.616	12259.32
254.687	12238.97
254.757	12227.07
254.827	12211.5
254.898	12193.13
254.968	12168.02
255.039	12147.58
255.109	12138.67
255.18	12115
255.25	12068.48
255.321	12057.35
255.391	12024.76
255.461	12030.02
255.532	11984.47
255.602	11963.84
255.673	11937.91
255.743	11903.05
255.813	11861.03
255.884	11861.99
255.954	11846.52
256.024	11842.95
256.095	11825.98
256.165	11798.7
256.235	11784.19
256.306	11754.46
256.376	11750.7
256.446	11741.01
256.517	11732.19
256.587	11723.17
256.657	11705.97
256.728	11697.92
256.798	11677.92
256.868	11648.76
256.938	11619.64
257.009	11618.25
257.079	11611.02
257.149	11612.56
257.219	11579.21
257.29	11569.18
257.36	11526.48
257.43	11515.25
257.5	11484.6
257.571	11461.41
257.641	11444.64
257.711	11418.57
257.781	11413.27
257.852	11402.85
257.922	11370.18
257.992	11345.07
258.062	11323.33
258.132	11317.4
258.202	11296.92
258.273	11284.3
258.343	11288.39
258.413	11264.97
258.483	11249.21
258.553	11218.94
258.623	11195.91
258.693	11184.15
258.764	11183.96
258.834	11187.71
258.904	11170.12
258.974	11137.45
259.044	11117.45
259.114	11105.84
259.184	11085.41
259.254	11067.96
259.324	11026.18
259.394	11021.6
259.464	11019.62
259.535	10997.51
259.605	10967.77
259.675	10945.75
259.745	10941.46
259.815	10914.38
259.885	10889.8
259.955	10887.1
260.025	10861.9
260.095	10843.98
260.165	10826.29
260.235	10823.45
260.305	10794.68
260.375	10772.08
260.445	10785.72
260.515	10782.2
260.585	10774.49
260.655	10757.1
260.725	10744.23
260.795	10740.28
260.865	10731.85
260.934	10707.51
261.004	10703.85
261.074	10694.55
261.144	10696.24
261.214	10681.39
261.284	10663.9
261.354	10654.32
261.424	10631.18
261.494	10632.53
261.564	10617.98
261.634	10620.05
261.703	10584.01
261.773	10580.16
261.843	10567.39
261.913	10545.61
261.983	10515.64
262.053	10514.82
262.123	10502.44
262.192	10475.03
262.262	10473.15
262.332	10445.59
262.402	10436.15
262.472	10415.43
262.541	10377.08
262.611	10363.06
262.681	10337.62
262.751	10329
