Data from 20250702_urea_5M_MAYP1162681_11-43-23-240.txt Node
Date: Wed Jul 02 11:43:23 BST 2025
User: adleo
Spectrometer: MAYP116268
Trigger mode: 0
Integration Time (sec): 1.000000E0
Scans to average: 1
Electric dark correction enabled: true
Nonlinearity correction enabled: true
Boxcar width: 10
XAxis mode: Wavelengths
Number of Pixels in Spectrum: 2068
>>>>>Begin Spectral Data<<<<<
179.565	1014.1
179.642	1062.43
179.718	1094.51
179.795	1123.57
179.871	1151.29
179.948	1163.76
180.024	1179.87
180.101	1199
180.177	1211.46
180.254	1230.59
180.33	1249.09
180.407	1288.05
180.483	1368.91
180.56	1444.02
180.636	1514.32
180.712	1503.68
180.789	1513.61
180.865	1522.44
180.942	1529.27
181.018	1540.43
181.095	1549.98
181.171	1557.35
181.248	1554.92
181.324	1571.79
181.4	1579.24
181.477	1588.55
181.553	1601.95
181.63	1619.95
181.706	1635.25
181.782	1643.37
181.859	1644.08
181.935	1648.4
182.011	1647.41
182.088	1663.75
182.164	1680.81
182.24	1693.78
182.317	1702.47
182.393	1699.57
182.469	1714.11
182.546	1727.27
182.622	1730.6
182.698	1726.27
182.775	1736.58
182.851	1750.65
182.927	1744.94
183.003	1742.09
183.08	1737.63
183.156	1744.09
183.232	1741.38
183.308	1729.64
183.385	1733.35
183.461	1747.56
183.537	1750.93
183.613	1760.29
183.69	1752.45
183.766	1744.47
183.842	1749.93
183.918	1753.78
183.995	1764.47
184.071	1766.75
184.147	1762.71
184.223	1752.26
184.299	1762.29
184.375	1751.46
184.452	1756.35
184.528	1804.93
184.604	1812.87
184.68	1823.37
184.756	1831.69
184.832	1834.68
184.908	1838.58
184.985	1839.57
185.061	1826.41
185.137	1831.12
185.213	1821.28
185.289	1822.42
185.365	1815.48
185.441	1813.87
185.517	1824.9
185.593	1822.76
185.669	1819.15
185.745	1825.37
185.822	1841.33
185.898	1834.63
185.974	1843.61
186.05	1836.91
186.126	1800.17
186.202	1795.51
186.278	1790.19
186.354	1778.16
186.43	1785.2
186.506	1783.63
186.582	1783.72
186.658	1787.81
186.734	1773.41
186.81	1777.17
186.886	1778.07
186.962	1788.57
187.038	1785.53
187.114	1778.49
187.19	1786.86
187.266	1777.36
187.341	1779.73
187.417	1773.13
187.493	1772.94
187.569	1774.03
187.645	1769.42
187.721	1758.2
187.797	1764.76
187.873	1768.8
187.949	1767.61
188.025	1760.91
188.101	1762.29
188.176	1766.52
188.252	1761.72
188.328	1769.89
188.404	1765.14
188.48	1759.49
188.556	1752.69
188.632	1751.79
188.707	1751.07
188.783	1744.47
188.859	1741.76
188.935	1734.44
189.011	1740.28
189.086	1735.39
189.162	1727.5
189.238	1726.12
189.314	1725.13
189.39	1720.52
189.465	1715.34
189.541	1728.55
189.617	1714.49
189.693	1709.45
189.768	1713.49
189.844	1738.3
189.92	1729.23
189.996	1740.35
190.071	1750.19
190.147	1748.9
190.223	1758.5
190.298	1754.56
190.374	1743.73
190.45	1755.65
190.526	1761.21
190.601	1758.31
190.677	1759.79
190.753	1781.89
190.828	1784.93
190.904	1797.43
190.98	1811.79
191.055	1821.91
191.131	1815.31
191.207	1835.98
191.282	1847.76
191.358	1838.63
191.433	1824.32
191.509	1836.01
191.585	1833.82
191.66	1836.01
191.736	1844.14
191.811	1836.96
191.887	1851.32
191.963	1871.28
192.038	1876.65
192.114	1876.36
192.189	1879.4
192.265	1876.89
192.34	1861.43
192.416	1859.01
192.491	1855.25
192.567	1858.06
192.642	1857.96
192.718	1856.21
192.793	1844.66
192.869	1841.71
192.944	1843.61
193.02	1851.41
193.095	1855.45
193.171	1859.49
193.246	1855.92
193.322	1855.16
193.397	1856.02
193.473	1842.28
193.548	1827.3
193.624	1830.25
193.699	1828.07
193.775	1842.9
193.85	1842
193.925	1849.08
194.001	1850.84
194.076	1845.61
194.152	1833.34
194.227	1828.31
194.302	1821.18
194.378	1824.79
194.453	1821.13
194.529	1830.88
194.604	1816.9
194.679	1809.01
194.755	1794.09
194.83	1807.88
194.905	1804.27
194.981	1810.68
195.056	1806.26
195.131	1812.49
195.207	1812.4
195.282	1804.93
195.357	1786.82
195.433	1803.17
195.508	1790.33
195.583	1794.94
195.659	1807.11
195.734	1815.29
195.809	1813.72
195.884	1820.71
195.96	1821.18
196.035	1833.4
196.11	1828.31
196.185	1837.72
196.261	1839.81
196.336	1865.43
196.411	1852.31
196.486	1857.2
196.561	1851.5
196.637	1857.11
196.712	1871.99
196.787	1873.99
196.862	1886.35
196.937	1893.95
197.013	1898.32
197.088	1908.16
197.163	1926.71
197.238	1939.32
197.313	1938.13
197.388	1951.92
197.464	1977.83
197.539	1988.82
197.614	1984.97
197.689	1998.9
197.764	2015.35
197.839	2033.61
197.914	2027.38
197.989	2047.31
198.065	2059.01
198.14	2102.17
198.215	2124.81
198.29	2132.7
198.365	2145.79
198.44	2153.82
198.515	2177.23
198.59	2190.31
198.665	2213.29
198.74	2220.67
198.815	2224.57
198.89	2245.5
198.965	2271.49
199.04	2270.16
199.115	2282.86
199.19	2319.64
199.265	2320.93
199.34	2327.92
199.415	2358.97
199.49	2377.05
199.565	2383.23
199.64	2405.23
199.715	2401.75
199.79	2407.75
199.865	2415.65
199.94	2412.41
200.015	2442.12
200.09	2448.45
200.165	2453.93
200.24	2459.88
200.315	2499.05
200.39	2510.9
200.464	2515.19
200.539	2514.33
200.614	2527.99
200.689	2547.14
200.764	2551.28
200.839	2567.61
200.914	2573.32
200.989	2563.36
201.063	2577.22
201.138	2566.42
201.213	2567.75
201.288	2553.23
201.363	2560.23
201.438	2559.51
201.512	2573.79
201.587	2558.36
201.662	2561.46
201.737	2572.17
201.812	2579.51
201.886	2550.58
201.961	2559.82
202.036	2548.2
202.111	2548.59
202.186	2521.79
202.26	2510.89
202.335	2493.84
202.41	2488.84
202.485	2473.61
202.559	2456.66
202.634	2434.04
202.709	2439.66
202.784	2419.9
202.858	2418.43
202.933	2402.1
203.008	2398.34
203.082	2381.2
203.157	2379.01
203.232	2342.04
203.306	2325.28
203.381	2296.11
203.456	2271.55
203.53	2250.07
203.605	2233.85
203.68	2211.43
203.754	2206.96
203.829	2193.91
203.904	2175.55
203.978	2166.65
204.053	2168.36
204.127	2159.33
204.202	2160.8
204.277	2145.96
204.351	2140.25
204.426	2136.83
204.5	2127.31
204.575	2097.02
204.65	2106.87
204.724	2099.35
204.799	2106.67
204.873	2101.91
204.948	2103.76
205.022	2094.59
205.097	2087.73
205.171	2098.48
205.246	2105.24
205.32	2104.29
205.395	2100.62
205.469	2095.39
205.544	2097.92
205.618	2084.36
205.693	2093.3
205.767	2078.08
205.842	2098.87
205.916	2092.64
205.991	2080.13
206.065	2086.84
206.14	2099.68
206.214	2094.3
206.289	2090.78
206.363	2103.29
206.438	2102.81
206.512	2110.52
206.586	2129.4
206.661	2134.45
206.735	2116.38
206.81	2114.38
206.884	2129.69
206.958	2119.8
207.033	2132.02
207.107	2139.97
207.181	2168.71
207.256	2162.67
207.33	2181.51
207.405	2191.08
207.479	2210.96
207.553	2216.05
207.628	2201.83
207.702	2212.3
207.776	2206.54
207.851	2211.39
207.925	2224.06
207.999	2224.48
208.073	2222.63
208.148	2223.53
208.222	2213.06
208.296	2240.55
208.371	2258.69
208.445	2267.69
208.519	2293.19
208.593	2305.13
208.668	2302.85
208.742	2303.47
208.816	2306.27
208.89	2317.94
208.965	2313.27
209.039	2318.32
209.113	2337.16
209.187	2355.14
209.261	2351
209.336	2365.8
209.41	2381.22
209.484	2377.18
209.558	2397.89
209.632	2407.31
209.707	2417.69
209.781	2439.2
209.855	2456.11
209.929	2468.54
210.003	2472.64
210.077	2472.92
210.151	2514.52
210.226	2542.01
210.3	2567.99
210.374	2585.6
210.448	2588.69
210.522	2599.46
210.596	2609.55
210.67	2616.51
210.744	2656.09
210.818	2684.52
210.892	2705.76
210.966	2700.43
211.041	2718.15
211.115	2714.39
211.189	2735.97
211.263	2751.88
211.337	2755.02
211.411	2765.46
211.485	2762.17
211.559	2769.41
211.633	2767.69
211.707	2739.66
211.781	2746.62
211.855	2713.41
211.929	2708.13
212.003	2689.56
212.077	2698.14
212.151	2707.38
212.225	2714.05
212.299	2703.23
212.373	2689.75
212.447	2682.7
212.52	2707.95
212.594	2706.95
212.668	2713.33
212.742	2697.18
212.816	2689.89
212.89	2686.6
212.964	2684.79
213.038	2685.17
213.112	2696.99
213.186	2712.52
213.26	2693.14
213.333	2650.12
213.407	2652.12
213.481	2653.41
213.555	2664.79
213.629	2652.3
213.703	2635.48
213.777	2632.34
213.85	2615.95
213.924	2645.64
213.998	2647.92
214.072	2642.63
214.146	2632.2
214.219	2631.1
214.293	2629.53
214.367	2629.82
214.441	2638.54
214.515	2627.43
214.588	2610.1
214.662	2579.81
214.736	2560.61
214.81	2569.42
214.883	2583.08
214.957	2578.32
215.031	2571.18
215.105	2553.9
215.178	2547.04
215.252	2544.81
215.326	2532.52
215.4	2520
215.473	2483.89
215.547	2470.26
215.621	2461.64
215.694	2470.59
215.768	2457.02
215.842	2455.5
215.915	2452.5
215.989	2439.11
216.063	2445.59
216.136	2455.97
216.21	2472.92
216.284	2497.12
216.357	2509.74
216.431	2517.07
216.504	2542.56
216.578	2582.87
216.652	2612.43
216.725	2632.3
216.799	2663.94
216.873	2686.52
216.946	2721.62
217.02	2744.01
217.093	2767.5
217.167	2777.65
217.24	2796.19
217.314	2826.02
217.387	2853.99
217.461	2879.82
217.535	2927.07
217.608	2946.14
217.682	2984.77
217.755	3032.03
217.829	3061.55
217.902	3107.54
217.976	3154.52
218.049	3191.73
218.123	3222.28
218.196	3277.53
218.27	3323.97
218.343	3358.96
218.417	3414.86
218.49	3470.77
218.563	3542.53
218.637	3609.06
218.71	3694.61
218.784	3766.09
218.857	3840.61
218.931	3912.93
219.004	3982.26
219.077	4056.71
219.151	4136.96
219.224	4206.34
219.298	4278.32
219.371	4358.14
219.444	4417.63
219.518	4488.32
219.591	4565.1
219.665	4666.7
219.738	4743.9
219.811	4815.97
219.885	4910.1
219.958	5000.33
220.031	5075.65
220.105	5164.77
220.178	5246.94
220.251	5313.94
220.325	5400.71
220.398	5484.83
220.471	5568.66
220.544	5660.61
220.618	5736.43
220.691	5824.34
220.764	5911.58
220.838	6000.25
220.911	6091.6
220.984	6199.5
221.057	6302.58
221.131	6391.84
221.204	6454.31
221.277	6557.74
221.35	6677.59
221.424	6760.01
221.497	6843.06
221.57	6932.38
221.643	7022.47
221.716	7120.59
221.79	7209.48
221.863	7297.25
221.936	7385.34
222.009	7473.24
222.082	7569
222.155	7652.41
222.229	7750.11
222.302	7835.99
222.375	7920.15
222.448	8007.59
222.521	8090.08
222.594	8166.61
222.667	8241.83
222.74	8339.06
222.814	8417.06
222.887	8488.1
222.96	8582.66
223.033	8677.33
223.106	8765.15
223.179	8851.42
223.252	8935.86
223.325	9022.4
223.398	9103.91
223.471	9184.89
223.544	9267.06
223.617	9344.3
223.69	9428.75
223.763	9501.32
223.837	9588.34
223.91	9670.69
223.983	9730.26
224.056	9795.47
224.129	9871.13
224.202	9958.5
224.275	10024.73
224.348	10087.64
224.42	10152.28
224.493	10205.76
224.566	10265.16
224.639	10344.02
224.712	10405.5
224.785	10466.17
224.858	10530.39
224.931	10589.9
225.004	10646.89
225.077	10709.63
225.15	10753.81
225.223	10818.53
225.296	10902.91
225.369	10953.32
225.442	11005.84
225.514	11076.68
225.587	11141.16
225.66	11203.76
225.733	11264.77
225.806	11324.58
225.879	11386.55
225.952	11433.25
226.025	11499.62
226.097	11573.6
226.17	11628.65
226.243	11666.05
226.316	11717.67
226.389	11783.6
226.461	11843.85
226.534	11904.01
226.607	11959.19
226.68	12029.47
226.753	12083.21
226.825	12112.47
226.898	12173.35
226.971	12223.24
227.044	12275.88
227.117	12337.72
227.189	12394.65
227.262	12456.5
227.335	12508.9
227.407	12552.52
227.48	12611.42
227.553	12670.86
227.626	12710.92
227.698	12753.05
227.771	12808.63
227.844	12858.28
227.916	12895.84
227.989	12930.59
228.062	12972.87
228.134	13027.2
228.207	13072.27
228.28	13109
228.352	13142.75
228.425	13184.06
228.498	13241.62
228.57	13283.7
228.643	13334.51
228.716	13376.07
228.788	13410.58
228.861	13452.95
228.934	13510.85
229.006	13541.94
229.079	13573.37
229.151	13605.82
229.224	13635.08
229.296	13679.53
229.369	13738.29
229.442	13789.92
229.514	13823.71
229.587	13868.16
229.659	13895.3
229.732	13937.14
229.804	13984.05
229.877	14047.1
229.949	14096.56
230.022	14149.63
230.094	14184.29
230.167	14220.35
230.239	14247.59
230.312	14275.55
230.384	14326.02
230.457	14349.88
230.529	14395.82
230.602	14440.36
230.674	14479.94
230.747	14521.1
230.819	14564.63
230.892	14560.1
230.964	14593.84
231.037	14627.97
231.109	14661.86
231.181	14701.44
231.254	14716.82
231.326	14742.89
231.399	14765.84
231.471	14784.69
231.544	14783.87
231.616	14812.12
231.688	14834.96
231.761	14857.52
231.833	14890.3
231.905	14893.68
231.978	14927.71
232.05	14951.28
232.122	14970.9
232.195	14992.44
232.267	15028.84
232.339	15043.97
232.412	15085.19
232.484	15104.85
232.556	15130.74
232.629	15168.82
232.701	15201.11
232.773	15233.89
232.846	15261.66
232.918	15288.17
232.99	15312.7
233.062	15344.08
233.135	15380.09
233.207	15395.22
233.279	15426.27
233.351	15448.05
233.424	15468.64
233.496	15479.1
233.568	15523.92
233.64	15533.42
233.713	15557.52
233.785	15576.56
233.857	15599.26
233.929	15606.97
234.001	15635.89
234.074	15674.41
234.146	15675.03
234.218	15692.29
234.29	15705.88
234.362	15717.35
234.434	15721.88
234.507	15727.28
234.579	15735.62
234.651	15742.46
234.723	15761.41
234.795	15776.06
234.867	15791.1
234.939	15815.68
235.012	15834.48
235.084	15847.4
235.156	15865.04
235.228	15866.63
235.3	15877.57
235.372	15899.26
235.444	15925
235.516	15924.61
235.588	15925.58
235.66	15949.87
235.732	15954.83
235.804	16016.43
235.876	16032.82
235.948	16051.52
236.02	16054.41
236.092	16056.43
236.164	16064.87
236.236	16068.63
236.308	16078.89
236.38	16095.33
236.452	16096.92
236.524	16106.42
236.596	16125.94
236.668	16141.94
236.74	16154.95
236.812	16164.3
236.884	16165.8
236.956	16171.29
237.028	16164.98
237.1	16164.64
237.172	16173.8
237.244	16187.97
237.316	16162.62
237.388	16157.07
237.46	16159.05
237.532	16186.62
237.604	16186.52
237.675	16201.7
237.747	16212.93
237.819	16207.2
237.891	16204.64
237.963	16201.13
238.035	16195.44
238.107	16157.36
238.178	16166.62
238.25	16161.94
238.322	16171.1
238.394	16157.75
238.466	16148.88
238.538	16153.7
238.609	16153.94
238.681	16131.96
238.753	16115.29
238.825	16108.92
238.897	16108.44
238.968	16114.56
239.04	16102.75
239.112	16128.4
239.184	16110.42
239.255	16100.1
239.327	16102.37
239.399	16098.18
239.471	16114.13
239.542	16112.83
239.614	16126.18
239.686	16094.71
239.758	16095.52
239.829	16087.28
239.901	16097.5
239.973	16103.33
240.044	16100.49
240.116	16095.57
240.188	16090.03
240.259	16086.37
240.331	16069.69
240.403	16070.75
240.474	16041.45
240.546	16021.59
240.618	15992.19
240.689	15984.14
240.761	15982.11
240.833	15979.65
240.904	15961.39
240.976	15934.73
241.048	15926.88
241.119	15921.43
241.191	15917.24
241.262	15917.29
241.334	15891.26
241.405	15863.88
241.477	15840.36
241.549	15823.49
241.62	15809.85
241.692	15797.46
241.763	15798.96
241.835	15784.01
241.906	15763.91
241.978	15737.69
242.049	15743.14
242.121	15743.28
242.192	15736.73
242.264	15698.55
242.335	15665.54
242.407	15658.93
242.478	15635.84
242.55	15622.2
242.621	15591.5
242.693	15567.69
242.764	15549.71
242.836	15529.27
242.907	15521.75
242.979	15502.47
243.05	15489.12
243.122	15475.14
243.193	15459.04
243.264	15417.16
243.336	15402.02
243.407	15395.85
243.479	15404.29
243.55	15380.43
243.622	15352.52
243.693	15331.36
243.764	15336.52
243.836	15315.26
243.907	15297.57
243.978	15280.75
244.05	15267.2
244.121	15232.45
244.192	15233.22
244.264	15199.04
244.335	15183.57
244.407	15150.45
244.478	15139.9
244.549	15110.88
244.62	15074.73
244.692	15054.29
244.763	15043.11
244.834	15015.05
244.906	14986.03
244.977	14965.4
245.048	14950.46
245.119	14924.14
245.191	14893
245.262	14849.67
245.333	14852.85
245.405	14833.95
245.476	14823.59
245.547	14798.04
245.618	14795.1
245.689	14763.53
245.761	14746.03
245.832	14723.37
245.903	14708.91
245.974	14687.12
246.045	14670.73
246.117	14675.79
246.188	14642.1
246.259	14612.4
246.33	14589.31
246.401	14559.33
246.473	14527.81
246.544	14503.22
246.615	14495.07
246.686	14463.07
246.757	14456.17
246.828	14412.02
246.899	14388.93
246.97	14348.92
247.042	14322.07
247.113	14300.57
247.184	14296.28
247.255	14273.76
247.326	14256.12
247.397	14237.46
247.468	14220.88
247.539	14205.17
247.61	14169.54
247.681	14161.88
247.752	14150.98
247.823	14126.59
247.894	14110.59
247.965	14075.83
248.037	14051.68
248.108	14012.97
248.179	14003.04
248.25	13979.37
248.321	13969.05
248.392	13935.74
248.463	13930.68
248.534	13908.31
248.605	13896.17
248.675	13867.53
248.746	13837.45
248.817	13817.83
248.888	13798.21
248.959	13759.45
249.03	13735.59
249.101	13712.4
249.172	13682.8
249.243	13637.68
249.314	13621.53
249.385	13601.62
249.456	13591.74
249.527	13567.11
249.598	13554.33
249.669	13534.76
249.739	13517.41
249.81	13498.99
249.881	13469.83
249.952	13448.76
250.023	13422.05
250.094	13379.78
250.165	13352.69
250.235	13339.04
250.306	13319.33
250.377	13280.95
250.448	13260.47
250.519	13220.12
250.59	13209.37
250.66	13186.9
250.731	13181.89
250.802	13163.67
250.873	13151.66
250.944	13128.28
251.014	13105.29
251.085	13106.64
251.156	13084.13
251.227	13070.68
251.297	13059.3
251.368	13044.12
251.439	13030.09
251.51	13021.8
251.58	12991.67
251.651	12967.9
251.722	12955.37
251.792	12914.49
251.863	12897.28
251.934	12897.47
252.005	12902.01
252.075	12874.38
252.146	12858.33
252.217	12842.33
252.287	12829.21
252.358	12799.28
252.429	12797.54
252.499	12766.02
252.57	12736.37
252.641	12728.22
252.711	12709.66
252.782	12672.84
252.852	12677.42
252.923	12664.06
252.994	12642.71
253.064	12640.92
253.135	12617.16
253.205	12589.54
253.276	12586.89
253.347	12590.12
253.417	12550.11
253.488	12524.22
253.558	12499.54
253.629	12481.56
253.699	12471.29
253.77	12460.01
253.841	12435.62
253.911	12416.34
253.982	12399.95
254.052	12398.26
254.123	12376.72
254.193	12343.65
254.264	12362.35
254.334	12334.92
254.405	12296.55
254.475	12269.46
254.546	12244.3
254.616	12238.04
254.687	12225.84
254.757	12213.74
254.827	12187.42
254.898	12188.1
254.968	12169.2
255.039	12151.22
255.109	12142.84
255.18	12110.49
255.25	12067.69
255.321	12057.13
255.391	12028.5
255.461	12030.67
255.532	11985.6
255.602	11958.27
255.673	11929.64
255.743	11892.91
255.813	11849.39
255.884	11841.58
255.954	11833.58
256.024	11833.09
256.095	11811.21
256.165	11786.53
256.235	11772.46
256.306	11746.91
256.376	11728.55
256.446	11719.44
256.517	11707.58
256.587	11693.99
256.657	11686.42
256.728	11673.12
256.798	11658.8
256.868	11629.79
256.938	11608.58
257.009	11598.8
257.079	11598.12
257.149	11606.89
257.219	11575.81
257.29	11561.01
257.36	11528.62
257.43	11512.67
257.5	11476.38
257.571	11452.18
257.641	11435.56
257.711	11407.99
257.781	11397
257.852	11387.31
257.922	11345.82
257.992	11323.65
258.062	11309.24
258.132	11295.94
258.202	11270.88
258.273	11251.16
258.343	11259.5
258.413	11234.44
258.483	11208.9
258.553	11182.73
258.623	11154.68
258.693	11138.05
258.764	11134.01
258.834	11131.07
258.904	11120.9
258.974	11094.01
259.044	11077
259.114	11064.56
259.184	11049
259.254	11027.65
259.324	10987.51
259.394	10985.53
259.464	10991.46
259.535	10968.18
259.605	10943.41
259.675	10925.58
259.745	10910.07
259.815	10878.79
259.885	10852.67
259.955	10867.61
260.025	10836.58
260.095	10816.05
260.165	10806.37
260.235	10809.98
260.305	10790.08
260.375	10767.19
260.445	10779.24
260.515	10784.35
260.585	10779
260.655	10768.44
260.725	10760.3
260.795	10751.53
260.865	10749.46
260.934	10721.37
261.004	10718.91
261.074	10705.8
261.144	10710.33
261.214	10702.43
261.284	10690.77
261.354	10688.02
261.424	10661.71
261.494	10669.85
261.564	10662.82
261.634	10660.12
261.703	10627.59
261.773	10616.95
261.843	10599.99
261.913	10583.03
261.983	10545.49
262.053	10528.05
262.123	10506.17
262.192	10478.91
262.262	10475.87
262.332	10448.99
262.402	10438.29
262.472	10421.18
262.541	10389.87
262.611	10375.95
262.681	10365.01
