Data from 20250702_urea_1M_MAYP1162681_11-35-10-274.txt Node
Date: Wed Jul 02 11:35:10 BST 2025
User: adleo
Spectrometer: MAYP116268
Trigger mode: 0
Integration Time (sec): 1.000000E0
Scans to average: 1
Electric dark correction enabled: true
Nonlinearity correction enabled: true
Boxcar width: 10
XAxis mode: Wavelengths
Number of Pixels in Spectrum: 2068
>>>>>Begin Spectral Data<<<<<
179.565	1027.76
179.642	1079.3
179.718	1115.77
179.795	1145.82
179.871	1172.52
179.948	1184.55
180.024	1199.39
180.101	1215.95
180.177	1229.15
180.254	1247.9
180.33	1267.06
180.407	1306.78
180.483	1386.93
180.56	1461.66
180.636	1532.44
180.712	1521.28
180.789	1527.97
180.865	1538.75
180.942	1545.21
181.018	1552.61
181.095	1564.3
181.171	1568.58
181.248	1566.82
181.324	1579.27
181.4	1587.67
181.477	1596.32
181.553	1609.09
181.63	1629.95
181.706	1648.72
181.782	1652.7
181.859	1649.95
181.935	1652.99
182.011	1648.86
182.088	1665.34
182.164	1683.02
182.24	1694.99
182.317	1703.49
182.393	1705.54
182.469	1718.98
182.546	1731.81
182.622	1734.99
182.698	1729.43
182.775	1738.99
182.851	1749.15
182.927	1742.69
183.003	1738.13
183.08	1734.47
183.156	1741.84
183.232	1738.27
183.308	1724.3
183.385	1734.37
183.461	1752.14
183.537	1754.19
183.613	1765.5
183.69	1754.8
183.766	1746.25
183.842	1752.14
183.918	1754.85
183.995	1764.26
184.071	1767.44
184.147	1761.79
184.223	1753.33
184.299	1764.74
184.375	1755.9
184.452	1763.84
184.528	1814.85
184.604	1822.92
184.68	1832
184.756	1839.27
184.832	1845.55
184.908	1851.53
184.985	1848.35
185.061	1835.99
185.137	1844.17
185.213	1833.86
185.289	1835.14
185.365	1826.21
185.441	1826.68
185.517	1839.9
185.593	1835.95
185.669	1832.1
185.745	1838.38
185.822	1853.06
185.898	1848.3
185.974	1857.81
186.05	1849.53
186.126	1812.5
186.202	1807.7
186.278	1803.52
186.354	1794.68
186.43	1796.3
186.506	1793.97
186.582	1795.35
186.658	1799.1
186.734	1782.23
186.81	1784.08
186.886	1789.64
186.962	1804.9
187.038	1799.24
187.114	1792.16
187.19	1799.67
187.266	1791.64
187.341	1791.73
187.417	1787.07
187.493	1788.5
187.569	1789.4
187.645	1786.12
187.721	1776.9
187.797	1782.6
187.873	1788.5
187.949	1784.08
188.025	1779.28
188.101	1781.08
188.176	1784.08
188.252	1779.94
188.328	1785.5
188.404	1786.4
188.48	1781.6
188.556	1773.14
188.632	1774.05
188.707	1775.14
188.783	1773.48
188.859	1770.48
188.935	1764.35
189.011	1770.29
189.086	1761.03
189.162	1752.24
189.238	1748.91
189.314	1745.39
189.39	1740.74
189.465	1732.71
189.541	1749.29
189.617	1734.85
189.693	1731.71
189.768	1736.13
189.844	1757.1
189.92	1749.83
189.996	1756.48
190.071	1766.8
190.147	1765.61
190.223	1773.93
190.298	1765.04
190.374	1751.4
190.45	1763.18
190.526	1770.64
190.601	1766.22
190.677	1766.98
190.753	1792.28
190.828	1795.89
190.904	1807.77
190.98	1822.98
191.055	1831.25
191.131	1819.75
191.207	1840.71
191.282	1848.12
191.358	1839.33
191.433	1827.34
191.509	1841.17
191.585	1838.7
191.66	1837.84
191.736	1845.64
191.811	1836.51
191.887	1850.01
191.963	1872.92
192.038	1877.67
192.114	1876.58
192.189	1880.34
192.265	1878.91
192.34	1858.7
192.416	1857.04
192.491	1855.14
192.567	1856.28
192.642	1861.08
192.718	1864.98
192.793	1853.14
192.869	1850.72
192.944	1853.14
193.02	1860.98
193.095	1862.89
193.171	1869.16
193.246	1870.78
193.322	1868.4
193.397	1868.59
193.473	1858.84
193.548	1842.06
193.624	1845.06
193.699	1845.96
193.775	1860.32
193.85	1861.27
193.925	1870.11
194.001	1870.35
194.076	1862.03
194.152	1851.86
194.227	1842.92
194.302	1832.51
194.378	1835.98
194.453	1832.7
194.529	1843.07
194.604	1827.29
194.679	1822.53
194.755	1806
194.83	1815.56
194.905	1811.66
194.981	1820.74
195.056	1813.18
195.131	1818.5
195.207	1818.27
195.282	1809.85
195.357	1791.36
195.433	1804.57
195.508	1794.35
195.583	1801.2
195.659	1817.41
195.734	1823.3
195.809	1825.68
195.884	1832.43
195.96	1832.33
196.035	1844.4
196.11	1841.12
196.185	1855.95
196.261	1858.14
196.336	1885.66
196.411	1871.87
196.486	1879
196.561	1873.53
196.637	1879.85
196.712	1894.12
196.787	1896.59
196.862	1908.66
196.937	1919.93
197.013	1925.44
197.088	1934.48
197.163	1952.5
197.238	1966.06
197.313	1967.58
197.388	1978.42
197.464	2005.91
197.539	2017.94
197.614	2013.81
197.689	2025.08
197.764	2035.07
197.839	2051.52
197.914	2046.71
197.989	2065.5
198.065	2077.82
198.14	2122.74
198.215	2148.47
198.29	2158.37
198.365	2168.27
198.44	2180.2
198.515	2204.9
198.59	2220.08
198.665	2245.01
198.74	2253.96
198.815	2252.34
198.89	2272.47
198.965	2298.6
199.04	2294.84
199.115	2307.87
199.19	2347.42
199.265	2349.56
199.34	2360.89
199.415	2393.03
199.49	2409.01
199.565	2418.2
199.64	2436.1
199.715	2431.43
199.79	2437.05
199.865	2443.66
199.94	2443.81
200.015	2468.23
200.09	2471.18
200.165	2476.18
200.24	2484.47
200.315	2518.02
200.39	2533.73
200.464	2538.4
200.539	2542.16
200.614	2557.87
200.689	2576.16
200.764	2579.11
200.839	2595.68
200.914	2598.44
200.989	2586.67
201.063	2600.34
201.138	2586.44
201.213	2589.68
201.288	2573.59
201.363	2581.01
201.438	2580.87
201.512	2594.2
201.587	2580.53
201.662	2585.06
201.737	2594.87
201.812	2599.58
201.886	2568.8
201.961	2578.28
202.036	2567.95
202.111	2564.04
202.186	2537.39
202.26	2524.39
202.335	2506.48
202.41	2501.05
202.485	2487.68
202.559	2471.49
202.634	2448.78
202.709	2456.01
202.784	2438.97
202.858	2439.02
202.933	2420.21
203.008	2415.93
203.082	2397.7
203.157	2395.98
203.232	2360.2
203.306	2342.2
203.381	2311.73
203.456	2295.41
203.53	2271.78
203.605	2254.94
203.68	2233.47
203.754	2231.95
203.829	2219.86
203.904	2202.88
203.978	2191.45
204.053	2194.36
204.127	2183.94
204.202	2183.32
204.277	2169.24
204.351	2164.72
204.426	2157.15
204.5	2150.92
204.575	2118.53
204.65	2123.82
204.724	2119.25
204.799	2124.43
204.873	2120.72
204.948	2120.53
205.022	2108.88
205.097	2104.73
205.171	2116.15
205.246	2122.38
205.32	2115.25
205.395	2112.68
205.469	2103.74
205.544	2111.12
205.618	2099.04
205.693	2111.45
205.767	2098.9
205.842	2117.98
205.916	2108.65
205.991	2101.95
206.065	2105.28
206.14	2119.82
206.214	2117.87
206.289	2112.54
206.363	2119.87
206.438	2120.72
206.512	2128.15
206.586	2143.46
206.661	2151.41
206.735	2131.58
206.81	2136.06
206.884	2152.6
206.958	2141.43
207.033	2154.65
207.107	2157.69
207.181	2184.96
207.256	2178.35
207.33	2194.9
207.405	2205
207.479	2225.41
207.553	2234.11
207.628	2221.65
207.702	2231.07
207.776	2226.93
207.851	2226.65
207.925	2245.54
207.999	2245.21
208.073	2243.69
208.148	2250.02
208.222	2238.26
208.296	2267.13
208.371	2280.8
208.445	2289.98
208.519	2317.48
208.593	2331.24
208.668	2330.66
208.742	2331.71
208.816	2336.9
208.89	2354.13
208.965	2356.09
209.039	2364.04
209.113	2381.56
209.187	2403.68
209.261	2402.15
209.336	2424.91
209.41	2448.66
209.484	2452.28
209.558	2474.19
209.632	2492.04
209.707	2509.99
209.781	2535.99
209.855	2561.66
209.929	2584.02
210.003	2602.41
210.077	2615.98
210.151	2673.72
210.226	2716.85
210.3	2757.72
210.374	2792.63
210.448	2813.55
210.522	2844.68
210.596	2876.19
210.67	2909.56
210.744	2974.08
210.818	3035.22
210.892	3086.73
210.966	3115.63
211.041	3164.13
211.115	3204.15
211.189	3263.16
211.263	3317.5
211.337	3371.23
211.411	3428.47
211.485	3475.32
211.559	3536.5
211.633	3592.82
211.707	3625.26
211.781	3698.92
211.855	3736.09
211.929	3799.41
212.003	3855.14
212.077	3936.85
212.151	4023.99
212.225	4113.21
212.299	4192.36
212.373	4273.47
212.447	4361.9
212.52	4480.6
212.594	4578.76
212.668	4687.98
212.742	4783.39
212.816	4887.11
212.89	4994.72
212.964	5107.94
213.038	5227.85
213.112	5362.15
213.186	5498.92
213.26	5602.38
213.333	5693.36
213.407	5828.99
213.481	5965.18
213.555	6118.93
213.629	6256.7
213.703	6390.15
213.777	6534.35
213.85	6665.32
213.924	6844.36
213.998	6995.09
214.072	7144.99
214.146	7294.49
214.219	7459.95
214.293	7618.24
214.367	7780.47
214.441	7950.55
214.515	8106.06
214.588	8256.77
214.662	8394.13
214.736	8552.48
214.81	8735.49
214.883	8917.67
214.957	9076.78
215.031	9240.76
215.105	9391.77
215.178	9548.56
215.252	9715.13
215.326	9871.17
215.4	10031.69
215.473	10160.08
215.547	10317.99
215.621	10484.89
215.694	10665.04
215.768	10809.59
215.842	10974.05
215.915	11136.06
215.989	11283.04
216.063	11449.45
216.136	11627.24
216.21	11806.91
216.284	11980.56
216.357	12151.28
216.431	12308.8
216.504	12479.62
216.578	12670.45
216.652	12842.77
216.725	13002.13
216.799	13175.38
216.873	13342.69
216.946	13507.65
217.02	13666.29
217.093	13826.91
217.167	13960.68
217.24	14099.9
217.314	14251.21
217.387	14395.44
217.461	14535.47
217.535	14697.39
217.608	14828.27
217.682	14966.75
217.755	15115.26
217.829	15248.83
217.902	15385.34
217.976	15518.09
218.049	15657.29
218.123	15774.51
218.196	15918.29
218.27	16048.48
218.343	16166.47
218.417	16300.07
218.49	16433.14
218.563	16573.44
218.637	16690.37
218.71	16839.87
218.784	16967.25
218.857	17098.05
218.931	17223.21
219.004	17348.28
219.077	17483.65
219.151	17604.23
219.224	17715.89
219.298	17829
219.371	17948.18
219.444	18047.69
219.518	18164.56
219.591	18273.23
219.665	18407.88
219.738	18518.38
219.811	18620.16
219.885	18726.61
219.958	18810.12
220.031	18889.25
220.105	18992.28
220.178	19095.6
220.251	19168.61
220.325	19269.09
220.398	19363.97
220.471	19456.69
220.544	19551
220.618	19621.31
220.691	19711.52
220.764	19794.12
220.838	19874.36
220.911	19947.18
220.984	20041.53
221.057	20130.45
221.131	20201.29
221.204	20234.3
221.277	20300.81
221.35	20396.57
221.424	20461.29
221.497	20544.18
221.57	20619.51
221.643	20688.09
221.716	20764.52
221.79	20829.59
221.863	20893.3
221.936	20948.44
222.009	21000.01
222.082	21052.2
222.155	21100.2
222.229	21166.57
222.302	21214.09
222.375	21261.18
222.448	21309.24
222.521	21347.46
222.594	21385.44
222.667	21415.22
222.74	21463.76
222.814	21502.8
222.887	21529.45
222.96	21578.42
223.033	21621.42
223.106	21658.53
223.179	21699.31
223.252	21724.77
223.325	21760.39
223.398	21785.79
223.471	21814.81
223.544	21843.82
223.617	21882.82
223.69	21908.61
223.763	21921.14
223.837	21962.26
223.91	21987.76
223.983	22002.9
224.056	22020.92
224.129	22037.12
224.202	22076.55
224.275	22098.14
224.348	22112.75
224.42	22118.05
224.493	22112.65
224.566	22117.81
224.639	22150.01
224.712	22144.57
224.785	22156.18
224.858	22156.57
224.931	22160.33
225.004	22169.49
225.077	22180.53
225.15	22158.16
225.223	22161.49
225.296	22192.68
225.369	22176.43
225.442	22173.54
225.514	22181.69
225.587	22195.28
225.66	22205.69
225.733	22201.69
225.806	22208.68
225.879	22207.33
225.952	22204.05
226.025	22223.19
226.097	22245.22
226.17	22228.59
226.243	22215.43
226.316	22208.2
226.389	22218.66
226.461	22226.66
226.534	22224.35
226.607	22223.05
226.68	22243.63
226.753	22247.44
226.825	22221.84
226.898	22230.9
226.971	22217.89
227.044	22219.53
227.117	22211.52
227.189	22210.75
227.262	22226.28
227.335	22225.02
227.407	22221.89
227.48	22216.06
227.553	22212.2
227.626	22185.06
227.698	22182.55
227.771	22177.44
227.844	22159.51
227.916	22152.52
227.989	22112.41
228.062	22098.39
228.134	22097.86
228.207	22079.01
228.28	22056.54
228.352	22041.46
228.425	22029.84
228.498	22029.26
228.57	22008.24
228.643	22007.81
228.716	21993.2
228.788	21959.17
228.861	21946.73
228.934	21943.17
229.006	21930.68
229.079	21910.29
229.151	21890.33
229.224	21857.75
229.296	21839.39
229.369	21849.94
229.442	21843.05
229.514	21827.58
229.587	21817.74
229.659	21792.58
229.732	21779.71
229.804	21778.41
229.877	21783.81
229.949	21764.67
230.022	21766.26
230.094	21748.91
230.167	21723.46
230.239	21687.31
230.312	21664.03
230.384	21664.13
230.457	21639.93
230.529	21629.66
230.602	21608.36
230.674	21589.46
230.747	21586.23
230.819	21581.12
230.892	21528.25
230.964	21511.04
231.037	21503.38
231.109	21484.87
231.181	21470.26
231.254	21442.79
231.326	21419.7
231.399	21390.2
231.471	21364.32
231.544	21326.87
231.616	21315.59
231.688	21296.31
231.761	21279.69
231.833	21266
231.905	21216.11
231.978	21202.9
232.05	21182.76
232.122	21171
232.195	21147.43
232.267	21139.77
232.339	21111.62
232.412	21109.93
232.484	21076.15
232.556	21055.18
232.629	21044.63
232.701	21030.89
232.773	21013.68
232.846	20982.94
232.918	20959.61
232.99	20951.66
233.062	20934.02
233.135	20911.75
233.207	20878.74
233.279	20862.21
233.351	20847.31
233.424	20825.24
233.496	20790.25
233.568	20776.95
233.64	20732.03
233.713	20705.77
233.785	20668.56
233.857	20649.33
233.929	20608.95
234.001	20598.05
234.074	20584.75
234.146	20542.97
234.218	20514.05
234.29	20486.63
234.362	20452.03
234.434	20408.61
234.507	20365.47
234.579	20323.59
234.651	20293.04
234.723	20278.97
234.795	20246.49
234.867	20212.22
234.939	20189.24
235.012	20161.96
235.084	20128.56
235.156	20105.96
235.228	20075.17
235.3	20037.29
235.372	20005.14
235.444	19983.84
235.516	19938.35
235.588	19905.34
235.66	19876.86
235.732	19830.21
235.804	19853.34
235.876	19839.85
235.948	19829.73
236.02	19795.13
236.092	19769.25
236.164	19728.87
236.236	19694.6
236.308	19663.52
236.38	19643.23
236.452	19605.93
236.524	19577.07
236.596	19564.87
236.668	19542.47
236.74	19516.44
236.812	19491.34
236.884	19461.94
236.956	19432.01
237.028	19382.67
237.1	19337.85
237.172	19319.54
237.244	19315.68
237.316	19241.81
237.388	19203.11
237.46	19157.62
237.532	19142.39
237.604	19101.24
237.675	19090.3
237.747	19062.45
237.819	19028.38
237.891	18988.86
237.963	18948.96
238.035	18906.36
238.107	18838.6
238.178	18811.42
238.25	18777.4
238.322	18764.49
238.394	18722.13
238.466	18689.26
238.538	18666.76
238.609	18639.77
238.681	18588.02
238.753	18540.5
238.825	18508.65
238.897	18474.91
238.968	18458.05
239.04	18423.06
239.112	18425.38
239.184	18382.29
239.255	18350.78
239.327	18324.85
239.399	18296.71
239.471	18286.59
239.542	18263.17
239.614	18243.36
239.686	18191.12
239.758	18159.07
239.829	18124.04
239.901	18106.07
239.973	18073.15
240.044	18048.53
240.116	18019.13
240.188	17988.67
240.259	17947.13
240.331	17903.13
240.403	17876.19
240.474	17833.88
240.546	17783.62
240.618	17720.87
240.689	17684.25
240.761	17644.05
240.833	17624.44
240.904	17575.28
240.976	17524.05
241.048	17487.57
241.119	17463.28
241.191	17434.46
241.262	17411.14
241.334	17367.04
241.405	17333.21
241.477	17302.9
241.549	17264.1
241.62	17232.87
241.692	17204.73
241.763	17185.21
241.835	17159.91
241.906	17124.97
241.978	17072.05
242.049	17059.52
242.121	17030.36
242.192	17008.19
242.264	16962.36
242.335	16913.35
242.407	16902.41
242.478	16875.75
242.55	16843.85
242.621	16802.59
242.693	16765.19
242.764	16730.06
242.836	16695.89
242.907	16666.88
242.979	16632.22
243.05	16602.87
243.122	16566.82
243.193	16527.54
243.264	16478.96
243.336	16439.87
243.407	16411.82
243.479	16401.75
243.55	16361.36
243.622	16331.23
243.693	16294.08
243.764	16273.93
243.836	16222.89
243.907	16184.28
243.978	16141.82
244.05	16115.45
244.121	16070.43
244.192	16056.7
244.264	16009.8
244.335	15977.89
244.407	15922.08
244.478	15892.77
244.549	15856.29
244.62	15822.74
244.692	15798.74
244.763	15770.54
244.834	15740.08
244.906	15705.95
244.977	15674.28
245.048	15659.82
245.119	15623
245.191	15582.22
245.262	15529.78
245.333	15510.06
245.405	15469.77
245.476	15442.2
245.547	15408.26
245.618	15382.43
245.689	15340.78
245.761	15313.88
245.832	15276.24
245.903	15257
245.974	15220.81
246.045	15190.63
246.117	15166.96
246.188	15121.17
246.259	15080.1
246.33	15044.77
246.401	15005.39
246.473	14962.49
246.544	14919.68
246.615	14900.69
246.686	14863.14
246.757	14853.55
246.828	14821.39
246.899	14812.19
246.97	14766.06
247.042	14726.72
247.113	14698.04
247.184	14686.04
247.255	14653.55
247.326	14623.76
247.397	14592.76
247.468	14564.66
247.539	14534.34
247.61	14489.7
247.681	14469.07
247.752	14452.68
247.823	14413.1
247.894	14389.09
247.965	14351.01
248.037	14320.35
248.108	14279.04
248.179	14252.38
248.25	14218.49
248.321	14192.08
248.392	14146.09
248.463	14143.29
248.534	14119.67
248.605	14103.04
248.675	14067.18
248.746	14042.59
248.817	14022.01
248.888	13998.53
248.959	13959.44
249.03	13935.82
249.101	13916
249.172	13882.98
249.243	13836.9
249.314	13828.8
249.385	13805.18
249.456	13790.14
249.527	13756.68
249.598	13730.89
249.669	13707.85
249.739	13678.92
249.81	13659.88
249.881	13621.03
249.952	13591.62
250.023	13562.12
250.094	13522.11
250.165	13491.26
250.235	13460.35
250.306	13429.36
250.377	13390.26
250.448	13364.42
250.519	13329.04
250.59	13315.69
250.66	13286.28
250.731	13272.4
250.802	13242.41
250.873	13215.03
250.944	13185.77
251.014	13154.44
251.085	13149.62
251.156	13127.63
251.227	13119.15
251.297	13101.75
251.368	13084.2
251.439	13071.57
251.51	13059.42
251.58	13024.47
251.651	12994.01
251.722	12986.92
251.792	12953.08
251.863	12933.65
251.934	12919
252.005	12918.95
252.075	12890.22
252.146	12876.34
252.217	12867.13
252.287	12854.35
252.358	12827.07
252.429	12821.77
252.499	12804.89
252.57	12781.9
252.641	12762.67
252.711	12733.69
252.782	12695.66
252.852	12690.17
252.923	12660.04
252.994	12638.01
253.064	12623.3
253.135	12596.26
253.205	12558.9
253.276	12545.6
253.347	12540.1
253.417	12516.15
253.488	12479.99
253.558	12456.9
253.629	12428.17
253.699	12406.67
253.77	12387.1
253.841	12362.91
253.911	12346.18
253.982	12314.8
254.052	12298.89
254.123	12283.13
254.193	12265
254.264	12275.7
254.334	12246.73
254.405	12215.4
254.475	12185.37
254.546	12166.09
254.616	12144.02
254.687	12130.95
254.757	12123.24
254.827	12091.23
254.898	12072.2
254.968	12050.22
255.039	12019.9
255.109	12015.22
255.18	11984.13
255.25	11934.44
255.321	11919.98
255.391	11881.71
255.461	11885.66
255.532	11836.69
255.602	11817.41
255.673	11775.04
255.743	11748.82
255.813	11702.93
255.884	11696.18
255.954	11678.69
256.024	11677.58
256.095	11669.58
256.165	11635.17
256.235	11618.78
256.306	11593.23
256.376	11587.45
256.446	11579.59
256.517	11568.12
256.587	11556.17
256.657	11535.49
256.728	11528.02
256.798	11515.11
256.868	11486.62
256.938	11457.13
257.009	11447.49
257.079	11425.61
257.149	11424.79
257.219	11387.63
257.29	11380.98
257.36	11343.05
257.43	11329.17
257.5	11285.21
257.571	11266.37
257.641	11261.55
257.711	11227.52
257.781	11216.15
257.852	11193.16
257.922	11157.35
257.992	11134.03
258.062	11108.53
258.132	11101.45
258.202	11084.58
258.273	11060.87
258.343	11059.04
258.413	11039.23
258.483	11019.52
258.553	10992.39
258.623	10966.61
258.693	10946.95
258.764	10945.55
258.834	10940.4
258.904	10923.92
258.974	10899.01
259.044	10873.42
259.114	10857.03
259.184	10839.73
259.254	10823.59
259.324	10793.57
259.394	10779.11
259.464	10771.65
259.535	10756.47
259.605	10731.51
259.675	10705.58
259.745	10689.06
259.815	10664.05
259.885	10635.43
259.955	10644.68
260.025	10623.09
260.095	10606.76
260.165	10590.47
260.235	10575.68
260.305	10553.9
260.375	10531.98
260.445	10537.13
260.515	10535.49
260.585	10528.65
260.655	10514.34
260.725	10503.4
260.795	10490.69
260.865	10492.76
260.934	10473
261.004	10458.31
261.074	10441.11
261.144	10439.95
261.214	10434.8
261.284	10417.88
261.354	10410.9
261.424	10384.69
261.494	10377.12
261.564	10363.34
261.634	10361.61
261.703	10329.76
261.773	10319.6
261.843	10307.75
261.913	10287.03
261.983	10249.5
262.053	10239.63
262.123	10221.8
262.192	10193.67
262.262	10193.09
