Data from 20250702_urea_2M_MAYP1162681_11-36-51-265.txt Node
Date: Wed Jul 02 11:36:51 BST 2025
User: adleo
Spectrometer: MAYP116268
Trigger mode: 0
Integration Time (sec): 1.000000E0
Scans to average: 1
Electric dark correction enabled: true
Nonlinearity correction enabled: true
Boxcar width: 10
XAxis mode: Wavelengths
Number of Pixels in Spectrum: 2068
>>>>>Begin Spectral Data<<<<<
179.565	1015.3
179.642	1062.42
179.718	1100.46
179.795	1132
179.871	1156.6
179.948	1171.02
180.024	1187.21
180.101	1206.48
180.177	1217.47
180.254	1236.58
180.33	1254.21
180.407	1294.88
180.483	1376.41
180.56	1451.66
180.636	1521.87
180.712	1513.65
180.789	1522.06
180.865	1532.5
180.942	1537.58
181.018	1546.32
181.095	1556.11
181.171	1561.33
181.248	1563.66
181.324	1572.69
181.4	1581.24
181.477	1590.88
181.553	1602.13
181.63	1620.47
181.706	1636.05
181.782	1642.27
181.859	1642.7
181.935	1647.59
182.011	1642.13
182.088	1655.86
182.164	1674.44
182.24	1687.27
182.317	1695.91
182.393	1696.82
182.469	1709.64
182.546	1721.85
182.622	1725.27
182.698	1723.14
182.775	1732.21
182.851	1744.09
182.927	1740.34
183.003	1735.02
183.08	1731.45
183.156	1738.96
183.232	1734.87
183.308	1722.33
183.385	1730.78
183.461	1745.37
183.537	1746.61
183.613	1757.16
183.69	1749.17
183.766	1738.48
183.842	1744.32
183.918	1749.27
183.995	1759.53
184.071	1762.48
184.147	1759.53
184.223	1751.5
184.299	1762.58
184.375	1751.51
184.452	1754.93
184.528	1805.27
184.604	1814.44
184.68	1824.27
184.756	1832.5
184.832	1839.77
184.908	1844.9
184.985	1846.51
185.061	1833.64
185.137	1841.67
185.213	1832.92
185.289	1833.54
185.365	1826.75
185.441	1825.51
185.517	1835.59
185.593	1831.93
185.669	1828.18
185.745	1835.16
185.822	1848.56
185.898	1841
185.974	1852.17
186.05	1846.56
186.126	1810.72
186.202	1804.35
186.278	1801.78
186.354	1795.41
186.43	1799.55
186.506	1799.69
186.582	1797.84
186.658	1802.59
186.734	1783.87
186.81	1785.77
186.886	1787.48
186.962	1799.36
187.038	1794.99
187.114	1787.81
187.19	1797.46
187.266	1789.43
187.341	1790.28
187.417	1783.92
187.493	1781.78
187.569	1784.92
187.645	1777.45
187.721	1766.76
187.797	1773.46
187.873	1776.88
187.949	1767.38
188.025	1764.38
188.101	1765.76
188.176	1767.99
188.252	1764.53
188.328	1773.36
188.404	1775.21
188.48	1773.17
188.556	1765.9
188.632	1768.7
188.707	1772.7
188.783	1767.85
188.859	1764
188.935	1758.06
189.011	1765.23
189.086	1761.53
189.162	1753.26
189.238	1754.64
189.314	1753.4
189.39	1748.36
189.465	1742
189.541	1758.63
189.617	1743.57
189.693	1739.96
189.768	1744.28
189.844	1765.43
189.92	1757.26
189.996	1763.44
190.071	1771.71
190.147	1770.57
190.223	1778.46
190.298	1768.86
190.374	1757.31
190.45	1766.96
190.526	1772.42
190.601	1769.1
190.677	1770.76
190.753	1795.72
190.828	1799.76
190.904	1811.45
190.98	1825.48
191.055	1835.93
191.131	1826.9
191.207	1843.49
191.282	1850.38
191.358	1844.53
191.433	1832.6
191.509	1846.85
191.585	1843.76
191.66	1848.13
191.736	1856.59
191.811	1846.7
191.887	1861.35
191.963	1882.45
192.038	1890.34
192.114	1890.29
192.189	1893.1
192.265	1889.15
192.34	1867.09
192.416	1864.62
192.491	1862.81
192.567	1863.38
192.642	1864.86
192.718	1866.09
192.793	1857.92
192.869	1853.21
192.944	1853.78
193.02	1857.87
193.095	1859.53
193.171	1864.24
193.246	1862.62
193.322	1860.06
193.397	1860.96
193.473	1849.22
193.548	1833.81
193.624	1835.38
193.699	1833.43
193.775	1847.22
193.85	1848.79
193.925	1859.06
194.001	1855.16
194.076	1844.66
194.152	1835.34
194.227	1827.54
194.302	1818.56
194.378	1821.13
194.453	1820.94
194.529	1830.78
194.604	1819.33
194.679	1813
194.755	1797.04
194.83	1807.41
194.905	1802.08
194.981	1809.4
195.056	1803.32
195.131	1807.08
195.207	1809.02
195.282	1802.61
195.357	1785.3
195.433	1797.37
195.508	1787.72
195.583	1799.7
195.659	1816.24
195.734	1823.94
195.809	1826.56
195.884	1834.49
195.96	1834.21
196.035	1846.9
196.11	1843.95
196.185	1854.41
196.261	1858.73
196.336	1885.78
196.411	1872.08
196.486	1878.45
196.561	1874.6
196.637	1880.82
196.712	1896.99
196.787	1896.71
196.862	1910.63
196.937	1919.33
197.013	1926.04
197.088	1933.12
197.163	1949.53
197.238	1963.71
197.313	1960.95
197.388	1968.79
197.464	1995.57
197.539	2004.41
197.614	1998.71
197.689	2009.84
197.764	2024.15
197.839	2039.99
197.914	2036.04
197.989	2053.68
198.065	2068.9
198.14	2112.92
198.215	2135.61
198.29	2142.22
198.365	2154.21
198.44	2160.3
198.515	2187.51
198.59	2201.41
198.665	2222.67
198.74	2231.48
198.815	2232.91
198.89	2255.41
198.965	2285.01
199.04	2282.63
199.115	2299.48
199.19	2337.92
199.265	2341.78
199.34	2350.34
199.415	2382.49
199.49	2400.23
199.565	2413.32
199.64	2431.46
199.715	2427.22
199.79	2436.69
199.865	2444.31
199.94	2440.17
200.015	2468.73
200.09	2472.59
200.165	2477.87
200.24	2487.11
200.315	2522.57
200.39	2534.23
200.464	2539.52
200.539	2537.76
200.614	2552.8
200.689	2572.23
200.764	2576.04
200.839	2589.42
200.914	2597.28
200.989	2585.98
201.063	2596.99
201.138	2578
201.213	2576.95
201.288	2561.47
201.363	2563.38
201.438	2566.38
201.512	2582.75
201.587	2567.7
201.662	2568.75
201.737	2579.37
201.812	2584.61
201.886	2553.1
201.961	2560.35
202.036	2549.73
202.111	2547.78
202.186	2520.13
202.26	2504.55
202.335	2487.26
202.41	2483.98
202.485	2466.51
202.559	2449.27
202.634	2429.52
202.709	2437.51
202.784	2422.28
202.858	2419.8
202.933	2403.95
203.008	2395.67
203.082	2379.44
203.157	2377.06
203.232	2338.9
203.306	2320.33
203.381	2295.19
203.456	2273.96
203.53	2254.2
203.605	2238.83
203.68	2216.8
203.754	2212.14
203.829	2198.86
203.904	2180.64
203.978	2170.45
204.053	2173.88
204.127	2165.22
204.202	2161.03
204.277	2149.47
204.351	2145.48
204.426	2140.01
204.5	2131.3
204.575	2103.48
204.65	2112.62
204.724	2108.19
204.799	2117.13
204.873	2113.56
204.948	2109.99
205.022	2102.62
205.097	2098.19
205.171	2109.09
205.246	2118.51
205.32	2117.98
205.395	2114.51
205.469	2105.72
205.544	2109.05
205.618	2094.21
205.693	2104.48
205.767	2094.54
205.842	2106.72
205.916	2100.2
205.991	2091.17
206.065	2096.92
206.14	2107.71
206.214	2104.29
206.289	2098.62
206.363	2110.28
206.438	2111.8
206.512	2117.75
206.586	2131.82
206.661	2137.63
206.735	2117.47
206.81	2116.28
206.884	2129.74
206.958	2121.42
207.033	2137.87
207.107	2144.11
207.181	2169.09
207.256	2162.62
207.33	2178.88
207.405	2193.55
207.479	2209.15
207.553	2217.76
207.628	2205.21
207.702	2215.1
207.776	2209.01
207.851	2212.05
207.925	2225.38
207.999	2225.72
208.073	2225.33
208.148	2229
208.222	2218.58
208.296	2247.68
208.371	2263.11
208.445	2269.68
208.519	2292.75
208.593	2304.31
208.668	2302.6
208.742	2306.12
208.816	2309.69
208.89	2321.21
208.965	2320.4
209.039	2327.02
209.113	2343.16
209.187	2363.85
209.261	2361.66
209.336	2378.84
209.41	2397.98
209.484	2397.93
209.558	2416.88
209.632	2426.49
209.707	2437.63
209.781	2455.1
209.855	2465.82
209.929	2483.02
210.003	2491.35
210.077	2494.35
210.151	2535.81
210.226	2563.77
210.3	2586.41
210.374	2603.83
210.448	2609.93
210.522	2620.27
210.596	2633.84
210.67	2643.89
210.744	2683.15
210.818	2713.86
210.892	2733.83
210.966	2729.4
211.041	2745.64
211.115	2742.12
211.189	2770.18
211.263	2787.19
211.337	2798.57
211.411	2819.35
211.485	2819.73
211.559	2835.26
211.633	2846.6
211.707	2825.62
211.781	2843.93
211.855	2822.92
211.929	2828.97
212.003	2824.01
212.077	2845.9
212.151	2868.07
212.225	2891.71
212.299	2902.26
212.373	2910.55
212.447	2926.24
212.52	2975.17
212.594	3000.35
212.668	3038.78
212.742	3049.94
212.816	3074.83
212.89	3097.72
212.964	3127.26
213.038	3167.2
213.112	3216.26
213.186	3263.2
213.26	3281.22
213.333	3288.05
213.407	3340.85
213.481	3390.7
213.555	3451.81
213.629	3492.73
213.703	3540.54
213.777	3594.42
213.85	3638.95
213.924	3732.85
213.998	3803.25
214.072	3869.47
214.146	3933
214.219	4010.02
214.293	4088.65
214.367	4170.37
214.441	4268.93
214.515	4354.1
214.588	4423.38
214.662	4489.8
214.736	4576.17
214.81	4691.59
214.883	4807.37
214.957	4906.31
215.031	5010.33
215.105	5106.75
215.178	5213.25
215.252	5325.58
215.326	5431.56
215.4	5539.49
215.473	5631.25
215.547	5748.73
215.621	5870.96
215.694	6011.51
215.768	6125.1
215.842	6251.01
215.915	6381.16
215.989	6505.09
216.063	6636.79
216.136	6787.12
216.21	6935.19
216.284	7093.66
216.357	7242.67
216.431	7386.72
216.504	7558.43
216.578	7733.58
216.652	7904.63
216.725	8066.47
216.799	8232.35
216.873	8389.17
216.946	8561.98
217.02	8713.25
217.093	8866.45
217.167	9004.55
217.24	9150.71
217.314	9320.94
217.387	9478.17
217.461	9633.22
217.535	9804.52
217.608	9960.56
217.682	10115.37
217.755	10288.98
217.829	10440.54
217.902	10606.37
217.976	10767.96
218.049	10913.92
218.123	11060.99
218.196	11221.84
218.27	11379.96
218.343	11520.35
218.417	11687.2
218.49	11830.49
218.563	12000.81
218.637	12156.21
218.71	12334.01
218.784	12503.25
218.857	12655.09
218.931	12816.37
219.004	12973.42
219.077	13130.57
219.151	13280.05
219.224	13434.25
219.298	13572.99
219.371	13731.05
219.444	13861.84
219.518	14008.04
219.591	14147.84
219.665	14316.74
219.738	14451.91
219.811	14576.9
219.885	14728.02
219.958	14864.01
220.031	14999.46
220.105	15141.9
220.178	15276.48
220.251	15392.07
220.325	15513
220.398	15643.77
220.471	15770.54
220.544	15895.47
220.618	16001.17
220.691	16131.31
220.764	16241.2
220.838	16367.63
220.911	16468.79
220.984	16601.29
221.057	16710.64
221.131	16819.42
221.204	16888.58
221.277	17012.73
221.35	17140.4
221.424	17228.45
221.497	17328.07
221.57	17432.26
221.643	17520.5
221.716	17630.29
221.79	17713.23
221.863	17806.72
221.936	17892.93
222.009	17972.83
222.082	18061.7
222.155	18140.78
222.229	18229.4
222.302	18315.76
222.375	18378.8
222.448	18468.04
222.521	18541.2
222.594	18607.36
222.667	18671.31
222.74	18753.62
222.814	18816.17
222.887	18881.9
222.96	18967.25
223.033	19038.62
223.106	19100.15
223.179	19170.66
223.252	19221.4
223.325	19296.43
223.398	19354.84
223.471	19414.21
223.544	19471.27
223.617	19536.52
223.69	19593.62
223.763	19628.56
223.837	19675.88
223.91	19741.08
223.983	19769.08
224.056	19804.4
224.129	19846.62
224.202	19905.46
224.275	19940.69
224.348	19961.51
224.42	19985.65
224.493	19998.18
224.566	20026.56
224.639	20073.6
224.712	20105.94
224.785	20130.46
224.858	20155.19
224.931	20175.43
225.004	20198.17
225.077	20240.82
225.15	20243.19
225.223	20275.57
225.296	20331.33
225.369	20350.7
225.442	20366.75
225.514	20399.33
225.587	20430.99
225.66	20476.68
225.733	20500.78
225.806	20533.02
225.879	20563.91
225.952	20581.88
226.025	20620.82
226.097	20660.3
226.17	20672.25
226.243	20668.73
226.316	20693.36
226.389	20718.85
226.461	20746.03
226.534	20763.29
226.607	20772.83
226.68	20807.58
226.753	20819.29
226.825	20817.12
226.898	20850.04
226.971	20863.39
227.044	20880.54
227.117	20895.48
227.189	20902.23
227.262	20926.62
227.335	20930.62
227.407	20943.68
227.48	20959.49
227.553	20969.9
227.626	20970.19
227.698	20975.87
227.771	20993.85
227.844	20991.87
227.916	20996.36
227.989	20983.49
228.062	20985.46
228.134	21015.39
228.207	21017.03
228.28	21022.24
228.352	21021.76
228.425	21016.36
228.498	21030.62
228.57	21025.37
228.643	21039.78
228.716	21046.87
228.788	21036.51
228.861	21036.17
228.934	21043.73
229.006	21041.28
229.079	21030.58
229.151	21022.43
229.224	21003.06
229.296	21001.18
229.369	21025.95
229.442	21035.21
229.514	21034.77
229.587	21046.34
229.659	21019.06
229.732	21022.24
229.804	21034.87
229.877	21053.91
229.949	21067.59
230.022	21077.14
230.094	21075.31
230.167	21064.94
230.239	21046.19
230.312	21049.42
230.384	21074.63
230.457	21083.11
230.529	21081.76
230.602	21095.11
230.674	21088.46
230.747	21106.58
230.819	21121.19
230.892	21080.75
230.964	21081.96
231.037	21090.15
231.109	21078.97
231.181	21090.92
231.254	21072.37
231.326	21052.85
231.399	21033.61
231.471	21018.05
231.544	20987.68
231.616	20998.24
231.688	20994.58
231.761	20981.8
231.833	20964.94
231.905	20932.31
231.978	20917.41
232.05	20905.65
232.122	20894.28
232.195	20889.41
232.267	20882.91
232.339	20864.3
232.412	20880.59
232.484	20861.6
232.556	20838.66
232.629	20854.66
232.701	20845.7
232.773	20838.18
232.846	20824.16
232.918	20810.52
232.99	20803.91
233.062	20809.5
233.135	20795
233.207	20764.15
233.279	20767.09
233.351	20756.83
233.424	20739.96
233.496	20713.6
233.568	20723.24
233.64	20691.04
233.713	20678.85
233.785	20670.75
233.857	20647.72
233.929	20614.95
234.001	20615.09
234.074	20613.74
234.146	20564.34
234.218	20540
234.29	20518.37
234.362	20499.09
234.434	20471.43
234.507	20439.14
234.579	20398.65
234.651	20375.81
234.723	20373.69
234.795	20358.22
234.867	20338.94
234.939	20336.1
235.012	20315.91
235.084	20296.77
235.156	20292
235.228	20267.81
235.3	20236.73
235.372	20233.06
235.444	20226.99
235.516	20183.72
235.588	20163.76
235.66	20150.8
235.732	20123.81
235.804	20156.3
235.876	20135.28
235.948	20125.21
236.02	20098.42
236.092	20076.06
236.164	20039.58
236.236	20006.95
236.308	19974.76
236.38	19957.94
236.452	19923.92
236.524	19905.17
236.596	19892.45
236.668	19871.78
236.74	19837.8
236.812	19821.95
236.884	19786.72
236.956	19757.52
237.028	19724.94
237.1	19690.58
237.172	19677.62
237.244	19660.17
237.316	19595.79
237.388	19568.51
237.46	19541.48
237.532	19534.06
237.604	19510.44
237.675	19504.9
237.747	19493.19
237.819	19463.89
237.891	19427.65
237.963	19399.89
238.035	19378.6
238.107	19317.25
238.178	19297.88
238.25	19269.25
238.322	19261.4
238.394	19222.36
238.466	19198.12
238.538	19184.68
238.609	19164.54
238.681	19122.47
238.753	19087.14
238.825	19071.72
238.897	19047.72
238.968	19032.5
239.04	18992.26
239.112	18988.26
239.184	18950.33
239.255	18906.67
239.327	18879.44
239.399	18851.98
239.471	18822.77
239.542	18789.38
239.614	18777.72
239.686	18721.19
239.758	18705.53
239.829	18671.41
239.901	18663.17
239.973	18634.98
240.044	18613.15
240.116	18580.91
240.188	18554.5
240.259	18521.01
240.331	18474.26
240.403	18452.92
240.474	18406.08
240.546	18378.27
240.618	18330.08
240.689	18304.25
240.761	18284.44
240.833	18275.53
240.904	18246.57
240.976	18222.08
241.048	18186.37
241.119	18153.89
241.191	18139.1
241.262	18116.88
241.334	18080.69
241.405	18043.59
241.477	18005.52
241.549	17964.5
241.62	17935.45
241.692	17905.28
241.763	17886.24
241.835	17858.87
241.906	17825.04
241.978	17781.23
242.049	17763.69
242.121	17733.57
242.192	17711.98
242.264	17659.02
242.335	17604.03
242.407	17576.22
242.478	17538.34
242.55	17512.27
242.621	17473.77
242.693	17431.07
242.764	17399.26
242.836	17363.36
242.907	17337.67
242.979	17312.9
243.05	17280.32
243.122	17256.8
243.193	17222.25
243.264	17180.9
243.336	17148.99
243.407	17125.72
243.479	17113.38
243.55	17081.28
243.622	17054.58
243.693	17018.05
243.764	17004.6
243.836	16967.93
243.907	16935.83
243.978	16903.97
244.05	16881.13
244.121	16834.43
244.192	16814.91
244.264	16768.16
244.335	16729.7
244.407	16679.38
244.478	16644.63
244.549	16608.34
244.62	16566.75
244.692	16535.37
244.763	16509.63
244.834	16473.2
244.906	16435.07
244.977	16409.72
245.048	16386.3
245.119	16348.37
245.191	16303.21
245.262	16257.08
245.333	16233.47
245.405	16201.51
245.476	16175.1
245.547	16143.14
245.618	16129.99
245.689	16100.34
245.761	16076.58
245.832	16053.64
245.903	16037.01
245.974	16016.29
246.045	15982.64
246.117	15960.47
246.188	15921.91
246.259	15881.33
246.33	15857.13
246.401	15821.51
246.473	15778.28
246.544	15737.11
246.615	15713.64
246.686	15689.73
246.757	15670.65
246.828	15639.17
246.899	15618.64
246.97	15574.63
247.042	15538.48
247.113	15515.82
247.184	15502.28
247.255	15463.77
247.326	15432.53
247.397	15394.26
247.468	15358.5
247.539	15330.2
247.61	15288.79
247.681	15272.98
247.752	15247.58
247.823	15195.57
247.894	15174.36
247.965	15127.7
248.037	15089.72
248.108	15052.31
248.179	15015
248.25	14988.01
248.321	14963.18
248.392	14926.65
248.463	14914.84
248.534	14885.24
248.605	14854.97
248.675	14825.13
248.746	14810.19
248.817	14784.35
248.888	14763.24
248.959	14719.61
249.03	14704.91
249.101	14679.7
249.172	14644.89
249.243	14601.08
249.314	14589.41
249.385	14563.48
249.456	14548.68
249.527	14529.97
249.598	14505.49
249.669	14486.98
249.739	14464.95
249.81	14443.11
249.881	14402.18
249.952	14373.26
250.023	14345.93
250.094	14306.93
250.165	14267.4
250.235	14233.46
250.306	14205.5
250.377	14174.46
250.448	14158.74
250.519	14114.01
250.59	14105.77
250.66	14078.58
250.731	14064.69
250.802	14045.61
250.873	14014.03
250.944	14000.15
251.014	13963.41
251.085	13958.26
251.156	13924.56
251.227	13905.66
251.297	13896.46
251.368	13882.19
251.439	13867.29
251.51	13848.44
251.58	13815.61
251.651	13784.66
251.722	13768.61
251.792	13725.13
251.863	13697.94
251.934	13688.35
252.005	13688.06
252.075	13656.77
252.146	13636.96
252.217	13637.92
252.287	13628.04
252.358	13611.89
252.429	13597.33
252.499	13571.4
252.57	13546.81
252.641	13539.53
252.711	13512.01
252.782	13466.5
252.852	13457.05
252.923	13431.17
252.994	13409.14
253.064	13402.96
253.135	13375.92
253.205	13350.27
253.276	13344.25
253.347	13334.37
253.417	13298.55
253.488	13267.7
253.558	13237.71
253.629	13214.38
253.699	13184.97
253.77	13156.77
253.841	13124.86
253.911	13097.38
253.982	13075.88
254.052	13055.35
254.123	13036.55
254.193	13016.54
254.264	13028.21
254.334	12997.36
254.405	12963.85
254.475	12938.74
254.546	12911.26
254.616	12900.65
254.687	12872.12
254.757	12856.35
254.827	12825.65
254.898	12809.4
254.968	12791.66
255.039	12774.89
255.109	12762.69
255.18	12735.5
255.25	12694.05
255.321	12680.79
255.391	12645.65
255.461	12641.98
255.532	12607.76
255.602	12579.94
255.673	12541.09
255.743	12505.61
255.813	12466.76
255.884	12460.73
255.954	12436.58
256.024	12432.2
256.095	12412.1
256.165	12388.09
256.235	12369.97
256.306	12347.89
256.376	12335.5
256.446	12315.93
256.517	12289.51
256.587	12280.36
256.657	12263.24
256.728	12253.17
256.798	12233.7
256.868	12214.61
256.938	12188.77
257.009	12171.85
257.079	12158.4
257.149	12166.45
257.219	12133.96
257.29	12120.56
257.36	12080.03
257.43	12074.15
257.5	12032.4
257.571	12003.68
257.641	11991.92
257.711	11960.44
257.781	11941.4
257.852	11925.73
257.922	11886.16
257.992	11868.04
258.062	11840.9
258.132	11825.29
258.202	11800.51
258.273	11785.13
258.343	11782.72
258.413	11750.29
258.483	11730.33
258.553	11691.2
258.623	11654.9
258.693	11634.51
258.764	11630.66
258.834	11625.5
258.904	11599.71
258.974	11579.76
259.044	11562.99
259.114	11546.12
259.184	11532.38
259.254	11517.2
259.324	11476.57
259.394	11469.53
259.464	11466.69
259.535	11445.82
259.605	11421.63
259.675	11394.88
259.745	11376.03
259.815	11348.42
259.885	11329.72
259.955	11336.03
260.025	11323.6
260.095	11311.26
260.165	11299.93
260.235	11290.44
260.305	11267.21
260.375	11247.36
260.445	11245.76
260.515	11242.34
260.585	11241.96
260.655	11223.69
260.725	11215.11
260.795	11205.52
260.865	11203.89
260.934	11175.88
261.004	11163.26
261.074	11143.79
261.144	11135.65
261.214	11125.62
261.284	11103.79
261.354	11095.12
261.424	11058.83
261.494	11057.67
261.564	11038.06
261.634	11031.26
261.703	11002.2
261.773	10994.88
261.843	10978.64
261.913	10954.45
261.983	10921.87
262.053	10899.9
262.123	10880.72
262.192	10851.56
262.262	10840.14
262.332	10812.53
262.402	10802.99
