Data from 20250702_urea_1M_MAYP1162681_11-35-16-270.txt Node
Date: Wed Jul 02 11:35:16 BST 2025
User: adleo
Spectrometer: MAYP116268
Trigger mode: 0
Integration Time (sec): 1.000000E0
Scans to average: 1
Electric dark correction enabled: true
Nonlinearity correction enabled: true
Boxcar width: 10
XAxis mode: Wavelengths
Number of Pixels in Spectrum: 2068
>>>>>Begin Spectral Data<<<<<
179.565	1010.99
179.642	1058.02
179.718	1093.9
179.795	1128.29
179.871	1155.17
179.948	1170.96
180.024	1186.95
180.101	1203.71
180.177	1216.03
180.254	1234.89
180.33	1253.71
180.407	1293.25
180.483	1374.11
180.56	1446.79
180.636	1516.67
180.712	1503.66
180.789	1510.78
180.865	1521.6
180.942	1528.96
181.018	1537.08
181.095	1551.67
181.171	1557.94
181.248	1559.22
181.324	1571.71
181.4	1578.65
181.477	1588.86
181.553	1599.69
181.63	1616.89
181.706	1632.94
181.782	1640.26
181.859	1640.4
181.935	1645.34
182.011	1639.5
182.088	1655.32
182.164	1675.99
182.24	1688.24
182.317	1698.65
182.393	1696.65
182.469	1710.71
182.546	1727.15
182.622	1730.81
182.698	1723.92
182.775	1734.71
182.851	1746.25
182.927	1741.64
183.003	1735.33
183.08	1728.82
183.156	1736.04
183.232	1734.57
183.308	1725.06
183.385	1730.67
183.461	1746.83
183.537	1747.49
183.613	1760.42
183.69	1750.67
183.766	1739.03
183.842	1744.68
183.918	1748.39
183.995	1761.17
184.071	1762.74
184.147	1754.09
184.223	1745.49
184.299	1759.7
184.375	1747.87
184.452	1753.77
184.528	1802.77
184.604	1813.23
184.68	1824.96
184.756	1831.09
184.832	1837.32
184.908	1839.22
184.985	1839.55
185.061	1826.2
185.137	1833.71
185.213	1823.68
185.289	1824.35
185.365	1820.83
185.441	1822.26
185.517	1835.62
185.593	1832.15
185.669	1831.05
185.745	1841.75
185.822	1856.28
185.898	1848.25
185.974	1858.89
186.05	1853.38
186.126	1817.78
186.202	1811.98
186.278	1808.27
186.354	1800.62
186.43	1803.57
186.506	1804.52
186.582	1804.23
186.658	1808.46
186.734	1792.35
186.81	1793.26
186.886	1797.06
186.962	1807.23
187.038	1799.53
187.114	1792.4
187.19	1800.48
187.266	1789.74
187.341	1787.93
187.417	1785.79
187.493	1785.46
187.569	1786.46
187.645	1779.66
187.721	1769.16
187.797	1773.86
187.873	1777.47
187.949	1772.29
188.025	1768.59
188.101	1769.54
188.176	1774.34
188.252	1771.53
188.328	1777.85
188.404	1779.04
188.48	1775.38
188.556	1769.3
188.632	1771.15
188.707	1771.43
188.783	1767.49
188.859	1766.16
188.935	1758.41
189.011	1762.64
189.086	1755.18
189.162	1750.1
189.238	1749.05
189.314	1746.96
189.39	1744.2
189.465	1738.12
189.541	1751.9
189.617	1738.46
189.693	1734.56
189.768	1737.03
189.844	1759.04
189.92	1750.92
189.996	1759.09
190.071	1768.6
190.147	1767.13
190.223	1776.25
190.298	1771.45
190.374	1760.24
190.45	1769.31
190.526	1777.63
190.601	1771.07
190.677	1773.97
190.753	1797.36
190.828	1797.84
190.904	1810.72
190.98	1823.08
191.055	1832.49
191.131	1826.12
191.207	1844.7
191.282	1853.16
191.358	1845.74
191.433	1828.96
191.509	1839.7
191.585	1834.99
191.66	1834.18
191.736	1841.22
191.811	1835.18
191.887	1847.59
191.963	1866.32
192.038	1870.4
192.114	1867.27
192.189	1870.59
192.265	1866.55
192.34	1848.29
192.416	1850.62
192.491	1847.01
192.567	1849.1
192.642	1850.76
192.718	1851.57
192.793	1840.31
192.869	1837.22
192.944	1838.88
193.02	1848.86
193.095	1854.28
193.171	1860.56
193.246	1860.94
193.322	1859.27
193.397	1856.42
193.473	1843.54
193.548	1828.04
193.624	1833.17
193.699	1834.5
193.775	1851.34
193.85	1853
193.925	1858.61
194.001	1856.61
194.076	1849.86
194.152	1842.4
194.227	1834.32
194.302	1825.48
194.378	1828.14
194.453	1827.33
194.529	1839.12
194.604	1825.77
194.679	1818.97
194.755	1803.29
194.83	1813.04
194.905	1808.66
194.981	1817.69
195.056	1810.33
195.131	1817.27
195.207	1818.31
195.282	1810.47
195.357	1792.83
195.433	1808.18
195.508	1797.06
195.583	1803.38
195.659	1816.84
195.734	1823.21
195.809	1824.96
195.884	1832.09
195.96	1832.61
196.035	1844.16
196.11	1841.03
196.185	1853.67
196.261	1857.38
196.336	1883.09
196.411	1871.3
196.486	1879.09
196.561	1874.96
196.637	1883.84
196.712	1895.97
196.787	1895.35
196.862	1907.76
196.937	1918.98
197.013	1925.4
197.088	1934.47
197.163	1955.73
197.238	1969.96
197.313	1969.44
197.388	1981.85
197.464	2009.1
197.539	2019.7
197.614	2015.9
197.689	2025.74
197.764	2037.68
197.839	2056.42
197.914	2051.71
197.989	2072.49
198.065	2082.29
198.14	2125.93
198.215	2150.52
198.29	2160.56
198.365	2172.74
198.44	2182.92
198.515	2201.61
198.59	2212.13
198.665	2238.25
198.74	2243.63
198.815	2242.82
198.89	2261.99
198.965	2286.27
199.04	2283.6
199.115	2293.5
199.19	2331.09
199.265	2331.23
199.34	2339.51
199.415	2369.9
199.49	2388.07
199.565	2397.16
199.64	2418.39
199.715	2412.67
199.79	2418.91
199.865	2426.72
199.94	2425.86
200.015	2453.52
200.09	2461.14
200.165	2467.62
200.24	2472.95
200.315	2509.79
200.39	2523.74
200.464	2528.26
200.539	2530.26
200.614	2544.83
200.689	2567.3
200.764	2570.88
200.839	2586.58
200.914	2591.15
200.989	2581.53
201.063	2595.62
201.138	2581.92
201.213	2581.63
201.288	2564.73
201.363	2566.49
201.438	2568.02
201.512	2584.2
201.587	2567.01
201.662	2570.53
201.737	2580.44
201.812	2587.44
201.886	2555.22
201.961	2564.51
202.036	2555.94
202.111	2551.04
202.186	2524
202.26	2511.15
202.335	2494.76
202.41	2491.52
202.485	2476.82
202.559	2456.2
202.634	2433.68
202.709	2440.68
202.784	2423.11
202.858	2425.87
202.933	2411.74
203.008	2403.98
203.082	2385.41
203.157	2385.13
203.232	2346.01
203.306	2329.92
203.381	2300.55
203.456	2280.99
203.53	2263.41
203.605	2246.71
203.68	2227.06
203.754	2220.83
203.829	2206.79
203.904	2189.09
203.978	2179.14
204.053	2183.23
204.127	2174.05
204.202	2171.63
204.277	2155.88
204.351	2152.6
204.426	2146.41
204.5	2137.28
204.575	2108.69
204.65	2116.5
204.724	2110.02
204.799	2117.82
204.873	2112.63
204.948	2113.3
205.022	2103.7
205.097	2093.75
205.171	2103.26
205.246	2109.73
205.32	2111.92
205.395	2112.06
205.469	2102.74
205.544	2106.74
205.618	2091.75
205.693	2103.36
205.767	2092.95
205.842	2112.88
205.916	2105.56
205.991	2097.47
206.065	2104.7
206.14	2118.39
206.214	2115.11
206.289	2109.3
206.363	2120.72
206.438	2121.67
206.512	2128.33
206.586	2146.88
206.661	2152.97
206.735	2132.95
206.81	2134.24
206.884	2145.13
206.958	2134.67
207.033	2147.98
207.107	2156.17
207.181	2182.67
207.256	2176.73
207.33	2196.33
207.405	2208.14
207.479	2227.83
207.553	2233.44
207.628	2217.85
207.702	2228.5
207.776	2225.03
207.851	2228.41
207.925	2240.35
207.999	2241.31
208.073	2238.74
208.148	2240.07
208.222	2231.55
208.296	2262.42
208.371	2280.32
208.445	2293.08
208.519	2317.01
208.593	2327.14
208.668	2326.71
208.742	2331.29
208.816	2335.38
208.89	2347.28
208.965	2348.14
209.039	2357.76
209.113	2375.99
209.187	2398.53
209.261	2398.15
209.336	2416.67
209.41	2440.52
209.484	2445.71
209.558	2470.86
209.632	2487.33
209.707	2502.04
209.781	2529.37
209.855	2551.85
209.929	2577.69
210.003	2592.31
210.077	2607.32
210.151	2666.62
210.226	2708.28
210.3	2750.72
210.374	2790.35
210.448	2813.27
210.522	2841.93
210.596	2876.25
210.67	2909.71
210.744	2978.14
210.818	3034.81
210.892	3087.46
210.966	3111.64
211.041	3162.09
211.115	3196.86
211.189	3261.36
211.263	3323.62
211.337	3378.07
211.411	3438.93
211.485	3483.97
211.559	3549.17
211.633	3607.48
211.707	3639.16
211.781	3709.62
211.855	3741.24
211.929	3798.98
212.003	3854.28
212.077	3939.95
212.151	4029.61
212.225	4119.83
212.299	4197.06
212.373	4275.25
212.447	4360.56
212.52	4482.51
212.594	4585.03
212.668	4699.66
212.742	4791.82
212.816	4897.42
212.89	5003.45
212.964	5114.72
213.038	5234.38
213.112	5368.98
213.186	5507.54
213.26	5616.9
213.333	5704.89
213.407	5845.94
213.481	5992.1
213.555	6147.45
213.629	6281.62
213.703	6407.55
213.777	6553.04
213.85	6683.63
213.924	6866.65
213.998	7018.56
214.072	7170.15
214.146	7315.19
214.219	7470.99
214.293	7632.45
214.367	7797.72
214.441	7974.75
214.515	8131.17
214.588	8280.82
214.662	8409.32
214.736	8562.77
214.81	8734.27
214.883	8918.85
214.957	9085.05
215.031	9242.88
215.105	9389.8
215.178	9545.91
215.252	9718.41
215.326	9868.52
215.4	10031.17
215.473	10170.44
215.547	10328.79
215.621	10492.85
215.694	10668.22
215.768	10822.84
215.842	10982.91
215.915	11140.16
215.989	11287.96
216.063	11455.63
216.136	11629.56
216.21	11808.02
216.284	11983.02
216.357	12154.94
216.431	12315.88
216.504	12482.37
216.578	12676.52
216.652	12859.11
216.725	13017.36
216.799	13179.86
216.873	13346.64
216.946	13512.28
217.02	13662.14
217.093	13821.56
217.167	13954.51
217.24	14095.12
217.314	14248.37
217.387	14396.21
217.461	14539.86
217.535	14699.56
217.608	14835.2
217.682	14977.93
217.755	15129.48
217.829	15265.99
217.902	15415.95
217.976	15544.93
218.049	15674.35
218.123	15790.75
218.196	15927.5
218.27	16066.26
218.343	16187.34
218.417	16319.98
218.49	16438.64
218.563	16577.64
218.637	16701.79
218.71	16845.22
218.784	16976.84
218.857	17104.13
218.931	17232.32
219.004	17364.28
219.077	17482.35
219.151	17604.91
219.224	17709.44
219.298	17825.29
219.371	17954.73
219.444	18054.15
219.518	18174.34
219.591	18287.25
219.665	18423.06
219.738	18520.69
219.811	18614.57
219.885	18728.15
219.958	18827.9
220.031	18927.71
220.105	19020.62
220.178	19118.2
220.251	19207.84
220.325	19306.82
220.398	19397.66
220.471	19490.47
220.544	19573.6
220.618	19654.56
220.691	19745.54
220.764	19836.05
220.838	19912.09
220.911	19973.73
220.984	20062.3
221.057	20141.34
221.131	20214.49
221.204	20247.7
221.277	20335.22
221.35	20422.15
221.424	20480.18
221.497	20555.31
221.57	20623.22
221.643	20697.1
221.716	20761.1
221.79	20809.25
221.863	20862.55
221.936	20919.9
222.009	20967.23
222.082	21023.38
222.155	21070.42
222.229	21131.1
222.302	21179.39
222.375	21224.65
222.448	21281.86
222.521	21323.5
222.594	21366.35
222.667	21401.2
222.74	21452.43
222.814	21489.16
222.887	21520.92
222.96	21568.64
223.033	21607.54
223.106	21645.62
223.179	21677.53
223.252	21717
223.325	21759.9
223.398	21789.5
223.471	21819.91
223.544	21850.28
223.617	21875.88
223.69	21900.36
223.763	21904.75
223.837	21934.54
223.91	21971.41
223.983	21979.99
224.056	21994.5
224.129	22026.7
224.202	22064.21
224.275	22084.84
224.348	22085.95
224.42	22104.41
224.493	22110.82
224.566	22116.75
224.639	22144.81
224.712	22159.8
224.785	22168.43
224.858	22182.07
224.931	22186.84
225.004	22188.24
225.077	22199.57
225.15	22190.89
225.223	22198.46
225.296	22231.29
225.369	22221.6
225.442	22213.31
225.514	22216.49
225.587	22228.3
225.66	22225.17
225.733	22225.7
225.806	22225.79
225.879	22234.81
225.952	22227.58
226.025	22238.95
226.097	22251.54
226.17	22241.46
226.243	22217.7
226.316	22213.12
226.389	22199.57
226.461	22203.09
226.534	22206.66
226.607	22198.32
226.68	22204.2
226.753	22198.46
226.825	22173.25
226.898	22184.72
226.971	22181.1
227.044	22183.61
227.117	22174.93
227.189	22172.57
227.262	22163.94
227.335	22155.7
227.407	22140.95
227.48	22140.13
227.553	22140.08
227.626	22131.12
227.698	22121.43
227.771	22116.56
227.844	22094.62
227.916	22097.85
227.989	22078.67
228.062	22068.3
228.134	22084.89
228.207	22080.69
228.28	22066.18
228.352	22058.86
228.425	22046.56
228.498	22048.98
228.57	22016.97
228.643	22021.5
228.716	22003.28
228.788	21987.47
228.861	21972.91
228.934	21981.78
229.006	21958.5
229.079	21936.18
229.151	21913.71
229.224	21884.94
229.296	21880.7
229.369	21892.75
229.442	21886.91
229.514	21867.54
229.587	21861.8
229.659	21815.77
229.732	21799.38
229.804	21804.78
229.877	21809.89
229.949	21798.37
230.022	21787.91
230.094	21782.27
230.167	21759.32
230.239	21732.91
230.312	21717.87
230.384	21720.09
230.457	21706.35
230.529	21690.25
230.602	21667.21
230.674	21652.51
230.747	21659.06
230.819	21656.7
230.892	21613.13
230.964	21593.08
231.037	21585.17
231.109	21556.73
231.181	21555.05
231.254	21537.26
231.326	21507.04
231.399	21471.13
231.471	21454.98
231.544	21418.35
231.616	21399.02
231.688	21379.55
231.761	21353.14
231.833	21325.67
231.905	21277.57
231.978	21246.62
232.05	21226.57
232.122	21217.75
232.195	21190.38
232.267	21167.58
232.339	21132.97
232.412	21124.63
232.484	21100.78
232.556	21071.47
232.629	21071.91
232.701	21050.7
232.773	21019.85
232.846	20998.02
232.918	20975.95
232.99	20950.45
233.062	20941.82
233.135	20932.91
233.207	20900.62
233.279	20892.28
233.351	20877.68
233.424	20865.34
233.496	20829.82
233.568	20825.05
233.64	20790.64
233.713	20766.49
233.785	20740.18
233.857	20717.82
233.929	20677.24
234.001	20659.21
234.074	20643.5
234.146	20586.87
234.218	20554.05
234.29	20527.31
234.362	20487.93
234.434	20449.52
234.507	20413.57
234.579	20364.37
234.651	20333.86
234.723	20309.81
234.795	20276.22
234.867	20250.68
234.939	20230.1
235.012	20210.2
235.084	20179.4
235.156	20142.34
235.228	20097.19
235.3	20058.15
235.372	20029.62
235.444	20015.65
235.516	19962.3
235.588	19924.9
235.66	19905.53
235.732	19865.63
235.804	19884.18
235.876	19871.22
235.948	19854.16
236.02	19817.49
236.092	19790.26
236.164	19753.15
236.236	19719.47
236.308	19688.15
236.38	19654.12
236.452	19610.27
236.524	19576.73
236.596	19557.21
236.668	19536.25
236.74	19513.12
236.812	19489.89
236.884	19460.45
236.956	19433.75
237.028	19404.88
237.1	19370.23
237.172	19346.38
237.244	19340.94
237.316	19280.17
237.388	19235.78
237.46	19191.11
237.532	19176.03
237.604	19136.8
237.675	19119.89
237.747	19093.96
237.819	19058.64
237.891	19029.97
237.963	19001.82
238.035	18969.58
238.107	18904.38
238.178	18877.98
238.25	18843.9
238.322	18824.97
238.394	18780.34
238.466	18735.14
238.538	18704.97
238.609	18681.12
238.681	18639.29
238.753	18590.23
238.825	18543.73
238.897	18509.13
238.968	18500.21
239.04	18456.84
239.112	18441.33
239.184	18401.57
239.255	18367.21
239.327	18341.33
239.399	18308.27
239.471	18284.08
239.542	18255.36
239.614	18230.49
239.686	18178.64
239.758	18153.97
239.829	18109.34
239.901	18081.15
239.973	18053.97
240.044	18030.55
240.116	17997.54
240.188	17958.7
240.259	17923.66
240.331	17896.34
240.403	17874.22
240.474	17821.69
240.546	17778.65
240.618	17731.43
240.689	17688.44
240.761	17654.51
240.833	17627.67
240.904	17586.66
240.976	17551.86
241.048	17515.38
241.119	17497.55
241.191	17469.55
241.262	17451.53
241.334	17416.2
241.405	17381.36
241.477	17333.55
241.549	17295.14
241.62	17258.95
241.692	17231.67
241.763	17214.61
241.835	17171.86
241.906	17141.74
241.978	17094.22
242.049	17079.14
242.121	17054.36
242.192	17032.1
242.264	16986.75
242.335	16940.24
242.407	16911.85
242.478	16867.27
242.55	16833.39
242.621	16789.97
242.693	16756.23
242.764	16716.18
242.836	16675.74
242.907	16648.85
242.979	16627.07
243.05	16596.22
243.122	16574.82
243.193	16542.39
243.264	16489.47
243.336	16464.21
243.407	16431.15
243.479	16422.71
243.55	16384.35
243.622	16357.74
243.693	16323.43
243.764	16301.35
243.836	16258.46
243.907	16220.19
243.978	16186.5
244.05	16158.64
244.121	16111.98
244.192	16082.58
244.264	16037.32
244.335	16009.61
244.407	15964.35
244.478	15935.43
244.549	15894.36
244.62	15847.8
244.692	15807.65
244.763	15779.02
244.834	15737.67
244.906	15699.83
244.977	15670.33
245.048	15647.68
245.119	15611.38
245.191	15568.68
245.262	15513.97
245.333	15504.96
245.405	15472.23
245.476	15445.43
245.547	15411.83
245.618	15392.74
245.689	15363.05
245.761	15337.12
245.832	15307.52
245.903	15282.79
245.974	15254.07
246.045	15219.5
246.117	15200.22
246.188	15158
246.259	15122.52
246.33	15088.1
246.401	15052.77
246.473	15001
246.544	14966.82
246.615	14943.64
246.686	14913.75
246.757	14897.7
246.828	14849.79
246.899	14836.19
246.97	14791.6
247.042	14749.18
247.113	14713.56
247.184	14699.68
247.255	14658.08
247.326	14627.08
247.397	14592.18
247.468	14556.46
247.539	14526.77
247.61	14482.66
247.681	14468.58
247.752	14442.26
247.823	14412.67
247.894	14392.23
247.965	14355.54
248.037	14321.22
248.108	14272.77
248.179	14234.6
248.25	14207.6
248.321	14189.23
248.392	14145.22
248.463	14140.79
248.534	14122.95
248.605	14111.57
248.675	14077.11
248.746	14056.04
248.817	14034.16
248.888	14016.51
248.959	13982.43
249.03	13960.79
249.101	13937.94
249.172	13897.2
249.243	13853.19
249.314	13838.68
249.385	13802.86
249.456	13785.65
249.527	13758.61
249.598	13736.24
249.669	13714.84
249.739	13691.89
249.81	13670.97
249.881	13634.24
249.952	13600.88
250.023	13570.12
250.094	13526.49
250.165	13491.98
250.235	13466.38
250.306	13434.56
250.377	13394.41
250.448	13371.17
250.519	13329.57
250.59	13316.22
250.66	13296.5
250.731	13284.55
250.802	13254.03
250.873	13240.1
250.944	13218.94
251.014	13183.79
251.085	13178.2
251.156	13158.73
251.227	13146.77
251.297	13133.85
251.368	13122.57
251.439	13111.39
251.51	13100.44
251.58	13064.58
251.651	13035.51
251.722	13019.6
251.792	12990.15
251.863	12966.91
251.934	12949.7
252.005	12955.54
252.075	12929.8
252.146	12912.34
252.217	12902.17
252.287	12884.96
252.358	12852.71
252.429	12842.59
252.499	12816.22
252.57	12796.75
252.641	12781.18
252.711	12749.94
252.782	12703.61
252.852	12698.51
252.923	12664.71
252.994	12635.16
253.064	12629.86
253.135	12600.41
253.205	12575.39
253.276	12561.36
253.347	12552.78
253.417	12517.69
253.488	12485.05
253.558	12455.94
253.629	12430.05
253.699	12408.51
253.77	12398.87
253.841	12372.55
253.911	12346.23
253.982	12326.56
254.052	12308.34
254.123	12288.53
254.193	12267.65
254.264	12280.77
254.334	12250.49
254.405	12221.33
254.475	12195.93
254.546	12173.13
254.616	12168.31
254.687	12153.51
254.757	12135.24
254.827	12109.79
254.898	12104.92
254.968	12086.32
255.039	12057.73
255.109	12046.07
255.18	12012.38
255.25	11969.48
255.321	11958.49
255.391	11929.62
255.461	11935.69
255.532	11891.78
255.602	11867.48
255.673	11832.35
255.743	11802.46
255.813	11755.71
255.884	11743.42
255.954	11726.55
256.024	11717.97
256.095	11691.56
256.165	11654.64
256.235	11638.59
256.306	11614.54
256.376	11595.59
256.446	11586
256.517	11570.92
256.587	11560.84
256.657	11551.3
256.728	11529.08
256.798	11508.31
256.868	11482.38
256.938	11445.89
257.009	11434.52
257.079	11415.68
257.149	11419.63
257.219	11379.09
257.29	11369.89
257.36	11333.7
257.43	11322.8
257.5	11288.06
257.571	11260.44
257.641	11252.83
257.711	11219.62
257.781	11205.02
257.852	11191.04
257.922	11151.38
257.992	11134.99
258.062	11108.2
258.132	11091.43
258.202	11074.66
258.273	11059.38
258.343	11062.66
258.413	11039.67
258.483	11022.51
258.553	10997.94
258.623	10967.24
258.693	10961.99
258.764	10957.89
258.834	10961.99
258.904	10937.75
258.974	10913.65
259.044	10902.71
259.114	10882.57
259.184	10878.23
259.254	10857.03
259.324	10817.62
259.394	10801.14
259.464	10791.45
259.535	10776.8
259.605	10754.73
259.675	10733.82
259.745	10712.86
259.815	10684.72
259.885	10667.23
259.955	10671.32
260.025	10649.16
260.095	10631.33
260.165	10611.77
260.235	10606.08
260.305	10579.63
260.375	10559.68
260.445	10561.71
260.515	10554.57
260.585	10551.3
260.655	10530.53
260.725	10527.4
260.795	10523.5
260.865	10529.37
260.934	10510.58
261.004	10498.44
261.074	10482.4
261.144	10474.26
261.214	10466.21
261.284	10451.51
261.354	10442.84
261.424	10413.88
261.494	10414.36
261.564	10400.1
261.634	10393.26
261.703	10361.32
261.773	10346.63
261.843	10326.87
261.913	10310.83
261.983	10277.3
262.053	10260.1
262.123	10238.13
262.192	10207.01
