Data from 20250702_urea_1M_MAYP1162681_11-35-12-271.txt Node
Date: Wed Jul 02 11:35:12 BST 2025
User: adleo
Spectrometer: MAYP116268
Trigger mode: 0
Integration Time (sec): 1.000000E0
Scans to average: 1
Electric dark correction enabled: true
Nonlinearity correction enabled: true
Boxcar width: 10
XAxis mode: Wavelengths
Number of Pixels in Spectrum: 2068
>>>>>Begin Spectral Data<<<<<
179.565	1020.34
179.642	1070.82
179.718	1109.23
179.795	1142.23
179.871	1168.37
179.948	1183.32
180.024	1199.04
180.101	1220.22
180.177	1229.82
180.254	1247.84
180.33	1266.23
180.407	1307.13
180.483	1387.66
180.56	1463.87
180.636	1533.79
180.712	1523.91
180.789	1531.41
180.865	1541.72
180.942	1549.03
181.018	1561.85
181.095	1573.11
181.171	1578.29
181.248	1577.62
181.324	1588.74
181.4	1593.44
181.477	1601.28
181.553	1612.44
181.63	1633.06
181.706	1646.36
181.782	1655.43
181.859	1655.67
181.935	1659.71
182.011	1654.2
182.088	1670.02
182.164	1686.51
182.24	1698.86
182.317	1704.8
182.393	1703.75
182.469	1714.92
182.546	1728.7
182.622	1728.55
182.698	1724.99
182.775	1735.4
182.851	1747.56
182.927	1741.34
183.003	1739.48
183.08	1736.11
183.156	1742.19
183.232	1739.29
183.308	1726.61
183.385	1734.54
183.461	1749.84
183.537	1751.27
183.613	1763.81
183.69	1753.69
183.766	1743.18
183.842	1747.46
183.918	1755.49
183.995	1765.71
184.071	1767.89
184.147	1763
184.223	1753.74
184.299	1765.19
184.375	1754.36
184.452	1761.06
184.528	1810.02
184.604	1817.57
184.68	1829.74
184.756	1838.44
184.832	1841.53
184.908	1845.66
184.985	1843.62
185.061	1829.83
185.137	1836.54
185.213	1825.04
185.289	1828.08
185.365	1822.75
185.441	1824.23
185.517	1833.74
185.593	1833.83
185.669	1834.45
185.745	1841.67
185.822	1858.64
185.898	1849.65
185.974	1861.15
186.05	1852.4
186.126	1818.7
186.202	1814.9
186.278	1809.48
186.354	1801.17
186.43	1804.68
186.506	1804.68
186.582	1805.06
186.658	1811.81
186.734	1795.32
186.81	1798.93
186.886	1802.59
186.962	1812.95
187.038	1809.39
187.114	1803.97
187.19	1809.72
187.266	1799.74
187.341	1799.69
187.417	1790.62
187.493	1790.95
187.569	1791.09
187.645	1787.53
187.721	1776.83
187.797	1781.63
187.873	1787.57
187.949	1781.11
188.025	1777.78
188.101	1781.06
188.176	1784.2
188.252	1779.35
188.328	1787.19
188.404	1787.71
188.48	1783.48
188.556	1776.97
188.632	1777.54
188.707	1777.4
188.783	1773.93
188.859	1771.08
188.935	1762.19
189.011	1771.98
189.086	1765.09
189.162	1757.3
189.238	1752.36
189.314	1748.6
189.39	1743.23
189.465	1735.96
189.541	1750.65
189.617	1736.63
189.693	1730.07
189.768	1732.12
189.844	1753.74
189.92	1748.8
189.996	1756.08
190.071	1763.82
190.147	1762.3
190.223	1768.2
190.298	1761.4
190.374	1751.42
190.45	1759.21
190.526	1767.81
190.601	1761.25
190.677	1766.53
190.753	1790.82
190.828	1796.38
190.904	1810.02
190.98	1824.52
191.055	1834.31
191.131	1827.66
191.207	1845.95
191.282	1852.04
191.358	1844.95
191.433	1832.88
191.509	1843.43
191.585	1841.43
191.66	1842.62
191.736	1851.98
191.811	1843.85
191.887	1855.55
191.963	1875.51
192.038	1883.4
192.114	1883.02
192.189	1886.49
192.265	1880.46
192.34	1863.24
192.416	1859.25
192.491	1858.49
192.567	1860.06
192.642	1859.87
192.718	1858.58
192.793	1847.46
192.869	1846.89
192.944	1848.93
193.02	1854.88
193.095	1854.69
193.171	1858.01
193.246	1857.87
193.322	1856.02
193.397	1858.77
193.473	1850.36
193.548	1833.86
193.624	1839.24
193.699	1837.53
193.775	1850.93
193.85	1854.31
193.925	1859.63
194.001	1861.25
194.076	1849.7
194.152	1840.04
194.227	1835.39
194.302	1828.83
194.378	1832.44
194.453	1830.97
194.529	1844.75
194.604	1830.92
194.679	1827.02
194.755	1812.53
194.83	1823.75
194.905	1820.57
194.981	1825.42
195.056	1818.38
195.131	1823.99
195.207	1820.33
195.282	1811.16
195.357	1795.75
195.433	1809.16
195.508	1799.79
195.583	1805.54
195.659	1822.94
195.734	1829.22
195.809	1827.08
195.884	1835.16
195.96	1834.97
196.035	1848.89
196.11	1843.47
196.185	1857.07
196.261	1862.15
196.336	1888.73
196.411	1875.08
196.486	1881.78
196.561	1880.35
196.637	1884.96
196.712	1899.56
196.787	1900.56
196.862	1914.96
196.937	1922.76
197.013	1926.7
197.088	1936.16
197.163	1955
197.238	1967.94
197.313	1966.94
197.388	1980.25
197.464	2007.7
197.539	2015.68
197.614	2009.36
197.689	2019.39
197.764	2030.52
197.839	2046.31
197.914	2041.22
197.989	2062.39
198.065	2071.95
198.14	2112.06
198.215	2136.27
198.29	2144.17
198.365	2158.44
198.44	2167.67
198.515	2195.36
198.59	2208.44
198.665	2229.61
198.74	2237.13
198.815	2239.66
198.89	2262.21
198.965	2286.29
199.04	2280.25
199.115	2297.14
199.19	2329.92
199.265	2330.82
199.34	2342.82
199.415	2374.39
199.49	2389.85
199.565	2396.13
199.64	2418.08
199.715	2418.46
199.79	2425.31
199.865	2433.83
199.94	2431.83
200.015	2460.88
200.09	2464.55
200.165	2472.02
200.24	2480.92
200.315	2518.76
200.39	2530.47
200.464	2534.47
200.539	2537.52
200.614	2553.28
200.689	2573.38
200.764	2586.05
200.839	2605.57
200.914	2605.8
200.989	2595.04
201.063	2610.61
201.138	2596.28
201.213	2596.66
201.288	2578.19
201.363	2581.81
201.438	2582.43
201.512	2596.9
201.587	2580.7
201.662	2579.32
201.737	2591.33
201.812	2592.71
201.886	2561.49
201.961	2570.45
202.036	2563.35
202.111	2559.45
202.186	2534.65
202.26	2520.03
202.335	2499.97
202.41	2491.36
202.485	2477.74
202.559	2462.32
202.634	2437.66
202.709	2450.89
202.784	2434.27
202.858	2435.89
202.933	2419.47
203.008	2412.61
203.082	2396.48
203.157	2397.48
203.232	2361.89
203.306	2341.46
203.381	2318.23
203.456	2297.05
203.53	2274.95
203.605	2253.54
203.68	2236.12
203.754	2228.7
203.829	2213.47
203.904	2194.87
203.978	2187.16
204.053	2190.87
204.127	2177.36
204.202	2176.98
204.277	2157.57
204.351	2151.81
204.426	2147.24
204.5	2140.4
204.575	2111.86
204.65	2118.52
204.724	2109.14
204.799	2119.41
204.873	2116.03
204.948	2113.8
205.022	2104.53
205.097	2099.81
205.171	2113.04
205.246	2118.41
205.32	2117.32
205.395	2118.98
205.469	2109.76
205.544	2111.62
205.618	2098.77
205.693	2111.9
205.767	2101.39
205.842	2120.42
205.916	2113.91
205.991	2101.63
206.065	2110.63
206.14	2124.08
206.214	2122.51
206.289	2115.09
206.363	2125.12
206.438	2126.69
206.512	2133.88
206.586	2151.1
206.661	2157.66
206.735	2139.5
206.81	2139.07
206.884	2152.15
206.958	2141.59
207.033	2161.14
207.107	2173.42
207.181	2202.07
207.256	2195.88
207.33	2213.43
207.405	2224.05
207.479	2244.75
207.553	2251.22
207.628	2233
207.702	2245.09
207.776	2234.81
207.851	2240.28
207.925	2252.47
207.999	2248.99
208.073	2248.47
208.148	2251.09
208.222	2239.09
208.296	2266.92
208.371	2280.68
208.445	2293.96
208.519	2322.08
208.593	2329.08
208.668	2324.84
208.742	2323.89
208.816	2326.79
208.89	2338.69
208.965	2342.88
209.039	2350.98
209.113	2372.35
209.187	2395.04
209.261	2394.37
209.336	2419.69
209.41	2442.07
209.484	2447.4
209.558	2474.64
209.632	2492.78
209.707	2510.87
209.781	2541.25
209.855	2563.64
209.929	2592.19
210.003	2606.91
210.077	2615.72
210.151	2674.22
210.226	2716.97
210.3	2759.69
210.374	2798.09
210.448	2824.63
210.522	2852.86
210.596	2882.55
210.67	2915.3
210.744	2981.01
210.818	3036.63
210.892	3085.09
210.966	3113.45
211.041	3163.49
211.115	3195.44
211.189	3254.59
211.263	3310.37
211.337	3360.47
211.411	3424.15
211.485	3467.8
211.559	3535.54
211.633	3594.33
211.707	3628.3
211.781	3697.61
211.855	3731
211.929	3791.46
212.003	3845.19
212.077	3930.34
212.151	4022.61
212.225	4115.33
212.299	4195.18
212.373	4273.89
212.447	4364.81
212.52	4485.24
212.594	4588
212.668	4700.84
212.742	4800.43
212.816	4906.11
212.89	5012.13
212.964	5124.03
213.038	5248.54
213.112	5375.66
213.186	5517.09
213.26	5624.64
213.333	5715.02
213.407	5856.22
213.481	5996.57
213.555	6148.89
213.629	6282.25
213.703	6409.66
213.777	6552.34
213.85	6685.37
213.924	6864.35
213.998	7018.3
214.072	7171.72
214.146	7314.84
214.219	7477.12
214.293	7634.51
214.367	7799.91
214.441	7977.61
214.515	8129.7
214.588	8278.83
214.662	8415.46
214.736	8560.53
214.81	8739.6
214.883	8921.24
214.957	9086.28
215.031	9250.13
215.105	9403.4
215.178	9566.02
215.252	9738.95
215.326	9900.2
215.4	10061.06
215.473	10198.99
215.547	10358.88
215.621	10515.76
215.694	10694.12
215.768	10845.42
215.842	11006.26
215.915	11164.8
215.989	11305.09
216.063	11468.51
216.136	11630.15
216.21	11807.99
216.284	11984.82
216.357	12156.55
216.431	12320.77
216.504	12495.69
216.578	12686.81
216.652	12863.13
216.725	13020.03
216.799	13186.44
216.873	13345.37
216.946	13508.97
217.02	13668.39
217.093	13826.31
217.167	13968.03
217.24	14102.91
217.314	14254.8
217.387	14394.4
217.461	14538.15
217.535	14706.72
217.608	14849.4
217.682	15002.01
217.755	15157.71
217.829	15296.48
217.902	15433.04
217.976	15571.23
218.049	15696.36
218.123	15813.77
218.196	15954.13
218.27	16077.13
218.343	16198.16
218.417	16326.22
218.49	16453.27
218.563	16588.8
218.637	16710.54
218.71	16851.85
218.784	16984.29
218.857	17107.62
218.931	17236.4
219.004	17365.36
219.077	17492.26
219.151	17605.8
219.224	17720.64
219.298	17838.13
219.371	17964.83
219.444	18055.09
219.518	18161.4
219.591	18270.32
219.665	18395.27
219.738	18494.64
219.811	18599.36
219.885	18700.03
219.958	18808.75
220.031	18908.21
220.105	19002.52
220.178	19091.72
220.251	19174.08
220.325	19273.11
220.398	19373.01
220.471	19466.74
220.544	19559.75
220.618	19635.16
220.691	19726.92
220.764	19808.22
220.838	19882.24
220.911	19952.79
220.984	20064.35
221.057	20151.82
221.131	20221.02
221.204	20270.42
221.277	20350.47
221.35	20443.38
221.424	20512.98
221.497	20572.25
221.57	20628.83
221.643	20700.16
221.716	20774.72
221.79	20829.37
221.863	20889.9
221.936	20939.69
222.009	20985.61
222.082	21039.16
222.155	21081.04
222.229	21139.31
222.302	21196.09
222.375	21236.43
222.448	21277.21
222.521	21312.39
222.594	21353.55
222.667	21397.36
222.74	21445.71
222.814	21484.6
222.887	21509.62
222.96	21554.64
223.033	21599.08
223.106	21648.63
223.179	21684.83
223.252	21715.92
223.325	21755.78
223.398	21783.74
223.471	21815.94
223.544	21847.6
223.617	21872.04
223.69	21902.12
223.763	21921.45
223.837	21945.7
223.91	21971.68
223.983	21982.77
224.056	21998.38
224.129	22025.43
224.202	22057.67
224.275	22074.84
224.348	22079.51
224.42	22094.45
224.493	22093.83
224.566	22110.99
224.639	22126.61
224.712	22128.59
224.785	22137.07
224.858	22148.54
224.931	22148.3
225.004	22152.69
225.077	22167.68
225.15	22150.81
225.223	22160.59
225.296	22183.49
225.369	22163.05
225.442	22170.67
225.514	22185.37
225.587	22194.39
225.66	22194.48
225.733	22205.09
225.806	22212.95
225.879	22227.02
225.952	22222.06
226.025	22241
226.097	22249.3
226.17	22246.26
226.243	22227.12
226.316	22224.81
226.389	22219.36
226.461	22234.01
226.534	22241.63
226.607	22241.92
226.68	22260.53
226.753	22251.71
226.825	22225.67
226.898	22242.79
226.971	22225
227.044	22224.42
227.117	22218.2
227.189	22210.83
227.262	22200.41
227.335	22195.64
227.407	22172.79
227.48	22162.62
227.553	22151.34
227.626	22128.78
227.698	22116.29
227.771	22119.09
227.844	22099.71
227.916	22092.09
227.989	22055.41
228.062	22033.77
228.134	22028.7
228.207	22011.35
228.28	21987.44
228.352	21978.52
228.425	21957.85
228.498	21955.63
228.57	21937.12
228.643	21933.12
228.716	21921.88
228.788	21898.75
228.861	21880.81
228.934	21877.15
229.006	21865.2
229.079	21849.48
229.151	21835.6
229.224	21808.12
229.296	21791.74
229.369	21807.16
229.442	21809.38
229.514	21793.86
229.587	21788.89
229.659	21764.99
229.732	21762.29
229.804	21766.33
229.877	21768.99
229.949	21772.41
230.022	21780.41
230.094	21767.25
230.167	21752.94
230.239	21726.76
230.312	21708.93
230.384	21697.74
230.457	21699.29
230.529	21685.21
230.602	21667.72
230.674	21652.39
230.747	21649.01
230.819	21649.98
230.892	21602.4
230.964	21586.83
231.037	21577.05
231.109	21560.95
231.181	21543.79
231.254	21515.84
231.326	21493.86
231.399	21470.09
231.471	21439.87
231.544	21396.01
231.616	21377.41
231.688	21354.42
231.761	21330.03
231.833	21320
231.905	21285.4
231.978	21247.7
232.05	21231.41
232.122	21211.56
232.195	21184.18
232.267	21165.09
232.339	21131.12
232.412	21120.08
232.484	21076.36
232.556	21057.13
232.629	21038.67
232.701	21024.75
232.773	20996.55
232.846	20966.81
232.918	20941.99
232.99	20916.16
233.062	20889.36
233.135	20868.01
233.207	20822.76
233.279	20808.69
233.351	20779.33
233.424	20754.27
233.496	20730.27
233.568	20715.24
233.64	20678.46
233.713	20651.96
233.785	20625.88
233.857	20600.63
233.929	20561.98
234.001	20564.15
234.074	20546.85
234.146	20507.71
234.218	20485.88
234.29	20457.64
234.362	20425.26
234.434	20388.58
234.507	20349.45
234.579	20316.78
234.651	20286.9
234.723	20275.04
234.795	20247.62
234.867	20214.7
234.939	20197.74
235.012	20173.07
235.084	20154.56
235.156	20141.84
235.228	20110.71
235.3	20080.3
235.372	20056.3
235.444	20041.94
235.516	19988.16
235.588	19962.47
235.66	19933.84
235.732	19883.1
235.804	19906.52
235.876	19890.76
235.948	19874.18
236.02	19855.34
236.092	19828.16
236.164	19804.07
236.236	19769.66
236.308	19737.95
236.38	19717.66
236.452	19680.31
236.524	19645.38
236.596	19626.87
236.668	19596.66
236.74	19562.83
236.812	19535.79
236.884	19511.17
236.956	19478.45
237.028	19435.89
237.1	19392.04
237.172	19376.91
237.244	19360.28
237.316	19293.2
237.388	19251.52
237.46	19215.62
237.532	19190.41
237.604	19147.28
237.675	19115.53
237.747	19093.55
237.819	19057.8
237.891	19014.86
237.963	18972.88
238.035	18936.16
238.107	18861.42
238.178	18839.16
238.25	18805.04
238.322	18794.78
238.394	18746.54
238.466	18709.33
238.538	18690.69
238.609	18660.04
238.681	18602.4
238.753	18566.98
238.825	18533.97
238.897	18505.01
238.968	18474.31
239.04	18434.31
239.112	18429.5
239.184	18388.82
239.255	18346.85
239.327	18311.09
239.399	18275.86
239.471	18256.25
239.542	18221.7
239.614	18211.77
239.686	18147.87
239.758	18128.74
239.829	18081.85
239.901	18063.78
239.973	18026.91
240.044	17985.52
240.116	17958.19
240.188	17930
240.259	17892.8
240.331	17845.76
240.403	17814.92
240.474	17775.02
240.546	17731.21
240.618	17676.46
240.689	17651.89
240.761	17622.78
240.833	17608.37
240.904	17579.02
240.976	17537.96
241.048	17509.24
241.119	17474.15
241.191	17452.18
241.262	17430.01
241.334	17390.25
241.405	17348.71
241.477	17313.43
241.549	17288.37
241.62	17257
241.692	17236.99
241.763	17222.34
241.835	17195.45
241.906	17162.25
241.978	17112.56
242.049	17093.14
242.121	17069.28
242.192	17030.72
242.264	16975.11
242.335	16924.41
242.407	16897.32
242.478	16864.6
242.55	16838.38
242.621	16802.14
242.693	16763.14
242.764	16719.63
242.836	16676.44
242.907	16649.36
242.979	16623.28
243.05	16585.5
243.122	16550.22
243.193	16506.94
243.264	16448.23
243.336	16413.58
243.407	16385.19
243.479	16370.01
243.55	16336.22
243.622	16312.27
243.693	16281.52
243.764	16276.51
243.836	16234.24
243.907	16196.26
243.978	16161.75
244.05	16128.78
244.121	16077.21
244.192	16051.81
244.264	16006.79
244.335	15987.32
244.407	15933.57
244.478	15904.08
244.549	15871.25
244.62	15822.09
244.692	15789.55
244.763	15768.39
244.834	15728.05
244.906	15687.22
244.977	15661.68
245.048	15654.83
245.119	15607.31
245.191	15572.99
245.262	15510.57
245.333	15500.69
245.405	15464.97
245.476	15434.31
245.547	15406.84
245.618	15385.25
245.689	15357
245.761	15329.86
245.832	15287.98
245.903	15270.62
245.974	15238.91
246.045	15212.1
246.117	15195.72
246.188	15160.29
246.259	15115.65
246.33	15085.86
246.401	15053.66
246.473	15003
246.544	14952.24
246.615	14932.09
246.686	14886.35
246.757	14873.96
246.828	14824.45
246.899	14809.22
246.97	14765.55
247.042	14724.58
247.113	14694.06
247.184	14676.42
247.255	14638.72
247.326	14615.92
247.397	14588.16
247.468	14552.29
247.539	14520.29
247.61	14484.28
247.681	14459.88
247.752	14443.83
247.823	14400.88
247.894	14381.5
247.965	14348.43
248.037	14318.59
248.108	14284.51
248.179	14261.66
248.25	14231.2
248.321	14217.12
248.392	14174.12
248.463	14165.35
248.534	14133.97
248.605	14121.1
248.675	14087.88
248.746	14069.08
248.817	14042.86
248.888	14009.16
248.959	13979.13
249.03	13961.2
249.101	13931.74
249.172	13898.29
249.243	13847.33
249.314	13838.08
249.385	13804.14
249.456	13776.37
249.527	13744.36
249.598	13717.71
249.669	13690.42
249.739	13668.34
249.81	13639.23
249.881	13602.06
249.952	13572.36
250.023	13552.45
250.094	13508.97
250.165	13476.82
250.235	13448.81
250.306	13422.1
250.377	13387.49
250.448	13362.76
250.519	13320.1
250.59	13308.34
250.66	13282.4
250.731	13270.06
250.802	13242.87
250.873	13222.09
250.944	13206.28
251.014	13177.26
251.085	13173.6
251.156	13154.17
251.227	13139.08
251.297	13118.98
251.368	13107.7
251.439	13093
251.51	13072.08
251.58	13035.54
251.651	13007.05
251.722	12985.64
251.792	12944.72
251.863	12915.74
251.934	12905.43
252.005	12906.49
252.075	12880.51
252.146	12866.81
252.217	12860.26
252.287	12851.49
252.358	12825.36
252.429	12816.34
252.499	12783.85
252.57	12754.74
252.641	12738.11
252.711	12710.97
252.782	12676.98
252.852	12673.17
252.923	12646.8
252.994	12625.79
253.064	12617.93
253.135	12587.8
253.205	12560.13
253.276	12552.08
253.347	12551.75
253.417	12517.52
253.488	12479.15
253.558	12458.76
253.629	12431.62
253.699	12409.88
253.77	12388.28
253.841	12366.69
253.911	12346.59
253.982	12328.61
254.052	12311.83
254.123	12293.9
254.193	12271.34
254.264	12284.79
254.334	12251.63
254.405	12223.33
254.475	12195.81
254.546	12175.08
254.616	12166.93
254.687	12149.58
254.757	12132.23
254.827	12108.71
254.898	12098.83
254.968	12077.71
255.039	12043.73
255.109	12033.42
255.18	11994.9
255.25	11956.63
255.321	11937.83
255.391	11897.83
255.461	11897.35
255.532	11854.69
255.602	11828.03
255.673	11792.56
255.743	11754.67
255.813	11714.47
255.884	11703.49
255.954	11686.28
256.024	11677.55
256.095	11651.48
256.165	11622.08
256.235	11606.65
256.306	11578.27
256.376	11564.1
256.446	11552.48
256.517	11537.15
256.587	11523.9
256.657	11515.61
256.728	11497.92
256.798	11482.59
256.868	11468.52
256.938	11440.13
257.009	11432.86
257.079	11417.63
257.149	11424.9
257.219	11392.95
257.29	11382.06
257.36	11348.13
257.43	11338.97
257.5	11295.5
257.571	11272.13
257.641	11263.55
257.711	11237.04
257.781	11224.03
257.852	11213.86
257.922	11182.05
257.992	11164.27
258.062	11143.98
258.132	11132.03
258.202	11106.92
258.273	11088.51
258.343	11079.69
258.413	11056.37
258.483	11037.43
258.553	11011.02
258.623	10976.28
258.693	10964.66
258.764	10957.48
258.834	10950.45
258.904	10926.5
258.974	10913.1
259.044	10900.67
259.114	10886.65
259.184	10868.04
259.254	10844
259.324	10797.93
259.394	10785.74
259.464	10791.67
259.535	10763.86
259.605	10739.87
259.675	10715.39
259.745	10694.62
259.815	10665.76
259.885	10645.96
259.955	10655.55
260.025	10636.61
260.095	10622.73
260.165	10612.28
260.235	10609.39
260.305	10584.81
260.375	10557.35
260.445	10561.11
260.515	10554.94
260.585	10544.82
260.655	10531.67
260.725	10523.53
260.795	10518.61
260.865	10520.1
260.934	10489.8
261.004	10480.5
261.074	10465.85
261.144	10476.88
261.214	10474.28
261.284	10465.27
261.354	10456.5
261.424	10423.98
261.494	10423.21
261.564	10407.64
261.634	10399.07
261.703	10365.68
261.773	10358.26
261.843	10348.48
261.913	10329.02
261.983	10299.63
262.053	10288.93
262.123	10264.41
262.192	10238.45
