Data from 20250702_urea_2M_MAYP1162681_11-36-46-265.txt Node
Date: Wed Jul 02 11:36:46 BST 2025
User: adleo
Spectrometer: MAYP116268
Trigger mode: 0
Integration Time (sec): 1.000000E0
Scans to average: 1
Electric dark correction enabled: true
Nonlinearity correction enabled: true
Boxcar width: 10
XAxis mode: Wavelengths
Number of Pixels in Spectrum: 2068
>>>>>Begin Spectral Data<<<<<
179.565	1020.63
179.642	1068.66
179.718	1106.69
179.795	1137
179.871	1161.42
179.948	1175.74
180.024	1191.78
180.101	1210.85
180.177	1221.52
180.254	1240.39
180.33	1258.7
180.407	1299.7
180.483	1382.23
180.56	1457.81
180.636	1527.83
180.712	1517
180.789	1525.6
180.865	1535.09
180.942	1543.5
181.018	1551.57
181.095	1561.78
181.171	1567.86
181.248	1567.2
181.324	1578.46
181.4	1583.3
181.477	1594.85
181.553	1604.53
181.63	1622.73
181.706	1633.42
181.782	1642.3
181.859	1640.68
181.935	1647.28
182.011	1642.87
182.088	1655.98
182.164	1673.61
182.24	1684.11
182.317	1691.76
182.393	1689.67
182.469	1703.82
182.546	1714.99
182.622	1720.26
182.698	1716.03
182.775	1726.49
182.851	1738.75
182.927	1731.81
183.003	1730.48
183.08	1723.97
183.156	1736.04
183.232	1732.57
183.308	1725.77
183.385	1730.72
183.461	1745.11
183.537	1744.49
183.613	1754.85
183.69	1748.49
183.766	1739.36
183.842	1748.86
183.918	1752.85
183.995	1766.73
184.071	1767.21
184.147	1762.07
184.223	1755.19
184.299	1768.35
184.375	1755.66
184.452	1761.89
184.528	1812.85
184.604	1822.82
184.68	1834.42
184.756	1839.32
184.832	1845.45
184.908	1850.86
184.985	1851.62
185.061	1841.12
185.137	1850.91
185.213	1842.93
185.289	1844.92
185.365	1839.17
185.441	1836.04
185.517	1848.73
185.593	1843.64
185.669	1843.93
185.745	1853.1
185.822	1866.79
185.898	1857.09
185.974	1867.11
186.05	1860.36
186.126	1826
186.202	1819.11
186.278	1816.4
186.354	1808.6
186.43	1813.26
186.506	1812.07
186.582	1812.98
186.658	1818.01
186.734	1798.48
186.81	1797.15
186.886	1796.15
186.962	1805.37
187.038	1805.04
187.114	1799.14
187.19	1806.04
187.266	1797.25
187.341	1797.86
187.417	1792.02
187.493	1791.12
187.569	1797.34
187.645	1793.02
187.721	1780.28
187.797	1787.6
187.873	1789.16
187.949	1782.42
188.025	1777.19
188.101	1778.28
188.176	1782.7
188.252	1780.51
188.328	1787.12
188.404	1789.78
188.48	1786.26
188.556	1778.66
188.632	1775.95
188.707	1777.38
188.783	1775.66
188.859	1772.86
188.935	1761.36
189.011	1767.21
189.086	1764.12
189.162	1753.66
189.238	1749.91
189.314	1748.62
189.39	1744.44
189.465	1740.02
189.541	1755.04
189.617	1741.88
189.693	1737.56
189.768	1738.27
189.844	1759.43
189.92	1754.58
189.996	1761.9
190.071	1772.21
190.147	1774.73
190.223	1782.9
190.298	1774.25
190.374	1763.18
190.45	1770.92
190.526	1782.66
190.601	1779.38
190.677	1778.77
190.753	1802.64
190.828	1805.53
190.904	1818.18
190.98	1829.11
191.055	1838
191.131	1830.15
191.207	1848.64
191.282	1857.53
191.358	1849.92
191.433	1835.99
191.509	1847.73
191.585	1844.73
191.66	1845.02
191.736	1851.86
191.811	1843.54
191.887	1857.28
191.963	1877.01
192.038	1881.19
192.114	1878.77
192.189	1878.81
192.265	1877.2
192.34	1857.37
192.416	1857.37
192.491	1855.14
192.567	1859.08
192.642	1861.6
192.718	1860.22
192.793	1850.81
192.869	1846.39
192.944	1851
193.02	1858.18
193.095	1859.84
193.171	1863.31
193.246	1861.65
193.322	1859.61
193.397	1860.84
193.473	1849.95
193.548	1831.94
193.624	1838.02
193.699	1837.21
193.775	1853.71
193.85	1855.23
193.925	1862.65
194.001	1860.99
194.076	1851.38
194.152	1843.97
194.227	1837.74
194.302	1829
194.378	1830.52
194.453	1830.38
194.529	1839.07
194.604	1825.05
194.679	1817.02
194.755	1800.15
194.83	1811.76
194.905	1806.05
194.981	1813.66
195.056	1807.91
195.131	1815.23
195.207	1812.66
195.282	1805.39
195.357	1787.99
195.433	1800.91
195.508	1792.55
195.583	1800.01
195.659	1816.79
195.734	1821.54
195.809	1819.55
195.884	1829.38
195.96	1829.81
196.035	1841.6
196.11	1838.94
196.185	1850.53
196.261	1854.86
196.336	1885.61
196.411	1873.44
196.486	1878.9
196.561	1872.58
196.637	1880
196.712	1894.21
196.787	1897.73
196.862	1911.28
196.937	1920.64
197.013	1924.88
197.088	1932.2
197.163	1950.55
197.238	1962.59
197.313	1960.83
197.388	1975.09
197.464	2003.25
197.539	2011.76
197.614	2005.72
197.689	2018.52
197.764	2033.22
197.839	2051.19
197.914	2041.11
197.989	2057.7
198.065	2071.83
198.14	2117.42
198.215	2139.49
198.29	2148.24
198.365	2158.94
198.44	2168.74
198.515	2191.82
198.59	2205.61
198.665	2228.74
198.74	2237.64
198.815	2238.64
198.89	2260.81
198.965	2282.56
199.04	2276.8
199.115	2292.64
199.19	2330.85
199.265	2327.71
199.34	2336.04
199.415	2365.09
199.49	2385.5
199.565	2394.49
199.64	2414.15
199.715	2410.53
199.79	2417.48
199.865	2423.81
199.94	2423.76
200.015	2451.57
200.09	2456.71
200.165	2463.52
200.24	2471.71
200.315	2507.07
200.39	2517.54
200.464	2519.35
200.539	2523.59
200.614	2540.21
200.689	2560.59
200.764	2565.64
200.839	2586.11
200.914	2590.3
200.989	2581.82
201.063	2594.44
201.138	2579.92
201.213	2579.83
201.288	2560.78
201.363	2564.69
201.438	2566.21
201.512	2581.63
201.587	2567.06
201.662	2570.34
201.737	2582.54
201.812	2588.16
201.886	2556.85
201.961	2567.71
202.036	2558.19
202.111	2555.47
202.186	2529.34
202.26	2516.58
202.335	2497.15
202.41	2488.96
202.485	2474.11
202.559	2456.49
202.634	2433.31
202.709	2441.25
202.784	2426.54
202.858	2429.21
202.933	2411.12
203.008	2405.36
203.082	2384.65
203.157	2382.7
203.232	2344.68
203.306	2324.21
203.381	2296.41
203.456	2278.04
203.53	2257.22
203.605	2239.63
203.68	2218.63
203.754	2210.27
203.829	2193.85
203.904	2176.62
203.978	2168.01
204.053	2172.34
204.127	2161.3
204.202	2160.16
204.277	2149.03
204.351	2140.66
204.426	2134.66
204.5	2128.29
204.575	2098.04
204.65	2108.46
204.724	2099.37
204.799	2105.31
204.873	2103.55
204.948	2103.03
205.022	2091.57
205.097	2085.24
205.171	2099.22
205.246	2107.64
205.32	2107.59
205.395	2106.17
205.469	2099.7
205.544	2102.37
205.618	2083.67
205.693	2097.66
205.767	2087.24
205.842	2107.7
205.916	2103.28
205.991	2094.62
206.065	2096.95
206.14	2107.51
206.214	2105.7
206.289	2098.99
206.363	2113.4
206.438	2113.64
206.512	2120.49
206.586	2139.09
206.661	2147.27
206.735	2127.3
206.81	2125.97
206.884	2139.76
206.958	2129.68
207.033	2143.33
207.107	2150.61
207.181	2181.39
207.256	2175.73
207.33	2193.29
207.405	2199.28
207.479	2215.94
207.553	2221.45
207.628	2212.51
207.702	2226.83
207.776	2217.93
207.851	2222.45
207.925	2234.02
207.999	2232.26
208.073	2231.36
208.148	2232.88
208.222	2220.13
208.296	2250.66
208.371	2268.14
208.445	2277.46
208.519	2305.68
208.593	2316.15
208.668	2315.05
208.742	2314.29
208.816	2315.43
208.89	2327.57
208.965	2323.9
209.039	2332.66
209.113	2346.8
209.187	2366.63
209.261	2361.31
209.336	2379.53
209.41	2398.53
209.484	2396
209.558	2417.14
209.632	2428.04
209.707	2438.13
209.781	2461.74
209.855	2470.22
209.929	2483.52
210.003	2490.18
210.077	2489.47
210.151	2534.46
210.226	2563.42
210.3	2591.87
210.374	2614.06
210.448	2618.73
210.522	2634.88
210.596	2644.4
210.67	2655.5
210.744	2697.91
210.818	2726.48
210.892	2747.49
210.966	2744.68
211.041	2764.02
211.115	2760.59
211.189	2783.74
211.263	2804.18
211.337	2813.76
211.411	2832.48
211.485	2831.91
211.559	2847.97
211.633	2854.68
211.707	2833.7
211.781	2847.15
211.855	2826.94
211.929	2827.37
212.003	2823.55
212.077	2841.67
212.151	2866.04
212.225	2890.25
212.299	2894.36
212.373	2903.22
212.447	2917.77
212.52	2960.39
212.594	2987.05
212.668	3020.66
212.742	3038.83
212.816	3061.01
212.89	3083.52
212.964	3115.11
213.038	3152.71
213.112	3200.81
213.186	3251.85
213.26	3275.07
213.333	3278.32
213.407	3324.26
213.481	3379.07
213.555	3445.87
213.629	3486.84
213.703	3528.72
213.777	3581.93
213.85	3629.08
213.924	3728.34
213.998	3800.03
214.072	3869.92
214.146	3930
214.219	4008.26
214.293	4084.6
214.367	4170.49
214.441	4270.16
214.515	4351.64
214.588	4428
214.662	4495.95
214.736	4577.86
214.81	4685.31
214.883	4801.53
214.957	4901.85
215.031	5002.83
215.105	5090.4
215.178	5198.82
215.252	5311.94
215.326	5416.85
215.4	5526.22
215.473	5610.55
215.547	5719.57
215.621	5838.57
215.694	5985.41
215.768	6101.24
215.842	6228.28
215.915	6353.92
215.989	6473.53
216.063	6611.13
216.136	6755.65
216.21	6901.56
216.284	7062.8
216.357	7212.86
216.431	7355.97
216.504	7518.35
216.578	7691.82
216.652	7859.64
216.725	8014.54
216.799	8179.83
216.873	8339.48
216.946	8502.32
217.02	8657.15
217.093	8815.57
217.167	8959.88
217.24	9106.1
217.314	9266.78
217.387	9421.22
217.461	9583.36
217.535	9757.64
217.608	9908.53
217.682	10074.28
217.755	10249.62
217.829	10408.45
217.902	10569.75
217.976	10737.41
218.049	10888.17
218.123	11035.73
218.196	11197.73
218.27	11356.9
218.343	11505.24
218.417	11672.67
218.49	11833.07
218.563	12010.67
218.637	12174.5
218.71	12356.21
218.784	12514.03
218.857	12681.48
218.931	12845.51
219.004	12996.24
219.077	13143.65
219.151	13294.58
219.224	13435.68
219.298	13582.41
219.371	13733.78
219.444	13871.26
219.518	14016.12
219.591	14164.69
219.665	14321.3
219.738	14464.57
219.811	14590.28
219.885	14733.4
219.958	14876.47
220.031	15003.39
220.105	15136.48
220.178	15265.13
220.251	15374.5
220.325	15500.49
220.398	15629.53
220.471	15750.94
220.544	15883.11
220.618	15998.02
220.691	16124.2
220.764	16244.36
220.838	16351.36
220.911	16456
220.984	16578.37
221.057	16688.64
221.131	16793.37
221.204	16873.76
221.277	16988.18
221.35	17124.81
221.424	17227.56
221.497	17316.52
221.57	17416.09
221.643	17509.59
221.716	17608.29
221.79	17700.62
221.863	17796.28
221.936	17872.72
222.009	17955.8
222.082	18042.78
222.155	18128.81
222.229	18223.4
222.302	18306.49
222.375	18387.4
222.448	18464.65
222.521	18537.7
222.594	18615.15
222.667	18683.67
222.74	18776.63
222.814	18850.17
222.887	18910.98
222.96	18986.84
223.033	19060.61
223.106	19128.76
223.179	19191.84
223.252	19254.05
223.325	19318.53
223.398	19373.85
223.471	19445.65
223.544	19502.61
223.617	19547.09
223.69	19600.54
223.763	19643.95
223.837	19698.75
223.91	19758.89
223.983	19794.41
224.056	19840.48
224.129	19886.98
224.202	19945.1
224.275	19975.12
224.348	20005.38
224.42	20029.53
224.493	20054.83
224.566	20089.48
224.639	20131.12
224.712	20152.17
224.785	20181.86
224.858	20208.9
224.931	20242.2
225.004	20253.04
225.077	20283.3
225.15	20296.46
225.223	20332.41
225.296	20383.21
225.369	20394.97
225.442	20419.64
225.514	20454.78
225.587	20480.75
225.66	20508.9
225.733	20534.2
225.806	20565.76
225.879	20576.17
225.952	20590.78
226.025	20623.16
226.097	20657.91
226.17	20679.45
226.243	20691.02
226.316	20703.55
226.389	20721.67
226.461	20739.65
226.534	20767.65
226.607	20778.54
226.68	20816.42
226.753	20828.13
226.825	20810.69
226.898	20831.79
226.971	20830.4
227.044	20845.72
227.117	20858.98
227.189	20865.77
227.262	20879.85
227.335	20879.36
227.407	20900.38
227.48	20917.39
227.553	20928.76
227.626	20924.81
227.698	20934.31
227.771	20950.55
227.844	20950.21
227.916	20962.4
227.989	20955.56
228.062	20958.55
228.134	20990.55
228.207	20987.08
228.28	20982.16
228.352	20989.1
228.425	20991.51
228.498	21002.45
228.57	20988.53
228.643	21006.12
228.716	21009.39
228.788	21007.76
228.861	21009.11
228.934	21024.14
229.006	21031.42
229.079	21015.13
229.151	21011.42
229.224	20993.68
229.296	21005.44
229.369	21027.08
229.442	21047.28
229.514	21038.51
229.587	21046.6
229.659	21020.67
229.732	21029.4
229.804	21046.12
229.877	21070.75
229.949	21089.35
230.022	21115.43
230.094	21131.43
230.167	21122.61
230.239	21117.12
230.312	21116.15
230.384	21140.2
230.457	21139.05
230.529	21129.21
230.602	21128.39
230.674	21132.39
230.747	21139.29
230.819	21133.94
230.892	21109.12
230.964	21101.36
231.037	21100.97
231.109	21091.72
231.181	21097.31
231.254	21078.03
231.326	21057.59
231.399	21033.06
231.471	21010.17
231.544	20972.14
231.616	20954.5
231.688	20943.95
231.761	20919.41
231.833	20899.61
231.905	20870.69
231.978	20854.3
232.05	20843.22
232.122	20841.87
232.195	20814.73
232.267	20812.85
232.339	20796.52
232.412	20807.65
232.484	20783.12
232.556	20759.65
232.629	20768.66
232.701	20771.26
232.773	20759.89
232.846	20747.6
232.918	20740.27
232.99	20731.36
233.062	20725.91
233.135	20721.96
233.207	20697.67
233.279	20699.02
233.351	20689.67
233.424	20672.51
233.496	20642.68
233.568	20654.2
233.64	20626.78
233.713	20616.75
233.785	20594.15
233.857	20586.1
233.929	20550.87
234.001	20555.79
234.074	20564.17
234.146	20526.2
234.218	20497.47
234.29	20480.22
234.362	20459.55
234.434	20424.75
234.507	20395.83
234.579	20362.77
234.651	20342.34
234.723	20335.26
234.795	20326.53
234.867	20309.14
234.939	20297.04
235.012	20283.06
235.084	20259.98
235.156	20252.27
235.228	20231.16
235.3	20212.27
235.372	20191.26
235.444	20190.73
235.516	20150.01
235.588	20134.63
235.66	20119.64
235.732	20092.46
235.804	20123.93
235.876	20106.39
235.948	20107.98
236.02	20094.35
236.092	20083.02
236.164	20060.42
236.236	20038.59
236.308	20010.44
236.38	19987.17
236.452	19956.71
236.524	19931.8
236.596	19920.42
236.668	19903.03
236.74	19877.1
236.812	19861.25
236.884	19847.56
236.956	19821.73
237.028	19784
237.1	19752.72
237.172	19733.78
237.244	19727.23
237.316	19670.02
237.388	19641.35
237.46	19613.26
237.532	19595.67
237.604	19559.77
237.675	19549.5
237.747	19518.61
237.819	19481.31
237.891	19460.45
237.963	19432.4
238.035	19409.27
238.107	19348.64
238.178	19330.77
238.25	19305.9
238.322	19287.01
238.394	19236.31
238.466	19205.04
238.538	19184.9
238.609	19153.77
238.681	19110.97
238.753	19068.57
238.825	19035.94
238.897	19008.33
238.968	18992.47
239.04	18954.16
239.112	18939.61
239.184	18893.59
239.255	18866.31
239.327	18848.82
239.399	18822.56
239.471	18798.27
239.542	18777.35
239.614	18763.81
239.686	18703.43
239.758	18683.91
239.829	18648.3
239.901	18634.04
239.973	18599.63
240.044	18577.61
240.116	18553.99
240.188	18523.1
240.259	18496.94
240.331	18462.82
240.403	18437.37
240.474	18389.71
240.546	18358.54
240.618	18319.26
240.689	18294.2
240.761	18269.53
240.833	18246.93
240.904	18216.23
240.976	18180.81
241.048	18147.17
241.119	18121.87
241.191	18100.96
241.262	18084.91
241.334	18055.18
241.405	18021.92
241.477	17977.78
241.549	17933.98
241.62	17903.71
241.692	17884.24
241.763	17859.18
241.835	17824.39
241.906	17796.34
241.978	17748.53
242.049	17726.56
242.121	17708.87
242.192	17689.02
242.264	17638.46
242.335	17592.83
242.407	17560.73
242.478	17531.33
242.55	17499.14
242.621	17458.8
242.693	17422.46
242.764	17376.3
242.836	17339.33
242.907	17308.83
242.979	17296.34
243.05	17278.66
243.122	17248.1
243.193	17208.97
243.264	17153.93
243.336	17124.15
243.407	17098.32
243.479	17091.71
243.55	17063.04
243.622	17027.47
243.693	16989.88
243.764	16984.29
243.836	16942.26
243.907	16910.21
243.978	16878.79
244.05	16852.48
244.121	16803.7
244.192	16781.44
244.264	16735.99
244.335	16711.84
244.407	16669.14
244.478	16633.91
244.549	16594.34
244.62	16552.94
244.692	16517.9
244.763	16497.27
244.834	16465.99
244.906	16424.21
244.977	16393.84
245.048	16371.91
245.119	16336.58
245.191	16301.83
245.262	16242.79
245.333	16245.3
245.405	16212.28
245.476	16184.47
245.547	16148.85
245.618	16131.94
245.689	16100.51
245.761	16082.73
245.832	16044.6
245.903	16027.11
245.974	16004.07
246.045	15975.87
246.117	15964.5
246.188	15921.36
246.259	15889.01
246.33	15858.17
246.401	15824.76
246.473	15781.24
246.544	15741.52
246.615	15714.24
246.686	15677.42
246.757	15662.28
246.828	15603.04
246.899	15584.39
246.97	15539.76
247.042	15509.63
247.113	15489.53
247.184	15482.88
247.255	15441.38
247.326	15417.52
247.397	15374.28
247.468	15343.14
247.539	15312.2
247.61	15271.85
247.681	15260.72
247.752	15247.9
247.823	15208.22
247.894	15179.54
247.965	15132.06
248.037	15097.89
248.108	15058.17
248.179	15030.64
248.25	14998.64
248.321	14979.16
248.392	14938.29
248.463	14935.25
248.534	14902.23
248.605	14872.59
248.675	14834.89
248.746	14819.56
248.817	14792.52
248.888	14772.76
248.959	14724.65
249.03	14706.81
249.101	14674.9
249.172	14644.1
249.243	14591.6
249.314	14575.26
249.385	14552.9
249.456	14541.13
249.527	14508.4
249.598	14490.61
249.669	14459.86
249.739	14438.22
249.81	14412.67
249.881	14373.09
249.952	14339.78
250.023	14314.67
250.094	14271.71
250.165	14236.81
250.235	14205.53
250.306	14171.74
250.377	14135.05
250.448	14115.77
250.519	14065.54
250.59	14056.52
250.66	14022.3
250.731	14015.65
250.802	13983.83
250.873	13964.35
250.944	13936.83
251.014	13914.27
251.085	13905.98
251.156	13889.59
251.227	13874.45
251.297	13860.71
251.368	13849.24
251.439	13829.81
251.51	13811.78
251.58	13780.83
251.651	13747.76
251.722	13732.38
251.792	13698.45
251.863	13673.77
251.934	13665.18
252.005	13666.49
252.075	13635.87
252.146	13623.58
252.217	13598.66
252.287	13589.02
252.358	13559.56
252.429	13550.07
252.499	13512.9
252.57	13487.35
252.641	13467.63
252.711	13447.1
252.782	13412.15
252.852	13399.52
252.923	13373.92
252.994	13358.25
253.064	13348.42
253.135	13326.2
253.205	13297.22
253.276	13289.94
253.347	13278.23
253.417	13241.79
253.488	13214.89
253.558	13180.18
253.629	13155.16
253.699	13144.17
253.77	13127.63
253.841	13105.94
253.911	13088.06
253.982	13075.23
254.052	13061.98
254.123	13038.21
254.193	13009.05
254.264	13017.24
254.334	12982.97
254.405	12948.02
254.475	12908.15
254.546	12885.3
254.616	12868.48
254.687	12849.63
254.757	12836.66
254.827	12809.91
254.898	12793.61
254.968	12772.07
255.039	12744.88
255.109	12728.54
255.18	12691.56
255.25	12644.08
255.321	12628.03
255.391	12586.77
255.461	12587.25
255.532	12542.8
255.602	12521.74
255.673	12488.14
255.743	12458.44
255.813	12416.65
255.884	12407.54
255.954	12396.41
256.024	12393.13
256.095	12370.33
256.165	12333.41
256.235	12309.59
256.306	12296.53
256.376	12285.88
256.446	12273.78
256.517	12266.74
256.587	12255.51
256.657	12243.02
256.728	12231.17
256.798	12212.03
256.868	12191.64
256.938	12155.15
257.009	12143.77
257.079	12127.1
257.149	12132.78
257.219	12088.29
257.29	12078.8
257.36	12046.7
257.43	12028.86
257.5	11991.17
257.571	11974.3
257.641	11969.86
257.711	11933.86
257.781	11912.31
257.852	11896.5
257.922	11858.9
257.992	11836.01
258.062	11809.74
258.132	11787.57
258.202	11765.11
258.273	11740.48
258.343	11746.55
258.413	11725.01
258.483	11702.06
258.553	11675.22
258.623	11642.15
258.693	11629.28
258.764	11628.8
258.834	11624.56
258.904	11607.5
258.974	11582.92
259.044	11555.83
259.114	11534.29
259.184	11534.04
259.254	11514.57
259.324	11482.43
259.394	11473.89
259.464	11467.73
259.535	11454.23
259.605	11439.14
259.675	11419.77
259.745	11406.18
259.815	11371.67
259.885	11344.83
259.955	11354.23
260.025	11326.37
260.095	11308.25
260.165	11294.27
260.235	11285.02
260.305	11252.15
260.375	11227.14
260.445	11228.35
260.515	11227.38
260.585	11221.84
260.655	11193.31
260.725	11186.95
260.795	11173.55
260.865	11169.89
260.934	11145.5
261.004	11129.21
261.074	11110.61
261.144	11101.41
261.214	11095.43
261.284	11082.27
261.354	11072.68
261.424	11042.08
261.494	11047.67
261.564	11033.93
261.634	11028.59
261.703	10993.6
261.773	10986.85
261.843	10977.79
261.913	10952.59
261.983	10916.64
262.053	10907.73
262.123	10893.18
262.192	10865.08
262.262	10860.41
262.332	10826.05
