Data from 20250702_urea_0.1M_MAYP1162681_11-47-52-207.txt Node
Date: Wed Jul 02 11:47:52 BST 2025
User: adleo
Spectrometer: MAYP116268
Trigger mode: 0
Integration Time (sec): 1.000000E0
Scans to average: 1
Electric dark correction enabled: true
Nonlinearity correction enabled: true
Boxcar width: 10
XAxis mode: Wavelengths
Number of Pixels in Spectrum: 2068
>>>>>Begin Spectral Data<<<<<
179.565	1018.86
179.642	1063.75
179.718	1096.52
179.795	1129.88
179.871	1155.93
179.948	1172.44
180.024	1190.93
180.101	1211.18
180.177	1223.64
180.254	1242.23
180.33	1261.43
180.407	1300.96
180.483	1380.25
180.56	1456.31
180.636	1526.86
180.712	1514.41
180.789	1522.82
180.865	1531.08
180.942	1537.68
181.018	1547.27
181.095	1561.29
181.171	1565.04
181.248	1567.32
181.324	1584.42
181.4	1588.93
181.477	1597.34
181.553	1604.51
181.63	1622.23
181.706	1635.25
181.782	1640.33
181.859	1641.09
181.935	1646.55
182.011	1642.8
182.088	1660.38
182.164	1675.4
182.24	1685.75
182.317	1697.77
182.393	1695.2
182.469	1708.46
182.546	1720.38
182.622	1723.09
182.698	1718.15
182.775	1729.46
182.851	1742.24
182.927	1732.26
183.003	1729.08
183.08	1724.71
183.156	1735.35
183.232	1731.55
183.308	1720.43
183.385	1728.27
183.461	1743.28
183.537	1741.48
183.613	1752.79
183.69	1744.52
183.766	1736.77
183.842	1742.9
183.918	1744.8
183.995	1757.11
184.071	1759.01
184.147	1756.2
184.223	1746.42
184.299	1756.16
184.375	1745.57
184.452	1748.89
184.528	1801.56
184.604	1811.68
184.68	1825.94
184.756	1833.59
184.832	1836.92
184.908	1841.1
184.985	1844.66
185.061	1830.79
185.137	1841.86
185.213	1830.5
185.289	1830.74
185.365	1824.18
185.441	1824.14
185.517	1838.11
185.593	1835.41
185.669	1834.6
185.745	1841.35
185.822	1856.22
185.898	1851.8
185.974	1858.97
186.05	1854.55
186.126	1815
186.202	1806.54
186.278	1799.84
186.354	1789.33
186.43	1796.94
186.506	1795.42
186.582	1791.67
186.658	1796.46
186.734	1778.93
186.81	1783.2
186.886	1786.34
186.962	1798.36
187.038	1793.42
187.114	1784.67
187.19	1791.99
187.266	1782.44
187.341	1782.11
187.417	1776.26
187.493	1775.03
187.569	1779.73
187.645	1774.93
187.721	1766.62
187.797	1777.02
187.873	1781.4
187.949	1775.12
188.025	1770.18
188.101	1773.46
188.176	1776.17
188.252	1775.64
188.328	1780.87
188.404	1780.35
188.48	1776.21
188.556	1768.89
188.632	1769.89
188.707	1770.08
188.783	1766.56
188.859	1763.14
188.935	1754.26
189.011	1762.48
189.086	1754.45
189.162	1747.46
189.238	1745.09
189.314	1743.99
189.39	1739.52
189.465	1731.35
189.541	1748.84
189.617	1732.11
189.693	1726.98
189.768	1732.12
189.844	1749.04
189.92	1741.39
189.996	1749.04
190.071	1759.93
190.147	1759.59
190.223	1765.3
190.298	1760.02
190.374	1750
190.45	1760.73
190.526	1768.86
190.601	1763.73
190.677	1766.05
190.753	1790.26
190.828	1792.73
190.904	1805.89
190.98	1817.97
191.055	1830.47
191.131	1822.34
191.207	1842.58
191.282	1851.13
191.358	1843.2
191.433	1830.88
191.509	1841.81
191.585	1839.43
191.66	1837.48
191.736	1843.57
191.811	1837.34
191.887	1851.7
191.963	1871.47
192.038	1877.51
192.114	1877.89
192.189	1880.88
192.265	1877.18
192.34	1857.35
192.416	1856.59
192.491	1854.02
192.567	1855.73
192.642	1856.92
192.718	1857.11
192.793	1846.56
192.869	1843.37
192.944	1843.28
193.02	1853.93
193.095	1858.68
193.171	1861.53
193.246	1864.1
193.322	1860.01
193.397	1860.82
193.473	1847.32
193.548	1831.01
193.624	1836.39
193.699	1833.44
193.775	1846.75
193.85	1851.12
193.925	1857.73
194.001	1857.3
194.076	1848.46
194.152	1838.67
194.227	1830.97
194.302	1822.41
194.378	1823.65
194.453	1821.18
194.529	1833.68
194.604	1817.52
194.679	1812.43
194.755	1795.9
194.83	1804.41
194.905	1804.93
194.981	1814.58
195.056	1813.01
195.131	1820.66
195.207	1818.76
195.282	1811.16
195.357	1796.04
195.433	1809.4
195.508	1799.08
195.583	1805.5
195.659	1819.9
195.734	1825.56
195.809	1824.37
195.884	1831.36
195.96	1835.49
196.035	1850.61
196.11	1847.99
196.185	1858.83
196.261	1862.34
196.336	1892.15
196.411	1880.59
196.486	1885.96
196.561	1881.97
196.637	1886.77
196.712	1898.66
196.787	1899.66
196.862	1915.82
196.937	1923.75
197.013	1928.51
197.088	1939.16
197.163	1958.09
197.238	1972.46
197.313	1974.17
197.388	1988.15
197.464	2015.44
197.539	2025.05
197.614	2018.16
197.689	2029.81
197.764	2040.98
197.839	2058.58
197.914	2053.49
197.989	2075.18
198.065	2085.88
198.14	2129.52
198.215	2152.21
198.29	2162.2
198.365	2174.28
198.44	2182.42
198.515	2210.87
198.59	2221.72
198.665	2242.32
198.74	2248.89
198.815	2249.98
198.89	2270.01
198.965	2295
199.04	2291.86
199.115	2306.23
199.19	2342.77
199.265	2341.59
199.34	2351.25
199.415	2381.01
199.49	2400.99
199.565	2406.66
199.64	2430.6
199.715	2426.6
199.79	2434.93
199.865	2441.17
199.94	2440.5
200.015	2467.26
200.09	2468.54
200.165	2475.73
200.24	2483.02
200.315	2520.19
200.39	2533.52
200.464	2538.38
200.539	2541.33
200.614	2557.23
200.689	2577.24
200.764	2584.43
200.839	2604.13
200.914	2609.99
200.989	2598.46
201.063	2609.7
201.138	2596.52
201.213	2593.14
201.288	2579.04
201.363	2584.14
201.438	2582.18
201.512	2598.56
201.587	2583.75
201.662	2587.27
201.737	2599.89
201.812	2607.99
201.886	2577.96
201.961	2584.83
202.036	2576.92
202.111	2574.97
202.186	2552.07
202.26	2539.07
202.335	2524.49
202.41	2521.59
202.485	2511.02
202.559	2502.78
202.634	2485.12
202.709	2497.01
202.784	2486.82
202.858	2493.78
202.933	2483.3
203.008	2488.82
203.082	2480.25
203.157	2489.3
203.232	2465.4
203.306	2460.55
203.381	2448.3
203.456	2443.59
203.53	2442.45
203.605	2444.02
203.68	2443.78
203.754	2458.82
203.829	2468.01
203.904	2475.34
203.978	2490.68
204.053	2523.93
204.127	2542.7
204.202	2576.95
204.277	2598.24
204.351	2633.64
204.426	2664.1
204.5	2703.03
204.575	2720.28
204.65	2781.79
204.724	2829.39
204.799	2886.33
204.873	2942.19
204.948	3002.94
205.022	3061.65
205.097	3123.36
205.171	3207.85
205.246	3292.78
205.32	3372.79
205.395	3461.99
205.469	3542.23
205.544	3637.72
205.618	3719.51
205.693	3828.17
205.767	3919.93
205.842	4050.84
205.916	4156.93
205.991	4263.33
206.065	4387.34
206.14	4523.4
206.214	4645.22
206.289	4772.25
206.363	4924.99
206.438	5066.9
206.512	5217.69
206.586	5377.97
206.661	5537.21
206.735	5672.83
206.81	5831.38
206.884	6007.75
206.958	6159.77
207.033	6342.44
207.107	6522.5
207.181	6724.39
207.256	6898.26
207.33	7093.1
207.405	7285.91
207.479	7490.03
207.553	7685.41
207.628	7865.98
207.702	8068.23
207.776	8256.69
207.851	8453.06
207.925	8669.24
207.999	8870.99
208.073	9071.85
208.148	9282.56
208.222	9478.67
208.296	9721.04
208.371	9947.12
208.445	10159.48
208.519	10397.42
208.593	10623.98
208.668	10838.24
208.742	11056.14
208.816	11273.59
208.89	11502.25
208.965	11717.39
209.039	11935.28
209.113	12171.34
209.187	12403.54
209.261	12623.62
209.336	12862.3
209.41	13095.3
209.484	13300.41
209.558	13535.64
209.632	13767.35
209.707	13995.01
209.781	14239.45
209.855	14468.37
209.929	14693.47
210.003	14917.95
210.077	15132.79
210.151	15389.36
210.226	15628.62
210.3	15871.88
210.374	16099.24
210.448	16318.83
210.522	16527.57
210.596	16748.6
210.67	16961.92
210.744	17211.67
210.818	17436.84
210.892	17657.18
210.966	17862.29
211.041	18086.82
211.115	18276.8
211.189	18489.13
211.263	18701.28
211.337	18892.64
211.411	19096.45
211.485	19275.43
211.559	19475.62
211.633	19654.17
211.707	19808.38
211.781	20000.82
211.855	20145.16
211.929	20322.46
212.003	20478.46
212.077	20667.1
212.151	20849.76
212.225	21032.62
212.299	21178.67
212.373	21341.38
212.447	21492.88
212.52	21680.05
212.594	21843.66
212.668	22018.25
212.742	22166.72
212.816	22310.67
212.89	22447.63
212.964	22587.11
213.038	22749.78
213.112	22903.93
213.186	23054.26
213.26	23182.37
213.333	23282.9
213.407	23422.89
213.481	23561.81
213.555	23701.41
213.629	23820.63
213.703	23935.71
213.777	24057.79
213.85	24182.19
213.924	24335.4
213.998	24461.5
214.072	24582.36
214.146	24693.57
214.219	24804.92
214.293	24919.7
214.367	25034.88
214.441	25159.7
214.515	25272.33
214.588	25354.56
214.662	25435.59
214.736	25532.2
214.81	25638.51
214.883	25745.79
214.957	25840.15
215.031	25927.85
215.105	26011.3
215.178	26097.56
215.252	26194.11
215.326	26273.14
215.4	26343.48
215.473	26410.8
215.547	26500.9
215.621	26569.57
215.694	26656.5
215.768	26727.15
215.842	26810.21
215.915	26879.95
215.989	26941.62
216.063	27010.89
216.136	27099.13
216.21	27176.84
216.284	27268.08
216.357	27338.27
216.431	27414.69
216.504	27488.07
216.578	27584.4
216.652	27673.43
216.725	27745.42
216.799	27807.22
216.873	27866.4
216.946	27942.06
217.02	27975.31
217.093	28028.56
217.167	28079.21
217.24	28114.2
217.314	28166.43
217.387	28197.94
217.461	28247.48
217.535	28307.6
217.608	28348.39
217.682	28397.26
217.755	28454.49
217.829	28489.68
217.902	28540.72
217.976	28581.13
218.049	28622.12
218.123	28646.05
218.196	28682.41
218.27	28721.81
218.343	28759.13
218.417	28809.7
218.49	28853.02
218.563	28908.08
218.637	28957.17
218.71	29007.55
218.784	29063.4
218.857	29112.33
218.931	29154.63
219.004	29192.54
219.077	29240.85
219.151	29281.76
219.224	29318.08
219.298	29355.95
219.371	29400.25
219.444	29424.23
219.518	29461.23
219.591	29503.93
219.665	29563
219.738	29589.55
219.811	29615.81
219.885	29649.71
219.958	29679.51
220.031	29695.37
220.105	29725.41
220.178	29743.79
220.251	29754.48
220.325	29779.54
220.398	29809.63
220.471	29838.26
220.544	29859.93
220.618	29868.11
220.691	29882.23
220.764	29884.26
220.838	29898.54
220.911	29908.7
220.984	29937.57
221.057	29949.18
221.131	29965.3
221.204	29944.88
221.277	29968.68
221.35	29999.16
221.424	29997.95
221.497	30003.85
221.57	30008.01
221.643	30029.69
221.716	30044.93
221.79	30051.94
221.863	30054.02
221.936	30052.48
222.009	30058.47
222.082	30066.41
222.155	30067.86
222.229	30090.26
222.302	30093.45
222.375	30093.65
222.448	30104.1
222.521	30107
222.594	30109.42
222.667	30088.96
222.74	30103.57
222.814	30107
222.887	30099.31
222.96	30105.79
223.033	30113.53
223.106	30124.32
223.179	30107.87
223.252	30090.89
223.325	30086.1
223.398	30079.61
223.471	30058.33
223.544	30038.83
223.617	30033.61
223.69	30032.45
223.763	29999.36
223.837	29999.31
223.91	29980.39
223.983	29951.75
224.056	29928.87
224.129	29919.68
224.202	29920.45
224.275	29902.26
224.348	29872.56
224.42	29849.48
224.493	29818.14
224.566	29789.35
224.639	29762.7
224.712	29739.34
224.785	29725.36
224.858	29702.23
224.931	29670.74
225.004	29651.25
225.077	29647.82
225.15	29598.49
225.223	29571.98
225.296	29571.69
225.369	29539.38
225.442	29520.86
225.514	29504.61
225.587	29479.27
225.66	29458.08
225.733	29434.33
225.806	29397
225.879	29362.03
225.952	29325.09
226.025	29316.91
226.097	29311.88
226.17	29295.1
226.243	29255.11
226.316	29219.18
226.389	29193.5
226.461	29172.03
226.534	29146.75
226.607	29102.17
226.68	29101.58
226.753	29078.57
226.825	29031.9
226.898	29014.93
226.971	28979.44
227.044	28941.73
227.117	28905.96
227.189	28874.48
227.262	28850.54
227.335	28837.01
227.407	28818.15
227.48	28795.29
227.553	28767.24
227.626	28723.73
227.698	28683.8
227.771	28666.35
227.844	28629.07
227.916	28603.99
227.989	28571.89
228.062	28537.57
228.134	28541.49
228.207	28515.72
228.28	28478.64
228.352	28452.64
228.425	28415.61
228.498	28400.53
228.57	28370.91
228.643	28363.03
228.716	28337.75
228.788	28302.95
228.861	28259.16
228.934	28234.99
229.006	28204.69
229.079	28167.58
229.151	28129.35
229.224	28087.65
229.296	28058.7
229.369	28048.46
229.442	28028.11
229.514	27985.54
229.587	27968.15
229.659	27901.07
229.732	27862.22
229.804	27848.4
229.877	27842.75
229.949	27821.15
230.022	27802.16
230.094	27772.78
230.167	27738.67
230.239	27696.25
230.312	27650.54
230.384	27636.19
230.457	27607.64
230.529	27581.84
230.602	27557.2
230.674	27526.28
230.747	27515.75
230.819	27495.22
230.892	27437.83
230.964	27397.68
231.037	27373.53
231.109	27330.64
231.181	27321.41
231.254	27280.5
231.326	27237.36
231.399	27196.88
231.471	27161.86
231.544	27104.28
231.616	27085.06
231.688	27044.77
231.761	27003.24
231.833	26975.52
231.905	26919.74
231.978	26878.16
232.05	26827.74
232.122	26802.67
232.195	26766.31
232.267	26730.96
232.339	26680.45
232.412	26675.23
232.484	26635.68
232.556	26593.77
232.629	26587.83
232.701	26555.04
232.773	26524.91
232.846	26479.14
232.918	26435.15
232.99	26402.31
233.062	26372.33
233.135	26333.12
233.207	26290.74
233.279	26263.07
233.351	26237.49
233.424	26203.84
233.496	26158.32
233.568	26145.67
233.64	26084.07
233.713	26046.08
233.785	26011.08
233.857	25976.32
233.929	25910.14
234.001	25884.12
234.074	25857.43
234.146	25803.51
234.218	25758.33
234.29	25716.24
234.362	25684.67
234.434	25623.57
234.507	25575.64
234.579	25528.92
234.651	25476.17
234.723	25439.45
234.795	25394.23
234.867	25336.46
234.939	25304.47
235.012	25272.09
235.084	25227.06
235.156	25197.14
235.228	25149.71
235.3	25098.7
235.372	25065.8
235.444	25033.9
235.516	24983.67
235.588	24941.11
235.66	24889.43
235.732	24835.06
235.804	24848.18
235.876	24794.2
235.948	24765.06
236.02	24718.36
236.092	24670.31
236.164	24640.88
236.236	24598.91
236.308	24558.48
236.38	24528.28
236.452	24483.42
236.524	24452.98
236.596	24430.74
236.668	24387.56
236.74	24352.11
236.812	24314.15
236.884	24272.66
236.956	24237.21
237.028	24175.95
237.1	24133.51
237.172	24112.96
237.244	24085.8
237.316	24004.9
237.388	23967.38
237.46	23928.55
237.532	23895.27
237.604	23850.9
237.675	23815.65
237.747	23774.7
237.819	23720.21
237.891	23679.84
237.963	23620.63
238.035	23558.08
238.107	23467.51
238.178	23440.17
238.25	23381.87
238.322	23352.74
238.394	23302.59
238.466	23237.25
238.538	23209.38
238.609	23172.54
238.681	23110.48
238.753	23064.96
238.825	23023.97
238.897	22981.06
238.968	22950.3
239.04	22898.56
239.112	22888.29
239.184	22830.58
239.255	22787.28
239.327	22748.08
239.399	22702.28
239.471	22674.61
239.542	22631.03
239.614	22615.74
239.686	22541.21
239.758	22511.13
239.829	22462.19
239.901	22422.52
239.973	22389.49
240.044	22351.65
240.116	22312.36
240.188	22271.96
240.259	22231.08
240.331	22176.08
240.403	22135.73
240.474	22076.67
240.546	22032.57
240.618	21962.52
240.689	21917.02
240.761	21874.22
240.833	21850.16
240.904	21804.37
240.976	21766.29
241.048	21729.9
241.119	21687.19
241.191	21658.8
241.262	21642.03
241.334	21594.98
241.405	21553.58
241.477	21501.96
241.549	21458.63
241.62	21401.94
241.692	21352.3
241.763	21314.8
241.835	21266.75
241.906	21218.79
241.978	21162.5
242.049	21134.3
242.121	21100.23
242.192	21067.98
242.264	21021.38
242.335	20964.55
242.407	20929.9
242.478	20876.02
242.55	20838.28
242.621	20789.46
242.693	20737.65
242.764	20682.52
242.836	20633.74
242.907	20592.05
242.979	20564.58
243.05	20517.84
243.122	20484.34
243.193	20440.25
243.264	20367.38
243.336	20330.08
243.407	20302.46
243.479	20281.36
243.55	20231.14
243.622	20186.95
243.693	20142.66
243.764	20113.94
243.836	20068.25
243.907	20014.66
243.978	19972.93
244.05	19934.86
244.121	19877.27
244.192	19851.87
244.264	19801.27
244.335	19765.03
244.407	19704.26
244.478	19660.46
244.549	19622.24
244.62	19573.09
244.692	19539.02
244.763	19521.67
244.834	19482.01
244.906	19434.93
244.977	19392.71
245.048	19365.1
245.119	19320.91
245.191	19271.85
245.262	19201.55
245.333	19172.05
245.405	19130.37
245.476	19095.09
245.547	19056.69
245.618	19027
245.689	18988.11
245.761	18950.14
245.832	18906.58
245.903	18885.13
245.974	18852.41
246.045	18807.98
246.117	18778.05
246.188	18728.13
246.259	18676.61
246.33	18631.89
246.401	18583.9
246.473	18528.81
246.544	18494.07
246.615	18469.11
246.686	18431.47
246.757	18409.54
246.828	18354.17
246.899	18335.52
246.97	18282.9
247.042	18234.37
247.113	18200.3
247.184	18182.71
247.255	18128.69
247.326	18097.12
247.397	18049.99
247.468	18007.73
247.539	17974.96
247.61	17925.95
247.681	17898.19
247.752	17874.1
247.823	17830.82
247.894	17802.19
247.965	17759.35
248.037	17708.27
248.108	17656.17
248.179	17615.21
248.25	17575.69
248.321	17553.57
248.392	17507.16
248.463	17496.9
248.534	17470.68
248.605	17455.45
248.675	17407.5
248.746	17389.38
248.817	17359.55
248.888	17340.03
248.959	17292.85
249.03	17262.97
249.101	17235.16
249.172	17203.5
249.243	17147.06
249.314	17130.2
249.385	17098.15
249.456	17078.2
249.527	17044.89
249.598	17016.31
249.669	16985.85
249.739	16964.94
249.81	16937.08
249.881	16888.31
249.952	16854.76
250.023	16809.03
250.094	16751
250.165	16711.91
250.235	16677.74
250.306	16644.83
250.377	16596.05
250.448	16567.04
250.519	16511.9
250.59	16482.74
250.66	16439.56
250.731	16421.29
250.802	16382.73
250.873	16350.87
250.944	16320.22
251.014	16283.98
251.085	16279.35
251.156	16259.73
251.227	16235.88
251.297	16215.06
251.368	16205.51
251.439	16182.71
251.51	16167.05
251.58	16136.97
251.651	16100.05
251.722	16083.14
251.792	16033.97
251.863	16007.8
251.934	15989.15
252.005	15991.08
252.075	15962.78
252.146	15947.46
252.217	15935.55
252.287	15915.64
252.358	15885.52
252.429	15876.75
252.499	15842.19
252.57	15807.29
252.641	15780.88
252.711	15751.67
252.782	15707.08
252.852	15691.56
252.923	15660.52
252.994	15636.23
253.064	15618.25
253.135	15584.7
253.205	15548.5
253.276	15533.61
253.347	15519.97
253.417	15498.18
253.488	15462.66
253.558	15437.69
253.629	15406.46
253.699	15387.32
253.77	15368.95
253.841	15336.85
253.911	15315.16
253.982	15300.41
254.052	15287.11
254.123	15265.61
254.193	15247.87
254.264	15259.34
254.334	15219.63
254.405	15185.88
254.475	15150.41
254.546	15115.12
254.616	15097.57
254.687	15074.53
254.757	15055.4
254.827	15015.77
254.898	14986.03
254.968	14965.35
255.039	14931.18
255.109	14914.59
255.18	14872.51
255.25	14827.35
255.321	14815.15
255.391	14771.14
255.461	14761.64
255.532	14707.61
255.602	14682.35
255.673	14634.1
255.743	14593.89
255.813	14551.91
255.884	14533.2
255.954	14519.32
256.024	14518.69
256.095	14498.26
256.165	14459.5
256.235	14440.99
256.306	14416.64
256.376	14406.76
256.446	14388.93
256.517	14368.58
256.587	14358.85
256.657	14337.2
256.728	14320.38
256.798	14300.85
256.868	14274.78
256.938	14236.98
257.009	14229.08
257.079	14206.95
257.149	14207.87
257.219	14172.34
257.29	14150.5
257.36	14113.38
257.43	14096.94
257.5	14048.26
257.571	14024.92
257.641	14012.73
257.711	13986.46
257.781	13969.29
257.852	13952.57
257.922	13912.12
257.992	13890.33
258.062	13857.41
258.132	13846.66
258.202	13824.77
258.273	13800.81
258.343	13798.98
258.413	13771.65
258.483	13738.72
258.553	13703.68
258.623	13667.81
258.693	13650.55
258.764	13643.85
258.834	13629.97
258.904	13607.17
258.974	13587.69
259.044	13556.84
259.114	13539.68
259.184	13520.25
259.254	13497.26
259.324	13454.26
259.394	13439.65
259.464	13438.59
259.535	13412.12
259.605	13388.7
259.675	13361.02
259.745	13350.61
259.815	13315.95
259.885	13288.09
259.955	13295.13
260.025	13265.48
260.095	13248.41
260.165	13230
260.235	13233.33
260.305	13209.8
260.375	13175.86
260.445	13172.15
260.515	13172.25
260.585	13163.91
260.655	13134.6
260.725	13131.66
260.795	13119.7
260.865	13118.31
260.934	13087.45
261.004	13082.97
261.074	13058.39
261.144	13052.02
261.214	13035.34
261.284	13007.67
261.354	13005.17
261.424	12977.11
261.494	12977.06
261.564	12960.33
261.634	12948.96
261.703	12900.7
261.773	12883.06
261.843	12875.49
