Data from 20250702_urea_0.5M_MAYP1162681_11-52-34-190.txt Node
Date: Wed Jul 02 11:52:34 BST 2025
User: adleo
Spectrometer: MAYP116268
Trigger mode: 0
Integration Time (sec): 1.000000E0
Scans to average: 1
Electric dark correction enabled: true
Nonlinearity correction enabled: true
Boxcar width: 10
XAxis mode: Wavelengths
Number of Pixels in Spectrum: 2068
>>>>>Begin Spectral Data<<<<<
179.565	1018.23
179.642	1063.26
179.718	1097.75
179.795	1129.38
179.871	1155.07
179.948	1168.95
180.024	1185.82
180.101	1204.09
180.177	1216.35
180.254	1236.05
180.33	1255.26
180.407	1295.98
180.483	1376.36
180.56	1451.76
180.636	1523.82
180.712	1514.03
180.789	1522.96
180.865	1531.6
180.942	1540.01
181.018	1550.36
181.095	1563.09
181.171	1566.37
181.248	1567.08
181.324	1581.38
181.4	1588.22
181.477	1598.53
181.553	1612.16
181.63	1630.26
181.706	1647.07
181.782	1653.06
181.859	1655.1
181.935	1658.66
182.011	1651.82
182.088	1665.12
182.164	1682.19
182.24	1692.97
182.317	1703.42
182.393	1700.85
182.469	1712.83
182.546	1724.99
182.622	1730.07
182.698	1728.46
182.775	1738.15
182.851	1751.6
182.927	1744.19
183.003	1740.86
183.08	1736.44
183.156	1746.18
183.232	1742.95
183.308	1729.6
183.385	1736.72
183.461	1748.51
183.537	1751.08
183.613	1763.81
183.69	1755.88
183.766	1744.75
183.842	1749.22
183.918	1753.26
183.995	1767.23
184.071	1771.08
184.147	1765.57
184.223	1753.17
184.299	1761.68
184.375	1751.65
184.452	1756.69
184.528	1808.36
184.604	1817.58
184.68	1828.98
184.756	1830.74
184.832	1835.83
184.908	1841.24
184.985	1842.15
185.061	1827.94
185.137	1837.02
185.213	1826.13
185.289	1829.32
185.365	1824.76
185.441	1825.61
185.517	1834.5
185.593	1831.6
185.669	1828.61
185.745	1839.11
185.822	1856.5
185.898	1848.52
185.974	1857.02
186.05	1850.79
186.126	1814.52
186.202	1809.39
186.278	1804.16
186.354	1796.51
186.43	1802.36
186.506	1800.36
186.582	1799.89
186.658	1807.01
186.734	1786.68
186.81	1791.14
186.886	1793.42
186.962	1804.78
187.038	1801.6
187.114	1795.27
187.19	1801.88
187.266	1794.28
187.341	1795.04
187.417	1788.43
187.493	1791.28
187.569	1792.47
187.645	1789.33
187.721	1777.74
187.797	1780.16
187.873	1782.49
187.949	1778.59
188.025	1771.08
188.101	1778.26
188.176	1782.34
188.252	1779.11
188.328	1786.38
188.404	1785.48
188.48	1782.06
188.556	1775.69
188.632	1774.69
188.707	1775.54
188.783	1772.45
188.859	1766.8
188.935	1753.59
189.011	1758.01
189.086	1751.78
189.162	1747.08
189.238	1743.04
189.314	1742.71
189.39	1739.67
189.465	1736.29
189.541	1748.84
189.617	1735.01
189.693	1727.5
189.768	1732.31
189.844	1752.7
189.92	1748.42
189.996	1755.27
190.071	1762.73
190.147	1762.68
190.223	1771
190.298	1767.58
190.374	1756.41
190.45	1766.95
190.526	1776.74
190.601	1772.52
190.677	1777.08
190.753	1797.38
190.828	1799.14
190.904	1812.73
190.98	1827.28
191.055	1836.4
191.131	1831.65
191.207	1851.94
191.282	1857.74
191.358	1848.42
191.433	1835.58
191.509	1846.94
191.585	1844.56
191.66	1845.32
191.736	1850.26
191.811	1842.23
191.887	1852.45
191.963	1871.47
192.038	1876.32
192.114	1873.94
192.189	1876.89
192.265	1870.99
192.34	1853.78
192.416	1854.87
192.491	1850.31
192.567	1850.79
192.642	1852.12
192.718	1850.26
192.793	1839.66
192.869	1837.81
192.944	1839.52
193.02	1846.03
193.095	1847.08
193.171	1851.36
193.246	1852.21
193.322	1850.26
193.397	1852.35
193.473	1840.9
193.548	1824.64
193.624	1830.01
193.699	1829.77
193.775	1845.94
193.85	1845.37
193.925	1855.64
194.001	1853.5
194.076	1843.28
194.152	1836.53
194.227	1828.73
194.302	1820.42
194.378	1825.08
194.453	1821.56
194.529	1833.87
194.604	1822.27
194.679	1816.86
194.755	1800.8
194.83	1811.92
194.905	1808.93
194.981	1814.3
195.056	1808.22
195.131	1814.11
195.207	1812.83
195.282	1806.32
195.357	1788.63
195.433	1804.36
195.508	1792.33
195.583	1801.46
195.659	1819.71
195.734	1826.18
195.809	1827.84
195.884	1835.87
195.96	1835.68
196.035	1852.03
196.11	1844.85
196.185	1856.02
196.261	1860.82
196.336	1888.25
196.411	1877.69
196.486	1883.25
196.561	1879.55
196.637	1887.1
196.712	1901.99
196.787	1904.84
196.862	1919.62
196.937	1929.65
197.013	1933.36
197.088	1943.58
197.163	1959.94
197.238	1970.12
197.313	1967.93
197.388	1979.44
197.464	2004.84
197.539	2014.73
197.614	2006.5
197.689	2020.05
197.764	2032.71
197.839	2048.26
197.914	2043.79
197.989	2063.48
198.065	2078.03
198.14	2121.24
198.215	2146.12
198.29	2154.83
198.365	2166.81
198.44	2171.38
198.515	2197.74
198.59	2211.73
198.665	2234.42
198.74	2242.08
198.815	2245.89
198.89	2266.97
198.965	2292.62
199.04	2290.86
199.115	2304.04
199.19	2341.39
199.265	2343.34
199.34	2352.01
199.415	2383.24
199.49	2402.75
199.565	2406.94
199.64	2428.46
199.715	2427.36
199.79	2430.55
199.865	2435.93
199.94	2434.55
200.015	2463.16
200.09	2465.11
200.165	2469.68
200.24	2479.73
200.315	2516.57
200.39	2530.23
200.464	2532.8
200.539	2532.9
200.614	2544.42
200.689	2565.23
200.764	2571.47
200.839	2589.56
200.914	2593.51
200.989	2585.41
201.063	2595.03
201.138	2583.75
201.213	2581.61
201.288	2563.85
201.363	2570.32
201.438	2569.85
201.512	2583.51
201.587	2567.13
201.662	2570.75
201.737	2584.18
201.812	2588.23
201.886	2559.06
201.961	2566.21
202.036	2560.11
202.111	2559.25
202.186	2536.13
202.26	2520.93
202.335	2501.93
202.41	2493.6
202.485	2478.46
202.559	2459.47
202.634	2438.95
202.709	2445.85
202.784	2429.09
202.858	2429.61
202.933	2414
203.008	2410.05
203.082	2392.01
203.157	2393.82
203.232	2359.13
203.306	2341.51
203.381	2311.94
203.456	2291.95
203.53	2271.04
203.605	2252.97
203.68	2230.45
203.754	2228.31
203.829	2213.99
203.904	2197.43
203.978	2188.53
204.053	2191.72
204.127	2181.3
204.202	2181.49
204.277	2167.08
204.351	2162.42
204.426	2157.66
204.5	2148.95
204.575	2118.47
204.65	2127.46
204.724	2121.46
204.799	2126.64
204.873	2124.07
204.948	2123.36
205.022	2114.09
205.097	2108.95
205.171	2120.08
205.246	2130.97
205.32	2124.93
205.395	2125.51
205.469	2118.56
205.544	2120.94
205.618	2111.05
205.693	2120.52
205.767	2110
205.842	2130.08
205.916	2124.37
205.991	2113.53
206.065	2118.43
206.14	2135.02
206.214	2135.11
206.289	2130.97
206.363	2141.82
206.438	2140.68
206.512	2147.67
206.586	2163.94
206.661	2171.93
206.735	2156.38
206.81	2154.34
206.884	2173.41
206.958	2164.75
207.033	2183.3
207.107	2196.68
207.181	2225.05
207.256	2223.33
207.33	2243.03
207.405	2257.7
207.479	2281.92
207.553	2295.81
207.628	2291.1
207.702	2305.95
207.776	2308.85
207.851	2321.13
207.925	2345.99
207.999	2357.41
208.073	2371.07
208.148	2390.55
208.222	2398.12
208.296	2443.48
208.371	2479.16
208.445	2511.17
208.519	2561.98
208.593	2598.32
208.668	2620.57
208.742	2652.94
208.816	2691.33
208.89	2737.71
208.965	2770.38
209.039	2816.39
209.113	2872.78
209.187	2939.63
209.261	2990.16
209.336	3058.88
209.41	3131.2
209.484	3191.48
209.558	3269.26
209.632	3345.17
209.707	3421.6
209.781	3513.26
209.855	3600.33
209.929	3700.24
210.003	3791.45
210.077	3881.72
210.151	4019.01
210.226	4149.43
210.3	4276.34
210.374	4400.91
210.448	4517.67
210.522	4641.68
210.596	4767.53
210.67	4897.79
210.744	5063.54
210.818	5222.31
210.892	5373.8
210.966	5509.13
211.041	5667.15
211.115	5814.4
211.189	5987.64
211.263	6159.78
211.337	6327.6
211.411	6508.48
211.485	6666.88
211.559	6843.92
211.633	7016.32
211.707	7159.93
211.781	7340.73
211.855	7497.7
211.929	7671.59
212.003	7839.17
212.077	8042.14
212.151	8247.87
212.225	8454.01
212.299	8646.06
212.373	8831.62
212.447	9033.22
212.52	9264
212.594	9475.23
212.668	9692.28
212.742	9888.53
212.816	10088.07
212.89	10283.92
212.964	10489.92
213.038	10705.52
213.112	10934.77
213.186	11169.9
213.26	11365.57
213.333	11546.09
213.407	11760.4
213.481	11987.14
213.555	12214.95
213.629	12425.49
213.703	12631.74
213.777	12849.37
213.85	13041.36
213.924	13292.2
213.998	13502.32
214.072	13710.27
214.146	13912.78
214.219	14120.53
214.293	14331.23
214.367	14550.94
214.441	14775.42
214.515	14973.44
214.588	15162.3
214.662	15333.41
214.736	15505.35
214.81	15719.36
214.883	15925.42
214.957	16109.26
215.031	16290.87
215.105	16465.69
215.178	16639.73
215.252	16825.14
215.326	16991.65
215.4	17161.4
215.473	17297.4
215.547	17466.46
215.621	17626.51
215.694	17796.68
215.768	17954.7
215.842	18111.85
215.915	18267.41
215.989	18409.34
216.063	18560.51
216.136	18719.35
216.21	18878.72
216.284	19048.69
216.357	19200.54
216.431	19358.32
216.504	19522.26
216.578	19691.75
216.652	19848.18
216.725	19995.84
216.799	20139.84
216.873	20276.66
216.946	20426.45
217.02	20561.58
217.093	20685.87
217.167	20805.06
217.24	20929.98
217.314	21052.59
217.387	21175.2
217.461	21286.73
217.535	21422.9
217.608	21546.43
217.682	21664.19
217.755	21786.23
217.829	21893.24
217.902	22000.21
217.976	22105.68
218.049	22205.28
218.123	22294.12
218.196	22400.47
218.27	22486.23
218.343	22578.22
218.417	22673.44
218.49	22754.72
218.563	22870.87
218.637	22970.49
218.71	23080.95
218.784	23170.06
218.857	23258.78
218.931	23346.2
219.004	23424.41
219.077	23500.8
219.151	23567.06
219.224	23643.01
219.298	23713.9
219.371	23800.04
219.444	23856.9
219.518	23923.31
219.591	23989.87
219.665	24082.05
219.738	24142.05
219.811	24203.35
219.885	24260.71
219.958	24330.94
220.031	24403.77
220.105	24451.82
220.178	24506.82
220.251	24548.07
220.325	24603.16
220.398	24664.24
220.471	24711.81
220.544	24766.42
220.618	24810.75
220.691	24867.64
220.764	24906.52
220.838	24964.95
220.911	24991.4
220.984	25056.1
221.057	25100.73
221.131	25130.69
221.204	25143.58
221.277	25196.37
221.35	25253.79
221.424	25295.73
221.497	25324.53
221.57	25348.52
221.643	25377.67
221.716	25407.59
221.79	25440.79
221.863	25464
221.936	25475.59
222.009	25503.87
222.082	25533.93
222.155	25552.42
222.229	25576.88
222.302	25598.07
222.375	25602.37
222.448	25631.18
222.521	25642.18
222.594	25646.24
222.667	25659.46
222.74	25682.63
222.814	25686.44
222.887	25692.28
222.96	25698.99
223.033	25713.67
223.106	25726.02
223.179	25739.2
223.252	25741.13
223.325	25738.43
223.398	25740.65
223.471	25757.1
223.544	25766.57
223.617	25778.58
223.69	25787.66
223.763	25775.88
223.837	25778.01
223.91	25778.05
223.983	25760.77
224.056	25743.98
224.129	25747.16
224.202	25752.91
224.275	25732.68
224.348	25723.32
224.42	25708.31
224.493	25686.73
224.566	25673.65
224.639	25671.63
224.712	25661.92
224.785	25657.68
224.858	25644.55
224.931	25629.78
225.004	25610.76
225.077	25599.66
225.15	25552.66
225.223	25534.94
225.296	25549.91
225.369	25520.32
225.442	25504.64
225.514	25502.51
225.587	25504.44
225.66	25498.27
225.733	25492.28
225.806	25481.13
225.879	25456.91
225.952	25440.31
226.025	25438.91
226.097	25431.47
226.17	25406.77
226.243	25365.89
226.316	25336.79
226.389	25322.31
226.461	25308.37
226.534	25291.09
226.607	25269.38
226.68	25284.53
226.753	25257.26
226.825	25213.49
226.898	25209.05
226.971	25185.02
227.044	25161.18
227.117	25138.41
227.189	25115.92
227.262	25095.6
227.335	25088.36
227.407	25066.32
227.48	25038.57
227.553	25012.95
227.626	24990.99
227.698	24976.66
227.771	24961.27
227.844	24933.14
227.916	24911.29
227.989	24880.99
228.062	24855.03
228.134	24839.2
228.207	24797.28
228.28	24777.06
228.352	24749.61
228.425	24727.47
228.498	24714.39
228.57	24675.07
228.643	24650.71
228.716	24618.68
228.788	24584.28
228.861	24539.6
228.934	24521.42
229.006	24496.23
229.079	24470.42
229.151	24436.12
229.224	24389.33
229.296	24373.46
229.369	24380.5
229.442	24365.74
229.514	24328.26
229.587	24304
229.659	24268.79
229.732	24242.5
229.804	24222.14
229.877	24222.09
229.949	24201.3
230.022	24191.9
230.094	24178.73
230.167	24154.23
230.239	24118.68
230.312	24093.89
230.384	24091.04
230.457	24075.03
230.529	24059.54
230.602	24037.6
230.674	24009.29
230.747	23993.85
230.819	23970.22
230.892	23910.36
230.964	23874.04
231.037	23849.21
231.109	23830.98
231.181	23807.2
231.254	23777.59
231.326	23738.67
231.399	23697.29
231.471	23657.79
231.544	23602.33
231.616	23567.42
231.688	23542.05
231.761	23513.65
231.833	23477.58
231.905	23421.97
231.978	23388.07
232.05	23351.33
232.122	23314.68
232.195	23283.96
232.267	23271.23
232.339	23228.12
232.412	23211.92
232.484	23179.8
232.556	23148.37
232.629	23122.62
232.701	23092.09
232.773	23062.1
232.846	23040.36
232.918	23014.51
232.99	22993.01
233.062	22965.48
233.135	22944.55
233.207	22903.71
233.279	22870.3
233.351	22839.64
233.424	22803.82
233.496	22760.18
233.568	22745
233.64	22708.4
233.713	22674.32
233.785	22629.04
233.857	22598.38
233.929	22550.56
234.001	22532.91
234.074	22517.44
234.146	22469.8
234.218	22429.93
234.29	22398.31
234.362	22356.23
234.434	22304.83
234.507	22260.24
234.579	22223.89
234.651	22173.71
234.723	22146.62
234.795	22123.24
234.867	22092.24
234.939	22076.19
235.012	22041.58
235.084	22007.35
235.156	21975.54
235.228	21938.37
235.3	21904.44
235.372	21882.51
235.444	21856.77
235.516	21794.1
235.588	21749.8
235.66	21716.98
235.732	21678.51
235.804	21690.32
235.876	21662.7
235.948	21636.68
236.02	21591.51
236.092	21539.8
236.164	21514.97
236.236	21464.03
236.308	21430.05
236.38	21391.97
236.452	21342.95
236.524	21310.9
236.596	21277.74
236.668	21232.48
236.74	21192.72
236.812	21154.93
236.884	21120.13
236.956	21092.9
237.028	21054.73
237.1	21013.86
237.172	20997.47
237.244	20973.71
237.316	20895.97
237.388	20844.06
237.46	20803
237.532	20781.02
237.604	20742.76
237.675	20711.48
237.747	20686.03
237.819	20622.37
237.891	20583.19
237.963	20530.03
238.035	20483.53
238.107	20411.96
238.178	20395.33
238.25	20351.58
238.322	20335.57
238.394	20268.54
238.466	20217.41
238.538	20189.07
238.609	20158.37
238.681	20092.25
238.753	20045.75
238.825	20010.08
238.897	19970.71
238.968	19939.53
239.04	19898.28
239.112	19888.74
239.184	19836.84
239.255	19792.65
239.327	19757.9
239.399	19720.36
239.471	19698.39
239.542	19668.27
239.614	19650.82
239.686	19599.79
239.758	19568.42
239.829	19505.72
239.901	19484.71
239.973	19447.84
240.044	19408.18
240.116	19364.09
240.188	19321.35
240.259	19285.01
240.331	19234.03
240.403	19209.35
240.474	19164.1
240.546	19109.26
240.618	19046.52
240.689	19007.53
240.761	18974.62
240.833	18964.36
240.904	18924.31
240.976	18885.56
241.048	18847.5
241.119	18816.27
241.191	18779.79
241.262	18755.12
241.334	18723.07
241.405	18686.64
241.477	18644.33
241.549	18606.11
241.62	18572.76
241.692	18542.45
241.763	18505.2
241.835	18478.17
241.906	18429.78
241.978	18380.82
242.049	18358.17
242.121	18333.31
242.192	18300.3
242.264	18244.11
242.335	18195.92
242.407	18154.76
242.478	18123.44
242.55	18082.96
242.621	18026.24
242.693	17980.98
242.764	17947.11
242.836	17901.9
242.907	17862.58
242.979	17827.4
243.05	17794.1
243.122	17762.73
243.193	17722.49
243.264	17662.78
243.336	17629.19
243.407	17608.37
243.479	17587.02
243.55	17549
243.622	17509.86
243.693	17473.77
243.764	17455.21
243.836	17395.21
243.907	17359.02
243.978	17308.37
244.05	17283.93
244.121	17244.27
244.192	17209.71
244.264	17158.58
244.335	17114.77
244.407	17064.84
244.478	17030.29
244.549	16988.41
244.62	16935.88
244.692	16899.01
244.763	16881.9
244.834	16834.09
244.906	16798.81
244.977	16772.54
245.048	16754.47
245.119	16717.8
245.191	16679.34
245.262	16621.55
245.333	16606.99
245.405	16578.03
245.476	16545.01
245.547	16517.3
245.618	16491.32
245.689	16462.35
245.761	16426.88
245.832	16399.36
245.903	16378.35
245.974	16353.19
246.045	16321.23
246.117	16304.08
246.188	16262.14
246.259	16211.68
246.33	16182.81
246.401	16145.02
246.473	16093.64
246.544	16054.46
246.615	16031.27
246.686	15992.52
246.757	15982.16
246.828	15942.3
246.899	15917.86
246.97	15872.5
247.042	15817.51
247.113	15782.23
247.184	15765.6
247.255	15724.44
247.326	15695.18
247.397	15662.06
247.468	15623.89
247.539	15591.31
247.61	15546.24
247.681	15526.28
247.752	15506.18
247.823	15458.37
247.894	15425.2
247.965	15388.57
248.037	15352.81
248.108	15305.76
248.179	15282.09
248.25	15238.47
248.321	15214.95
248.392	15176.1
248.463	15172.1
248.534	15143.75
248.605	15132.38
248.675	15096.76
248.746	15075.07
248.817	15049.95
248.888	15025.66
248.959	14986.52
249.03	14961.55
249.101	14937.35
249.172	14901.49
249.243	14855.64
249.314	14842.34
249.385	14812.84
249.456	14788.64
249.527	14751.04
249.598	14725.11
249.669	14688.47
249.739	14672.95
249.81	14648.22
249.881	14611.39
249.952	14578.27
250.023	14547.91
250.094	14504.18
250.165	14471.69
250.235	14447.21
250.306	14419.68
250.377	14378.61
250.448	14351.86
250.519	14305.48
250.59	14288.85
250.66	14263.98
250.731	14253.57
250.802	14222.67
250.873	14194.9
250.944	14162.5
251.014	14138.93
251.085	14143.85
251.156	14124.13
251.227	14113.19
251.297	14095.21
251.368	14081.13
251.439	14062.28
251.51	14054.09
251.58	14019.77
251.651	13986.22
251.722	13966.45
251.792	13920.27
251.863	13898.43
251.934	13887.54
252.005	13893.61
252.075	13859.67
252.146	13838.99
252.217	13825.06
252.287	13809.01
252.358	13784.91
252.429	13786.21
252.499	13754.97
252.57	13722.43
252.641	13705.36
252.711	13674.75
252.782	13633.59
252.852	13625.15
252.923	13599.31
252.994	13577.14
253.064	13567.64
253.135	13535.53
253.205	13501.6
253.276	13501.98
253.347	13487.95
253.417	13456.28
253.488	13421.48
253.558	13398.58
253.629	13378.43
253.699	13358.76
253.77	13344.44
253.841	13315.95
253.911	13290.84
253.982	13266.2
254.052	13253.14
254.123	13232.51
254.193	13203.68
254.264	13226.29
254.334	13188.78
254.405	13162.22
254.475	13129.97
254.546	13103.17
254.616	13098.54
254.687	13084.61
254.757	13062.15
254.827	13033.46
254.898	13015.96
254.968	13000.88
255.039	12975.86
255.109	12960.29
255.18	12927.94
255.25	12888.07
255.321	12876.31
255.391	12845.12
255.461	12844.69
255.532	12787.81
255.602	12767.56
255.673	12732.9
255.743	12690.86
255.813	12651.67
255.884	12636.87
255.954	12611.71
256.024	12606.65
256.095	12577.53
256.165	12546.49
256.235	12537.62
256.306	12515.83
256.376	12502.58
256.446	12480.16
256.517	12464.06
256.587	12455.24
256.657	12439.19
256.728	12419.23
256.798	12395.71
256.868	12364.23
256.938	12339.16
257.009	12338.97
257.079	12318.29
257.149	12319.59
257.219	12284.02
257.29	12270.57
257.36	12236.2
257.43	12230.61
257.5	12187.33
257.571	12161.44
257.641	12145.39
257.711	12107.07
257.781	12091.26
257.852	12076.75
257.922	12038.09
257.992	12018.09
258.062	11990.08
258.132	11975.48
258.202	11952.73
258.273	11933.59
258.343	11940.77
258.413	11915.56
258.483	11891.56
258.553	11857.72
258.623	11827.4
258.693	11804.99
258.764	11801.33
258.834	11791.98
258.904	11778.92
258.974	11755.15
259.044	11747.15
259.114	11734.38
259.184	11715.87
259.254	11697.36
259.324	11662.27
259.394	11647.38
259.464	11642.8
259.535	11618.51
259.605	11595.71
259.675	11578.27
259.745	11567.71
259.815	11529.73
259.885	11501.2
259.955	11508.43
260.025	11486.74
260.095	11469.63
260.165	11461.87
260.235	11454.74
260.305	11429
260.375	11392.28
260.445	11392.61
260.515	11376.76
260.585	11368.71
260.655	11348.66
260.725	11338.78
260.795	11326.73
260.865	11334.35
260.934	11312.08
261.004	11304.71
261.074	11289.19
261.144	11283.93
261.214	11273.48
261.284	11255.36
261.354	11250.78
261.424	11217.62
261.494	11216.56
261.564	11202.1
261.634	11195.21
261.703	11159.69
261.773	11151.98
261.843	11152.46
261.913	11135.5
261.983	11112.8
262.053	11097.67
