Data from 20250702_urea_0.1M_MAYP1162681_11-47-55-206.txt Node
Date: Wed Jul 02 11:47:55 BST 2025
User: adleo
Spectrometer: MAYP116268
Trigger mode: 0
Integration Time (sec): 1.000000E0
Scans to average: 1
Electric dark correction enabled: true
Nonlinearity correction enabled: true
Boxcar width: 10
XAxis mode: Wavelengths
Number of Pixels in Spectrum: 2068
>>>>>Begin Spectral Data<<<<<
179.565	1012.44
179.642	1062.35
179.718	1098.97
179.795	1133.92
179.871	1160.23
179.948	1175.89
180.024	1190.82
180.101	1208.53
180.177	1220.07
180.254	1239.23
180.33	1258.8
180.407	1298.04
180.483	1379
180.56	1456.67
180.636	1527.03
180.712	1513.91
180.789	1524.08
180.865	1534.19
180.942	1540.13
181.018	1551
181.095	1565.06
181.171	1572.57
181.248	1570.72
181.324	1584.21
181.4	1588.39
181.477	1596.61
181.553	1608.34
181.63	1626.81
181.706	1641.87
181.782	1649.19
181.859	1649.71
181.935	1654.17
182.011	1650.9
182.088	1665.29
182.164	1680.07
182.24	1693.66
182.317	1704.39
182.393	1705.06
182.469	1719.64
182.546	1732.61
182.622	1733.94
182.698	1728.43
182.775	1737.7
182.851	1751.53
182.927	1744.44
183.003	1739.69
183.08	1736.27
183.156	1743.12
183.232	1741.64
183.308	1731.76
183.385	1739.31
183.461	1755.99
183.537	1756.23
183.613	1766.59
183.69	1758.85
183.766	1747.1
183.842	1751.76
183.918	1754.04
183.995	1763.97
184.071	1763.93
184.147	1758.98
184.223	1747.73
184.299	1759.99
184.375	1748.16
184.452	1754.43
184.528	1804.44
184.604	1813.85
184.68	1824.92
184.756	1831.05
184.832	1836.23
184.908	1839.79
184.985	1837.56
185.061	1820.93
185.137	1827.2
185.213	1818.93
185.289	1821.69
185.365	1817.13
185.441	1817.27
185.517	1828.11
185.593	1824.87
185.669	1824.54
185.745	1833.72
185.822	1849.96
185.898	1840.41
185.974	1848.49
186.05	1841.16
186.126	1804.7
186.202	1799.76
186.278	1794.87
186.354	1785.84
186.43	1790.21
186.506	1790.26
186.582	1789.78
186.658	1795.67
186.734	1777.34
186.81	1778.38
186.886	1781.56
186.962	1791.83
187.038	1788.36
187.114	1782.94
187.19	1789.69
187.266	1780.23
187.341	1780
187.417	1774.39
187.493	1775.53
187.569	1778.33
187.645	1772.63
187.721	1762.12
187.797	1768.92
187.873	1773.53
187.949	1770.73
188.025	1764.07
188.101	1765.54
188.176	1772.72
188.252	1768.78
188.328	1779.04
188.404	1778.7
188.48	1774.09
188.556	1767.96
188.632	1768.25
188.707	1770.01
188.783	1765.02
188.859	1762.83
188.935	1752.85
189.011	1760.69
189.086	1756.23
189.162	1750.05
189.238	1748.77
189.314	1747.86
189.39	1743.02
189.465	1738.74
189.541	1752.71
189.617	1741.55
189.693	1738.79
189.768	1741.17
189.844	1763.41
189.92	1756
189.996	1765.6
190.071	1776.92
190.147	1776.49
190.223	1782.43
190.298	1774.4
190.374	1764.28
190.45	1774.25
190.526	1782
190.601	1776.96
190.677	1778.67
190.753	1803.35
190.828	1804.06
190.904	1814.85
190.98	1826.83
191.055	1834.43
191.131	1826.59
191.207	1841.84
191.282	1849.45
191.358	1840.32
191.433	1825.11
191.509	1835.27
191.585	1833.94
191.66	1830.52
191.736	1837.98
191.811	1831.09
191.887	1846.97
191.963	1867.31
192.038	1869.12
192.114	1871.68
192.189	1873.44
192.265	1870.4
192.34	1848.77
192.416	1850.9
192.491	1847.81
192.567	1851.81
192.642	1853.85
192.718	1853.85
192.793	1844.44
192.869	1839.55
192.944	1841.49
193.02	1849.81
193.095	1855.42
193.171	1858.61
193.246	1857.04
193.322	1854.19
193.397	1855.42
193.473	1841.87
193.548	1829.89
193.624	1836.6
193.699	1834.12
193.775	1850.05
193.85	1850.38
193.925	1861.46
194.001	1858.8
194.076	1851.86
194.152	1842.92
194.227	1835.74
194.302	1826.62
194.378	1829.19
194.453	1827.62
194.529	1838.88
194.604	1826.57
194.679	1818.97
194.755	1802.05
194.83	1814.75
194.905	1811.75
194.981	1818.88
195.056	1813.32
195.131	1816.27
195.207	1814.13
195.282	1805.91
195.357	1789.13
195.433	1803.05
195.508	1792.07
195.583	1799.25
195.659	1812.75
195.734	1816.6
195.809	1817.55
195.884	1827.62
195.96	1829.28
196.035	1842.16
196.11	1839.26
196.185	1851.1
196.261	1856.71
196.336	1882.95
196.411	1870.06
196.486	1876.33
196.561	1871.15
196.637	1879.8
196.712	1893.02
196.787	1896.63
196.862	1910.51
196.937	1916.74
197.013	1922.26
197.088	1931.76
197.163	1950.36
197.238	1963.96
197.313	1966.1
197.388	1979.42
197.464	2005.05
197.539	2014.66
197.614	2009.48
197.689	2020.75
197.764	2034.21
197.839	2048.85
197.914	2044.24
197.989	2064.5
198.065	2075.96
198.14	2118.98
198.215	2143.43
198.29	2152.95
198.365	2163.17
198.44	2170.97
198.515	2194.81
198.59	2208.8
198.665	2232.02
198.74	2238.35
198.815	2240.77
198.89	2260.52
198.965	2285.37
199.04	2281.56
199.115	2295.69
199.19	2333.95
199.265	2335.52
199.34	2344.08
199.415	2374.84
199.49	2394.92
199.565	2402.68
199.64	2426.48
199.715	2423.91
199.79	2428.95
199.865	2437.9
199.94	2438.43
200.015	2469.14
200.09	2474.9
200.165	2480.18
200.24	2485.23
200.315	2521.78
200.39	2536.59
200.464	2542.06
200.539	2546.73
200.614	2564.59
200.689	2585.78
200.764	2590.78
200.839	2607.39
200.914	2613.35
200.989	2606.77
201.063	2617.39
201.138	2604.97
201.213	2602.59
201.288	2587.49
201.363	2591.78
201.438	2590.92
201.512	2607.73
201.587	2591.58
201.662	2598.3
201.737	2607.92
201.812	2618.44
201.886	2589.28
201.961	2597.09
202.036	2588.57
202.111	2583.61
202.186	2555.24
202.26	2541.91
202.335	2528.09
202.41	2527.43
202.485	2514.48
202.559	2501.19
202.634	2483.38
202.709	2494
202.784	2485.43
202.858	2491.28
202.933	2482.47
203.008	2485.81
203.082	2475.14
203.157	2484.09
203.232	2457.82
203.306	2453.82
203.381	2437.33
203.456	2433.34
203.53	2432.67
203.605	2433.67
203.68	2434.57
203.754	2450.13
203.829	2460.99
203.904	2466.04
203.978	2479.19
204.053	2514.25
204.127	2534.2
204.202	2569.5
204.277	2593.99
204.351	2626.1
204.426	2661.89
204.5	2699.97
204.575	2718.22
204.65	2775.86
204.724	2825.03
204.799	2888.7
204.873	2950.05
204.948	3009.27
205.022	3066.11
205.097	3127.06
205.171	3211.89
205.246	3297.49
205.32	3378.11
205.395	3466.31
205.469	3551.85
205.544	3648.87
205.618	3727.98
205.693	3837.65
205.767	3927.59
205.842	4055.01
205.916	4166.22
205.991	4271.44
206.065	4398.32
206.14	4533.42
206.214	4663.04
206.289	4789.37
206.363	4936.33
206.438	5075
206.512	5227.41
206.586	5394.64
206.661	5554.18
206.735	5694.35
206.81	5846.04
206.884	6026.06
206.958	6178.98
207.033	6362.49
207.107	6544.05
207.181	6744.15
207.256	6916.68
207.33	7121.52
207.405	7314.91
207.479	7517.69
207.553	7713.22
207.628	7890.77
207.702	8093.79
207.776	8282.16
207.851	8478.4
207.925	8693.99
207.999	8894.3
208.073	9097.85
208.148	9301.21
208.222	9496.55
208.296	9730.3
208.371	9958.3
208.445	10174.28
208.519	10413.81
208.593	10629.82
208.668	10848.95
208.742	11076.68
208.816	11298.57
208.89	11519.48
208.965	11740.64
209.039	11961.81
209.113	12197
209.187	12438.56
209.261	12661.14
209.336	12896.89
209.41	13137.85
209.484	13354.66
209.558	13592.4
209.632	13829.7
209.707	14064.35
209.781	14311.06
209.855	14548.79
209.929	14784.79
210.003	15013.94
210.077	15226.13
210.151	15492.1
210.226	15721.05
210.3	15949.46
210.374	16175.8
210.448	16392.6
210.522	16594.79
210.596	16806.71
210.67	17015.93
210.744	17253.29
210.818	17481.83
210.892	17698.99
210.966	17893.36
211.041	18103.38
211.115	18295.72
211.189	18502.12
211.263	18701.73
211.337	18890.65
211.411	19088.14
211.485	19266.73
211.559	19457.19
211.633	19649.76
211.707	19807.25
211.781	20003.07
211.855	20156.66
211.929	20332.61
212.003	20496.08
212.077	20690.6
212.151	20875.77
212.225	21062.24
212.299	21217.64
212.373	21366.67
212.447	21523.9
212.52	21709.14
212.594	21877.76
212.668	22046.09
212.742	22201.12
212.816	22353.99
212.89	22503.67
212.964	22654.44
213.038	22818.52
213.112	22983.57
213.186	23133.52
213.26	23250.49
213.333	23345.97
213.407	23480.54
213.481	23615.95
213.555	23766.7
213.629	23893.21
213.703	24016.49
213.777	24141.71
213.85	24272.87
213.924	24439.59
213.998	24580.41
214.072	24704.22
214.146	24812.34
214.219	24936.63
214.293	25052.24
214.367	25171.03
214.441	25301.85
214.515	25410.39
214.588	25500.5
214.662	25570.14
214.736	25660.39
214.81	25775
214.883	25887.59
214.957	25991.17
215.031	26077.9
215.105	26149.43
215.178	26235.36
215.252	26328.15
215.326	26398.4
215.4	26463.72
215.473	26510.8
215.547	26577.49
215.621	26643.32
215.694	26732.9
215.768	26799.79
215.842	26868.03
215.915	26941.29
215.989	26991.82
216.063	27061.04
216.136	27128.23
216.21	27205.79
216.284	27291.1
216.357	27367.76
216.431	27444.9
216.504	27529.98
216.578	27626.65
216.652	27710.32
216.725	27775.31
216.799	27842.96
216.873	27920.32
216.946	27990.67
217.02	28051.79
217.093	28097.31
217.167	28142.49
217.24	28189.08
217.314	28244.27
217.387	28290.9
217.461	28339.82
217.535	28403.13
217.608	28436.53
217.682	28486.85
217.755	28539.09
217.829	28577.72
217.902	28622.91
217.976	28664.68
218.049	28693.98
218.123	28721.63
218.196	28766.21
218.27	28807.59
218.343	28838.05
218.417	28868.12
218.49	28904
218.563	28949.4
218.637	29003.06
218.71	29060.17
218.784	29113.94
218.857	29155.63
218.931	29193.15
219.004	29228.01
219.077	29269.36
219.151	29308.38
219.224	29340.16
219.298	29380.15
219.371	29435.29
219.444	29462.47
219.518	29493.42
219.591	29523.45
219.665	29585.08
219.738	29617.14
219.811	29647.37
219.885	29683.36
219.958	29723.65
220.031	29751.46
220.105	29779.13
220.178	29809.36
220.251	29827.65
220.325	29843.71
220.398	29874.53
220.471	29902.87
220.544	29939.25
220.618	29954.73
220.691	29982.35
220.764	30005.91
220.838	30030.88
220.911	30031.46
220.984	30055.55
221.057	30084.53
221.131	30101.56
221.204	30078.48
221.277	30102.38
221.35	30132.96
221.424	30144.76
221.497	30163.68
221.57	30169.87
221.643	30177.13
221.716	30189.86
221.79	30195.86
221.863	30196.15
221.936	30198.23
222.009	30212.26
222.082	30207.56
222.155	30205.87
222.229	30219.27
222.302	30220.97
222.375	30217.92
222.448	30228.23
222.521	30226.73
222.594	30211.53
222.667	30205.05
222.74	30224.6
222.814	30226
222.887	30219.27
222.96	30227.5
223.033	30220.82
223.106	30211.63
223.179	30215.02
223.252	30195.18
223.325	30193.1
223.398	30190.78
223.471	30167.75
223.544	30151.93
223.617	30145.49
223.69	30126.82
223.763	30105.38
223.837	30102.92
223.91	30098.85
223.983	30066.58
224.056	30049.02
224.129	30041.67
224.202	30034.41
224.275	30011.62
224.348	29984.14
224.42	29950.52
224.493	29906.11
224.566	29872.82
224.639	29864.12
224.712	29841.82
224.785	29826.58
224.858	29786.82
224.931	29771.48
225.004	29746.19
225.077	29714.94
225.15	29675.33
225.223	29672.71
225.296	29673.25
225.369	29635.42
225.442	29604.36
225.514	29584.15
225.587	29568.09
225.66	29548.65
225.733	29538.78
225.806	29517.35
225.879	29478.95
225.952	29445.63
226.025	29443.31
226.097	29444.9
226.17	29427.69
226.243	29389.82
226.316	29370.72
226.389	29366.85
226.461	29330.72
226.534	29325.69
226.607	29306.83
226.68	29295.81
226.753	29264.71
226.825	29216.69
226.898	29203.44
226.971	29169.98
227.044	29161.51
227.117	29127.23
227.189	29103.3
227.262	29070.75
227.335	29046.81
227.407	29018.78
227.48	29000.31
227.553	28965.54
227.626	28922.36
227.698	28887.45
227.771	28857.05
227.844	28810.01
227.916	28776.5
227.989	28737.93
228.062	28685.28
228.134	28672.13
228.207	28638.54
228.28	28600.39
228.352	28570.42
228.425	28532.81
228.498	28510.82
228.57	28463.4
228.643	28448.8
228.716	28417.09
228.788	28377.94
228.861	28337.53
228.934	28328.1
229.006	28297.7
229.079	28269.23
229.151	28238.01
229.224	28186.83
229.296	28165.76
229.369	28167.6
229.442	28156.53
229.514	28114.69
229.587	28104.73
229.659	28063.9
229.732	28042.63
229.804	28019.1
229.877	28006.58
229.949	27994.79
230.022	27981.36
230.094	27955.02
230.167	27931.78
230.239	27890.22
230.312	27864.57
230.384	27854.71
230.457	27816.2
230.529	27788.37
230.602	27755.7
230.674	27723.72
230.747	27713.58
230.819	27696.23
230.892	27628.54
230.964	27586.7
231.037	27569.26
231.109	27532.59
231.181	27510.23
231.254	27468.1
231.326	27427.53
231.399	27384.67
231.471	27339.07
231.544	27284.14
231.616	27269.07
231.688	27227.47
231.761	27186.66
231.833	27151.79
231.905	27104.11
231.978	27074.7
232.05	27037.41
232.122	27003.45
232.195	26967.33
232.267	26944.53
232.339	26905.84
232.412	26891.89
232.484	26854.7
232.556	26812.4
232.629	26799.89
232.701	26770.43
232.773	26736.68
232.846	26699.84
232.918	26664.97
232.99	26628.41
233.062	26600.89
233.135	26545.41
233.207	26492.68
233.279	26471.53
233.351	26436.87
233.424	26386.56
233.496	26337.65
233.568	26310.13
233.64	26260.84
233.713	26208.07
233.785	26168.82
233.857	26123.68
233.929	26068.65
234.001	26045.43
234.074	26024.04
234.146	25955.97
234.218	25907.89
234.29	25869.18
234.362	25825.4
234.434	25770.57
234.507	25723.7
234.579	25665.25
234.651	25627.02
234.723	25597.92
234.795	25555.98
234.867	25511.72
234.939	25480.35
235.012	25446.76
235.084	25414.18
235.156	25387.01
235.228	25351.11
235.3	25299.42
235.372	25255.75
235.444	25234.33
235.516	25165.94
235.588	25124.68
235.66	25095.92
235.732	25040.24
235.804	25043.62
235.876	25014.28
235.948	24992.81
236.02	24946.4
236.092	24915.67
236.164	24868.43
236.236	24819.17
236.308	24770.06
236.38	24722.93
236.452	24669.62
236.524	24630.78
236.596	24605.16
236.668	24562.7
236.74	24531.15
236.812	24500.52
236.884	24466.13
236.956	24420.05
237.028	24376.35
237.1	24322.52
237.172	24289.19
237.244	24269.12
237.316	24201.24
237.388	24152.57
237.46	24093.96
237.532	24068.5
237.604	24015.49
237.675	23991.28
237.747	23956.89
237.819	23912.67
237.891	23876.25
237.963	23833.24
238.035	23780.04
238.107	23692.94
238.178	23660.28
238.25	23611.63
238.322	23585.92
238.394	23530.85
238.466	23483.3
238.538	23458.94
238.609	23421.14
238.681	23362.45
238.753	23303.23
238.825	23250.96
238.897	23209.73
238.968	23179.98
239.04	23131.81
239.112	23115.7
239.184	23056.68
239.255	23000.9
239.327	22962.62
239.399	22921.87
239.471	22879.74
239.542	22836.73
239.614	22809.83
239.686	22747.87
239.758	22709.45
239.829	22645.8
239.901	22614.37
239.973	22568.95
240.044	22511.68
240.116	22466.84
240.188	22416.9
240.259	22381.08
240.331	22334.56
240.403	22299.75
240.474	22248.89
240.546	22196.78
240.618	22137.39
240.689	22087.01
240.761	22061.61
240.833	22032.69
240.904	21986.55
240.976	21953.58
241.048	21924.52
241.119	21886.34
241.191	21849.46
241.262	21822.71
241.334	21775.62
241.405	21737.15
241.477	21691.46
241.549	21653.23
241.62	21613.66
241.692	21582.04
241.763	21546.85
241.835	21505.69
241.906	21459.23
241.978	21401.34
242.049	21370.16
242.121	21337.72
242.192	21313.91
242.264	21254.19
242.335	21187.01
242.407	21145.46
242.478	21094.32
242.55	21052.25
242.621	20997.3
242.693	20949.78
242.764	20905.83
242.836	20862.88
242.907	20811.17
242.979	20772.33
243.05	20734.83
243.122	20697.05
243.193	20649.58
243.264	20591.36
243.336	20540.37
243.407	20506.87
243.479	20493.86
243.55	20455.4
243.622	20414
243.693	20368.17
243.764	20337.14
243.836	20295.79
243.907	20249.33
243.978	20211.79
244.05	20161.48
244.121	20110.73
244.192	20078.73
244.264	20017.34
244.335	19978.83
244.407	19932.91
244.478	19900.91
244.549	19848.67
244.62	19795.13
244.692	19758.99
244.763	19728.1
244.834	19690.99
244.906	19640.77
244.977	19599.19
245.048	19560.92
245.119	19515.14
245.191	19474.85
245.262	19418.52
245.333	19392.21
245.405	19363.29
245.476	19329.13
245.547	19294.77
245.618	19267.69
245.689	19228.99
245.761	19198.39
245.832	19153.72
245.903	19118.2
245.974	19076.23
246.045	19035.8
246.117	19016.14
246.188	18965.87
246.259	18914.31
246.33	18870.17
246.401	18830.12
246.473	18771.67
246.544	18730.61
246.615	18695.24
246.686	18650.42
246.757	18632.88
246.828	18587.53
246.899	18555.3
246.97	18496.94
247.042	18450.19
247.113	18407.74
247.184	18379.93
247.255	18340.61
247.326	18311.02
247.397	18276.03
247.468	18240.23
247.539	18219.12
247.61	18175.94
247.681	18152.47
247.752	18126.16
247.823	18082.31
247.894	18048.38
247.965	18003.47
248.037	17965.83
248.108	17912.19
248.179	17879.86
248.25	17831.37
248.321	17804.24
248.392	17759.52
248.463	17752.1
248.534	17715.96
248.605	17699.33
248.675	17662.95
248.746	17629.45
248.817	17599.04
248.888	17569.5
248.959	17516.06
249.03	17483.04
249.101	17443.77
249.172	17399.33
249.243	17341.84
249.314	17327.81
249.385	17298.95
249.456	17271.57
249.527	17239.96
249.598	17220.1
249.669	17179.57
249.739	17158.9
249.81	17127.86
249.881	17088.92
249.952	17050.41
250.023	17029.49
250.094	16983.85
250.165	16942.22
250.235	16911.85
250.306	16880.82
250.377	16832.72
250.448	16817.49
250.519	16765.82
250.59	16748.09
250.66	16719.12
250.731	16718.98
250.802	16681.43
250.873	16644.9
250.944	16617.62
251.014	16574.1
251.085	16554.87
251.156	16530.82
251.227	16496.31
251.297	16478.43
251.368	16456.88
251.439	16432.93
251.51	16406.62
251.58	16366.8
251.651	16330.8
251.722	16312.68
251.792	16264.72
251.863	16236.38
251.934	16216.28
252.005	16209.29
252.075	16175.7
252.146	16151.65
252.217	16129.77
252.287	16110.39
252.358	16087.59
252.429	16079.02
252.499	16047.97
252.57	16024.31
252.641	16002.09
252.711	15984.79
252.782	15938.27
252.852	15928.97
252.923	15901.35
252.994	15871.09
253.064	15851.32
253.135	15821.2
253.205	15782.11
253.276	15773.24
253.347	15766.97
253.417	15727.16
253.488	15693.18
253.558	15661.8
253.629	15637.36
253.699	15607.33
253.77	15583.38
253.841	15549.88
253.911	15521.68
253.982	15500.52
254.052	15484.61
254.123	15464.95
254.193	15437.81
254.264	15442.39
254.334	15393.8
254.405	15351.29
254.475	15313.93
254.546	15285.25
254.616	15268.04
254.687	15249.77
254.757	15228.23
254.827	15194.58
254.898	15177.52
254.968	15157.37
255.039	15126.71
255.109	15106.18
255.18	15069.69
255.25	15029.63
255.321	15008.42
255.391	14965.67
255.461	14959.3
255.532	14904.79
255.602	14877.12
255.673	14830.75
255.743	14804.91
255.813	14768.8
255.884	14755.21
255.954	14750.05
256.024	14744.99
256.095	14723.78
256.165	14685.55
256.235	14664.2
256.306	14638.07
256.376	14619.13
256.446	14600.47
256.517	14583.36
256.587	14568.32
256.657	14553.14
256.728	14527.4
256.798	14501.41
256.868	14483.96
256.938	14452.1
257.009	14437.93
257.079	14417.05
257.149	14420.86
257.219	14372.42
257.29	14353.95
257.36	14319.24
257.43	14297.36
257.5	14254.46
257.571	14222.98
257.641	14210.64
257.711	14177.95
257.781	14165.57
257.852	14151.25
257.922	14111.86
257.992	14091.28
258.062	14061.68
258.132	14039.51
258.202	14025.72
258.273	14011.16
258.343	14003.88
258.413	13968.35
258.483	13948.69
258.553	13913.16
258.623	13885.49
258.693	13873.1
258.764	13861.24
258.834	13855.07
258.904	13830.2
258.974	13804.55
259.044	13791.2
259.114	13770.85
259.184	13753.5
259.254	13727.9
259.324	13680.61
259.394	13662.05
259.464	13658.92
259.535	13634.72
259.605	13610.81
259.675	13577.5
259.745	13555.37
259.815	13521.38
259.885	13502.87
259.955	13509.62
260.025	13488.75
260.095	13461.61
260.165	13448.06
260.235	13441.84
260.305	13415.23
260.375	13389.01
260.445	13385.83
260.515	13376.76
260.585	13367.7
260.655	13345.72
260.725	13331.64
260.795	13324.8
260.865	13320.17
260.934	13283.58
261.004	13270.08
261.074	13249.31
261.144	13241.98
261.214	13235.71
261.284	13221.59
261.354	13214.79
261.424	13181
261.494	13174.59
261.564	13163.69
261.634	13144.07
261.703	13110.81
261.773	13099.91
261.843	13080.87
