Data from 20250702_urea_2M_MAYP1162681_11-36-53-266.txt Node
Date: Wed Jul 02 11:36:53 BST 2025
User: adleo
Spectrometer: MAYP116268
Trigger mode: 0
Integration Time (sec): 1.000000E0
Scans to average: 1
Electric dark correction enabled: true
Nonlinearity correction enabled: true
Boxcar width: 10
XAxis mode: Wavelengths
Number of Pixels in Spectrum: 2068
>>>>>Begin Spectral Data<<<<<
179.565	1021.05
179.642	1066.82
179.718	1102.11
179.795	1130.28
179.871	1160.62
179.948	1174.32
180.024	1191.87
180.101	1212.01
180.177	1224.73
180.254	1241.67
180.33	1261.02
180.407	1298.94
180.483	1377.57
180.56	1453.11
180.636	1522.23
180.712	1512.87
180.789	1520.8
180.865	1528.58
180.942	1536.04
181.018	1544.68
181.095	1554.75
181.171	1561.5
181.248	1561.4
181.324	1574.47
181.4	1581.5
181.477	1589.53
181.553	1599.74
181.63	1617.41
181.706	1630.43
181.782	1636.98
181.859	1638.36
181.935	1642.01
182.011	1640.97
182.088	1658.55
182.164	1675.8
182.24	1688.96
182.317	1696.08
182.393	1695.8
182.469	1710.33
182.546	1721.93
182.622	1726.11
182.698	1722.07
182.775	1730
182.851	1745.83
182.927	1738.98
183.003	1735.99
183.08	1730.29
183.156	1739.36
183.232	1736.99
183.308	1726.96
183.385	1734.04
183.461	1750.91
183.537	1752.24
183.613	1764.98
183.69	1756.9
183.766	1745.63
183.842	1751.15
183.918	1756.47
183.995	1767.87
184.071	1768.73
184.147	1761.46
184.223	1753.62
184.299	1765.36
184.375	1755.48
184.452	1759.14
184.528	1811.47
184.604	1820.64
184.68	1830.43
184.756	1837.7
184.832	1841.51
184.908	1843.79
184.985	1843.41
185.061	1827.3
185.137	1836.9
185.213	1824.97
185.289	1825.49
185.365	1820.17
185.441	1818.7
185.517	1829.01
185.593	1824.07
185.669	1822.93
185.745	1835.91
185.822	1850.35
185.898	1842.7
185.974	1850.96
186.05	1844.73
186.126	1805.56
186.202	1799.62
186.278	1795.06
186.354	1786.6
186.43	1791.78
186.506	1792.07
186.582	1791.16
186.658	1798.01
186.734	1778.86
186.81	1780.09
186.886	1782.28
186.962	1793.59
187.038	1791.78
187.114	1785.22
187.19	1793.87
187.266	1783.37
187.341	1783.84
187.417	1778.09
187.493	1777.76
187.569	1780.38
187.645	1772.77
187.721	1762.22
187.797	1770.39
187.873	1778.33
187.949	1771.87
188.025	1768.02
188.101	1768.16
188.176	1774.05
188.252	1769.73
188.328	1774.72
188.404	1775.19
188.48	1771.53
188.556	1765.07
188.632	1764.02
188.707	1767.21
188.783	1763.88
188.859	1759.61
188.935	1746.68
189.011	1751.29
189.086	1746.21
189.162	1739.6
189.238	1737.56
189.314	1735.61
189.39	1730.71
189.465	1722.21
189.541	1740.79
189.617	1725.92
189.693	1723.87
189.768	1725.02
189.844	1749.07
189.92	1744.84
189.996	1752.3
190.071	1760.34
190.147	1759.34
190.223	1767.85
190.298	1758.1
190.374	1748.31
190.45	1763.33
190.526	1772.02
190.601	1768.84
190.677	1770.07
190.753	1796.84
190.828	1800.07
190.904	1813.33
190.98	1826.31
191.055	1833.3
191.131	1821.6
191.207	1840.23
191.282	1849.02
191.358	1840.85
191.433	1826.06
191.509	1837.79
191.585	1836.51
191.66	1837.41
191.736	1845.78
191.811	1838.13
191.887	1853.43
191.963	1872.59
192.038	1874.4
192.114	1876.58
192.189	1879.72
192.265	1875.4
192.34	1853.47
192.416	1851.19
192.491	1850.29
192.567	1851
192.642	1852.71
192.718	1854
192.793	1842.02
192.869	1836.51
192.944	1839.93
193.02	1845.82
193.095	1846.91
193.171	1850.77
193.246	1850.48
193.322	1846.72
193.397	1844.97
193.473	1833.08
193.548	1817.44
193.624	1822.58
193.699	1818.44
193.775	1832.94
193.85	1836.22
193.925	1844.82
194.001	1848.01
194.076	1840.26
194.152	1830.7
194.227	1826.19
194.302	1816.73
194.378	1821.49
194.453	1819.92
194.529	1829.81
194.604	1817.16
194.679	1813.69
194.755	1797.58
194.83	1809.04
194.905	1806.62
194.981	1817.6
195.056	1813.75
195.131	1819.26
195.207	1818.93
195.282	1812.23
195.357	1794.83
195.433	1807.66
195.508	1796.73
195.583	1802.67
195.659	1816.65
195.734	1826.58
195.809	1828.06
195.884	1837.7
195.96	1837.65
196.035	1852.86
196.11	1849.44
196.185	1859.42
196.261	1861.84
196.336	1890.89
196.411	1878.95
196.486	1886.23
196.561	1879.33
196.637	1883.61
196.712	1898.45
196.787	1899.92
196.862	1913.94
196.937	1923.21
197.013	1927.06
197.088	1937.47
197.163	1956.26
197.238	1967.82
197.313	1965.11
197.388	1977.42
197.464	2003.96
197.539	2011.85
197.614	2003.44
197.689	2014.95
197.764	2031.64
197.839	2050.19
197.914	2043.39
197.989	2062.7
198.065	2075.97
198.14	2120.37
198.215	2145.53
198.29	2153.66
198.365	2166.79
198.44	2177.3
198.515	2200
198.59	2215.89
198.665	2238.3
198.74	2244.87
198.815	2247.1
198.89	2266.18
198.965	2291.41
199.04	2287.27
199.115	2303.25
199.19	2342.22
199.265	2343.7
199.34	2351.31
199.415	2382.36
199.49	2402.78
199.565	2412.06
199.64	2432
199.715	2427.43
199.79	2432.95
199.865	2441.19
199.94	2436.53
200.015	2464.62
200.09	2470.28
200.165	2472.95
200.24	2477.81
200.315	2515.02
200.39	2529.21
200.464	2535.78
200.539	2535.31
200.614	2552.07
200.689	2571.35
200.764	2578.93
200.839	2596.35
200.914	2598.44
200.989	2583.39
201.063	2593.58
201.138	2579.35
201.213	2577.49
201.288	2561.45
201.363	2565.69
201.438	2564.78
201.512	2582.15
201.587	2567.63
201.662	2570.96
201.737	2585.63
201.812	2595.54
201.886	2563.8
201.961	2573.85
202.036	2564.19
202.111	2562.04
202.186	2536.39
202.26	2522.96
202.335	2500.95
202.41	2494.24
202.485	2479.11
202.559	2464.97
202.634	2442.07
202.709	2451.3
202.784	2435.87
202.858	2436.64
202.933	2418.83
203.008	2412.79
203.082	2395.18
203.157	2391.22
203.232	2354.59
203.306	2332.97
203.381	2301.07
203.456	2281.8
203.53	2258.89
203.605	2241.33
203.68	2222.25
203.754	2214.64
203.829	2200.03
203.904	2183.52
203.978	2172.15
204.053	2178.76
204.127	2168.67
204.202	2167.01
204.277	2149.5
204.351	2140.51
204.426	2135.66
204.5	2131.52
204.575	2101.27
204.65	2110.84
204.724	2103.6
204.799	2110.69
204.873	2108.26
204.948	2108.88
205.022	2097.42
205.097	2090.71
205.171	2100.6
205.246	2104.07
205.32	2104.12
205.395	2103.79
205.469	2097.04
205.544	2101.94
205.618	2085.67
205.693	2094.66
205.767	2084.72
205.842	2098.51
205.916	2095.8
205.991	2086.91
206.065	2091.52
206.14	2106.45
206.214	2099.07
206.289	2096.46
206.363	2108.82
206.438	2111.58
206.512	2118.77
206.586	2138.98
206.661	2146.6
206.735	2130.14
206.81	2134
206.884	2148.27
206.958	2140.37
207.033	2152.83
207.107	2159.68
207.181	2186.76
207.256	2182.33
207.33	2199.13
207.405	2212.31
207.479	2227.58
207.553	2234.53
207.628	2219.74
207.702	2228.68
207.776	2225.02
207.851	2225.68
207.925	2238.2
207.999	2236.25
208.073	2235.63
208.148	2236.59
208.222	2226.26
208.296	2254.27
208.371	2269.8
208.445	2278.93
208.519	2303.3
208.593	2315.34
208.668	2312.67
208.742	2312.76
208.816	2315.1
208.89	2328.05
208.965	2328.43
209.039	2336.85
209.113	2354.51
209.187	2373.3
209.261	2370.49
209.336	2390.82
209.41	2407.15
209.484	2406.29
209.558	2422.33
209.632	2431.61
209.707	2442.94
209.781	2459.94
209.855	2474.6
209.929	2489.33
210.003	2493.61
210.077	2491
210.151	2535.94
210.226	2565.33
210.3	2593.16
210.374	2613.63
210.448	2617.34
210.522	2629.83
210.596	2638.02
210.67	2646.35
210.744	2690.19
210.818	2719.99
210.892	2739.29
210.966	2737.72
211.041	2754.44
211.115	2756.49
211.189	2781.74
211.263	2797.27
211.337	2808.52
211.411	2824.77
211.485	2823.05
211.559	2841.16
211.633	2852.11
211.707	2830.46
211.781	2849.3
211.855	2827.95
211.929	2831.99
212.003	2825.8
212.077	2844.35
212.151	2870.47
212.225	2889.02
212.299	2894.65
212.373	2903.51
212.447	2919.25
212.52	2964.83
212.594	2991.06
212.668	3025.58
212.742	3039.65
212.816	3068.99
212.89	3096.17
212.964	3125.9
213.038	3163.12
213.112	3210.6
213.186	3262.79
213.26	3284.39
213.333	3286.78
213.407	3337.63
213.481	3386.72
213.555	3452.26
213.629	3498.06
213.703	3541.66
213.777	3603.43
213.85	3648.9
213.924	3744.14
213.998	3812.39
214.072	3878.27
214.146	3940.79
214.219	4019.39
214.293	4097.5
214.367	4177.75
214.441	4276.71
214.515	4360.92
214.588	4437.99
214.662	4501.15
214.736	4579.96
214.81	4691.09
214.883	4804.06
214.957	4906.7
215.031	5009.96
215.105	5103.18
215.178	5206.81
215.252	5323.36
215.326	5427.42
215.4	5537.7
215.473	5625.43
215.547	5737.48
215.621	5857.14
215.694	5997.45
215.768	6110.6
215.842	6242.24
215.915	6370.96
215.989	6489.85
216.063	6616.35
216.136	6763.57
216.21	6915.04
216.284	7074.55
216.357	7228.8
216.431	7383.28
216.504	7541.76
216.578	7715.66
216.652	7881.27
216.725	8041.33
216.799	8207.88
216.873	8364.71
216.946	8530.05
217.02	8686.33
217.093	8846.3
217.167	8994.75
217.24	9138.93
217.314	9305.64
217.387	9455.13
217.461	9607
217.535	9781.67
217.608	9941.51
217.682	10103.6
217.755	10276.38
217.829	10430.93
217.902	10591.89
217.976	10750.75
218.049	10906.24
218.123	11056.3
218.196	11218.35
218.27	11367.64
218.343	11507.55
218.417	11671.27
218.49	11825.64
218.563	11991.29
218.637	12153.29
218.71	12315.34
218.784	12480.33
218.857	12635.06
218.931	12794.56
219.004	12954.55
219.077	13100.56
219.151	13252.26
219.224	13389.3
219.298	13535.8
219.371	13690.25
219.444	13825.9
219.518	13967.91
219.591	14110.6
219.665	14274.06
219.738	14412.5
219.811	14548.78
219.885	14692.19
219.958	14829.13
220.031	14959.76
220.105	15090.39
220.178	15218.18
220.251	15343.41
220.325	15471.81
220.398	15602.1
220.471	15734.36
220.544	15861.95
220.618	15979.03
220.691	16105.31
220.764	16228.46
220.838	16346.11
220.911	16462.16
220.984	16596.05
221.057	16711.39
221.131	16815.78
221.204	16889.71
221.277	17014.83
221.35	17148.47
221.424	17253.92
221.497	17356.38
221.57	17458.74
221.643	17576.72
221.716	17675.42
221.79	17773.92
221.863	17862.5
221.936	17942.55
222.009	18023.22
222.082	18107.07
222.155	18188.9
222.229	18280.61
222.302	18363.16
222.375	18433.85
222.448	18512.16
222.521	18571.15
222.594	18632.88
222.667	18698.08
222.74	18774.37
222.814	18828.05
222.887	18884.63
222.96	18959.7
223.033	19025.97
223.106	19088.23
223.179	19138.88
223.252	19199.21
223.325	19261.37
223.398	19321.95
223.471	19386.38
223.544	19441.89
223.617	19499.82
223.69	19555.19
223.763	19597.6
223.837	19655.81
223.91	19723.76
223.983	19754.65
224.056	19795.37
224.129	19848.28
224.202	19899.61
224.275	19946.78
224.348	19979.84
224.42	20005.19
224.493	20019.02
224.566	20047.6
224.639	20098.39
224.712	20132.42
224.785	20166.01
224.858	20192.42
224.931	20219.6
225.004	20247.35
225.077	20281.14
225.15	20292.85
225.223	20319.06
225.296	20368.85
225.369	20377.72
225.442	20382.68
225.514	20406.92
225.587	20432.94
225.66	20464.85
225.733	20498.39
225.806	20525.43
225.879	20553.67
225.952	20561.72
226.025	20596.37
226.097	20626.39
226.17	20629.14
226.243	20621.67
226.316	20629.28
226.389	20647.31
226.461	20673.43
226.534	20690.2
226.607	20709.19
226.68	20745.48
226.753	20758.97
226.825	20748.13
226.898	20773.14
226.971	20787.46
227.044	20809.58
227.117	20832.04
227.189	20848.13
227.262	20861.77
227.335	20876.23
227.407	20882.35
227.48	20905.73
227.553	20919.08
227.626	20932.86
227.698	20947.75
227.771	20970.31
227.844	20977.05
227.916	20986.45
227.989	20983.37
228.062	20986.36
228.134	20994.36
228.207	20994.55
228.28	20998.94
228.352	21002.26
228.425	21016.14
228.498	21025.35
228.57	21019.8
228.643	21019.18
228.716	21012.48
228.788	21005.54
228.861	21002.26
228.934	21007.71
229.006	21003.71
229.079	20996.57
229.151	20983.51
229.224	20973.68
229.296	20972.48
229.369	21007.95
229.442	21020.53
229.514	21009.2
229.587	21017.83
229.659	21003.13
229.732	20998.84
229.804	21005.49
229.877	21031.04
229.949	21029.69
230.022	21044.24
230.094	21047.33
230.167	21057.45
230.239	21044.15
230.312	21043.95
230.384	21062.37
230.457	21078.13
230.529	21082.32
230.602	21092.78
230.674	21094.8
230.747	21102.85
230.819	21113.98
230.892	21072.68
230.964	21064.58
231.037	21068.05
231.109	21057.45
231.181	21072
231.254	21062.75
231.326	21055.62
231.399	21030.02
231.471	21021.73
231.544	20991.47
231.616	20986.55
231.688	20974.12
231.761	20967.03
231.833	20958.26
231.905	20919.36
231.978	20899.51
232.05	20893.24
232.122	20875.94
232.195	20870.69
232.267	20875.75
232.339	20851.22
232.412	20849.29
232.484	20831.65
232.556	20813.34
232.629	20825.53
232.701	20811.31
232.773	20802.4
232.846	20783.65
232.918	20776.95
232.99	20754.3
233.062	20754.01
233.135	20742.63
233.207	20718.2
233.279	20708.18
233.351	20692.37
233.424	20668.85
233.496	20647.4
233.568	20645.91
233.64	20622.44
233.713	20597.96
233.785	20567.98
233.857	20562.97
233.929	20531.59
234.001	20531.45
234.074	20528.94
234.146	20493.42
234.218	20480.08
234.29	20466.48
234.362	20449.86
234.434	20420.99
234.507	20397.67
234.579	20363.83
234.651	20341.96
234.723	20330.44
234.795	20308.41
234.867	20294.97
234.939	20293.23
235.012	20263.6
235.084	20250.44
235.156	20236.27
235.228	20218.1
235.3	20192.22
235.372	20179.16
235.444	20179.16
235.516	20141.81
235.588	20114.59
235.66	20091.45
235.732	20054.68
235.804	20072.18
235.876	20054.97
235.948	20051.31
236.02	20029.96
236.092	20010.44
236.164	19995.31
236.236	19970.11
236.308	19954.4
236.38	19935.7
236.452	19912.04
236.524	19907.65
236.596	19889.1
236.668	19865.29
236.74	19840.86
236.812	19821.68
236.884	19795.8
236.956	19766.7
237.028	19736.91
237.1	19708.96
237.172	19697.54
237.244	19696.29
237.316	19633.88
237.388	19602.08
237.46	19570.46
237.532	19557.5
237.604	19522.23
237.675	19502.18
237.747	19481.65
237.819	19452.25
237.891	19419.15
237.963	19392.98
238.035	19349.13
238.107	19289.03
238.178	19288.07
238.25	19263.3
238.322	19255.3
238.394	19213.52
238.466	19189.96
238.538	19172.41
238.609	19154.92
238.681	19120.32
238.753	19077.24
238.825	19055.65
238.897	19028.38
238.968	19005.49
239.04	18969.25
239.112	18980.19
239.184	18944.14
239.255	18917.25
239.327	18881.35
239.399	18862.02
239.471	18837.3
239.542	18827.09
239.614	18814.89
239.686	18754.99
239.758	18726.18
239.829	18687.34
239.901	18678.66
239.973	18648.54
240.044	18613.12
240.116	18576.16
240.188	18539.39
240.259	18513.56
240.331	18482.63
240.403	18457.28
240.474	18422.05
240.546	18389.38
240.618	18331.69
240.689	18293.67
240.761	18263.74
240.833	18265.38
240.904	18222.78
240.976	18197.48
241.048	18168.38
241.119	18149.49
241.191	18123.37
241.262	18106.74
241.334	18071.22
241.405	18031.37
241.477	17988
241.549	17957.06
241.62	17930.75
241.692	17902.65
241.763	17889.11
241.835	17859.86
241.906	17838.03
241.978	17793.21
242.049	17777.21
242.121	17760.63
242.192	17745.26
242.264	17699.43
242.335	17646.8
242.407	17628.39
242.478	17586.85
242.55	17553.45
242.621	17507.04
242.693	17475.43
242.764	17438.85
242.836	17401.26
242.907	17368.54
242.979	17346.9
243.05	17322.66
243.122	17300.25
243.193	17258.8
243.264	17200.1
243.336	17158.37
243.407	17130.27
243.479	17109.5
243.55	17068.58
243.622	17028.34
243.693	16988.48
243.764	16977.59
243.836	16933.44
243.907	16894.6
243.978	16863.32
244.05	16838.64
244.121	16800.67
244.192	16779.99
244.264	16736.04
244.335	16714.11
244.407	16665.81
244.478	16642.87
244.549	16609.04
244.62	16556.75
244.692	16539.01
244.763	16517.8
244.834	16485.8
244.906	16446.52
244.977	16419.97
245.048	16406.28
245.119	16375.96
245.191	16346.37
245.262	16288.15
245.333	16282.6
245.405	16255.56
245.476	16220.52
245.547	16188.43
245.618	16159.17
245.689	16127.31
245.761	16098.73
245.832	16066.58
245.903	16050.77
245.974	16025.61
246.045	15991.05
246.117	15983.05
246.188	15931.67
246.259	15884.58
246.33	15854.84
246.401	15816.28
246.473	15772.13
246.544	15737.47
246.615	15709.28
246.686	15668.11
246.757	15655.63
246.828	15611.77
246.899	15587.76
246.97	15554.94
247.042	15513
247.113	15484.18
247.184	15462.83
247.255	15424.41
247.326	15390.86
247.397	15354.71
247.468	15322.51
247.539	15287.95
247.61	15245.29
247.681	15228.37
247.752	15210.25
247.823	15170.82
247.894	15157.42
247.965	15119.24
248.037	15083.77
248.108	15037.63
248.179	15011.75
248.25	14972.08
248.321	14945.23
248.392	14901.46
248.463	14895.63
248.534	14861.31
248.605	14848.2
248.675	14824.09
248.746	14807.7
248.817	14788.81
248.888	14769.58
248.959	14719.11
249.03	14705.08
249.101	14675.58
249.172	14645.88
249.243	14613.2
249.314	14602.79
249.385	14561.57
249.456	14542.34
249.527	14514.62
249.598	14498.38
249.669	14472.44
249.739	14453.59
249.81	14426.79
249.881	14402.69
249.952	14362.97
250.023	14343.49
250.094	14299.09
250.165	14258.99
250.235	14232.96
250.306	14203.94
250.377	14167.93
250.448	14146.19
250.519	14097.45
250.59	14082.8
250.66	14050.11
250.731	14029.38
250.802	13997.71
250.873	13978.82
250.944	13960.11
251.014	13924.78
251.085	13919.14
251.156	13896.43
251.227	13883.46
251.297	13872.62
251.368	13855.7
251.439	13844.75
251.51	13826.68
251.58	13800.74
251.651	13768.97
251.722	13751.04
251.792	13707.75
251.863	13682.73
251.934	13678.92
252.005	13683.07
252.075	13656.03
252.146	13642.82
252.217	13630.86
252.287	13616.01
252.358	13593.84
252.429	13582.08
252.499	13556.04
252.57	13533.53
252.641	13520.18
252.711	13498.2
252.782	13458.52
252.852	13444.35
252.923	13418.7
252.994	13399.95
253.064	13386.65
253.135	13360.62
253.205	13331.98
253.276	13335.21
253.347	13322.48
253.417	13284.69
253.488	13252.2
253.558	13227.23
253.629	13205
253.699	13187.31
253.77	13173.77
253.841	13143.64
253.911	13127.34
253.982	13109.03
254.052	13091.53
254.123	13056.67
254.193	13031.65
254.264	13042.55
254.334	13013.82
254.405	12975.74
254.475	12938.38
254.546	12910.85
254.616	12899.57
254.687	12883.08
254.757	12860.96
254.827	12841.24
254.898	12824.03
254.968	12806.87
255.039	12781.27
255.109	12768.55
255.18	12730.42
255.25	12687.18
255.321	12672.14
255.391	12626.73
255.461	12627.64
255.532	12582.81
255.602	12568.74
255.673	12534.17
255.743	12499.8
255.813	12456.61
255.884	12447.17
255.954	12439.6
256.024	12433.48
256.095	12413.23
256.165	12385.56
256.235	12366.52
256.306	12336.2
256.376	12326.17
256.446	12308.43
256.517	12290.84
256.587	12274.74
256.657	12260.47
256.728	12245.87
256.798	12224.8
256.868	12209.91
256.938	12173.95
257.009	12162.76
257.079	12154.33
257.149	12151.39
257.219	12114.85
257.29	12098.56
257.36	12055.28
257.43	12041.83
257.5	11999.41
257.571	11970.39
257.641	11952.51
257.711	11924.27
257.781	11913.95
257.852	11895.34
257.922	11867.15
257.992	11846.32
258.062	11825.69
258.132	11810.9
258.202	11788.92
258.273	11774.84
258.343	11773.3
258.413	11743.37
258.483	11725.87
258.553	11685.24
258.623	11660.37
258.693	11645.91
258.764	11653.48
258.834	11651.12
258.904	11631.74
258.974	11613.33
259.044	11593.91
259.114	11578.53
259.184	11561.28
259.254	11536.55
259.324	11502.09
259.394	11479.05
259.464	11479.54
259.535	11456.88
259.605	11431.58
259.675	11400.88
259.745	11384.54
259.815	11351
259.885	11331.72
259.955	11333.36
260.025	11316.25
260.095	11294.27
260.165	11283.24
260.235	11270.9
260.305	11249.26
260.375	11218.08
260.445	11219.24
260.515	11219.43
260.585	11213.84
260.655	11199.72
260.725	11192.78
260.795	11179.96
260.865	11179.24
260.934	11148.78
261.004	11130.66
261.074	11119.14
261.144	11117.89
261.214	11109.12
261.284	11092.01
261.354	11085.65
261.424	11064.68
261.494	11059.77
261.564	11039.57
261.634	11028.97
261.703	10992.97
261.773	10985.02
261.843	10979.19
261.913	10961.65
261.983	10928.02
262.053	10912.55
262.123	10885.32
262.192	10852.99
262.262	10841.76
262.332	10811.88
262.402	10802.53
