Data from 20250702_urea_2M_MAYP1162681_11-36-47-263.txt Node
Date: Wed Jul 02 11:36:47 BST 2025
User: adleo
Spectrometer: MAYP116268
Trigger mode: 0
Integration Time (sec): 1.000000E0
Scans to average: 1
Electric dark correction enabled: true
Nonlinearity correction enabled: true
Boxcar width: 10
XAxis mode: Wavelengths
Number of Pixels in Spectrum: 2068
>>>>>Begin Spectral Data<<<<<
179.565	1016.16
179.642	1064.92
179.718	1097.59
179.795	1126.94
179.871	1155.57
179.948	1167.16
180.024	1184.31
180.101	1203.65
180.177	1217.34
180.254	1236.34
180.33	1255.43
180.407	1296.05
180.483	1376.29
180.56	1451.17
180.636	1521.09
180.712	1511.11
180.789	1519.52
180.865	1532.39
180.942	1542.41
181.018	1548.29
181.095	1559.22
181.171	1567.34
181.248	1567.68
181.324	1581.4
181.4	1589.81
181.477	1600.17
181.553	1612.08
181.63	1631.8
181.706	1645.44
181.782	1652.61
181.859	1650.85
181.935	1655.31
182.011	1651.42
182.088	1666.48
182.164	1682.97
182.24	1694.32
182.317	1702.11
182.393	1699.4
182.469	1710.05
182.546	1724.16
182.622	1730.05
182.698	1726.39
182.775	1734.85
182.851	1747.87
182.927	1744.92
183.003	1739.65
183.08	1731.76
183.156	1741.36
183.232	1734.33
183.308	1724.21
183.385	1729.62
183.461	1744.54
183.537	1744.35
183.613	1754.09
183.69	1743.78
183.766	1737.46
183.842	1745.63
183.918	1749.77
183.995	1763.36
184.071	1765.45
184.147	1757.13
184.223	1747.06
184.299	1756.99
184.375	1747.06
184.452	1750.91
184.528	1799.07
184.604	1809.38
184.68	1819.78
184.756	1824.96
184.832	1830.81
184.908	1836.37
184.985	1835.61
185.061	1822.35
185.137	1830.67
185.213	1821.92
185.289	1825.25
185.365	1817.45
185.441	1816.98
185.517	1829.53
185.593	1825.59
185.669	1823.88
185.745	1835.9
185.822	1849.35
185.898	1841.46
185.974	1848.39
186.05	1841.21
186.126	1804.9
186.202	1797.34
186.278	1794.3
186.354	1785.37
186.43	1791.55
186.506	1787.18
186.582	1786.08
186.658	1792.92
186.734	1776.1
186.81	1780
186.886	1782.95
186.962	1792.59
187.038	1787.65
187.114	1780.8
187.19	1788.22
187.266	1779.85
187.341	1776
187.417	1768.83
187.493	1770.82
187.569	1774.77
187.645	1771.68
187.721	1763.03
187.797	1769.73
187.873	1775.43
187.949	1772.68
188.025	1766.64
188.101	1772.1
188.176	1779.33
188.252	1776.38
188.328	1782.74
188.404	1779.8
188.48	1776.47
188.556	1772.62
188.632	1772.96
188.707	1770.39
188.783	1767.3
188.859	1763.31
188.935	1755.32
189.011	1763.16
189.086	1756.13
189.162	1745.58
189.238	1742.35
189.314	1739.36
189.39	1734.94
189.465	1728.19
189.541	1741.16
189.617	1728.1
189.693	1722.49
189.768	1722.73
189.844	1741.98
189.92	1734.67
189.996	1742.08
190.071	1749.54
190.147	1746.31
190.223	1751.82
190.298	1747.4
190.374	1736.76
190.45	1747.45
190.526	1755.19
190.601	1750.68
190.677	1752.58
190.753	1777.49
190.828	1780.2
190.904	1791.04
190.98	1806.67
191.055	1815.13
191.131	1808.81
191.207	1826.25
191.282	1832.86
191.358	1826.16
191.433	1813.75
191.509	1825.48
191.585	1821.25
191.66	1823.25
191.736	1831.66
191.811	1826.14
191.887	1839.98
191.963	1859.37
192.038	1865.55
192.114	1863.13
192.189	1868.69
192.265	1867.45
192.34	1849.57
192.416	1847.2
192.491	1844.54
192.567	1843.16
192.642	1847.05
192.718	1847.24
192.793	1839.59
192.869	1837.36
192.944	1839.92
193.02	1849.67
193.095	1853.62
193.171	1861.13
193.246	1860.41
193.322	1856.32
193.397	1858.65
193.473	1846.48
193.548	1830.6
193.624	1836.45
193.699	1837.21
193.775	1849.05
193.85	1849.15
193.925	1859.13
194.001	1860.32
194.076	1853.62
194.152	1847.44
194.227	1838.59
194.302	1830.9
194.378	1834.13
194.453	1830.09
194.529	1839.45
194.604	1822.58
194.679	1816.16
194.755	1798.11
194.83	1808.71
194.905	1807.67
194.981	1814.99
195.056	1810.62
195.131	1815.42
195.207	1812.66
195.282	1805.48
195.357	1790.27
195.433	1803.29
195.508	1792.31
195.583	1799.87
195.659	1811.04
195.734	1818.22
195.809	1818.74
195.884	1826.39
195.96	1824.25
196.035	1838.93
196.11	1836.03
196.185	1847.96
196.261	1850.72
196.336	1879.43
196.411	1866.07
196.486	1869.2
196.561	1862.07
196.637	1869.58
196.712	1887.08
196.787	1890.36
196.862	1901.96
196.937	1908.42
197.013	1912.04
197.088	1920.02
197.163	1937.91
197.238	1953.22
197.313	1951.99
197.388	1961.35
197.464	1984.99
197.539	1994.83
197.614	1990.88
197.689	2001.68
197.764	2016.23
197.839	2036.39
197.914	2030.78
197.989	2049.71
198.065	2063.78
198.14	2108.66
198.215	2132.44
198.29	2138.11
198.365	2147.43
198.44	2158.75
198.515	2184.25
198.59	2199.24
198.665	2224.45
198.74	2230.88
198.815	2232.31
198.89	2251.34
198.965	2277.89
199.04	2277.89
199.115	2291.59
199.19	2329.66
199.265	2330.42
199.34	2338.28
199.415	2369.37
199.49	2387.98
199.565	2395.35
199.64	2416.44
199.715	2413.48
199.79	2416.63
199.865	2428.1
199.94	2426.96
200.015	2455.77
200.09	2462
200.165	2469.1
200.24	2472.91
200.315	2510.6
200.39	2525.6
200.464	2531.93
200.539	2534.22
200.614	2549.36
200.689	2570.26
200.764	2575.07
200.839	2592.68
200.914	2599.44
200.989	2588.25
201.063	2601.49
201.138	2590.68
201.213	2592.49
201.288	2575.02
201.363	2581.02
201.438	2574.92
201.512	2590.97
201.587	2572.29
201.662	2574.01
201.737	2581.25
201.812	2587.25
201.886	2555.37
201.961	2564.32
202.036	2556.09
202.111	2552.04
202.186	2524.81
202.26	2509.76
202.335	2488.76
202.41	2483.48
202.485	2468.53
202.559	2451.96
202.634	2427.68
202.709	2434.01
202.784	2414.16
202.858	2414.83
202.933	2397.69
203.008	2397.36
203.082	2377.84
203.157	2379.84
203.232	2343.06
203.306	2325.78
203.381	2298.41
203.456	2278.7
203.53	2258.79
203.605	2240
203.68	2220.25
203.754	2214.97
203.829	2201.08
203.904	2183.67
203.978	2173.86
204.053	2176.05
204.127	2164.54
204.202	2163.68
204.277	2150.89
204.351	2147.89
204.426	2139.8
204.5	2132.81
204.575	2101.99
204.65	2110.84
204.724	2103.65
204.799	2112.01
204.873	2107.4
204.948	2108.3
205.022	2097.56
205.097	2089.51
205.171	2098.69
205.246	2107.78
205.32	2104.93
205.395	2104.36
205.469	2100.93
205.544	2103.03
205.618	2088.71
205.693	2097.27
205.767	2086.76
205.842	2104.08
205.916	2096.14
205.991	2089.57
206.065	2096.8
206.14	2109.64
206.214	2106.64
206.289	2100.5
206.363	2112.06
206.438	2113.44
206.512	2118.2
206.586	2135.08
206.661	2141.13
206.735	2124.2
206.81	2122.44
206.884	2136.04
206.958	2125.48
207.033	2139.37
207.107	2148.75
207.181	2176.96
207.256	2172.83
207.33	2189.76
207.405	2199.62
207.479	2216.36
207.553	2222.88
207.628	2206.52
207.702	2216.03
207.776	2212.32
207.851	2215.13
207.925	2225.69
207.999	2226.84
208.073	2224.27
208.148	2228.07
208.222	2219.22
208.296	2246.43
208.371	2264.28
208.445	2275.23
208.519	2300.58
208.593	2307.2
208.668	2306.06
208.742	2306.34
208.816	2308.58
208.89	2317.19
208.965	2318
209.039	2324.1
209.113	2339.66
209.187	2359.11
209.261	2356.64
209.336	2371.68
209.41	2387.86
209.484	2389.77
209.558	2407.1
209.632	2419.71
209.707	2428.04
209.781	2445.51
209.855	2459.6
209.929	2471.04
210.003	2475.9
210.077	2480.56
210.151	2524.78
210.226	2552.18
210.3	2579.1
210.374	2598.34
210.448	2606.96
210.522	2617.72
210.596	2630.87
210.67	2640.82
210.744	2681.6
210.818	2709.46
210.892	2732.47
210.966	2729.42
211.041	2745.24
211.115	2747.24
211.189	2772.82
211.263	2790.97
211.337	2801.12
211.411	2818.9
211.485	2821.09
211.559	2840.67
211.633	2845.48
211.707	2827.5
211.781	2843.1
211.855	2821.94
211.929	2828.32
212.003	2821.79
212.077	2842.06
212.151	2867.57
212.225	2890.93
212.299	2898.03
212.373	2903.71
212.447	2916.73
212.52	2964.26
212.594	2989.16
212.668	3024.06
212.742	3036.74
212.816	3061.26
212.89	3089.11
212.964	3118.26
213.038	3156.25
213.112	3201.2
213.186	3251.81
213.26	3272.98
213.333	3277.47
213.407	3328.13
213.481	3379.7
213.555	3448.59
213.629	3491.53
213.703	3530.88
213.777	3588.73
213.85	3637.31
213.924	3731.24
213.998	3800.39
214.072	3863.78
214.146	3927.16
214.219	3994.99
214.293	4074.77
214.367	4161.94
214.441	4255.54
214.515	4338.59
214.588	4413.47
214.662	4479.31
214.736	4566.54
214.81	4679.26
214.883	4789.64
214.957	4893.86
215.031	4993.2
215.105	5080.82
215.178	5187.33
215.252	5306.84
215.326	5402.6
215.4	5506.69
215.473	5598.19
215.547	5713.17
215.621	5830.81
215.694	5971.45
215.768	6094.85
215.842	6223.22
215.915	6352.38
215.989	6476.26
216.063	6615.35
216.136	6762.33
216.21	6907.6
216.284	7062.99
216.357	7212.53
216.431	7364.73
216.504	7519.76
216.578	7700.69
216.652	7870.43
216.725	8025.97
216.799	8190.93
216.873	8361.79
216.946	8528.76
217.02	8685.9
217.093	8843.51
217.167	8991.42
217.24	9146.3
217.314	9310.46
217.387	9470.06
217.461	9625.64
217.535	9793.23
217.608	9941.38
217.682	10100.96
217.755	10272.53
217.829	10416.91
217.902	10579.7
217.976	10742.02
218.049	10893.7
218.123	11037.54
218.196	11198.15
218.27	11354.58
218.343	11496.7
218.417	11649.92
218.49	11813.54
218.563	11991.87
218.637	12151.79
218.71	12324.3
218.784	12476.76
218.857	12643.3
218.931	12795.33
219.004	12948.09
219.077	13112.71
219.151	13268.31
219.224	13412.01
219.298	13567.13
219.371	13732.86
219.444	13862.68
219.518	14005.41
219.591	14153.07
219.665	14314.41
219.738	14453.62
219.811	14580.88
219.885	14730.36
219.958	14874.25
220.031	15000.16
220.105	15120.38
220.178	15250.19
220.251	15375.8
220.325	15501.8
220.398	15622.78
220.471	15752.59
220.544	15883.93
220.618	15990.88
220.691	16106.42
220.764	16225.9
220.838	16339.98
220.911	16447.71
220.984	16573.93
221.057	16685.32
221.131	16790.34
221.204	16870.77
221.277	16989.96
221.35	17124.86
221.424	17215.17
221.497	17310.79
221.57	17415.03
221.643	17523.51
221.716	17626.21
221.79	17706.12
221.863	17792.24
221.936	17874.84
222.009	17951.7
222.082	18037
222.155	18124.23
222.229	18221.62
222.302	18301.67
222.375	18373.57
222.448	18455.68
222.521	18536.45
222.594	18611.24
222.667	18676.44
222.74	18759.52
222.814	18825.35
222.887	18882.75
222.96	18962.16
223.033	19038.21
223.106	19097.77
223.179	19157.81
223.252	19215.02
223.325	19274.05
223.398	19335.44
223.471	19400.06
223.544	19465.84
223.617	19519.43
223.69	19570.75
223.763	19604.87
223.837	19654.03
223.91	19708.77
223.983	19749.35
224.056	19780.33
224.129	19822.84
224.202	19880.18
224.275	19911.84
224.348	19944.9
224.42	19975.22
224.493	19988.76
224.566	20022.68
224.639	20068.18
224.712	20101.77
224.785	20138.68
224.858	20183.89
224.931	20220.95
225.004	20233.76
225.077	20264.08
225.15	20275.69
225.223	20307.93
225.296	20367.64
225.369	20392.13
225.442	20422.25
225.514	20445.09
225.587	20481.28
225.66	20506.68
225.733	20533.67
225.806	20562.49
225.879	20581.62
225.952	20592.03
226.025	20634.68
226.097	20663.69
226.17	20683.02
226.243	20679.16
226.316	20688.32
226.389	20702.49
226.461	20720.85
226.534	20746.35
226.607	20758.97
226.68	20787.7
226.753	20787.17
226.825	20773
226.898	20796.08
226.971	20798.2
227.044	20817.72
227.117	20825.53
227.189	20854.98
227.262	20869.53
227.335	20884.13
227.407	20897.29
227.48	20923.17
227.553	20938.45
227.626	20939.94
227.698	20940.09
227.771	20957.39
227.844	20956.86
227.916	20961.73
227.989	20949.15
228.062	20953.68
228.134	20978.02
228.207	20983.22
228.28	20988.57
228.352	20993.3
228.425	21000.53
228.498	21005.3
228.57	20999.27
228.643	21009.92
228.716	21003.66
228.788	20998.55
228.861	20996.62
228.934	21013.35
229.006	21007.32
229.079	20998.5
229.151	20995.37
229.224	20984.62
229.296	20981.87
229.369	21011.37
229.442	21020.29
229.514	21020.67
229.587	21031.13
229.659	21010.94
229.732	21021.11
229.804	21028.77
229.877	21048.34
229.949	21051.76
230.022	21067.09
230.094	21068
230.167	21075.62
230.239	21068.19
230.312	21059.37
230.384	21070.7
230.457	21059.09
230.529	21059.23
230.602	21064.53
230.674	21060.97
230.747	21067.86
230.819	21079.38
230.892	21045.45
230.964	21044.82
231.037	21046.89
231.109	21030.7
231.181	21032.87
231.254	21007.95
231.326	20996.24
231.399	20983.32
231.471	20964.14
231.544	20942.79
231.616	20935.66
231.688	20920.81
231.761	20897.39
231.833	20887.56
231.905	20862.54
231.978	20850.83
232.05	20833
232.122	20813.87
232.195	20793.24
232.267	20808.03
232.339	20791.36
232.412	20788.47
232.484	20770.97
232.556	20758.25
232.629	20776.8
232.701	20773.86
232.773	20776.8
232.846	20766.3
232.918	20760.85
232.99	20754.59
233.062	20752.95
233.135	20746.59
233.207	20723.5
233.279	20723.6
233.351	20720.37
233.424	20700.61
233.496	20679.74
233.568	20683.98
233.64	20659.93
233.713	20644.56
233.785	20614.78
233.857	20604.56
233.929	20582.49
234.001	20582.49
234.074	20579.11
234.146	20540.8
234.218	20516.89
234.29	20485.18
234.362	20462
234.434	20416.89
234.507	20398.87
234.579	20361.09
234.651	20340.56
234.723	20324.51
234.795	20306.97
234.867	20287.69
234.939	20285.76
235.012	20278.2
235.084	20267.45
235.156	20254.78
235.228	20237.52
235.3	20210.1
235.372	20187.4
235.444	20172.17
235.516	20132.27
235.588	20113.19
235.66	20099.45
235.732	20070.83
235.804	20105.24
235.876	20098.06
235.948	20104.56
236.02	20068.76
236.092	20051.31
236.164	20028.76
236.236	20004.81
236.308	19972.95
236.38	19946.01
236.452	19913.77
236.524	19880.38
236.596	19875.75
236.668	19860.23
236.74	19838.6
236.812	19822.16
236.884	19802.26
236.956	19780.86
237.028	19749.16
237.1	19711.71
237.172	19690.41
237.244	19683.95
237.316	19622.61
237.388	19578.9
237.46	19538.18
237.532	19527.57
237.604	19496.2
237.675	19479.29
237.747	19468.98
237.819	19441.65
237.891	19419.73
237.963	19388.93
238.035	19349.27
238.107	19273.42
238.178	19252.75
238.25	19216.51
238.322	19212.56
238.394	19172.03
238.466	19142.54
238.538	19121.86
238.609	19101.09
238.681	19053.53
238.753	19022.3
238.825	19000.57
238.897	18983.51
238.968	18981.92
239.04	18950.6
239.112	18945.92
239.184	18903.85
239.255	18865.11
239.327	18840.72
239.399	18810.56
239.471	18783.14
239.542	18775.43
239.614	18766.95
239.686	18721.65
239.758	18712.11
239.829	18665.31
239.901	18656.25
239.973	18627.87
240.044	18597.17
240.116	18568.45
240.188	18544.02
240.259	18511.97
240.331	18472.7
240.403	18449.04
240.474	18394.1
240.546	18352.37
240.618	18306.92
240.689	18277.29
240.761	18255.75
240.833	18251.7
240.904	18223.07
240.976	18196.18
241.048	18169.44
241.119	18142.11
241.191	18113.97
241.262	18090.31
241.334	18053.63
241.405	18014.41
241.477	17978.99
241.549	17952.87
241.62	17926.55
241.692	17909.3
241.763	17883.66
241.835	17855.57
241.906	17823.86
241.978	17782.41
242.049	17769.98
242.121	17739.67
242.192	17720.58
242.264	17673.4
242.335	17618.56
242.407	17593.6
242.478	17554.56
242.55	17517.02
242.621	17477.12
242.693	17448.1
242.764	17410.08
242.836	17380.25
242.907	17352.73
242.979	17327.72
243.05	17302.42
243.122	17274.61
243.193	17231.14
243.264	17185.45
243.336	17149.31
243.407	17124.1
243.479	17111.43
243.55	17080.29
243.622	17057.45
243.693	17019.95
243.764	16997.98
243.836	16954.22
243.907	16914.94
243.978	16880.38
244.05	16855.75
244.121	16811.7
244.192	16784.95
244.264	16738.45
244.335	16707.99
244.407	16659.84
244.478	16633.33
244.549	16591.83
244.62	16546.1
244.692	16516.55
244.763	16490.09
244.834	16456.93
244.906	16414.71
244.977	16388.44
245.048	16370.71
245.119	16327.91
245.191	16294.46
245.262	16247.76
245.333	16236.62
245.405	16204.38
245.476	16188.47
245.547	16157.87
245.618	16136.52
245.689	16099.4
245.761	16084.03
245.832	16052.8
245.903	16037.76
245.974	16010.43
246.045	15981.75
246.117	15964.54
246.188	15923.77
246.259	15885.16
246.33	15844.81
246.401	15821.2
246.473	15774.49
246.544	15735.69
246.615	15717.81
246.686	15687.25
246.757	15669.27
246.828	15629.7
246.899	15615.38
246.97	15563.71
247.042	15523.56
247.113	15500.66
247.184	15494.3
247.255	15452.56
247.326	15425.13
247.397	15389.37
247.468	15355.82
247.539	15327.72
247.61	15284.34
247.681	15261.83
247.752	15243.56
247.823	15207.93
247.894	15174.1
247.965	15135.39
248.037	15099.96
248.108	15052.63
248.179	15020.18
248.25	14988.23
248.321	14957.33
248.392	14918.43
248.463	14907.24
248.534	14883.29
248.605	14868.92
248.675	14830.17
248.746	14807.8
248.817	14786.78
248.888	14758.68
248.959	14715.15
249.03	14690.81
249.101	14661.79
249.172	14633.69
249.243	14590.25
249.314	14581.53
249.385	14553.33
249.456	14532.79
249.527	14498.13
249.598	14481.89
249.669	14448.39
249.739	14425.54
249.81	14406.4
249.881	14366.49
249.952	14345.56
250.023	14311.39
250.094	14260.77
250.165	14227.51
250.235	14191.36
250.306	14161.28
250.377	14128.93
250.448	14109.6
250.519	14067.56
250.59	14053.82
250.66	14023.89
250.731	14005.38
250.802	13974.24
250.873	13953.22
250.944	13926.85
251.014	13899.71
251.085	13889.39
251.156	13871.46
251.227	13858.64
251.297	13841.72
251.368	13826.87
251.439	13804.98
251.51	13791.53
251.58	13764.49
251.651	13733.4
251.722	13724.82
251.792	13680.51
251.863	13647.49
251.934	13635.97
252.005	13640.7
252.075	13615.97
252.146	13605.5
252.217	13597.02
252.287	13581.74
252.358	13554.6
252.429	13546.31
252.499	13515.99
252.57	13496.9
252.641	13487.11
252.711	13460.4
252.782	13423.81
252.852	13415.14
252.923	13390.07
252.994	13372.38
253.064	13362.45
253.135	13333.33
253.205	13300.5
253.276	13295.63
253.347	13286.47
253.417	13252.83
253.488	13214.45
253.558	13189.05
253.629	13157.76
253.699	13135.35
253.77	13119.68
253.841	13101.31
253.911	13082.66
253.982	13063.09
254.052	13049.25
254.123	13022.74
254.193	13000.95
254.264	13016.81
254.334	12982.24
254.405	12952.74
254.475	12920.54
254.546	12898.8
254.616	12893.88
254.687	12877.78
254.757	12855.7
254.827	12835.7
254.898	12819.6
254.968	12798.34
255.039	12768.74
255.109	12758.96
255.18	12726.37
255.25	12684.96
255.321	12666.79
255.391	12630.97
255.461	12631.84
255.532	12583.34
255.602	12559.14
255.673	12511.04
255.743	12476.52
255.813	12438.83
255.884	12427.45
255.954	12418.77
256.024	12403.83
256.095	12380.45
256.165	12349.41
256.235	12329.31
256.306	12304.53
256.376	12293.2
256.446	12283.85
256.517	12272.91
256.587	12260.76
256.657	12237.82
256.728	12222.1
256.798	12197.91
256.868	12177.85
256.938	12146.28
257.009	12134.57
257.079	12117.5
257.149	12127
257.219	12091.28
257.29	12081.79
257.36	12045.01
257.43	12023.12
257.5	11988.13
257.571	11963.45
257.641	11951.98
257.711	11924.07
257.781	11907.3
257.852	11892.64
257.922	11846.76
257.992	11829.55
258.062	11803.76
258.132	11797.45
258.202	11769.3
258.273	11758.02
258.343	11753.92
258.413	11731.85
258.483	11713.92
258.553	11682.45
258.623	11655.5
258.693	11642.78
258.764	11633.91
258.834	11630.87
258.904	11613.96
258.974	11587.83
259.044	11563.74
259.114	11546.34
259.184	11526.82
259.254	11512.7
259.324	11471.54
259.394	11462.72
259.464	11456.16
259.535	11434.95
259.605	11411.58
259.675	11386.28
259.745	11362.37
259.815	11332.97
259.885	11303.29
259.955	11306.52
260.025	11284.64
260.095	11268.93
260.165	11248.78
260.235	11246.27
260.305	11215.72
260.375	11185.84
260.445	11197.16
260.515	11193.55
260.585	11189.79
260.655	11184.44
260.725	11168.49
260.795	11163
260.865	11168.3
260.934	11145.6
261.004	11133.6
261.074	11118.95
261.144	11124.83
261.214	11119.09
261.284	11095.14
261.354	11090.13
261.424	11060.73
261.494	11060.49
261.564	11036.73
261.634	11024.64
261.703	10987
261.773	10981.22
261.843	10971.92
261.913	10943.68
261.983	10912.31
262.053	10896.5
262.123	10869.76
262.192	10846.48
262.262	10841.28
262.332	10811.26
262.402	10796.56
