Data from 20250702_background_MAYP1162681_11-31-52-333.txt Node
Date: Wed Jul 02 11:31:52 BST 2025
User: adleo
Spectrometer: MAYP116268
Trigger mode: 0
Integration Time (sec): 1.000000E0
Scans to average: 1
Electric dark correction enabled: true
Nonlinearity correction enabled: true
Boxcar width: 10
XAxis mode: Wavelengths
Number of Pixels in Spectrum: 2068
>>>>>Begin Spectral Data<<<<<
179.565	1021.43
179.642	1068.49
179.718	1105.17
179.795	1138.53
179.871	1167.57
179.948	1182.27
180.024	1199.16
180.101	1219.16
180.177	1228.56
180.254	1246.74
180.33	1266.85
180.407	1306.61
180.483	1387.28
180.56	1461.82
180.636	1534.41
180.712	1525.48
180.789	1533.17
180.865	1544.66
180.942	1553.45
181.018	1560.95
181.095	1570.07
181.171	1578.57
181.248	1579.09
181.324	1592.11
181.4	1598.29
181.477	1607.36
181.553	1621.09
181.63	1637.71
181.706	1650.45
181.782	1659.14
181.859	1659.04
181.935	1662.65
182.011	1656.62
182.088	1671.82
182.164	1691.88
182.24	1700.95
182.317	1706.13
182.393	1703.8
182.469	1715.87
182.546	1730.31
182.622	1734.16
182.698	1730.93
182.775	1736.44
182.851	1747.7
182.927	1740.86
183.003	1735.78
183.08	1729.32
183.156	1735.78
183.232	1733.74
183.308	1725.23
183.385	1732.93
183.461	1749.42
183.537	1750.6
183.613	1764.05
183.69	1754.69
183.766	1740.62
183.842	1746.42
183.918	1750.55
183.995	1762.52
184.071	1765.38
184.147	1759.01
184.223	1750.79
184.299	1763.86
184.375	1755.92
184.452	1763.53
184.528	1812.92
184.604	1819.66
184.68	1829.83
184.756	1835.39
184.832	1838.96
184.908	1841.62
184.985	1841.67
185.061	1826.27
185.137	1830.93
185.213	1821.9
185.289	1824.27
185.365	1820.66
185.441	1818.81
185.517	1833.83
185.593	1829.55
185.669	1828.94
185.745	1838.3
185.822	1851.32
185.898	1841.81
185.974	1850.79
186.05	1842.33
186.126	1806.35
186.202	1803.07
186.278	1797.46
186.354	1786.58
186.43	1794.56
186.506	1793.09
186.582	1793.09
186.658	1798.17
186.734	1784.35
186.81	1784.2
186.886	1788.24
186.962	1798.22
187.038	1796.94
187.114	1789.43
187.19	1796.13
187.266	1783.68
187.341	1785.1
187.417	1778.83
187.493	1780.35
187.569	1781.4
187.645	1775.98
187.721	1765.81
187.797	1770.37
187.873	1778.93
187.949	1776.69
188.025	1768.8
188.101	1769.99
188.176	1773.27
188.252	1770.42
188.328	1775.17
188.404	1774.79
188.48	1768.28
188.556	1762
188.632	1764.28
188.707	1763.43
188.783	1762.53
188.859	1759.77
188.935	1748.89
189.011	1755.63
189.086	1747.46
189.162	1740.43
189.238	1738.01
189.314	1737.91
189.39	1734.87
189.465	1726.79
189.541	1742.09
189.617	1730.74
189.693	1727.93
189.768	1729.88
189.844	1749.28
189.92	1743.48
189.996	1751.61
190.071	1762.68
190.147	1761.97
190.223	1768.58
190.298	1762.59
190.374	1750.85
190.45	1764.15
190.526	1768.05
190.601	1765.48
190.677	1768.48
190.753	1789.87
190.828	1794.95
190.904	1807.41
190.98	1821.33
191.055	1831.36
191.131	1821.29
191.207	1838.49
191.282	1846.14
191.358	1841.72
191.433	1830.07
191.509	1841.71
191.585	1838.57
191.66	1839.05
191.736	1844.75
191.811	1837.29
191.887	1850.74
191.963	1872.18
192.038	1876.79
192.114	1880.12
192.189	1882.35
192.265	1879.74
192.34	1862.62
192.416	1859.53
192.491	1853.45
192.567	1856.02
192.642	1856.97
192.718	1857.39
192.793	1845.75
192.869	1842.57
192.944	1843.28
193.02	1851.07
193.095	1855.49
193.171	1861.29
193.246	1860.2
193.322	1858.49
193.397	1859.53
193.473	1846.13
193.548	1831.06
193.624	1832.86
193.699	1831.34
193.775	1842.56
193.85	1844.65
193.925	1853.26
194.001	1854.45
194.076	1850.98
194.152	1843.65
194.227	1836.1
194.302	1826.4
194.378	1827.64
194.453	1825.22
194.529	1835.25
194.604	1822.84
194.679	1816.28
194.755	1801.69
194.83	1812.39
194.905	1810.92
194.981	1816.67
195.056	1811.54
195.131	1816.91
195.207	1817.95
195.282	1809.97
195.357	1793.52
195.433	1805.55
195.508	1796.42
195.583	1803.74
195.659	1815.05
195.734	1819.62
195.809	1819.24
195.884	1828.98
195.96	1832.54
196.035	1846.14
196.11	1842.95
196.185	1853.36
196.261	1856.88
196.336	1883.5
196.411	1870.89
196.486	1877.93
196.561	1871.65
196.637	1878.45
196.712	1892.67
196.787	1894.33
196.862	1907.36
196.937	1919.38
197.013	1925.14
197.088	1932.65
197.163	1948.34
197.238	1963.95
197.313	1963.99
197.388	1976.12
197.464	2000.51
197.539	2010.4
197.614	2004.98
197.689	2015.49
197.764	2031.95
197.839	2049.31
197.914	2044.65
197.989	2064.53
198.065	2074.42
198.14	2118.62
198.215	2144.36
198.29	2154.78
198.365	2166.48
198.44	2177.66
198.515	2199.74
198.59	2213.63
198.665	2236.99
198.74	2246.6
198.815	2246.7
198.89	2264.2
198.965	2294
199.04	2293.81
199.115	2307.75
199.19	2345.68
199.265	2347.67
199.34	2353.15
199.415	2380.91
199.49	2399.37
199.565	2408.6
199.64	2429.59
199.715	2426.93
199.79	2429.73
199.865	2433.97
199.94	2431.45
200.015	2457.59
200.09	2461.21
200.165	2466.49
200.24	2470.78
200.315	2505.37
200.39	2517.56
200.464	2522.99
200.539	2521.08
200.614	2534.75
200.689	2555.27
200.764	2560.04
200.839	2577.79
200.914	2584.27
200.989	2575.12
201.063	2586.31
201.138	2571.75
201.213	2574.23
201.288	2557.27
201.363	2564.89
201.438	2563.99
201.512	2579.22
201.587	2566.22
201.662	2573.27
201.737	2586.46
201.812	2593.75
201.886	2566.3
201.961	2575.49
202.036	2567.78
202.111	2565.87
202.186	2539.65
202.26	2525.5
202.335	2508.17
202.41	2500.98
202.485	2487.55
202.559	2470.23
202.634	2447.71
202.709	2456.37
202.784	2437.09
202.858	2436.52
202.933	2420
203.008	2411.86
203.082	2392.53
203.157	2389.58
203.232	2351.56
203.306	2329.7
203.381	2304.81
203.456	2281.72
203.53	2260.15
203.605	2240.22
203.68	2219.23
203.754	2212.57
203.829	2196.86
203.904	2178.78
203.978	2167.6
204.053	2169.17
204.127	2158.85
204.202	2159.99
204.277	2142.49
204.351	2137.82
204.426	2134.3
204.5	2127.69
204.575	2102.34
204.65	2113.81
204.724	2107.1
204.799	2112.33
204.873	2110.52
204.948	2107.9
205.022	2101.63
205.097	2094.39
205.171	2108.42
205.246	2113.75
205.32	2113.94
205.395	2115.13
205.469	2105.48
205.544	2111.29
205.618	2091.83
205.693	2105.44
205.767	2091.69
205.842	2110.48
205.916	2102.78
205.991	2094.64
206.065	2102.78
206.14	2114.66
206.214	2109.33
206.289	2103.05
206.363	2115.28
206.438	2117.37
206.512	2124.74
206.586	2139.49
206.661	2148.29
206.735	2127.9
206.81	2130.09
206.884	2142.93
206.958	2132.7
207.033	2148.63
207.107	2154.25
207.181	2185.17
207.256	2176.8
207.33	2192.69
207.405	2204.21
207.479	2223.28
207.553	2229.04
207.628	2210.78
207.702	2223.67
207.776	2218.1
207.851	2221.95
207.925	2233.28
207.999	2229.67
208.073	2227.43
208.148	2229.57
208.222	2219.34
208.296	2249.26
208.371	2261.68
208.445	2273.96
208.519	2296.37
208.593	2308.03
208.668	2304.93
208.742	2309.17
208.816	2312.12
208.89	2324.97
208.965	2322.4
209.039	2328.88
209.113	2341.82
209.187	2361.56
209.261	2356.42
209.336	2376.27
209.41	2391.22
209.484	2391.31
209.558	2411.17
209.632	2421.3
209.707	2431.3
209.781	2449.72
209.855	2462.39
209.929	2479.83
210.003	2483.35
210.077	2486.3
210.151	2528.77
210.226	2558.97
210.3	2581.03
210.374	2600.65
210.448	2606.6
210.522	2616.6
210.596	2625.18
210.67	2636.37
210.744	2677.34
210.818	2705.15
210.892	2721.54
210.966	2718.16
211.041	2734.12
211.115	2730.45
211.189	2754.65
211.263	2770.37
211.337	2775.04
211.411	2789.19
211.485	2781.28
211.559	2792.09
211.633	2791.57
211.707	2763.48
211.781	2767.25
211.855	2735.42
211.929	2730.04
212.003	2709.66
212.077	2720.44
212.151	2727.68
212.225	2732.25
212.299	2720.19
212.373	2710.8
212.447	2702.13
212.52	2725.33
212.594	2727.72
212.668	2735.72
212.742	2721.38
212.816	2713.7
212.89	2707.61
212.964	2700.84
213.038	2704.75
213.112	2714.56
213.186	2726.52
213.26	2703.71
213.333	2664.23
213.407	2668.41
213.481	2666.46
213.555	2675.55
213.629	2660.02
213.703	2647.82
213.777	2642.58
213.85	2622.05
213.924	2647.64
213.998	2648.35
214.072	2640.49
214.146	2622.44
214.219	2617.29
214.293	2606.43
214.367	2601.96
214.441	2608.77
214.515	2596.29
214.588	2569.81
214.662	2532.71
214.736	2508.23
214.81	2512.8
214.883	2515.47
214.957	2498.67
215.031	2480.63
215.105	2455.23
215.178	2436.14
215.252	2423
215.326	2397.43
215.4	2372.41
215.473	2321.54
215.547	2297.26
215.621	2277.69
215.694	2275.5
215.768	2248.18
215.842	2230.95
215.915	2211.72
215.989	2182.12
216.063	2165.12
216.136	2158.03
216.21	2150.52
216.284	2153.37
216.357	2140.43
216.431	2126.54
216.504	2126.49
216.578	2139.91
216.652	2144.62
216.725	2136.39
216.799	2135.44
216.873	2127.73
216.946	2130.92
217.02	2118.8
217.093	2109.19
217.167	2082.07
217.24	2060.09
217.314	2050.21
217.387	2039.32
217.461	2026.53
217.535	2024.72
217.608	2008.83
217.682	1998.8
217.755	2002.13
217.829	1984.39
217.902	1981.96
217.976	1977.4
218.049	1962.61
218.123	1944.1
218.196	1939.07
218.27	1927.94
218.343	1909.25
218.417	1906.68
218.49	1899.03
218.563	1912.1
218.637	1910.72
218.71	1928.5
218.784	1934.12
218.857	1938.96
218.931	1940.91
219.004	1941.06
219.077	1945.72
219.151	1947.76
219.224	1946.72
219.298	1943.53
219.371	1954.7
219.444	1941.78
219.518	1940.82
219.591	1941.92
219.665	1963.66
219.738	1965.37
219.811	1959.53
219.885	1969.84
219.958	1976.79
220.031	1976.69
220.105	1978.55
220.178	1978.02
220.251	1969.32
220.325	1974.27
220.398	1979.92
220.471	1982.78
220.544	1990.62
220.618	1983.82
220.691	1985.25
220.764	1987.77
220.838	1991.1
220.911	1986.77
220.984	2003.36
221.057	2011.2
221.131	2017.43
221.204	1993.88
221.277	2010.77
221.35	2040.63
221.424	2037.5
221.497	2041.68
221.57	2046.44
221.643	2053.9
221.716	2065.7
221.79	2065.03
221.863	2064.23
221.936	2063.18
222.009	2064.7
222.082	2068.08
222.155	2068.6
222.229	2084.25
222.302	2087.67
222.375	2085.96
222.448	2093.57
222.521	2096.19
222.594	2093.1
222.667	2083.88
222.74	2094.24
222.814	2092.01
222.887	2086.58
222.96	2096.43
223.033	2102.28
223.106	2107.03
223.179	2112.08
223.252	2112.17
223.325	2118.55
223.398	2118.31
223.471	2123.54
223.544	2128.34
223.617	2133.39
223.69	2138.57
223.763	2130.67
223.837	2134.67
223.91	2141.61
223.983	2124.26
224.056	2114.37
224.129	2119.83
224.202	2131.43
224.275	2125.58
224.348	2115.17
224.42	2105.42
224.493	2088.72
224.566	2081.11
224.639	2084.3
224.712	2074.83
224.785	2066.12
224.858	2058.61
224.931	2053.09
225.004	2041.15
225.077	2038.3
225.15	2012.48
225.223	2007.11
225.296	2025.05
225.369	2007.74
225.442	1995.71
225.514	1999.23
225.587	2003.51
225.66	2004.36
225.733	2006.55
225.806	2008.45
225.879	2003.08
225.952	1990.91
226.025	2001.47
226.097	2012.32
226.17	2004.47
226.243	1983.55
226.316	1984.12
226.389	1985.5
226.461	1989.07
226.534	1991.4
226.607	1986.98
226.68	2005.09
226.753	2003.61
226.825	1975.92
226.898	1989.95
226.971	1989.62
227.044	1993.8
227.117	1991.42
227.189	1991.19
227.262	1993.42
227.335	1994.61
227.407	1989.43
227.48	1995.23
227.553	1995.56
227.626	1985.04
227.698	1985
227.771	1995.26
227.844	1985.56
227.916	1986.66
227.989	1974.53
228.062	1966.59
228.134	1982.86
228.207	1981.15
228.28	1977.49
228.352	1979.01
228.425	1974.73
228.498	1981.34
228.57	1969.26
228.643	1979.35
228.716	1976.35
228.788	1967.31
228.861	1960.04
228.934	1972.68
229.006	1972.59
229.079	1968.17
229.151	1961.93
229.224	1949.96
229.296	1949.96
229.369	1971.74
229.442	1980.73
229.514	1972.04
229.587	1984.4
229.659	1964.76
229.732	1964.04
229.804	1968.89
229.877	1990.25
229.949	1999.29
230.022	2013.56
230.094	2016.03
230.167	2014.37
230.239	2000.53
230.312	2000.11
230.384	2018.13
230.457	2019.47
230.529	2021.37
230.602	2023.27
230.674	2027.31
230.747	2037.29
230.819	2047.56
230.892	2018.03
230.964	2018.46
231.037	2026.06
231.109	2024.54
231.181	2034
231.254	2022.83
231.326	2019.03
231.399	2007.37
231.471	1998.05
231.544	1973.74
231.616	1983.53
231.688	1982.68
231.761	1979.54
231.833	1973.79
231.905	1951.82
231.978	1947.87
232.05	1939.22
232.122	1936.75
232.195	1925.72
232.267	1933.8
232.339	1923.53
232.412	1938.64
232.484	1928.18
232.556	1918.15
232.629	1932.42
232.701	1936.85
232.773	1938.56
232.846	1935.52
232.918	1936.04
232.99	1937.23
233.062	1947.83
233.135	1946.36
233.207	1932.71
233.279	1941.36
233.351	1946.78
233.424	1945.45
233.496	1935.94
233.568	1959.43
233.64	1947.69
233.713	1951.44
233.785	1948.69
233.857	1949.3
233.929	1934.47
234.001	1950.27
234.074	1966.85
234.146	1947.64
234.218	1940.22
234.29	1940.27
234.362	1935.66
234.434	1922.53
234.507	1914.07
234.579	1898.15
234.651	1892.25
234.723	1900.57
234.795	1904.52
234.867	1902.33
234.939	1917.74
235.012	1921.2
235.084	1915.78
235.156	1923.53
235.228	1915.45
235.3	1906.7
235.372	1910.27
235.444	1924.1
235.516	1899.98
235.588	1896.75
235.66	1897.65
235.732	1892
235.804	1939.36
235.876	1944.82
235.948	1959.18
236.02	1959.47
236.092	1960.47
236.164	1961.13
236.236	1957.04
236.308	1955.24
236.38	1959.89
236.452	1951.9
236.524	1955.18
236.596	1973.46
236.668	1980.4
236.74	1984.78
236.812	1993.62
236.884	2000.13
236.956	2000.23
237.028	1997.09
237.1	1993.05
237.172	2008.89
237.244	2028.2
237.316	1992.92
237.388	1989.83
237.46	1981.31
237.532	1995.34
237.604	1990.69
237.675	2008.38
237.747	2019.5
237.819	2012.95
237.891	2011.9
237.963	2005.01
238.035	2001.92
238.107	1968.19
238.178	1980.89
238.25	1981.51
238.322	2000.97
238.394	1986.23
238.466	1983.9
238.538	1993.36
238.609	2001.77
238.681	1986.31
238.753	1976.52
238.825	1977.9
238.897	1981.89
238.968	2003.87
239.04	1993.88
239.112	2020.32
239.184	2005.48
239.255	2000.53
239.327	2005.76
239.399	2008.66
239.471	2018.83
239.542	2022.54
239.614	2038.42
239.686	2015.83
239.758	2028.62
239.829	2013.82
239.901	2029.89
239.973	2032.37
240.044	2037.69
240.116	2036.12
240.188	2037.31
240.259	2038.5
240.331	2037.03
240.403	2045.01
240.474	2027.17
240.546	2024.03
240.618	2007.34
240.689	2008.1
240.761	2012.05
240.833	2029.88
240.904	2027.46
240.976	2024.65
241.048	2028.46
241.119	2035.45
241.191	2046.01
241.262	2059.47
241.334	2061.33
241.405	2057.14
241.477	2053.72
241.549	2054.01
241.62	2060.81
241.692	2068.13
241.763	2078.64
241.835	2079.55
241.906	2084.78
241.978	2074.84
242.049	2091.11
242.121	2105.8
242.192	2121.64
242.264	2112.94
242.335	2097.19
242.407	2105.56
242.478	2105.99
242.55	2109.56
242.621	2102.18
242.693	2095.53
242.764	2091.43
242.836	2086.72
242.907	2096.48
242.979	2104.28
243.05	2107.75
243.122	2109.94
243.193	2110.79
243.264	2091.81
243.336	2094
243.407	2101.9
243.479	2121.97
243.55	2124.35
243.622	2127.3
243.693	2123.45
243.764	2138
243.836	2128.88
243.907	2127.4
243.978	2125.17
244.05	2130.54
244.121	2117.89
244.192	2131.07
244.264	2114.61
244.335	2116.13
244.407	2097.91
244.478	2098.96
244.549	2098.15
244.62	2086.36
244.692	2081.7
244.763	2093.2
244.834	2085.93
244.906	2073.65
244.977	2077.41
245.048	2087.74
245.119	2079.51
245.191	2069.76
245.262	2049.26
245.333	2069.66
245.405	2070.71
245.476	2079.65
245.547	2082.36
245.618	2094.44
245.689	2093.06
245.761	2100.05
245.832	2099.05
245.903	2109.13
245.974	2112.89
246.045	2110.84
246.117	2129.06
246.188	2119.89
246.259	2111.37
246.33	2112.75
246.401	2111.28
246.473	2097.29
246.544	2090.34
246.615	2099.05
246.686	2098
246.757	2114.6
246.828	2101.9
246.899	2112.03
246.97	2095.53
247.042	2085.35
247.113	2090.35
247.184	2107.72
247.255	2105.68
247.326	2109.67
247.397	2108.58
247.468	2109.39
247.539	2111.2
247.61	2097.69
247.681	2107.05
247.752	2118.61
247.823	2110.86
247.894	2114.14
247.965	2106.1
248.037	2101.35
248.108	2087.31
248.179	2090.36
248.25	2086.74
248.321	2095.11
248.392	2087.21
248.463	2111.75
248.534	2112.46
248.605	2119.13
248.675	2116.79
248.746	2121.12
248.817	2127.5
248.888	2131.16
248.959	2115.13
249.03	2118.75
249.101	2120.18
249.172	2119.6
249.243	2099.21
249.314	2117.18
249.385	2116.95
249.456	2122.89
249.527	2118.56
249.598	2125.69
249.669	2123.13
249.739	2125.51
249.81	2130.64
249.881	2115
249.952	2112.52
250.023	2111
250.094	2095.2
250.165	2082.35
250.235	2079.78
250.306	2078.97
250.377	2069.08
250.448	2076.5
250.519	2059.14
250.59	2074.42
250.66	2069.19
250.731	2090.39
250.802	2087.06
250.873	2091.15
250.944	2095.96
251.014	2094.05
251.085	2114.38
251.156	2120.99
251.227	2132.36
251.297	2144.02
251.368	2159.28
251.439	2165.66
251.51	2176.13
251.58	2169.61
251.651	2164.71
251.722	2177.23
251.792	2159.63
251.863	2158.87
251.934	2174.28
252.005	2203.63
252.075	2202.49
252.146	2216.05
252.217	2223.47
252.287	2235.03
252.358	2235.08
252.429	2252.64
252.499	2248.7
252.57	2248.08
252.641	2258.97
252.711	2255.55
252.782	2239.65
252.852	2257.88
252.923	2256.69
252.994	2258.12
253.064	2270.72
253.135	2266.01
253.205	2256.02
253.276	2277
253.347	2289.7
253.417	2280.18
253.488	2270.71
253.558	2262.29
253.629	2259.81
253.699	2261.72
253.77	2261.86
253.841	2257.82
253.911	2257.53
253.982	2261.48
254.052	2268.1
254.123	2264.29
254.193	2267.05
254.264	2298.38
254.334	2285.43
254.405	2275.24
254.475	2266.68
254.546	2264.21
254.616	2277.43
254.687	2283.86
254.757	2282.95
254.827	2283.19
254.898	2287.57
254.968	2290.99
255.039	2286.81
255.109	2294.04
255.18	2283.95
255.25	2263.49
255.321	2272.48
255.391	2258.06
255.461	2274.38
255.532	2249.77
255.602	2248.49
255.673	2229.55
255.743	2217.69
255.813	2196.62
255.884	2206.23
255.954	2210.18
256.024	2226.22
256.095	2222.75
256.165	2210
256.235	2215.61
256.306	2208
256.376	2213.66
256.446	2217.19
256.517	2220.47
256.587	2227.23
256.657	2228.94
256.728	2234.98
256.798	2232.74
256.868	2225.85
256.938	2214.71
257.009	2224.18
257.079	2226.61
257.149	2249.59
257.219	2228.22
257.29	2234.59
257.36	2215.13
257.43	2223.94
257.5	2202.62
257.571	2201.39
257.641	2207.19
257.711	2194.67
257.781	2198.48
257.852	2200.9
257.922	2182.02
257.992	2183.44
258.062	2179.3
258.132	2186.82
258.202	2180.31
258.273	2178.07
258.343	2196.48
258.413	2193.53
258.483	2188.82
258.553	2177.6
258.623	2167.51
258.693	2174.74
258.764	2189.48
258.834	2207.46
258.904	2205.94
258.974	2199.43
259.044	2193.67
259.114	2196.29
259.184	2198.43
259.254	2194.86
259.324	2176.35
259.394	2184.53
259.464	2197.53
259.535	2193.81
259.605	2185.34
259.675	2179.07
259.745	2183.68
259.815	2171.17
259.885	2164.79
259.955	2191.32
260.025	2182.66
260.095	2181.47
260.165	2184.42
260.235	2191.28
260.305	2177.1
260.375	2164.73
260.445	2183.52
260.515	2197.36
260.585	2207.12
260.655	2205.46
260.725	2217.92
260.795	2225.63
260.865	2241.09
260.934	2231.29
261.004	2234.05
261.074	2233.72
261.144	2249.08
261.214	2254.84
261.284	2253.98
261.354	2262.3
261.424	2249.58
261.494	2266.7
261.564	2264.28
261.634	2267.85
261.703	2252.67
261.773	2259.42
261.843	2266.22
261.913	2263.08
261.983	2247.62
262.053	2251
262.123	2247.67
262.192	2231.78
262.262	2238.3
262.332	2221.59
262.402	2223.88
262.472	2227.88
262.541	2208.57
262.611	2216.99
262.681	2207.57
262.751	2215.09
262.821	2211.62
262.89	2196.72
262.96	2199.48
263.03	2217.23
263.1	2218.42
263.169	2218.28
263.239	2223.08
263.309	2240.03
263.379	2243.41
263.448	2243.22
263.518	2243.93
263.588	2242.17
263.657	2258.97
263.727	2265.49
263.797	2264.92
263.867	2262.63
263.936	2245.74
264.006	2259.06
264.076	2249.4
264.145	2246.35
264.215	2237.07
264.285	2244.49
264.354	2229.61
264.424	2223.57
264.494	2207.14
264.563	2198.29
264.633	2214.33
264.702	2214.81
264.772	2192.15
264.842	2185.73
264.911	2188.53
