Data from 20250702_urea_2M_MAYP1162681_11-36-50-267.txt Node
Date: Wed Jul 02 11:36:50 BST 2025
User: adleo
Spectrometer: MAYP116268
Trigger mode: 0
Integration Time (sec): 1.000000E0
Scans to average: 1
Electric dark correction enabled: true
Nonlinearity correction enabled: true
Boxcar width: 10
XAxis mode: Wavelengths
Number of Pixels in Spectrum: 2068
>>>>>Begin Spectral Data<<<<<
179.565	1022.8
179.642	1072.06
179.718	1107.91
179.795	1137.5
179.871	1164.34
179.948	1178.85
180.024	1196.12
180.101	1214.73
180.177	1226.13
180.254	1246.32
180.33	1265.3
180.407	1304.5
180.483	1385.93
180.56	1461.84
180.636	1531.39
180.712	1520.89
180.789	1531.48
180.865	1539.22
180.942	1543.88
181.018	1550.29
181.095	1562.59
181.171	1568.39
181.248	1567.67
181.324	1581.74
181.4	1588.77
181.477	1597.74
181.553	1607.72
181.63	1625.91
181.706	1642.78
181.782	1649.76
181.859	1646.01
181.935	1649.9
182.011	1645.34
182.088	1658.74
182.164	1677.66
182.24	1692.33
182.317	1701.31
182.393	1697.42
182.469	1710.58
182.546	1722.69
182.622	1728.96
182.698	1722.78
182.775	1732.38
182.851	1743.45
182.927	1736.85
183.003	1735.99
183.08	1730.58
183.156	1739.32
183.232	1737.85
183.308	1726.68
183.385	1733.61
183.461	1751.86
183.537	1750.67
183.613	1764.41
183.69	1756.18
183.766	1746.49
183.842	1750.05
183.918	1754.85
183.995	1765.92
184.071	1768.68
184.147	1766.49
184.223	1756.85
184.299	1769.78
184.375	1760.98
184.452	1767.26
184.528	1818.36
184.604	1823.54
184.68	1834.42
184.756	1840.55
184.832	1844.88
184.908	1847.02
184.985	1847.87
185.061	1832
185.137	1841.98
185.213	1829.96
185.289	1832.57
185.365	1823.31
185.441	1823.4
185.517	1836.14
185.593	1832.91
185.669	1830.49
185.745	1840.52
185.822	1854.68
185.898	1847.45
185.974	1853.63
186.05	1847.45
186.126	1808.04
186.202	1801.72
186.278	1797.2
186.354	1790.12
186.43	1792.12
186.506	1792.88
186.582	1790.55
186.658	1797.39
186.734	1780.43
186.81	1782.56
186.886	1783.42
186.962	1793.97
187.038	1791.07
187.114	1783.51
187.19	1793.16
187.266	1783.8
187.341	1782.66
187.417	1776.43
187.493	1777.05
187.569	1781.52
187.645	1777.71
187.721	1768.26
187.797	1778.66
187.873	1784.46
187.949	1777.86
188.025	1771.53
188.101	1772.82
188.176	1775.9
188.252	1770.68
188.328	1777.85
188.404	1779.13
188.48	1775.67
188.556	1770.49
188.632	1770.68
188.707	1772.34
188.783	1766.87
188.859	1763.41
188.935	1753.19
189.011	1760.74
189.086	1754.8
189.162	1747.06
189.238	1741.07
189.314	1739.79
189.39	1732.71
189.465	1724.58
189.541	1740.26
189.617	1729
189.693	1724.01
189.768	1729.77
189.844	1752.39
189.92	1745.6
189.996	1752.25
190.071	1761.09
190.147	1760.62
190.223	1768.17
190.298	1759.57
190.374	1749.5
190.45	1761.99
190.526	1767.55
190.601	1762.18
190.677	1765.46
190.753	1789.57
190.828	1797.12
190.904	1808.67
190.98	1821.55
191.055	1829.15
191.131	1820.79
191.207	1839.75
191.282	1849.21
191.358	1839.08
191.433	1824.06
191.509	1834.75
191.585	1831.94
191.66	1833.89
191.736	1843.73
191.811	1835.22
191.887	1850.15
191.963	1871.26
192.038	1873.97
192.114	1876.68
192.189	1881.29
192.265	1876.68
192.34	1858.27
192.416	1857.23
192.491	1851.95
192.567	1853.33
192.642	1861.03
192.718	1860.51
192.793	1849.39
192.869	1845.39
192.944	1849.1
193.02	1855.18
193.095	1859.56
193.171	1865.5
193.246	1864.83
193.322	1860.98
193.397	1861.65
193.473	1849.1
193.548	1830.51
193.624	1834.88
193.699	1832.55
193.775	1845.01
193.85	1846.15
193.925	1854.33
194.001	1852.81
194.076	1849.48
194.152	1842.63
194.227	1830.08
194.302	1822.96
194.378	1827.28
194.453	1824.76
194.529	1836.03
194.604	1827.38
194.679	1821.25
194.755	1803.05
194.83	1813.94
194.905	1810.18
194.981	1816.27
195.056	1812.42
195.131	1820.97
195.207	1823.16
195.282	1815.51
195.357	1801.63
195.433	1815.84
195.508	1803.76
195.583	1810.7
195.659	1825.44
195.734	1831.24
195.809	1835.14
195.884	1843.5
195.96	1842.88
196.035	1855.76
196.11	1852.86
196.185	1861.8
196.261	1866.22
196.336	1894.88
196.411	1883.85
196.486	1890.93
196.561	1885.84
196.637	1892.4
196.712	1904.1
196.787	1904.81
196.862	1920.21
196.937	1926.3
197.013	1928.25
197.088	1936.66
197.163	1953.88
197.238	1964.63
197.313	1962.49
197.388	1975.61
197.464	2001.77
197.539	2010.04
197.614	2004.29
197.689	2014.71
197.764	2029.64
197.839	2046.67
197.914	2041.43
197.989	2060.27
198.065	2072.4
198.14	2114.98
198.215	2133.96
198.29	2144.05
198.365	2153.9
198.44	2159.6
198.515	2186.2
198.59	2201.71
198.665	2225.02
198.74	2232.3
198.815	2234.87
198.89	2255.38
198.965	2279.6
199.04	2276.8
199.115	2291.21
199.19	2330.42
199.265	2331.18
199.34	2338.61
199.415	2368.04
199.49	2385.64
199.565	2393.78
199.64	2413.01
199.715	2414.3
199.79	2422.58
199.865	2430.01
199.94	2429.72
200.015	2458.09
200.09	2463.28
200.165	2468.66
200.24	2477.14
200.315	2511.06
200.39	2523.92
200.464	2531.3
200.539	2532.63
200.614	2545.01
200.689	2565.25
200.764	2570.83
200.839	2590.2
200.914	2595.29
200.989	2583.29
201.063	2596.81
201.138	2582.01
201.213	2581.06
201.288	2563.34
201.363	2572.44
201.438	2571.34
201.512	2587.43
201.587	2574.48
201.662	2574.38
201.737	2583.53
201.812	2590.2
201.886	2563.94
201.961	2570.46
202.036	2559.8
202.111	2557.13
202.186	2532.2
202.26	2518.86
202.335	2499.76
202.41	2492.52
202.485	2478.1
202.559	2463.68
202.634	2441.4
202.709	2449.29
202.784	2432.63
202.858	2431.63
202.933	2408.59
203.008	2405.5
203.082	2387.84
203.157	2385.03
203.232	2349.3
203.306	2332.49
203.381	2301.83
203.456	2279.99
203.53	2260.79
203.605	2244.43
203.68	2226.29
203.754	2221.2
203.829	2207.54
203.904	2187.42
203.978	2177.76
204.053	2179.61
204.127	2166.25
204.202	2162.68
204.277	2148.74
204.351	2144.36
204.426	2138.04
204.5	2135.51
204.575	2103.13
204.65	2108.17
204.724	2099.89
204.799	2107.02
204.873	2104.64
204.948	2104.17
205.022	2096.18
205.097	2088.47
205.171	2099.41
205.246	2103.88
205.32	2102.12
205.395	2101.31
205.469	2096.46
205.544	2099.03
205.618	2085.76
205.693	2097.56
205.767	2089.95
205.842	2109.79
205.916	2101.85
205.991	2092.86
206.065	2096.52
206.14	2109.07
206.214	2109.26
206.289	2105.64
206.363	2115.44
206.438	2114.39
206.512	2120.48
206.586	2134.8
206.661	2143.18
206.735	2123.54
206.81	2126.35
206.884	2142.14
206.958	2131.01
207.033	2145.94
207.107	2153.03
207.181	2181.73
207.256	2174.35
207.33	2191.05
207.405	2197.95
207.479	2216.22
207.553	2224.07
207.628	2210.66
207.702	2222.31
207.776	2213.8
207.851	2217.84
207.925	2230.69
207.999	2232.93
208.073	2230.55
208.148	2232.78
208.222	2224.41
208.296	2253.9
208.371	2266.23
208.445	2274.08
208.519	2298.49
208.593	2306.01
208.668	2301.82
208.742	2305.58
208.816	2308.91
208.89	2316.67
208.965	2318.19
209.039	2325.72
209.113	2339.85
209.187	2357.4
209.261	2354.93
209.336	2373.87
209.41	2392.01
209.484	2393.2
209.558	2408.15
209.632	2420.85
209.707	2432.47
209.781	2450.7
209.855	2464.27
209.929	2478.09
210.003	2483.71
210.077	2485.8
210.151	2530.17
210.226	2561.94
210.3	2584.68
210.374	2605.86
210.448	2612.24
210.522	2619.72
210.596	2631.16
210.67	2641.97
210.744	2686.9
210.818	2715.37
210.892	2736.53
210.966	2730.86
211.041	2746.1
211.115	2750.96
211.189	2775.5
211.263	2794.51
211.337	2807.18
211.411	2823.43
211.485	2824.53
211.559	2841.68
211.633	2851.73
211.707	2831.32
211.781	2845.15
211.855	2823.32
211.929	2827.03
212.003	2821.89
212.077	2844.87
212.151	2868.18
212.225	2888.11
212.299	2892.21
212.373	2901.6
212.447	2912.95
212.52	2959.25
212.594	2982.99
212.668	3014.08
212.742	3031.92
212.816	3055.05
212.89	3078.04
212.964	3110.3
213.038	3149.09
213.112	3196.24
213.186	3247.76
213.26	3268.55
213.333	3272.28
213.407	3323.32
213.481	3374.26
213.555	3438.28
213.629	3481.74
213.703	3524.91
213.777	3586.62
213.85	3632.91
213.924	3725.23
213.998	3798.59
214.072	3863.99
214.146	3930.18
214.219	4006
214.293	4081.53
214.367	4166.84
214.441	4267.57
214.515	4349.58
214.588	4422.98
214.662	4488.15
214.736	4573.29
214.81	4685.89
214.883	4804.23
214.957	4905.14
215.031	5009.21
215.105	5104.01
215.178	5208.84
215.252	5321.06
215.326	5419.6
215.4	5525.46
215.473	5612.6
215.547	5725.28
215.621	5850.75
215.694	5988.7
215.768	6107.9
215.842	6232.81
215.915	6356.38
215.989	6469.61
216.063	6604.33
216.136	6746.92
216.21	6894.41
216.284	7049.46
216.357	7201.79
216.431	7346.36
216.504	7505.52
216.578	7682.5
216.652	7850.18
216.725	8013.13
216.799	8185.64
216.873	8354.63
216.946	8525.65
217.02	8676.76
217.093	8836.06
217.167	8979.17
217.24	9132.02
217.314	9295.36
217.387	9460.79
217.461	9627.25
217.535	9810.68
217.608	9958.59
217.682	10127.22
217.755	10305.3
217.829	10459.08
217.902	10618.79
217.976	10778.59
218.049	10930.32
218.123	11068.96
218.196	11230.1
218.27	11386.24
218.343	11526.97
218.417	11686.6
218.49	11839.57
218.563	12013.27
218.637	12173.87
218.71	12349.85
218.784	12505.73
218.857	12665.47
218.931	12823.43
219.004	12971.37
219.077	13121.05
219.151	13276.79
219.224	13416.59
219.298	13558.7
219.371	13709.92
219.444	13845.28
219.518	13999.39
219.591	14141.31
219.665	14309.73
219.738	14452.51
219.811	14577.89
219.885	14719.04
219.958	14852.61
220.031	14984.25
220.105	15128.19
220.178	15261.7
220.251	15377.53
220.325	15512.93
220.398	15638.35
220.471	15760.1
220.544	15884.89
220.618	15996.52
220.691	16126.13
220.764	16243.78
220.838	16363.79
220.911	16473.49
220.984	16599.82
221.057	16706.47
221.131	16822.15
221.204	16898.58
221.277	17011.6
221.35	17138.26
221.424	17237.29
221.497	17344.28
221.57	17442.7
221.643	17543.18
221.716	17633.54
221.79	17728
221.863	17807.13
221.936	17892.67
222.009	17987.85
222.082	18076.28
222.155	18155.5
222.229	18247.5
222.302	18335.01
222.375	18410.58
222.448	18495.2
222.521	18571.87
222.594	18639.29
222.667	18702.32
222.74	18783.91
222.814	18850.99
222.887	18911.08
222.96	18985
223.033	19051.41
223.106	19118.3
223.179	19173.76
223.252	19230.58
223.325	19287.06
223.398	19338.43
223.471	19400.16
223.544	19449.27
223.617	19505.89
223.69	19553.21
223.763	19588.01
223.837	19636.63
223.91	19690.7
223.983	19725.54
224.056	19758.55
224.129	19820.48
224.202	19870.02
224.275	19905.29
224.348	19932.13
224.42	19963.7
224.493	19991.12
224.566	20022.01
224.639	20069.38
224.712	20104.66
224.785	20150.87
224.858	20178.01
224.931	20215.26
225.004	20233.86
225.077	20260.56
225.15	20269.86
225.223	20300.56
225.296	20350.25
225.369	20368.03
225.442	20391.5
225.514	20425.62
225.587	20460.37
225.66	20484.08
225.733	20509.28
225.806	20545.52
225.879	20583.45
225.952	20602.05
226.025	20633.19
226.097	20665.28
226.17	20674.49
226.243	20666.73
226.316	20681.77
226.389	20700.85
226.461	20729.96
226.534	20749.67
226.607	20760.85
226.68	20798.97
226.753	20812.71
226.825	20802.44
226.898	20830.25
226.971	20829.67
227.044	20834.06
227.117	20834.49
227.189	20845.48
227.262	20860.47
227.335	20862.78
227.407	20859.22
227.48	20879.89
227.553	20886.3
227.626	20889.15
227.698	20906.98
227.771	20928.86
227.844	20927.12
227.916	20946.35
227.989	20938.93
228.062	20943.7
228.134	20972.81
228.207	20970.16
228.28	20974.07
228.352	20982.79
228.425	20982.79
228.498	21001.54
228.57	20999.66
228.643	21023.56
228.716	21021.54
228.788	21029.54
228.861	21026.79
228.934	21043.28
229.006	21036.38
229.079	21034.26
229.151	21021.88
229.224	20999.51
229.296	20999.37
229.369	21018.94
229.442	21028.63
229.514	21015.71
229.587	21028.1
229.659	21004.19
229.732	21006.99
229.804	21022.12
229.877	21039.95
229.949	21050.94
230.022	21067.67
230.094	21063.71
230.167	21063.18
230.239	21050.56
230.312	21043.86
230.384	21062.99
230.457	21057.54
230.529	21061.59
230.602	21067.71
230.674	21075.76
230.747	21088.78
230.819	21096.34
230.892	21060.44
230.964	21049.78
231.037	21061.83
231.109	21044.24
231.181	21050.36
231.254	21036.82
231.326	21015.28
231.399	20999.85
231.471	20975.95
231.544	20934.35
231.616	20934.45
231.688	20925.49
231.761	20920.28
231.833	20910.83
231.905	20891.27
231.978	20881.53
232.05	20871.46
232.122	20860.28
232.195	20840.18
232.267	20844.47
232.339	20825.09
232.412	20830.78
232.484	20818.06
232.556	20802.88
232.629	20828.66
232.701	20816.9
232.773	20804.52
232.846	20793.82
232.918	20784.66
232.99	20788.23
233.062	20799.46
233.135	20802.15
233.207	20767.89
233.279	20756.85
233.351	20739.41
233.424	20717.77
233.496	20694.1
233.568	20689.57
233.64	20655.93
233.713	20634.83
233.785	20607.02
233.857	20602.01
233.929	20577.52
234.001	20577.28
234.074	20561.57
234.146	20520.51
234.218	20508.08
234.29	20489.76
234.362	20470.53
234.434	20442.73
234.507	20404.41
234.579	20364.99
234.651	20334.15
234.723	20338.77
234.795	20323.26
234.867	20309.38
234.939	20306.29
235.012	20291.02
235.084	20278.63
235.156	20273.09
235.228	20252.8
235.3	20231.4
235.372	20214.1
235.444	20205.91
235.516	20160.56
235.588	20138.39
235.66	20117.57
235.732	20088.51
235.804	20117.91
235.876	20110.06
235.948	20096.47
236.02	20079.84
236.092	20052.95
236.164	20030.44
236.236	19992.71
236.308	19966.3
236.38	19946.06
236.452	19915.99
236.524	19889.05
236.596	19875.17
236.668	19858.55
236.74	19838.36
236.812	19820.86
236.884	19798.36
236.956	19765.68
237.028	19735.18
237.1	19711.47
237.172	19694.07
237.244	19680.15
237.316	19618.08
237.388	19573.84
237.46	19541.36
237.532	19528.49
237.604	19503.77
237.675	19490.61
237.747	19475.53
237.819	19437.84
237.891	19408.26
237.963	19374.52
238.035	19348.74
238.107	19283.64
238.178	19265.57
238.25	19240.46
238.322	19232.31
238.394	19184.7
238.466	19155.31
238.538	19135.93
238.609	19110.39
238.681	19068.28
238.753	19035.03
238.825	19012.71
238.897	18999.8
238.968	18995.94
239.04	18961.68
239.112	18957.05
239.184	18916.05
239.255	18890.02
239.327	18875.42
239.399	18847.71
239.471	18823.14
239.542	18800.53
239.614	18785.64
239.686	18730.95
239.758	18716.44
239.829	18675.82
239.901	18660.93
239.973	18637.27
240.044	18614.57
240.116	18595.58
240.188	18566.76
240.259	18541.18
240.331	18508.65
240.403	18480.12
240.474	18427.25
240.546	18382.49
240.618	18336.13
240.689	18308.08
240.761	18273.38
240.833	18253.05
240.904	18214.01
240.976	18186.93
241.048	18153
241.119	18126.31
241.191	18104.43
241.262	18079.8
241.334	18038.12
241.405	18009.88
241.477	17977.78
241.549	17945.93
241.62	17918.8
241.692	17900.19
241.763	17873.93
241.835	17839.62
241.906	17810.27
241.978	17765.4
242.049	17752.97
242.121	17728.58
242.192	17709.55
242.264	17666.99
242.335	17615.28
242.407	17595.33
242.478	17561.93
242.55	17535.48
242.621	17493.55
242.693	17460.44
242.764	17425.6
242.836	17395
242.907	17361.69
242.979	17332.25
243.05	17301.55
243.122	17273.07
243.193	17238.46
243.264	17189.84
243.336	17156.63
243.407	17137.98
243.479	17123.86
243.55	17086.56
243.622	17062.36
243.693	17025.06
243.764	17005.64
243.836	16975.28
243.907	16944.34
243.978	16903.03
244.05	16876.33
244.121	16837.82
244.192	16819.61
244.264	16772.42
244.335	16742.2
244.407	16707.46
244.478	16678.39
244.549	16640.66
244.62	16590.53
244.692	16551.93
244.763	16526.62
244.834	16495.54
244.906	16448.79
244.977	16422.47
245.048	16405.7
245.119	16359.43
245.191	16330.18
245.262	16279.47
245.333	16261.01
245.405	16228.91
245.476	16202.79
245.547	16173.29
245.618	16149.34
245.689	16109.43
245.761	16089.43
245.832	16056.12
245.903	16020.26
245.974	15997.22
246.045	15962.08
246.117	15945.5
246.188	15901.21
246.259	15856.04
246.33	15823.85
246.401	15793.67
246.473	15753.09
246.544	15714.92
246.615	15700.79
246.686	15660.93
246.757	15650.33
246.828	15609.5
246.899	15593.02
246.97	15545.44
247.042	15507.22
247.113	15486.78
247.184	15476.03
247.255	15439.11
247.326	15406.43
247.397	15380.02
247.468	15342.23
247.539	15317.45
247.61	15271.9
247.681	15258.11
247.752	15247.61
247.823	15207.55
247.894	15187.21
247.965	15157.13
248.037	15125.75
248.108	15078.61
248.179	15051.28
248.25	15006.16
248.321	14988.85
248.392	14941.52
248.463	14942.96
248.534	14910.57
248.605	14889.75
248.675	14859.72
248.746	14833.64
248.817	14812.38
248.888	14787.84
248.959	14748.61
249.03	14726.82
249.101	14699.68
249.172	14668.97
249.243	14618.79
249.314	14600.23
249.385	14562.97
249.456	14529.27
249.527	14497.7
249.598	14474.71
249.669	14436.14
249.739	14423.32
249.81	14391.55
249.881	14352.55
249.952	14327.1
250.023	14302.18
250.094	14258.26
250.165	14224.23
250.235	14196.66
250.306	14174.19
250.377	14142.23
250.448	14122.52
250.519	14076.67
250.59	14069.2
250.66	14030.35
250.731	14024.42
250.802	14000.94
250.873	13976.5
250.944	13949.65
251.014	13920.2
251.085	13911.86
251.156	13896.67
251.227	13879.03
251.297	13868.13
251.368	13851.55
251.439	13826.58
251.51	13814.48
251.58	13784.45
251.651	13751.76
251.722	13735.61
251.792	13691.94
251.863	13669.86
251.934	13656.8
252.005	13652.65
252.075	13626.38
252.146	13624.79
252.217	13613.51
252.287	13595.77
252.358	13562.89
252.429	13566.89
252.499	13538.98
252.57	13519.12
252.641	13507.79
252.711	13484.12
252.782	13443.53
252.852	13435.96
252.923	13408.82
252.994	13379.51
253.064	13367.03
253.135	13337.67
253.205	13309.56
253.276	13306.62
253.347	13287.73
253.417	13257.41
253.488	13234.31
253.558	13204.67
253.629	13173.38
253.699	13147.64
253.77	13130.24
253.841	13111.15
253.911	13088.78
253.982	13073.4
254.052	13054.89
254.123	13026.88
254.193	13001.81
254.264	13015.17
254.334	12993.28
254.405	12967.01
254.475	12937.8
254.546	12916.44
254.616	12907.96
254.687	12894.56
254.757	12877.44
254.827	12857.2
254.898	12835.7
254.968	12815.69
255.039	12793.9
255.109	12777.75
255.18	12746.37
255.25	12703.95
255.321	12685.92
255.391	12648.23
255.461	12643.6
255.532	12596.02
255.602	12571
255.673	12533.12
255.743	12504.63
255.813	12457
255.884	12441.96
255.954	12437.62
256.024	12435.21
256.095	12407.69
256.165	12368.59
256.235	12350.32
256.306	12318.9
256.376	12306.6
256.446	12287.66
256.517	12276.77
256.587	12268.52
256.657	12243.84
256.728	12232.08
256.798	12218.68
256.868	12197.67
256.938	12169.51
257.009	12169.42
257.079	12155.82
257.149	12163.83
257.219	12118.52
257.29	12110.66
257.36	12072.39
257.43	12053.49
257.5	12009.58
257.571	11990.44
257.641	11976.76
257.711	11945.38
257.781	11932.41
257.852	11919.11
257.922	11887.1
257.992	11858.52
258.062	11828.25
258.132	11824.78
258.202	11806.99
258.273	11785.83
258.343	11780.43
258.413	11751.71
258.483	11732.76
258.553	11708.91
258.623	11677.19
258.693	11663.12
258.764	11651.21
258.834	11646.68
258.904	11629.38
258.974	11600.75
259.044	11579.3
259.114	11568.12
259.184	11553.85
259.254	11531.25
259.324	11493.08
259.394	11479.97
259.464	11479.92
259.535	11461.37
259.605	11438.28
259.675	11407.92
259.745	11396.4
259.815	11371
259.885	11347.09
259.955	11344.93
260.025	11312.64
260.095	11299.77
260.165	11291.62
260.235	11290.03
260.305	11263.77
260.375	11232.59
260.445	11242.9
260.515	11239.67
260.585	11229.93
260.655	11211.33
260.725	11207.62
260.795	11203.57
260.865	11205.5
260.934	11176.87
261.004	11167.14
261.074	11142.8
261.144	11139.72
261.214	11130.13
261.284	11102.42
261.354	11097.7
261.424	11073.6
261.494	11072.87
261.564	11052.97
261.634	11034.71
261.703	11003.48
261.773	10992.78
261.843	10979.19
261.913	10951.1
261.983	10914.81
262.053	10905.85
262.123	10886.57
262.192	10857.47
262.262	10848.46
262.332	10814
