Data from 20250702_urea_1.5M_MAYP1162681_11-41-57-243.txt Node
Date: Wed Jul 02 11:41:57 BST 2025
User: adleo
Spectrometer: MAYP116268
Trigger mode: 0
Integration Time (sec): 1.000000E0
Scans to average: 1
Electric dark correction enabled: true
Nonlinearity correction enabled: true
Boxcar width: 10
XAxis mode: Wavelengths
Number of Pixels in Spectrum: 2068
>>>>>Begin Spectral Data<<<<<
179.565	1010.4
179.642	1055.94
179.718	1089.57
179.795	1119.96
179.871	1146.96
179.948	1163.23
180.024	1178.59
180.101	1197.61
180.177	1208.28
180.254	1226.96
180.33	1246.23
180.407	1287.1
180.483	1367.34
180.56	1442.97
180.636	1512.75
180.712	1502.21
180.789	1512.18
180.865	1521.68
180.942	1529.23
181.018	1539.63
181.095	1552.6
181.171	1559.77
181.248	1560.39
181.324	1574.64
181.4	1581.76
181.477	1593.02
181.553	1603.56
181.63	1624.65
181.706	1638.29
181.782	1645.89
181.859	1644.65
181.935	1649.02
182.011	1644.03
182.088	1658.9
182.164	1676.54
182.24	1690.6
182.317	1699.38
182.393	1696.34
182.469	1708.88
182.546	1719.95
182.622	1723.57
182.698	1716.39
182.775	1723.76
182.851	1737.49
182.927	1731.64
183.003	1728.03
183.08	1721.9
183.156	1730.12
183.232	1726.99
183.308	1715.39
183.385	1724.85
183.461	1740.05
183.537	1743.9
183.613	1753.59
183.69	1747.51
183.766	1736.72
183.842	1742.14
183.918	1745.94
183.995	1757.25
184.071	1760.24
184.147	1757.34
184.223	1748.08
184.299	1761.96
184.375	1753.88
184.452	1760.2
184.528	1811.54
184.604	1820.52
184.68	1830.22
184.756	1836.3
184.832	1841.15
184.908	1844.66
184.985	1843.05
185.061	1830.93
185.137	1836.68
185.213	1829.17
185.289	1828.7
185.365	1822.09
185.441	1819.77
185.517	1831.46
185.593	1831.89
185.669	1830.13
185.745	1838.59
185.822	1851.84
185.898	1843.43
185.974	1847.9
186.05	1840.62
186.126	1804.16
186.202	1799.17
186.278	1796.04
186.354	1788.62
186.43	1791.19
186.506	1792.23
186.582	1791.28
186.658	1797.41
186.734	1778.69
186.81	1776.84
186.886	1777.36
186.962	1789.19
187.038	1785.15
187.114	1779.73
187.19	1785.91
187.266	1778.74
187.341	1779.07
187.417	1776.69
187.493	1775.08
187.569	1779.4
187.645	1772.04
187.721	1763.62
187.797	1769.23
187.873	1773.79
187.949	1768.71
188.025	1764.38
188.101	1767.09
188.176	1768.18
188.252	1765.28
188.328	1774.07
188.404	1777.73
188.48	1774.59
188.556	1770.46
188.632	1772.84
188.707	1771.22
188.783	1767.27
188.859	1762.95
188.935	1753.3
189.011	1758.77
189.086	1755.92
189.162	1749.17
189.238	1747.41
189.314	1743.56
189.39	1739.24
189.465	1730.3
189.541	1743.42
189.617	1728.36
189.693	1725.65
189.768	1732.45
189.844	1752.13
189.92	1744.39
189.996	1752.42
190.071	1763.2
190.147	1759.21
190.223	1764.87
190.298	1761.83
190.374	1750.23
190.45	1760.78
190.526	1767.81
190.601	1762.4
190.677	1763.73
190.753	1787.59
190.828	1792.63
190.904	1803.8
190.98	1818.11
191.055	1829.37
191.131	1825
191.207	1846.38
191.282	1852.7
191.358	1841.72
191.433	1829.27
191.509	1838.67
191.585	1835.11
191.66	1836.44
191.736	1842.71
191.811	1834.82
191.887	1846.52
191.963	1867.1
192.038	1871
192.114	1871.28
192.189	1875.8
192.265	1872.19
192.34	1852.45
192.416	1850.22
192.491	1846.27
192.567	1848.55
192.642	1850.65
192.718	1848.41
192.793	1836.77
192.869	1833.54
192.944	1837.38
193.02	1844.37
193.095	1849.41
193.171	1853.5
193.246	1853.54
193.322	1853.5
193.397	1853.59
193.473	1842.04
193.548	1827.4
193.624	1833.63
193.699	1833.29
193.775	1844.8
193.85	1845.04
193.925	1853.74
194.001	1853.5
194.076	1849.03
194.152	1840.14
194.227	1832.96
194.302	1823.41
194.378	1824.98
194.453	1822.03
194.529	1833.3
194.604	1820.46
194.679	1814
194.755	1799.98
194.83	1812.06
194.905	1809.45
194.981	1817.86
195.056	1808.79
195.131	1811.59
195.207	1808.55
195.282	1799.47
195.357	1781.93
195.433	1796.61
195.508	1786.44
195.583	1793.28
195.659	1804.12
195.734	1809.35
195.809	1810.11
195.884	1821.9
195.96	1822.9
196.035	1834.54
196.11	1829.69
196.185	1837.72
196.261	1842.76
196.336	1867.19
196.411	1852.54
196.486	1858.49
196.561	1851.93
196.637	1861.95
196.712	1877.6
196.787	1879.5
196.862	1892.76
196.937	1902.17
197.013	1907.07
197.088	1916.24
197.163	1936.36
197.238	1951.06
197.313	1950.34
197.388	1960.66
197.464	1983.73
197.539	1994.67
197.614	1990.72
197.689	2004.94
197.764	2021.49
197.839	2038.8
197.914	2032.57
197.989	2054.11
198.065	2066.29
198.14	2111.26
198.215	2136.51
198.29	2144.6
198.365	2158.97
198.44	2169.62
198.515	2196.5
198.59	2207.45
198.665	2232.23
198.74	2237.56
198.815	2238.66
198.89	2259.54
198.965	2285.86
199.04	2283.2
199.115	2297.28
199.19	2336.2
199.265	2335.73
199.34	2345.01
199.415	2376.49
199.49	2397.42
199.565	2403.32
199.64	2423.74
199.715	2422.65
199.79	2427.98
199.865	2436.74
199.94	2435.22
200.015	2460.45
200.09	2461.31
200.165	2471.49
200.24	2475.45
200.315	2513.28
200.39	2527
200.464	2530.61
200.539	2533.38
200.614	2546.61
200.689	2567.33
200.764	2573.04
200.839	2590.99
200.914	2594.75
200.989	2580.27
201.063	2593.51
201.138	2576.47
201.213	2574.99
201.288	2556.57
201.363	2559.52
201.438	2560.23
201.512	2572.61
201.587	2559.27
201.662	2564.13
201.737	2569.23
201.812	2575.99
201.886	2543.92
201.961	2553.45
202.036	2545.02
202.111	2541.73
202.186	2515.89
202.26	2499.75
202.335	2481.03
202.41	2475.32
202.485	2462.99
202.559	2447.94
202.634	2423.52
202.709	2435.7
202.784	2418.61
202.858	2418.94
202.933	2403.24
203.008	2394.05
203.082	2377.68
203.157	2377.06
203.232	2339.09
203.306	2324.14
203.381	2297.48
203.456	2277.73
203.53	2254.34
203.605	2237.27
203.68	2217.56
203.754	2213.04
203.829	2201.29
203.904	2184.02
203.978	2173.17
204.053	2175.31
204.127	2165.03
204.202	2164.42
204.277	2148.05
204.351	2143.1
204.426	2138.87
204.5	2133.4
204.575	2105.86
204.65	2114.1
204.724	2106.62
204.799	2115.7
204.873	2112.04
204.948	2110.75
205.022	2101.01
205.097	2095.2
205.171	2106.28
205.246	2112.75
205.32	2113.7
205.395	2112.8
205.469	2104.58
205.544	2107.48
205.618	2090.64
205.693	2103.53
205.767	2091.4
205.842	2108.39
205.916	2107.44
205.991	2097.45
206.065	2099.49
206.14	2112.61
206.214	2106.71
206.289	2100.62
206.363	2111.89
206.438	2111.75
206.512	2115.94
206.586	2134.68
206.661	2141.77
206.735	2124.13
206.81	2126.36
206.884	2137.54
206.958	2124.27
207.033	2140.11
207.107	2148.48
207.181	2175.27
207.256	2167.23
207.33	2186.26
207.405	2198.78
207.479	2209.06
207.553	2215.62
207.628	2203.16
207.702	2212.44
207.776	2207.73
207.851	2210.53
207.925	2223.24
207.999	2223.53
208.073	2222.48
208.148	2223.1
208.222	2212.87
208.296	2239.88
208.371	2251.22
208.445	2262.45
208.519	2290.28
208.593	2301.42
208.668	2299.94
208.742	2302.27
208.816	2305.56
208.89	2315.22
208.965	2313.89
209.039	2322.74
209.113	2339.45
209.187	2357.81
209.261	2354.95
209.336	2376.04
209.41	2393.84
209.484	2395.08
209.558	2411.93
209.632	2424.35
209.707	2434.06
209.781	2455.34
209.855	2470.82
209.929	2489.54
210.003	2496.26
210.077	2498.54
210.151	2540.39
210.226	2567.54
210.3	2599.52
210.374	2623.57
210.448	2633.95
210.522	2645.96
210.596	2662.11
210.67	2674.87
210.744	2722.47
210.818	2761.38
210.892	2788.26
210.966	2796.07
211.041	2819.33
211.115	2832.05
211.189	2865.74
211.263	2897.34
211.337	2915.68
211.411	2944
211.485	2956.02
211.559	2986.53
211.633	3007.78
211.707	3008.25
211.781	3046.19
211.855	3040.04
211.929	3063.21
212.003	3076.36
212.077	3123.12
212.151	3170.17
212.225	3219.5
212.299	3250.97
212.373	3283.08
212.447	3324.57
212.52	3394.55
212.594	3454.38
212.668	3517.54
212.742	3565.63
212.816	3619.31
212.89	3682.58
212.964	3751.12
213.038	3823.86
213.112	3907.55
213.186	3998.77
213.26	4058.54
213.333	4102.34
213.407	4196.12
213.481	4291.94
213.555	4400.31
213.629	4488.19
213.703	4576.83
213.777	4680.59
213.85	4772.23
213.924	4916.17
213.998	5034.51
214.072	5149.52
214.146	5260.52
214.219	5386.39
214.293	5518.4
214.367	5655.54
214.441	5803.97
214.515	5937.89
214.588	6065.7
214.662	6184.57
214.736	6316.16
214.81	6472.3
214.883	6637.55
214.957	6784.14
215.031	6932.72
215.105	7077.09
215.178	7229.42
215.252	7391.34
215.326	7543.97
215.4	7699.51
215.473	7831.69
215.547	7989.26
215.621	8152.4
215.694	8332.44
215.768	8495.56
215.842	8659.03
215.915	8835.01
215.989	8993.29
216.063	9166.76
216.136	9346.73
216.21	9529.25
216.284	9726.59
216.357	9915.86
216.431	10094.74
216.504	10287.37
216.578	10493.36
216.652	10690.67
216.725	10878.77
216.799	11078.51
216.873	11263.74
216.946	11454.32
217.02	11631.8
217.093	11817.69
217.167	11987.53
217.24	12153
217.314	12333.84
217.387	12511.21
217.461	12685.08
217.535	12876.83
217.608	13047.42
217.682	13223.36
217.755	13406.64
217.829	13572.12
217.902	13745.85
217.976	13917.17
218.049	14081.94
218.123	14232.86
218.196	14404.81
218.27	14571.21
218.343	14719.1
218.417	14881.78
218.49	15041.96
218.563	15222.05
218.637	15385.98
218.71	15570.01
218.784	15737.31
218.857	15901.53
218.931	16071.09
219.004	16224.94
219.077	16388.67
219.151	16542.46
219.224	16701.95
219.298	16847.88
219.371	17007.75
219.444	17145.15
219.518	17296.68
219.591	17442.94
219.665	17614.95
219.738	17760.01
219.811	17892.87
219.885	18037.11
219.958	18177.25
220.031	18317.68
220.105	18453.1
220.178	18580.42
220.251	18687.55
220.325	18818.14
220.398	18946.96
220.471	19066.81
220.544	19193.89
220.618	19295.18
220.691	19412.81
220.764	19523.51
220.838	19645.53
220.911	19752.56
220.984	19881.38
221.057	19991.16
221.131	20108.65
221.204	20185.66
221.277	20290.33
221.35	20409.71
221.424	20501.95
221.497	20597.95
221.57	20690.34
221.643	20792.03
221.716	20898.35
221.79	20996.47
221.863	21088.34
221.936	21172.54
222.009	21251.68
222.082	21329.71
222.155	21412.61
222.229	21497.54
222.302	21582.13
222.375	21653.46
222.448	21731.65
222.521	21795.32
222.594	21863.57
222.667	21917.32
222.74	21996.23
222.814	22070.46
222.887	22137.43
222.96	22216
223.033	22293.23
223.106	22365.35
223.179	22421.08
223.252	22466.4
223.325	22514.89
223.398	22564.89
223.471	22620.91
223.544	22679
223.617	22724.61
223.69	22780.87
223.763	22826.87
223.837	22868.43
223.91	22926.43
223.983	22959.84
224.056	23004.29
224.129	23051.11
224.202	23107.48
224.275	23142.77
224.348	23170.21
224.42	23196.34
224.493	23226
224.566	23256.81
224.639	23296.74
224.712	23324.32
224.785	23352.24
224.858	23384.5
224.931	23415.8
225.004	23432.82
225.077	23460.59
225.15	23486.15
225.223	23503.46
225.296	23550.05
225.369	23562.3
225.442	23576.43
225.514	23598.95
225.587	23621.95
225.66	23645.25
225.733	23657.21
225.806	23678.86
225.879	23697.28
225.952	23698.1
226.025	23710.45
226.097	23727.33
226.17	23736.2
226.243	23729.84
226.316	23742.76
226.389	23763.69
226.461	23782.65
226.534	23793.45
226.607	23795.81
226.68	23819.69
226.753	23822.15
226.825	23808.01
226.898	23837.29
226.971	23835.99
227.044	23843.46
227.117	23841.1
227.189	23847.18
227.262	23854.7
227.335	23857.35
227.407	23854.8
227.48	23871.48
227.553	23886.77
227.626	23884.6
227.698	23879.92
227.771	23896.9
227.844	23903.07
227.916	23898.83
227.989	23880.69
228.062	23890.77
228.134	23921.5
228.207	23915.03
228.28	23924.97
228.352	23918.36
228.425	23915.81
228.498	23930.47
228.57	23921.01
228.643	23941.13
228.716	23943.64
228.788	23946.63
228.861	23953.67
228.934	23967.51
229.006	23964.38
229.079	23956.75
229.151	23961.1
229.224	23942.34
229.296	23934.81
229.369	23947.64
229.442	23955.7
229.514	23948.51
229.587	23943.16
229.659	23921.11
229.732	23925.21
229.804	23926.03
229.877	23956.95
229.949	23964.62
230.022	23976.54
230.094	23973.69
230.167	23970.12
230.239	23951.41
230.312	23946.54
230.384	23954.49
230.457	23944.8
230.529	23940.6
230.602	23921.89
230.674	23910.51
230.747	23920.39
230.819	23927.97
230.892	23888.42
230.964	23890.15
231.037	23894.21
231.109	23882.87
231.181	23861.99
231.254	23844.39
231.326	23832.28
231.399	23806.14
231.471	23778.7
231.544	23748.69
231.616	23747.68
231.688	23725.98
231.761	23707.75
231.833	23681.13
231.905	23645.2
231.978	23641.73
232.05	23616.99
232.122	23619.11
232.195	23597.17
232.267	23599.53
232.339	23582.7
232.412	23586.41
232.484	23565.53
232.556	23537.08
232.629	23547.98
232.701	23557.43
232.773	23539.15
232.846	23531.92
232.918	23520.97
232.99	23502.55
233.062	23490.06
233.135	23484.95
233.207	23463.44
233.279	23455.63
233.351	23452.93
233.424	23425.3
233.496	23394.87
233.568	23400.37
233.64	23366.42
233.713	23354.46
233.785	23322.87
233.857	23305.32
233.929	23280.01
234.001	23272.24
234.074	23273.69
234.146	23232.84
234.218	23203.77
234.29	23182.36
234.362	23146.97
234.434	23109.6
234.507	23094.22
234.579	23063.36
234.651	23037.03
234.723	23024.3
234.795	23017.16
234.867	22989.78
234.939	22991.8
235.012	22966.58
235.084	22953.81
235.156	22944.6
235.228	22912.1
235.3	22899.81
235.372	22868.76
235.444	22856.12
235.516	22814.85
235.588	22793.73
235.66	22774.35
235.732	22737.71
235.804	22767.32
235.876	22754.4
235.948	22747.89
236.02	22710.43
236.092	22684.49
236.164	22653.3
236.236	22624.47
236.308	22587.73
236.38	22570.23
236.452	22534.22
236.524	22516.67
236.596	22498.93
236.668	22474.92
236.74	22453.03
236.812	22429.02
236.884	22423.48
236.956	22391.66
237.028	22364.57
237.1	22321.81
237.172	22300.31
237.244	22297.9
237.316	22237.92
237.388	22206.59
237.46	22164.36
237.532	22157.94
237.604	22122.85
237.675	22113.31
237.747	22092.87
237.819	22067.13
237.891	22039.17
237.963	22011.89
238.035	21978.14
238.107	21926.42
238.178	21909.16
238.25	21877.35
238.322	21861.06
238.394	21808.9
238.466	21777.38
238.538	21747.44
238.609	21730.24
238.681	21688.69
238.753	21649.06
238.825	21618.31
238.897	21588.96
238.968	21583.37
239.04	21544.23
239.112	21551.7
239.184	21506.05
239.255	21470.82
239.327	21442.14
239.399	21408.59
239.471	21379.96
239.542	21352.1
239.614	21328.34
239.686	21284.58
239.758	21265.88
239.829	21227.99
239.901	21210.5
239.973	21176.52
240.044	21151.36
240.116	21114.39
240.188	21083.16
240.259	21058.49
240.331	21019.06
240.403	20992.41
240.474	20943.68
240.546	20899.1
240.618	20838.76
240.689	20794.18
240.761	20760.69
240.833	20740.35
240.904	20712.92
240.976	20680.63
241.048	20653.6
241.119	20633.6
241.191	20599.04
241.262	20580.54
241.334	20538.85
241.405	20505.59
241.477	20470.8
241.549	20442.41
241.62	20415.33
241.692	20389.88
241.763	20355.91
241.835	20324.87
241.906	20291.86
241.978	20249.07
242.049	20227.48
242.121	20200.73
242.192	20185.45
242.264	20148.44
242.335	20095.58
242.407	20061.65
242.478	20025.07
242.55	19990.9
242.621	19934.47
242.693	19897.46
242.764	19860.35
242.836	19819.44
242.907	19787.83
242.979	19760.16
243.05	19712.89
243.122	19683.83
243.193	19648.84
243.264	19604.65
243.336	19575.6
243.407	19546.44
243.479	19524.85
243.55	19501.91
243.622	19474.35
243.693	19441.58
243.764	19424.04
243.836	19384.14
243.907	19352.28
243.978	19315.08
244.05	19291.71
244.121	19245.69
244.192	19219.18
244.264	19172.53
244.335	19149.11
244.407	19099
244.478	19075.67
244.549	19052.01
244.62	19000.45
244.692	18965.51
244.763	18942.38
244.834	18900.07
244.906	18860.55
244.977	18833.81
245.048	18808.99
245.119	18768.42
245.191	18733.67
245.262	18676.42
245.333	18664.08
245.405	18625.77
245.476	18597.82
245.547	18557.73
245.618	18534.31
245.689	18494.02
245.761	18458.7
245.832	18424.39
245.903	18395.76
245.974	18361.4
246.045	18332.1
246.117	18317.69
246.188	18271.09
246.259	18216.4
246.33	18176.45
246.401	18136.01
246.473	18086.57
246.544	18048.6
246.615	18022.29
246.686	17981.47
246.757	17967.44
246.828	17918.58
246.899	17905.76
246.97	17861.13
247.042	17821.09
247.113	17799.54
247.184	17801.04
247.255	17765.71
247.326	17737.67
247.397	17706.63
247.468	17680.66
247.539	17636.46
247.61	17594.63
247.681	17581.96
247.752	17570.73
247.823	17538.87
247.894	17519.6
247.965	17479.93
248.037	17446.54
248.108	17406.25
248.179	17371.55
248.25	17332.56
248.321	17310.49
248.392	17256.56
248.463	17240.94
248.534	17209.09
248.605	17179.55
248.675	17139.98
248.746	17114.92
248.817	17083.59
248.888	17063.88
248.959	17017.62
249.03	16999.3
249.101	16970.82
249.172	16932.6
249.243	16879.68
249.314	16863.92
249.385	16830.96
249.456	16811.29
249.527	16780.55
249.598	16753.94
249.669	16725.12
249.739	16710.52
249.81	16685.84
249.881	16658.85
249.952	16634.66
250.023	16613.59
250.094	16580.97
250.165	16535.66
250.235	16502.99
250.306	16477.92
250.377	16441.25
250.448	16416.52
250.519	16368.08
250.59	16349.38
250.66	16319.93
250.731	16312.12
250.802	16278.68
250.873	16249.18
250.944	16213.42
251.014	16174.91
251.085	16169.56
251.156	16145.41
251.227	16119.53
251.297	16104.73
251.368	16086.56
251.439	16064.58
251.51	16047.86
251.58	16011.08
251.651	15986.02
251.722	15975.61
251.792	15925.77
251.863	15890.24
251.934	15873.61
252.005	15871.98
252.075	15842.38
252.146	15825.27
252.217	15811
252.287	15797.6
252.358	15767.29
252.429	15763.82
252.499	15739.09
252.57	15714.65
252.641	15704.29
252.711	15668.81
252.782	15625.05
252.852	15613.53
252.923	15586.39
252.994	15554.34
253.064	15541.23
253.135	15504.93
253.205	15470.56
253.276	15467.67
253.347	15459.57
253.417	15428.34
253.488	15403.03
253.558	15378.45
253.629	15354.35
253.699	15332.51
253.77	15314.39
253.841	15298.58
253.911	15276.12
253.982	15247.44
254.052	15233.27
254.123	15207.86
254.193	15191.91
254.264	15202.56
254.334	15165.93
254.405	15141.83
254.475	15104.61
254.546	15078.63
254.616	15061.95
254.687	15043.59
254.757	15020.02
254.827	14998.47
254.898	14978.66
254.968	14952.92
255.039	14917.01
255.109	14898.69
255.18	14863.6
255.25	14811.34
255.321	14793.6
255.391	14761.55
255.461	14761.16
255.532	14708.38
255.602	14673.91
255.673	14627.93
255.743	14592.3
255.813	14555.04
255.884	14534.65
255.954	14522.07
256.024	14518.07
256.095	14504.72
256.165	14469.77
256.235	14457.38
256.306	14429.9
256.376	14418.62
256.446	14403.48
256.517	14395.15
256.587	14381.89
256.657	14361.79
256.728	14350.31
256.798	14330.98
256.868	14308.09
256.938	14281.38
257.009	14269.52
257.079	14259.98
257.149	14265.67
257.219	14225.12
257.29	14203.58
257.36	14166.31
257.43	14156.14
257.5	14120.47
257.571	14096.61
257.641	14083.54
257.711	14052.84
257.781	14036.49
257.852	14012.87
257.922	13976.33
257.992	13956.28
258.062	13933.77
258.132	13918.29
258.202	13895.64
258.273	13865.31
258.343	13859.34
258.413	13830.27
258.483	13813.88
258.553	13778.64
258.623	13751.16
258.693	13743.4
258.764	13736.46
258.834	13730
258.904	13711.15
258.974	13676.63
259.044	13651.52
259.114	13642.21
259.184	13619.41
259.254	13599.6
259.324	13567.59
259.394	13560.74
259.464	13556.26
259.535	13529.22
259.605	13505.84
259.675	13484.39
259.745	13477.44
259.815	13445.68
259.885	13426.06
259.955	13424.46
260.025	13402.77
260.095	13385.47
260.165	13363.19
260.235	13362.18
260.305	13329.93
260.375	13293.83
260.445	13293.49
260.515	13287.46
260.585	13271.17
260.655	13253.19
260.725	13238.97
260.795	13228.07
260.865	13216.31
260.934	13195.24
261.004	13183.62
261.074	13163.38
261.144	13152.68
261.214	13137.64
261.284	13126.26
261.354	13112.81
261.424	13085.19
261.494	13088.61
261.564	13067.4
261.634	13063.25
261.703	13025.89
261.773	13020.01
261.843	13008.83
261.913	12993.35
261.983	12963.27
262.053	12947.61
262.123	12925.38
262.192	12895.69
262.262	12885.47
