Data from 20250630_urea_2M_MAYP1162681_17-22-27-362.txt Node
Date: Mon Jun 30 17:22:27 BST 2025
User: adleo
Spectrometer: MAYP116268
Trigger mode: 0
Integration Time (sec): 1.000000E0
Scans to average: 1
Electric dark correction enabled: true
Nonlinearity correction enabled: true
Boxcar width: 10
XAxis mode: Wavelengths
Number of Pixels in Spectrum: 2068
>>>>>Begin Spectral Data<<<<<
179.565	1071.09
179.642	1120.61
179.718	1158.9
179.795	1192.36
179.871	1221.9
179.948	1235.77
180.024	1251.24
180.101	1270.53
180.177	1285.95
180.254	1306.12
180.33	1327.12
180.407	1369.17
180.483	1455.01
180.56	1534.4
180.636	1608.74
180.712	1597.1
180.789	1604.7
180.865	1615.76
180.942	1621.32
181.018	1629.87
181.095	1643.27
181.171	1646.74
181.248	1647.59
181.324	1659.71
181.4	1665.84
181.477	1673.77
181.553	1685.98
181.63	1705.46
181.706	1721.19
181.782	1726.41
181.859	1724.42
181.935	1727.89
182.011	1725.94
182.088	1742.24
182.164	1761.11
182.24	1772.75
182.317	1781.16
182.393	1778.74
182.469	1790.67
182.546	1807.16
182.622	1811.62
182.698	1806.78
182.775	1819.89
182.851	1833.44
182.927	1827.26
183.003	1824.88
183.08	1817.9
183.156	1826.12
183.232	1825.69
183.308	1814.48
183.385	1819.61
183.461	1835.82
183.537	1834.87
183.613	1845.89
183.69	1837.29
183.766	1826.45
183.842	1833.67
183.918	1839.19
183.995	1851.35
184.071	1854.82
184.147	1846.12
184.223	1836.91
184.299	1848.84
184.375	1838.72
184.452	1842.9
184.528	1895.54
184.604	1904.09
184.68	1918.3
184.756	1927.76
184.832	1928.38
184.908	1932.89
184.985	1935.89
185.061	1924.34
185.137	1934.46
185.213	1922.11
185.289	1924.82
185.365	1918.78
185.441	1917.4
185.517	1930.29
185.593	1927.68
185.669	1922.92
185.745	1933.43
185.822	1946.92
185.898	1938.27
185.974	1946.82
186.05	1940.12
186.126	1902.89
186.202	1897.66
186.278	1893.09
186.354	1882.87
186.43	1888.15
186.506	1887.44
186.582	1885.54
186.658	1888.58
186.734	1869.14
186.81	1872.23
186.886	1871.18
186.962	1881.83
187.038	1877.84
187.114	1868.85
187.19	1877.45
187.266	1871.32
187.341	1871.84
187.417	1866.57
187.493	1865.71
187.569	1869.23
187.645	1864.1
187.721	1852.31
187.797	1859.58
187.873	1863.57
187.949	1858.15
188.025	1855.87
188.101	1856.68
188.176	1861.43
188.252	1856.11
188.328	1865.14
188.404	1864.38
188.48	1860.43
188.556	1855.58
188.632	1856.2
188.707	1857.63
188.783	1853.59
188.859	1850.59
188.935	1842.94
189.011	1850.64
189.086	1848.22
189.162	1837.85
189.238	1835.71
189.314	1834.57
189.39	1827.11
189.465	1820.79
189.541	1834.96
189.617	1820.51
189.693	1818.32
189.768	1821.55
189.844	1845.9
189.92	1837.35
189.996	1845.23
190.071	1857.17
190.147	1854.5
190.223	1860.49
190.298	1853.03
190.374	1838.82
190.45	1848.37
190.526	1854.5
190.601	1847.28
190.677	1846.95
190.753	1873.1
190.828	1874.81
190.904	1886.79
190.98	1902.29
191.055	1911.18
191.131	1905.19
191.207	1925.25
191.282	1933.9
191.358	1922.59
191.433	1910.03
191.509	1924.76
191.585	1921.53
191.66	1921.77
191.736	1930.23
191.811	1925.05
191.887	1941.08
191.963	1964.18
192.038	1969.89
192.114	1970.41
192.189	1976.06
192.265	1972.55
192.34	1953.05
192.416	1954.14
192.491	1951.67
192.567	1952.62
192.642	1954.09
192.718	1951.95
192.793	1939.21
192.869	1935.31
192.944	1940.06
193.02	1945.49
193.095	1947.72
193.171	1955.85
193.246	1955.18
193.322	1952.33
193.397	1950.57
193.473	1938.02
193.548	1920.19
193.624	1924.89
193.699	1922.47
193.775	1934.6
193.85	1936.45
193.925	1944.06
194.001	1942.01
194.076	1934.65
194.152	1927.32
194.227	1923.42
194.302	1916.48
194.378	1920
194.453	1917.72
194.529	1929.46
194.604	1918.91
194.679	1914.25
194.755	1896.9
194.83	1906.75
194.905	1902.61
194.981	1911.98
195.056	1904.9
195.131	1917.21
195.207	1914.83
195.282	1904.66
195.357	1886.88
195.433	1900.04
195.508	1889.35
195.583	1896.14
195.659	1908.32
195.734	1911.31
195.809	1910.65
195.884	1917.63
195.96	1918.87
196.035	1929.66
196.11	1926.76
196.185	1937.22
196.261	1937.84
196.336	1965.65
196.411	1953.28
196.486	1961.27
196.561	1955.09
196.637	1964.88
196.712	1974.59
196.787	1978.11
196.862	1995.89
196.937	2008.25
197.013	2014.62
197.088	2027.13
197.163	2048.06
197.238	2063.57
197.313	2066.85
197.388	2077.55
197.464	2104.48
197.539	2115.51
197.614	2111.61
197.689	2122.27
197.764	2135.21
197.839	2153.09
197.914	2146
197.989	2165.46
198.065	2179.02
198.14	2225
198.215	2246.22
198.29	2256.41
198.365	2266.73
198.44	2275.11
198.515	2299.9
198.59	2315.37
198.665	2337.65
198.74	2345.79
198.815	2350.17
198.89	2369.87
198.965	2397.53
199.04	2393.01
199.115	2403.81
199.19	2444.94
199.265	2445.84
199.34	2454.51
199.415	2488.23
199.49	2509.31
199.565	2519.41
199.64	2538.41
199.715	2538.12
199.79	2546.98
199.865	2552.45
199.94	2549.79
200.015	2578.89
200.09	2582.7
200.165	2587.17
200.24	2589.7
200.315	2625.31
200.39	2636.31
200.464	2642.88
200.539	2643.74
200.614	2659.98
200.689	2684.08
200.764	2688.28
200.839	2705.65
200.914	2714.13
200.989	2701.12
201.063	2714.55
201.138	2698.46
201.213	2701.94
201.288	2681.98
201.363	2683.6
201.438	2683.94
201.512	2700.79
201.587	2684.35
201.662	2692.07
201.737	2699.69
201.812	2710.03
201.886	2676
201.961	2685.53
202.036	2673.39
202.111	2672.77
202.186	2646.63
202.26	2629.72
202.335	2609.47
202.41	2602.8
202.485	2584.61
202.559	2568.57
202.634	2542.76
202.709	2553.37
202.784	2530.75
202.858	2531.75
202.933	2513.8
203.008	2506.51
203.082	2490.09
203.157	2492.99
203.232	2448.11
203.306	2431.01
203.381	2402.11
203.456	2386.25
203.53	2365.53
203.605	2344.64
203.68	2320.69
203.754	2312.51
203.829	2300.09
203.904	2280.58
203.978	2271.01
204.053	2274.58
204.127	2264.3
204.202	2265.2
204.277	2245.36
204.351	2241.93
204.426	2232.22
204.5	2226.42
204.575	2196.69
204.65	2203.78
204.724	2194.69
204.799	2204.25
204.873	2200.25
204.948	2199.15
205.022	2185.88
205.097	2177.17
205.171	2193.58
205.246	2201.91
205.32	2205.43
205.395	2204.29
205.469	2200.58
205.544	2204.72
205.618	2189.02
205.693	2199.58
205.767	2187.55
205.842	2210.05
205.916	2205.68
205.991	2198.21
206.065	2206.82
206.14	2219.18
206.214	2216.85
206.289	2208.81
206.363	2218.8
206.438	2222.89
206.512	2227.84
206.586	2244.25
206.661	2252.25
206.735	2228.94
206.81	2229.52
206.884	2245.26
206.958	2234.37
207.033	2248.78
207.107	2254.4
207.181	2281.82
207.256	2275.68
207.33	2292.38
207.405	2302.43
207.479	2318.94
207.553	2328.74
207.628	2310.81
207.702	2324.42
207.776	2316.66
207.851	2321.85
207.925	2334.7
207.999	2331.13
208.073	2330.37
208.148	2336.37
208.222	2323.8
208.296	2358.2
208.371	2372.34
208.445	2379.01
208.519	2400.9
208.593	2408.65
208.668	2405.13
208.742	2411.04
208.816	2413.7
208.89	2428.37
208.965	2427.47
209.039	2436.37
209.113	2450.89
209.187	2468.92
209.261	2464.93
209.336	2483.06
209.41	2498.63
209.484	2501.83
209.558	2522.16
209.632	2533.78
209.707	2541.3
209.781	2565.3
209.855	2577.73
209.929	2595.37
210.003	2601.89
210.077	2607.99
210.151	2652.27
210.226	2686.53
210.3	2710.8
210.374	2733.37
210.448	2734.18
210.522	2745.43
210.596	2753.24
210.67	2762.01
210.744	2810.72
210.818	2841.06
210.892	2862.84
210.966	2862.98
211.041	2878.52
211.115	2878.95
211.189	2904.63
211.263	2925.36
211.337	2932.37
211.411	2949.24
211.485	2948.34
211.559	2961.97
211.633	2969.4
211.707	2948.22
211.781	2960.53
211.855	2935.78
211.929	2934.45
212.003	2929.97
212.077	2949.15
212.151	2971.75
212.225	2996.5
212.299	2999.89
212.373	3004.84
212.447	3016.53
212.52	3059.98
212.594	3083.16
212.668	3115.31
212.742	3121.98
212.816	3141.11
212.89	3160.38
212.964	3189.64
213.038	3221.47
213.112	3266.72
213.186	3316.43
213.26	3335.42
213.333	3336.56
213.407	3384.41
213.481	3433.31
213.555	3493.09
213.629	3535.6
213.703	3573.81
213.777	3627.13
213.85	3668.27
213.924	3763.56
213.998	3832.48
214.072	3893.26
214.146	3955.02
214.219	4022.28
214.293	4101.43
214.367	4185.69
214.441	4283.11
214.515	4361.11
214.588	4430.67
214.662	4494.21
214.736	4574.37
214.81	4686.08
214.883	4798.91
214.957	4898.72
215.031	5003.86
215.105	5098.85
215.178	5201.72
215.252	5322.72
215.326	5424.24
215.4	5532.94
215.473	5612.75
215.547	5723.94
215.621	5846.97
215.694	5987.91
215.768	6110.79
215.842	6239.16
215.915	6369.07
215.989	6490.7
216.063	6626.09
216.136	6778.72
216.21	6937.56
216.284	7100.02
216.357	7256.3
216.431	7404.9
216.504	7565.36
216.578	7746.78
216.652	7924.14
216.725	8081.75
216.799	8247.93
216.873	8416.69
216.946	8592.2
217.02	8759.78
217.093	8927.56
217.167	9073.55
217.24	9233.79
217.314	9399.35
217.387	9566.17
217.461	9730.1
217.535	9918.45
217.608	10082.36
217.682	10256.25
217.755	10433.68
217.829	10594.26
217.902	10756.05
217.976	10937.79
218.049	11105.77
218.123	11259.93
218.196	11427.73
218.27	11603.64
218.343	11768.52
218.417	11937.84
218.49	12110.58
218.563	12296.77
218.637	12470.97
218.71	12669.8
218.784	12832
218.857	13008.04
218.931	13175.79
219.004	13343.39
219.077	13512.01
219.151	13681.11
219.224	13835.8
219.298	13985.53
219.371	14156.46
219.444	14309.56
219.518	14459.57
219.591	14611.03
219.665	14786.92
219.738	14943.05
219.811	15083.13
219.885	15239.45
219.958	15394.76
220.031	15529.34
220.105	15672.73
220.178	15811.12
220.251	15944.63
220.325	16088.79
220.398	16225.29
220.471	16370.99
220.544	16513.56
220.618	16625.61
220.691	16760.95
220.764	16887.27
220.838	17029.06
220.911	17147.81
220.984	17279.24
221.057	17405.65
221.131	17530.67
221.204	17622.09
221.277	17744.79
221.35	17877.31
221.424	17972.83
221.497	18082.37
221.57	18197.93
221.643	18307.57
221.716	18419.8
221.79	18511.32
221.863	18611.22
221.936	18703.74
222.009	18791.11
222.082	18882
222.155	18981.65
222.229	19087
222.302	19183.52
222.375	19253.5
222.448	19344.38
222.521	19435.8
222.594	19522.54
222.667	19589.72
222.74	19673.23
222.814	19746.34
222.887	19815.83
222.96	19906.33
223.033	19972.6
223.106	20027.92
223.179	20101.07
223.252	20160.54
223.325	20222.37
223.398	20292.88
223.471	20360.01
223.544	20431.38
223.617	20491.48
223.69	20548.39
223.763	20580.39
223.837	20643.96
223.91	20711.43
223.983	20749.03
224.056	20791.05
224.129	20834.38
224.202	20898.62
224.275	20945.23
224.348	20984.02
224.42	21031.11
224.493	21052.36
224.566	21096.46
224.639	21157.29
224.712	21182.64
224.785	21223.17
224.858	21264.48
224.931	21290.89
225.004	21317.11
225.077	21352.05
225.15	21365.16
225.223	21400.3
225.296	21458
225.369	21466.72
225.442	21486.34
225.514	21507.16
225.587	21537.62
225.66	21576.33
225.733	21598.55
225.806	21628.09
225.879	21652.87
225.952	21656.29
226.025	21704.69
226.097	21739.2
226.17	21755.59
226.243	21765.71
226.316	21780.08
226.389	21794.58
226.461	21818.93
226.534	21838.83
226.607	21842.69
226.68	21885.25
226.753	21899.38
226.825	21899.71
226.898	21928.92
226.971	21941.26
227.044	21969.51
227.117	21974.19
227.189	21984.74
227.262	22003.01
227.335	22011.21
227.407	22024.61
227.48	22041.96
227.553	22040.42
227.626	22038.49
227.698	22043.41
227.771	22053.63
227.844	22052.47
227.916	22062.98
227.989	22051.07
228.062	22058.25
228.134	22107.43
228.207	22104.44
228.28	22094.7
228.352	22087.95
228.425	22096.82
228.498	22112.49
228.57	22104.2
228.643	22126.18
228.716	22115.57
228.788	22109.79
228.861	22115.86
228.934	22122.37
229.006	22122.71
229.079	22120.59
229.151	22109.84
229.224	22098.27
229.296	22103.28
229.369	22131.58
229.442	22147.34
229.514	22139.82
229.587	22156.16
229.659	22113.21
229.732	22105.06
229.804	22119.09
229.877	22149.08
229.949	22152.26
230.022	22153.95
230.094	22154.67
230.167	22148.02
230.239	22137.89
230.312	22136.49
230.384	22145.8
230.457	22138.86
230.529	22132.83
230.602	22133.46
230.674	22142.14
230.747	22143.82
230.819	22157.61
230.892	22127.82
230.964	22116.49
231.037	22121.02
231.109	22105.06
231.181	22099.71
231.254	22094.36
231.326	22071.66
231.399	22049.48
231.471	22025.04
231.544	22006.15
231.616	22006.68
231.688	22006.05
231.761	21997.66
231.833	21976.07
231.905	21932.64
231.978	21926.9
232.05	21922.9
232.122	21916.05
232.195	21899.66
232.267	21902.89
232.339	21875.32
232.412	21872.81
232.484	21852.71
232.556	21846.98
232.629	21856.04
232.701	21861.78
232.773	21853.1
232.846	21843.12
232.918	21825.29
232.99	21815.65
233.062	21809.28
233.135	21798.58
233.207	21768.12
233.279	21760.65
233.351	21759.34
233.424	21746.23
233.496	21717.51
233.568	21722.04
233.64	21688.34
233.713	21681.45
233.785	21658.27
233.857	21645.93
233.929	21612.62
234.001	21612.24
234.074	21603.13
234.146	21568.52
234.218	21539.74
234.29	21518.05
234.362	21492.65
234.434	21449.13
234.507	21421.75
234.579	21382.61
234.651	21358.85
234.723	21339.09
234.795	21312.92
234.867	21292.97
234.939	21294.89
235.012	21278.02
235.084	21247.13
235.156	21235.75
235.228	21196.28
235.3	21178.11
235.372	21155.5
235.444	21145.19
235.516	21103.06
235.588	21078.44
235.66	21044.12
235.732	21016.74
235.804	21046.39
235.876	21045.23
235.948	21053.76
236.02	21040.94
236.092	21018.43
236.164	20985.08
236.236	20957.52
236.308	20926.62
236.38	20905.8
236.452	20864.4
236.524	20834.38
236.596	20822.33
236.668	20798.09
236.74	20768.45
236.812	20736.93
236.884	20719.34
236.956	20701.75
237.028	20666.23
237.1	20633.75
237.172	20631.67
237.244	20609.84
237.316	20543.67
237.388	20503.81
237.46	20462.12
237.532	20434.08
237.604	20397.02
237.675	20390.61
237.747	20372.97
237.819	20348.25
237.891	20313.31
237.963	20281.36
238.035	20246.47
238.107	20186.66
238.178	20166.18
238.25	20139.14
238.322	20127.43
238.394	20076.73
238.466	20039.53
238.538	20016.4
238.609	19996.16
238.681	19941.65
238.753	19913.27
238.825	19871.77
238.897	19848.4
238.968	19836.02
239.04	19799.92
239.112	19805.13
239.184	19756.65
239.255	19722.48
239.327	19700.02
239.399	19667.06
239.471	19647.25
239.542	19630.68
239.614	19612.85
239.686	19550.63
239.758	19524.03
239.829	19486.4
239.901	19473.05
239.973	19439.46
240.044	19411.27
240.116	19363.99
240.188	19330.6
240.259	19301.06
240.331	19270.22
240.403	19238.56
240.474	19175.28
240.546	19126.18
240.618	19060.45
240.689	19016.98
240.761	18981.46
240.833	18955.01
240.904	18927.88
240.976	18886.87
241.048	18842.39
241.119	18815.35
241.191	18793.19
241.262	18777.48
241.334	18731.84
241.405	18691.36
241.477	18653.92
241.549	18618.45
241.62	18587.03
241.692	18560.86
241.763	18531.08
241.835	18498.07
241.906	18462.46
241.978	18429.45
242.049	18422.7
242.121	18406.46
242.192	18395.81
242.264	18347.72
242.335	18303.82
242.407	18272.15
242.478	18237.5
242.55	18216.83
242.621	18178.09
242.693	18145.12
242.764	18108.31
242.836	18078.48
242.907	18050.38
242.979	18016.79
243.05	17982.53
243.122	17948.46
243.193	17903.54
243.264	17845.95
243.336	17807.35
243.407	17785.86
243.479	17770.68
243.55	17731.4
243.622	17700.37
243.693	17660.8
243.764	17636.8
243.836	17590.73
243.907	17551.79
243.978	17518.54
244.05	17489.14
244.121	17434.49
244.192	17413.43
244.264	17364.51
244.335	17333.33
244.407	17278.87
244.478	17253.33
244.549	17220.95
244.62	17187.35
244.692	17163.5
244.763	17145.38
244.834	17108.8
244.906	17059.93
244.977	17031.4
245.048	17016.22
245.119	16974.43
245.191	16929.95
245.262	16890.67
245.333	16873.8
245.405	16847.15
245.476	16816.98
245.547	16786.62
245.618	16761.27
245.689	16726.37
245.761	16700.83
245.832	16666.51
245.903	16652.1
245.974	16622.66
246.045	16584.44
246.117	16570.94
246.188	16533.49
246.259	16496.62
246.33	16462.16
246.401	16428.47
246.473	16382.11
246.544	16342.73
246.615	16324.37
246.686	16288.89
246.757	16265.08
246.828	16211.87
246.899	16195.92
246.97	16149.89
247.042	16109.35
247.113	16088.1
247.184	16071.37
247.255	16028.62
247.326	15998.64
247.397	15957.91
247.468	15920.46
247.539	15894.82
247.61	15836.31
247.681	15815.05
247.752	15785.31
247.823	15746.61
247.894	15718.41
247.965	15674.55
248.037	15632.08
248.108	15588.27
248.179	15564.89
248.25	15536.93
248.321	15521.99
248.392	15483.05
248.463	15482.76
248.534	15453.89
248.605	15433.4
248.675	15398.94
248.746	15378.89
248.817	15357.82
248.888	15331.5
248.959	15294.44
249.03	15271.54
249.101	15250.57
249.172	15217.22
249.243	15172.87
249.314	15161.2
249.385	15134.55
249.456	15114.11
249.527	15090.92
249.598	15062.43
249.669	15031.92
249.739	15010.09
249.81	14990.95
249.881	14944.48
249.952	14909.29
250.023	14871.5
250.094	14831.59
250.165	14796.26
250.235	14767.72
250.306	14738.65
250.377	14711.42
250.448	14690.88
250.519	14642.97
250.59	14632.51
250.66	14599.44
250.731	14592.69
250.802	14565.16
250.873	14537.16
250.944	14515.37
251.014	14481.38
251.085	14469.19
251.156	14441.04
251.227	14423.3
251.297	14407.29
251.368	14395.29
251.439	14373.84
251.51	14362.85
251.58	14327.27
251.651	14300.23
251.722	14288.56
251.792	14238.28
251.863	14206.08
251.934	14188.68
252.005	14188.54
252.075	14160.38
252.146	14142.02
252.217	14117.62
252.287	14100.51
252.358	14079.25
252.429	14077.32
252.499	14046.18
252.57	14032.11
252.641	14019.67
252.711	13991.86
252.782	13952.62
252.852	13938.39
252.923	13916.75
252.994	13891.83
253.064	13869.31
253.135	13829.21
253.205	13793.25
253.276	13799.9
253.347	13791.32
253.417	13767.98
253.488	13742.63
253.558	13714.48
253.629	13689.7
253.699	13666.85
253.77	13650.31
253.841	13627.8
253.911	13597.77
253.982	13579.26
254.052	13559.93
254.123	13537.61
254.193	13516.44
254.264	13526.18
254.334	13492.92
254.405	13455.03
254.475	13423.5
254.546	13409.52
254.616	13400.27
254.687	13379.92
254.757	13357.12
254.827	13329.59
254.898	13307.47
254.968	13277.39
255.039	13245.18
255.109	13229.23
255.18	13199.24
255.25	13154.99
255.321	13137.93
255.391	13103.36
255.461	13098.54
255.532	13053.28
255.602	13030.57
255.673	12993.98
255.743	12956.48
255.813	12914.39
255.884	12903.88
255.954	12893.13
256.024	12883.64
256.095	12868.36
256.165	12840.3
256.235	12818.99
256.306	12790.55
256.376	12777.97
256.446	12770.55
256.517	12757.72
256.587	12755.8
256.657	12743.89
256.728	12729.04
256.798	12704.22
256.868	12681.32
256.938	12654.9
257.009	12643.62
257.079	12628.73
257.149	12627.76
257.219	12588.19
257.29	12577.92
257.36	12541.91
257.43	12526.29
257.5	12489.08
257.571	12463.92
257.641	12451.34
257.711	12420.97
257.781	12412.19
257.852	12396.33
257.922	12358.54
257.992	12339.12
258.062	12308.07
258.132	12297.42
258.202	12268.55
258.273	12247.48
258.343	12247.29
258.413	12216.54
258.483	12195.9
258.553	12167.75
258.623	12129.96
258.693	12120.08
258.764	12118.97
258.834	12113.82
258.904	12093.76
258.974	12072.6
259.044	12050.62
259.114	12029.9
259.184	12011.15
259.254	11983.77
259.324	11940.53
259.394	11925.11
259.464	11917.35
259.535	11894.36
259.605	11865.68
259.675	11846.2
259.745	11837.62
259.815	11800.7
259.885	11770
259.955	11775.01
260.025	11750.87
260.095	11739.59
260.165	11723.25
260.235	11710.86
260.305	11685.03
260.375	11654.61
260.445	11655
260.515	11647.58
260.585	11639.62
260.655	11624.68
260.725	11621.21
260.795	11611.09
260.865	11612.01
260.934	11586.94
261.004	11579.86
261.074	11564.87
261.144	11565.64
261.214	11557.35
261.284	11544.34
261.354	11547.61
261.424	11511.61
261.494	11514.4
261.564	11495.56
261.634	11487.46
261.703	11450.4
261.773	11436.23
261.843	11427.51
261.913	11406.2
261.983	11375.5
262.053	11369.53
262.123	11349.91
262.192	11320.66
262.262	11316.13
