Data from 20250630_urea_2M_MAYP1162681_02-22-26-780.txt Node
Date: Tue Jul 01 02:22:26 BST 2025
User: adleo
Spectrometer: MAYP116268
Trigger mode: 0
Integration Time (sec): 1.000000E0
Scans to average: 1
Electric dark correction enabled: true
Nonlinearity correction enabled: true
Boxcar width: 10
XAxis mode: Wavelengths
Number of Pixels in Spectrum: 2068
>>>>>Begin Spectral Data<<<<<
179.565	1079.44
179.642	1126
179.718	1164.48
179.795	1196.04
179.871	1223.59
179.948	1240.65
180.024	1260.46
180.101	1279.45
180.177	1294.02
180.254	1314.67
180.33	1333.74
180.407	1377.5
180.483	1461.49
180.56	1543.4
180.636	1618.83
180.712	1604.1
180.789	1612.22
180.865	1623.62
180.942	1633.12
181.018	1641.86
181.095	1656.59
181.171	1660.68
181.248	1663.15
181.324	1676.31
181.4	1685.91
181.477	1696.41
181.553	1707.1
181.63	1724.82
181.706	1739.08
181.782	1745.4
181.859	1743.21
181.935	1746.78
182.011	1743.12
182.088	1759.13
182.164	1776.1
182.24	1788.22
182.317	1798.44
182.393	1797.44
182.469	1809.27
182.546	1821.53
182.622	1827.9
182.698	1819.77
182.775	1831.7
182.851	1841.83
182.927	1836.41
183.003	1829.66
183.08	1822.58
183.156	1830.42
183.232	1827.24
183.308	1818.59
183.385	1824.67
183.461	1841.68
183.537	1845.91
183.613	1857.27
183.69	1850.9
183.766	1838.92
183.842	1846.48
183.918	1850.66
183.995	1862.4
184.071	1865.97
184.147	1860.17
184.223	1849.86
184.299	1862.5
184.375	1855.66
184.452	1861.03
184.528	1910.96
184.604	1920.7
184.68	1933.29
184.756	1941.66
184.832	1944.18
184.908	1947.18
184.985	1948.89
185.061	1933.39
185.137	1937.91
185.213	1928.5
185.289	1929.11
185.365	1923.7
185.441	1921.46
185.517	1932.92
185.593	1930.4
185.669	1926.65
185.745	1937.77
185.822	1952.55
185.898	1945.51
185.974	1949.98
186.05	1945.51
186.126	1905.48
186.202	1899.82
186.278	1894.45
186.354	1885.6
186.43	1892.45
186.506	1890.46
186.582	1888.41
186.658	1894.59
186.734	1876.53
186.81	1877.15
186.886	1878.34
186.962	1887.37
187.038	1883.61
187.114	1874.48
187.19	1880.47
187.266	1873.91
187.341	1871.68
187.417	1864.07
187.493	1865.12
187.569	1870.49
187.645	1865.12
187.721	1857.89
187.797	1864.07
187.873	1867.87
187.949	1861.13
188.025	1855.51
188.101	1858.08
188.176	1862.83
188.252	1860.41
188.328	1868.77
188.404	1869.63
188.48	1864.54
188.556	1857.03
188.632	1855.61
188.707	1859.55
188.783	1856.13
188.859	1850.57
188.935	1837.4
189.011	1844.34
189.086	1839.3
189.162	1829.89
189.238	1827.37
189.314	1825.57
189.39	1822.48
189.465	1818.77
189.541	1836.55
189.617	1824.14
189.693	1819.68
189.768	1819.72
189.844	1840.74
189.92	1832.62
189.996	1842.03
190.071	1855.29
190.147	1856.24
190.223	1866.56
190.298	1857.1
190.374	1843.22
190.45	1854.15
190.526	1864.89
190.601	1861.66
190.677	1859.52
190.753	1884.16
190.828	1890.19
190.904	1902.94
190.98	1917.2
191.055	1925.95
191.131	1917.01
191.207	1934.22
191.282	1944.43
191.358	1939.3
191.433	1924.51
191.509	1938.96
191.585	1935.44
191.66	1934.63
191.736	1941.14
191.811	1934.01
191.887	1949.37
191.963	1974.9
192.038	1980.03
192.114	1981.08
192.189	1983.5
192.265	1980.51
192.34	1962.72
192.416	1958.63
192.491	1956.4
192.567	1960.06
192.642	1963.53
192.718	1962.82
192.793	1953.12
192.869	1948.32
192.944	1949.17
193.02	1956.92
193.095	1958.92
193.171	1961.77
193.246	1961.35
193.322	1958.21
193.397	1957.54
193.473	1944.08
193.548	1924.73
193.624	1927.58
193.699	1926.11
193.775	1941.33
193.85	1945.08
193.925	1953.36
194.001	1954.02
194.076	1943.71
194.152	1934.34
194.227	1927.92
194.302	1918.89
194.378	1922.02
194.453	1919.89
194.529	1933.25
194.604	1921.74
194.679	1918.37
194.755	1903.87
194.83	1915.43
194.905	1914.33
194.981	1922.47
195.056	1916.71
195.131	1922.32
195.207	1920.14
195.282	1911.53
195.357	1893.08
195.433	1904.39
195.508	1890.23
195.583	1893.65
195.659	1909.53
195.734	1914.81
195.809	1913.1
195.884	1923.93
195.96	1924.17
196.035	1939.05
196.11	1934.44
196.185	1944.56
196.261	1946.89
196.336	1974.95
196.411	1961.58
196.486	1966.67
196.561	1961.44
196.637	1971.37
196.712	1989.21
196.787	1995.77
196.862	2009.94
196.937	2017.26
197.013	2025.06
197.088	2035.38
197.163	2058.35
197.238	2073.49
197.313	2072.06
197.388	2083.52
197.464	2105.74
197.539	2116.39
197.614	2111.02
197.689	2122.1
197.764	2138.23
197.839	2158.21
197.914	2152.65
197.989	2173.01
198.065	2187.85
198.14	2231.31
198.215	2253.62
198.29	2261.62
198.365	2272.61
198.44	2282.56
198.515	2309.59
198.59	2324.1
198.665	2349.71
198.74	2356.85
198.815	2359.04
198.89	2377.98
198.965	2408.69
199.04	2407.26
199.115	2422.59
199.19	2461.24
199.265	2464.29
199.34	2472.57
199.415	2501.39
199.49	2518.62
199.565	2527.43
199.64	2547.04
199.715	2544.8
199.79	2551.42
199.865	2558.28
199.94	2558.38
200.015	2586.43
200.09	2593.24
200.165	2596.48
200.24	2601.96
200.315	2638.9
200.39	2650.04
200.464	2658.71
200.539	2658.38
200.614	2675.52
200.689	2697.39
200.764	2701.54
200.839	2720.25
200.914	2724.54
200.989	2713.43
201.063	2729.11
201.138	2712.44
201.213	2715.92
201.288	2700.3
201.363	2706.01
201.438	2705.3
201.512	2717.44
201.587	2703.01
201.662	2702.2
201.737	2714.96
201.812	2722.83
201.886	2692.65
201.961	2701.03
202.036	2690.89
202.111	2685.7
202.186	2656.75
202.26	2640.5
202.335	2620.11
202.41	2612.35
202.485	2596.4
202.559	2579.49
202.634	2554.35
202.709	2562.2
202.784	2542.77
202.858	2543.1
202.933	2525.72
203.008	2520.87
203.082	2504.77
203.157	2504.06
203.232	2466.98
203.306	2446.84
203.381	2416.26
203.456	2394.84
203.53	2375.97
203.605	2357.42
203.68	2337.27
203.754	2331.61
203.829	2317.14
203.904	2297.73
203.978	2286.3
204.053	2290.82
204.127	2278.26
204.202	2277.55
204.277	2263.08
204.351	2255.18
204.426	2246.09
204.5	2239.19
204.575	2207.27
204.65	2218.7
204.724	2209.89
204.799	2217.12
204.873	2214.16
204.948	2214.21
205.022	2203.22
205.097	2194.85
205.171	2206.88
205.246	2214.26
205.32	2214.83
205.395	2212.26
205.469	2205.18
205.544	2209.6
205.618	2194.14
205.693	2206.03
205.767	2194.19
205.842	2211.75
205.916	2208.51
205.991	2200.95
206.065	2207.51
206.14	2223.3
206.214	2213.35
206.289	2208.73
206.363	2222.53
206.438	2224.58
206.512	2229.86
206.586	2246.42
206.661	2252.65
206.735	2232.34
206.81	2231.53
206.884	2243.47
206.958	2231.96
207.033	2250.37
207.107	2257.94
207.181	2287.07
207.256	2283.36
207.33	2301.92
207.405	2315.78
207.479	2332.48
207.553	2338.47
207.628	2322.11
207.702	2331.96
207.776	2327.25
207.851	2330.91
207.925	2341.96
207.999	2338.49
208.073	2338.01
208.148	2340.1
208.222	2330.06
208.296	2360.75
208.371	2379.09
208.445	2391.27
208.519	2417.97
208.593	2427.2
208.668	2421.35
208.742	2423.21
208.816	2422.02
208.89	2433.83
208.965	2429.68
209.039	2435.92
209.113	2452.35
209.187	2469.23
209.261	2465.66
209.336	2488.28
209.41	2504.28
209.484	2507.23
209.558	2527.9
209.632	2539.85
209.707	2552.52
209.781	2576.56
209.855	2588.9
209.929	2603.63
210.003	2607.68
210.077	2607.82
210.151	2653.02
210.226	2686.42
210.3	2714.74
210.374	2740.55
210.448	2745.6
210.522	2757.13
210.596	2767.9
210.67	2775.57
210.744	2820.46
210.818	2853.37
210.892	2872.06
210.966	2870.63
211.041	2885.83
211.115	2884.83
211.189	2907.32
211.263	2925.43
211.337	2931.44
211.411	2946.69
211.485	2940.97
211.559	2955.55
211.633	2960.79
211.707	2934.56
211.781	2948.4
211.855	2919.45
211.929	2914.36
212.003	2902.69
212.077	2916.75
212.151	2935.3
212.225	2950.55
212.299	2949.22
212.373	2943.74
212.447	2947.74
212.52	2985.27
212.594	2999.2
212.668	3023.7
212.742	3027.85
212.816	3035.72
212.89	3046.54
212.964	3062.15
213.038	3088.15
213.112	3119.21
213.186	3156.78
213.26	3162.65
213.333	3143.95
213.407	3173.41
213.481	3202.4
213.555	3243.54
213.629	3264.78
213.703	3285.64
213.777	3322.25
213.85	3340.63
213.924	3411.68
213.998	3454.46
214.072	3486.28
214.146	3518.75
214.219	3562.3
214.293	3603.98
214.367	3656.28
214.441	3717.9
214.515	3764.4
214.588	3801.67
214.662	3831.1
214.736	3873.91
214.81	3942.21
214.883	4018.84
214.957	4077.18
215.031	4135.71
215.105	4188.09
215.178	4251.02
215.252	4320.71
215.326	4375.87
215.4	4442.92
215.473	4479.35
215.547	4544.4
215.621	4622.55
215.694	4717.84
215.768	4782.95
215.842	4857.24
215.915	4937.86
215.989	5011.59
216.063	5099.86
216.136	5196.08
216.21	5294.44
216.284	5408
216.357	5513.12
216.431	5607.47
216.504	5716.65
216.578	5851.58
216.652	5969.11
216.725	6075.77
216.799	6195.28
216.873	6307
216.946	6424.44
217.02	6534.87
217.093	6646.75
217.167	6736.79
217.24	6833.01
217.314	6951.35
217.387	7071.66
217.461	7183.24
217.535	7309.54
217.608	7413.16
217.682	7536.86
217.755	7671.1
217.829	7775.11
217.902	7897.41
217.976	8020.04
218.049	8132.21
218.123	8234.36
218.196	8362.19
218.27	8485.56
218.343	8591.25
218.417	8720.76
218.49	8839.78
218.563	8980.43
218.637	9100.49
218.71	9253.16
218.784	9382.63
218.857	9507.62
218.931	9630.02
219.004	9756.67
219.077	9882.29
219.151	10011.22
219.224	10121.58
219.298	10229.1
219.371	10359.51
219.444	10462.94
219.518	10581.03
219.591	10702.73
219.665	10846.66
219.738	10955.75
219.811	11057.33
219.885	11180.45
219.958	11294.43
220.031	11408.02
220.105	11523.01
220.178	11639.4
220.251	11728.47
220.325	11839.96
220.398	11952.45
220.471	12066.73
220.544	12178.08
220.618	12276.17
220.691	12382.5
220.764	12489.56
220.838	12603.08
220.911	12707.15
220.984	12825.88
221.057	12927.59
221.131	13025.01
221.204	13089.61
221.277	13212.53
221.35	13337.67
221.424	13425.36
221.497	13522.16
221.57	13616.49
221.643	13713
221.716	13817.18
221.79	13906.41
221.863	14001.32
221.936	14092.38
222.009	14174.29
222.082	14269.35
222.155	14350.23
222.229	14453.87
222.302	14539.92
222.375	14616.9
222.448	14702.18
222.521	14784.7
222.594	14865.3
222.667	14934.86
222.74	15028.37
222.814	15093.16
222.887	15159.92
222.96	15248.08
223.033	15322.17
223.106	15395
223.179	15463.59
223.252	15522.16
223.325	15597.4
223.398	15666.13
223.471	15741.56
223.544	15816.57
223.617	15873.01
223.69	15942.32
223.763	15992.54
223.837	16059.97
223.91	16129.71
223.983	16168.9
224.056	16215.22
224.129	16279.08
224.202	16353.98
224.275	16404.2
224.348	16446.81
224.42	16498.09
224.493	16524.65
224.566	16576.84
224.639	16644.61
224.712	16692.9
224.785	16751.51
224.858	16801.15
224.931	16835.51
225.004	16865.1
225.077	16915.8
225.15	16947.9
225.223	16998.84
225.296	17065.64
225.369	17094.75
225.442	17133.16
225.514	17188.58
225.587	17242.37
225.66	17290.9
225.733	17347.47
225.806	17394.7
225.879	17445.55
225.952	17488.63
226.025	17554.99
226.097	17616
226.17	17648.97
226.243	17680.24
226.316	17731.18
226.389	17789.69
226.461	17852.48
226.534	17907.08
226.607	17950.7
226.68	18018.36
226.753	18066.84
226.825	18088.57
226.898	18154.83
226.971	18197.39
227.044	18237.77
227.117	18277.58
227.189	18325.14
227.262	18365.81
227.335	18410.63
227.407	18448.17
227.48	18487.2
227.553	18524.16
227.626	18551.1
227.698	18589.03
227.771	18630.91
227.844	18652.74
227.916	18676.88
227.989	18704.06
228.062	18726.42
228.134	18776.82
228.207	18800.05
228.28	18821.4
228.352	18852.53
228.425	18876.63
228.498	18922.36
228.57	18946.79
228.643	18989.34
228.716	19016.71
228.788	19034.06
228.861	19056.95
228.934	19090.06
229.006	19116.9
229.079	19145.09
229.151	19167.31
229.224	19187.02
229.296	19223.01
229.369	19274.96
229.442	19315.3
229.514	19320.69
229.587	19372.35
229.659	19382.43
229.732	19419.34
229.804	19450.18
229.877	19504.01
229.949	19537.98
230.022	19572.34
230.094	19605.02
230.167	19635.18
230.239	19656.87
230.312	19683.37
230.384	19728.05
230.457	19757.11
230.529	19785.63
230.602	19814.55
230.674	19843.56
230.747	19885.77
230.819	19912.86
230.892	19900.81
230.964	19918.16
231.037	19953.87
231.109	19966.3
231.181	19987.65
231.254	19995.07
231.326	20011.84
231.399	20010.68
231.471	20016.76
231.544	20008.8
231.616	20030.06
231.688	20038.68
231.761	20037.67
231.833	20053.14
231.905	20048.51
231.978	20064.08
232.05	20071.6
232.122	20082.2
232.195	20095.5
232.267	20103.6
232.339	20101.38
232.412	20128.61
232.484	20138.54
232.556	20137.67
232.629	20169.76
232.701	20186.78
232.773	20185.76
232.846	20199.31
232.918	20212.13
232.99	20227.6
233.062	20246.78
233.135	20260.75
233.207	20263.11
233.279	20281.18
233.351	20288.41
233.424	20286.73
233.496	20279.74
233.568	20301.09
233.64	20287.69
233.713	20283.84
233.785	20282.68
233.857	20297.76
233.929	20275.11
234.001	20283.74
234.074	20298
234.146	20278.92
234.218	20273.47
234.29	20278.05
234.362	20261.18
234.434	20239.16
234.507	20226.68
234.579	20216.13
234.651	20201.86
234.723	20205.86
234.795	20194.82
234.867	20176.8
234.939	20190.05
235.012	20191.02
235.084	20178.97
235.156	20180.8
235.228	20167.35
235.3	20153.52
235.372	20140.51
235.444	20154.39
235.516	20121.24
235.588	20121.19
235.66	20107.6
235.732	20092.51
235.804	20140.37
235.876	20143.07
235.948	20148.27
236.02	20127.7
236.092	20110.92
236.164	20095.65
236.236	20066.06
236.308	20049.29
236.38	20050.88
236.452	20021.24
236.524	20004.23
236.596	20002.06
236.668	19996.47
236.74	19978.25
236.812	19971.41
236.884	19962.01
236.956	19944.23
237.028	19919.41
237.1	19881.44
237.172	19875.61
237.244	19872.33
237.316	19810.98
237.388	19778.31
237.46	19755.27
237.532	19764.81
237.604	19732.72
237.675	19730.5
237.747	19729.83
237.819	19717.54
237.891	19691.32
237.963	19657.93
238.035	19633.26
238.107	19574.37
238.178	19562.61
238.25	19541.45
238.322	19538.22
238.394	19501.99
238.466	19474.57
238.538	19470.66
238.609	19462.23
238.681	19417.22
238.753	19381.56
238.825	19358.43
238.897	19344.65
238.968	19333.32
239.04	19290.67
239.112	19300.5
239.184	19257.23
239.255	19221.91
239.327	19196.7
239.399	19177.91
239.471	19168.46
239.542	19151.16
239.614	19153.33
239.686	19104.37
239.758	19088.47
239.829	19042.74
239.901	19026.98
239.973	18997.87
240.044	18971.85
240.116	18945.34
240.188	18924.14
240.259	18910.26
240.331	18886.31
240.403	18865.88
240.474	18820
240.546	18789.55
240.618	18733.65
240.689	18706.08
240.761	18681.46
240.833	18669.41
240.904	18639.39
240.976	18612.4
241.048	18585.22
241.119	18564.21
241.191	18539.68
241.262	18524.36
241.334	18492.17
241.405	18449.81
241.477	18421.09
241.549	18388.99
241.62	18360.56
241.692	18340.95
241.763	18314.83
241.835	18285.24
241.906	18256.42
241.978	18223.27
242.049	18209.43
242.121	18197.34
242.192	18184.09
242.264	18138.45
242.335	18090.45
242.407	18064.72
242.478	18031.27
242.55	17999.37
242.621	17950.65
242.693	17924.58
242.764	17886.65
242.836	17856.15
242.907	17831.42
242.979	17808.73
243.05	17787.14
243.122	17760.68
243.193	17718.32
243.264	17661.6
243.336	17623.86
243.407	17593.89
243.479	17579.67
243.55	17548.25
243.622	17520.2
243.693	17482.37
243.764	17473.74
243.836	17432.54
243.907	17391.62
243.978	17357.02
244.05	17333.26
244.121	17290.66
244.192	17259.81
244.264	17218.46
244.335	17191.57
244.407	17151.09
244.478	17116.48
244.549	17076.97
244.62	17030.55
244.692	16999.08
244.763	16978.02
244.834	16940.29
244.906	16901.92
244.977	16871.08
245.048	16850.36
245.119	16803.94
245.191	16762.98
245.262	16704.42
245.333	16693.38
245.405	16660.42
245.476	16643.5
245.547	16613.09
245.618	16587.01
245.689	16561.81
245.761	16527.78
245.832	16492.84
245.903	16469.27
245.974	16445.75
246.045	16410.52
246.117	16398.52
246.188	16355.19
246.259	16306.31
246.33	16268.38
246.401	16230.11
246.473	16186.21
246.544	16141.58
246.615	16125.14
246.686	16084.41
246.757	16074
246.828	16029.75
246.899	16015.97
246.97	15961.84
247.042	15912.78
247.113	15895.81
247.184	15875.23
247.255	15845.2
247.326	15810.83
247.397	15783.84
247.468	15747.93
247.539	15715.45
247.61	15669.32
247.681	15646.57
247.752	15634.52
247.823	15604.68
247.894	15587.04
247.965	15547.8
248.037	15506.4
248.108	15446.39
248.179	15419.88
248.25	15377.56
248.321	15353.17
248.392	15300.48
248.463	15293.35
248.534	15268.14
248.605	15242.4
248.675	15218.93
248.746	15188.99
248.817	15174.87
248.888	15140.36
248.959	15099.87
249.03	15084.68
249.101	15055.42
249.172	15030.12
249.243	14980.27
249.314	14957.95
249.385	14926.62
249.456	14911.92
249.527	14887.87
249.598	14877.45
249.669	14852.73
249.739	14833.97
249.81	14811.7
249.881	14780.37
249.952	14745.23
250.023	14719.01
250.094	14681.12
250.165	14640.97
250.235	14620.38
250.306	14584.04
250.377	14554.15
250.448	14525.32
250.519	14472.88
250.59	14458.75
250.66	14423.32
250.731	14420.19
250.802	14387.6
250.873	14357.81
250.944	14322.57
251.014	14292.64
251.085	14289.7
251.156	14271.52
251.227	14257.83
251.297	14239.22
251.368	14225.82
251.439	14211.26
251.51	14187.79
251.58	14145.08
251.651	14103.57
251.722	14090.36
251.792	14056.86
251.863	14026.35
251.934	14017.52
252.005	14017.43
252.075	13991.01
252.146	13980.31
252.217	13961.41
252.287	13957.99
252.358	13936.01
252.429	13925.45
252.499	13893.25
252.57	13870.06
252.641	13852.32
252.711	13820.51
252.782	13784.11
252.852	13777.99
252.923	13741.16
252.994	13723.13
253.064	13719.51
253.135	13697.05
253.205	13658.72
253.276	13645.37
253.347	13638.62
253.417	13608.93
253.488	13583.91
253.558	13553.97
253.629	13526.88
253.699	13501.76
253.77	13480.89
253.841	13454.28
253.911	13438.13
253.982	13418.99
254.052	13394.46
254.123	13378.21
254.193	13357.53
254.264	13365.48
254.334	13330.78
254.405	13302.53
254.475	13268.93
254.546	13244.44
254.616	13232.53
254.687	13210.02
254.757	13187.65
254.827	13161.23
254.898	13146.53
254.968	13120.21
255.039	13092.54
255.109	13073.26
255.18	13041.78
255.25	12994.1
255.321	12984.27
255.391	12951.2
255.461	12953.18
255.532	12909.31
255.602	12870.31
255.673	12828.42
255.743	12792.51
255.813	12749.94
255.884	12743
255.954	12728.83
256.024	12718.27
256.095	12696.96
256.165	12663.94
256.235	12643.89
256.306	12621.47
256.376	12607.45
256.446	12595.44
256.517	12573.32
256.587	12566.52
256.657	12552.78
256.728	12532.97
256.798	12501.01
256.868	12473.68
256.938	12441.04
257.009	12427.69
257.079	12415.83
257.149	12414.72
257.219	12376.5
257.29	12365.75
257.36	12324.63
257.43	12315.62
257.5	12271.99
257.571	12238.78
257.641	12233.82
257.711	12204.99
257.781	12187.59
257.852	12163.49
257.922	12120.54
257.992	12109.07
258.062	12092.39
258.132	12080.92
258.202	12064.34
258.273	12052.29
258.343	12047.66
258.413	12017.77
258.483	12004.28
258.553	11978.88
258.623	11953.09
258.693	11940.94
258.764	11938.39
258.834	11934.96
258.904	11912.16
258.974	11887.01
259.044	11872.59
259.114	11855.19
259.184	11844.11
259.254	11827.19
259.324	11789.64
259.394	11784.29
259.464	11773.88
259.535	11740.24
259.605	11711.7
259.675	11681.53
259.745	11664.61
259.815	11636.18
259.885	11608.56
259.955	11609.19
260.025	11576.27
260.095	11554.29
260.165	11538.72
260.235	11527.54
260.305	11499.54
260.375	11470.09
260.445	11473.56
260.515	11465.61
260.585	11456.93
260.655	11436.74
260.725	11424.16
260.795	11417.03
260.865	11412.11
260.934	11386.37
261.004	11376.45
261.074	11361.22
261.144	11359.77
261.214	11357.79
261.284	11336.25
261.354	11335.19
261.424	11312.1
261.494	11317.45
261.564	11306.37
261.634	11298.22
261.703	11262.99
261.773	11250.32
261.843	11239.52
261.913	11226.8
261.983	11197.5
262.053	11186.27
262.123	11167.91
262.192	11133.79
262.262	11127.67
262.332	11098.66
262.402	11090.13
