Data from 20250630_urea_2M_MAYP1162681_04-32-27-138.txt Node
Date: Tue Jul 01 04:32:27 BST 2025
User: adleo
Spectrometer: MAYP116268
Trigger mode: 0
Integration Time (sec): 1.000000E0
Scans to average: 1
Electric dark correction enabled: true
Nonlinearity correction enabled: true
Boxcar width: 10
XAxis mode: Wavelengths
Number of Pixels in Spectrum: 2068
>>>>>Begin Spectral Data<<<<<
179.565	1044.99
179.642	1094.5
179.718	1130.65
179.795	1163.98
179.871	1190.67
179.948	1208.55
180.024	1226.78
180.101	1248.86
180.177	1261.37
180.254	1283.76
180.33	1304.15
180.407	1346.29
180.483	1432
180.56	1509.96
180.636	1581.83
180.712	1571.66
180.789	1580.17
180.865	1591.47
180.942	1601.16
181.018	1613.6
181.095	1627.38
181.171	1633.98
181.248	1633.56
181.324	1649.47
181.4	1656.5
181.477	1669.43
181.553	1676.74
181.63	1693.8
181.706	1707.44
181.782	1714.85
181.859	1712.76
181.935	1719.84
182.011	1714.66
182.088	1727.54
182.164	1745.74
182.24	1757.52
182.317	1764.41
182.393	1764.89
182.469	1776.1
182.546	1787.65
182.622	1790.31
182.698	1785.13
182.775	1796.25
182.851	1807.89
182.927	1799.76
183.003	1793.87
183.08	1786.93
183.156	1797.48
183.232	1798.96
183.308	1788.79
183.385	1795.25
183.461	1809.17
183.537	1808.94
183.613	1822.15
183.69	1813.59
183.766	1802.71
183.842	1808.65
183.918	1812.35
183.995	1823.38
184.071	1827.37
184.147	1821.48
184.223	1810.98
184.299	1824.34
184.375	1814.55
184.452	1824.25
184.528	1874.02
184.604	1886.33
184.68	1894.79
184.756	1902.06
184.832	1902.54
184.908	1905.82
184.985	1906.53
185.061	1893.17
185.137	1896.88
185.213	1885
185.289	1888.09
185.365	1882.72
185.441	1883.81
185.517	1895.98
185.593	1894.13
185.669	1893.56
185.745	1903.26
185.822	1919.22
185.898	1909.24
185.974	1916.27
186.05	1905.76
186.126	1869.82
186.202	1861.55
186.278	1858.94
186.354	1850
186.43	1856.61
186.506	1853.47
186.582	1853.09
186.658	1860.03
186.734	1845.58
186.81	1850.34
186.886	1852.62
186.962	1862.46
187.038	1859.7
187.114	1854.71
187.19	1861.36
187.266	1849.96
187.341	1850.76
187.417	1846.77
187.493	1845.3
187.569	1847.67
187.645	1842.26
187.721	1833.84
187.797	1842.78
187.873	1848.05
187.949	1842.45
188.025	1837.45
188.101	1841.35
188.176	1846.72
188.252	1844.06
188.328	1849.95
188.404	1848.76
188.48	1842.96
188.556	1837.5
188.632	1837.59
188.707	1836.74
188.783	1831.79
188.859	1829.42
188.935	1814.87
189.011	1818.67
189.086	1814.82
189.162	1809.98
189.238	1810.93
189.314	1806.03
189.39	1801.85
189.465	1796.29
189.541	1812.16
189.617	1799.05
189.693	1792.87
189.768	1797.53
189.844	1816.88
189.92	1810.66
189.996	1816.74
190.071	1826.91
190.147	1826.58
190.223	1832.62
190.298	1826.29
190.374	1815.84
190.45	1825.77
190.526	1839.7
190.601	1835.61
190.677	1835.04
190.753	1856.72
190.828	1857.63
190.904	1872.17
190.98	1885.3
191.055	1894.52
191.131	1885.63
191.207	1903.17
191.282	1915.57
191.358	1904.02
191.433	1892.37
191.509	1905.06
191.585	1903.49
191.66	1904.58
191.736	1911.76
191.811	1905.2
191.887	1919.18
191.963	1941.47
192.038	1946.8
192.114	1945.9
192.189	1946.94
192.265	1943.28
192.34	1926.3
192.416	1925.73
192.491	1920.74
192.567	1923.55
192.642	1925.78
192.718	1927.11
192.793	1916.75
192.869	1912.95
192.944	1914.09
193.02	1920.22
193.095	1921.27
193.171	1925.78
193.246	1925.07
193.322	1925.26
193.397	1925.92
193.473	1913.28
193.548	1897.25
193.624	1903.53
193.699	1903.53
193.775	1919.03
193.85	1922.93
193.925	1928.87
194.001	1928.49
194.076	1923.26
194.152	1911.61
194.227	1903.76
194.302	1895.4
194.378	1896.97
194.453	1892.36
194.529	1905.48
194.604	1890.79
194.679	1886.7
194.755	1870.02
194.83	1881.34
194.905	1871.45
194.981	1879.06
195.056	1875.31
195.131	1880.77
195.207	1879.2
195.282	1868.89
195.357	1849.63
195.433	1864.23
195.508	1853.58
195.583	1860.99
195.659	1872.55
195.734	1878.2
195.809	1877.54
195.884	1886.43
195.96	1887.04
196.035	1900.97
196.11	1896.69
196.185	1909.48
196.261	1912.43
196.336	1943.9
196.411	1929.87
196.486	1940.76
196.561	1934.86
196.637	1942.18
196.712	1954.88
196.787	1955.12
196.862	1969.14
196.937	1981.55
197.013	1985.07
197.088	1996.72
197.163	2017.17
197.238	2034.25
197.313	2037.39
197.388	2052.04
197.464	2077.4
197.539	2088.52
197.614	2084.43
197.689	2095.37
197.764	2112.4
197.839	2129.48
197.914	2122.68
197.989	2142.51
198.065	2154.73
198.14	2199.76
198.215	2220.69
198.29	2232.64
198.365	2247.44
198.44	2255.24
198.515	2282.56
198.59	2297.64
198.665	2321.82
198.74	2329.96
198.815	2330.58
198.89	2348.8
198.965	2376.18
199.04	2372.9
199.115	2385.08
199.19	2421.49
199.265	2425.34
199.34	2432.05
199.415	2461.39
199.49	2479.29
199.565	2491.33
199.64	2512.56
199.715	2509.37
199.79	2519.23
199.865	2523.42
199.94	2519.94
200.015	2552.28
200.09	2553.19
200.165	2558.61
200.24	2564.47
200.315	2598.6
200.39	2613.6
200.464	2617.79
200.539	2619.13
200.614	2633.46
200.689	2654.99
200.764	2659.75
200.839	2672.94
200.914	2675.61
200.989	2671.37
201.063	2683.61
201.138	2668.37
201.213	2668.95
201.288	2651.23
201.363	2654.13
201.438	2655.37
201.512	2669.08
201.587	2652.46
201.662	2658.27
201.737	2668.65
201.812	2674.47
201.886	2644.91
201.961	2653.39
202.036	2643.06
202.111	2636.3
202.186	2609.55
202.26	2596.35
202.335	2578.77
202.41	2574.44
202.485	2560.63
202.559	2538.16
202.634	2516.25
202.709	2519.82
202.784	2502.87
202.858	2504.49
202.933	2486.3
203.008	2479.82
203.082	2464.35
203.157	2461.97
203.232	2421.9
203.306	2405.04
203.381	2374.23
203.456	2354.1
203.53	2332.23
203.605	2315.53
203.68	2298.39
203.754	2294.54
203.829	2280.64
203.904	2262.41
203.978	2252.46
204.053	2255.65
204.127	2244
204.202	2240.76
204.277	2226.35
204.351	2220.25
204.426	2210.78
204.5	2203.79
204.575	2175.39
204.65	2183.72
204.724	2177.01
204.799	2183.85
204.873	2180.38
204.948	2179.24
205.022	2169.34
205.097	2160.35
205.171	2175.52
205.246	2180.14
205.32	2178.66
205.395	2177.76
205.469	2169.25
205.544	2174.77
205.618	2160.07
205.693	2170.15
205.767	2161.4
205.842	2183.53
205.916	2177.53
205.991	2174.35
206.065	2181.44
206.14	2194.7
206.214	2190.99
206.289	2185.14
206.363	2200.26
206.438	2202.45
206.512	2208.5
206.586	2224.05
206.661	2235.24
206.735	2210.75
206.81	2211.75
206.884	2225.4
206.958	2216.12
207.033	2230.15
207.107	2236.2
207.181	2265.57
207.256	2260.86
207.33	2276.37
207.405	2285.18
207.479	2300.59
207.553	2302.16
207.628	2287.42
207.702	2294.89
207.776	2289.41
207.851	2292.7
207.925	2300.84
207.999	2296.51
208.073	2295.27
208.148	2297.51
208.222	2284.08
208.296	2314.81
208.371	2329.62
208.445	2340.1
208.519	2363.75
208.593	2375.64
208.668	2372.12
208.742	2371.65
208.816	2373.45
208.89	2385.79
208.965	2384.5
209.039	2393.21
209.113	2410.21
209.187	2428.38
209.261	2427.9
209.336	2445.04
209.41	2460.47
209.484	2464.33
209.558	2486.33
209.632	2497.99
209.707	2509.94
209.781	2528.41
209.855	2541.94
209.929	2557.95
210.003	2561.38
210.077	2562.52
210.151	2608.14
210.226	2638.49
210.3	2663.23
210.374	2688.66
210.448	2694.52
210.522	2704.62
210.596	2713.19
210.67	2721.29
210.744	2765.18
210.818	2797.76
210.892	2816.2
210.966	2815.72
211.041	2830.69
211.115	2826.49
211.189	2851.75
211.263	2866.14
211.337	2877.29
211.411	2894.02
211.485	2892.59
211.559	2907.31
211.633	2909.4
211.707	2881.93
211.781	2894.19
211.855	2871.22
211.929	2866.45
212.003	2851.21
212.077	2867.18
212.151	2885.44
212.225	2904.94
212.299	2899.69
212.373	2891.92
212.447	2896.02
212.52	2928.54
212.594	2939.55
212.668	2958.81
212.742	2955.99
212.816	2965.2
212.89	2969.06
212.964	2982.42
213.038	2999.25
213.112	3027.59
213.186	3058.48
213.26	3058.33
213.333	3034.97
213.407	3055.08
213.481	3081.16
213.555	3117.99
213.629	3130.26
213.703	3142.38
213.777	3164.61
213.85	3177.07
213.924	3238.88
213.998	3273
214.072	3298.79
214.146	3323.94
214.219	3359.97
214.293	3396.86
214.367	3437.2
214.441	3489.04
214.515	3522.52
214.588	3543.67
214.662	3562.59
214.736	3594.67
214.81	3652.09
214.883	3715.1
214.957	3762.42
215.031	3806.64
215.105	3845.98
215.178	3894.1
215.252	3949.4
215.326	3991.5
215.4	4039.96
215.473	4064.59
215.547	4116.53
215.621	4174.03
215.694	4249.76
215.768	4302.85
215.842	4365.32
215.915	4428.06
215.989	4485.39
216.063	4557.92
216.136	4641.48
216.21	4720.21
216.284	4814.83
216.357	4900.82
216.431	4982.09
216.504	5076.45
216.578	5184.01
216.652	5280.95
216.725	5372.2
216.799	5472.26
216.873	5566.53
216.946	5664.89
217.02	5754.43
217.093	5845.27
217.167	5924.32
217.24	6006.37
217.314	6096.4
217.387	6186.2
217.461	6277.34
217.535	6384.23
217.608	6467.43
217.682	6565.86
217.755	6678.19
217.829	6770.22
217.902	6867.92
217.976	6962.83
218.049	7052.68
218.123	7144.43
218.196	7251.44
218.27	7344.69
218.343	7436.47
218.417	7539.2
218.49	7643.91
218.563	7766.67
218.637	7875.17
218.71	7999.98
218.784	8110.47
218.857	8224.85
218.931	8340.2
219.004	8452.06
219.077	8560.97
219.151	8675.06
219.224	8783.98
219.298	8879.86
219.371	8994.63
219.444	9088.97
219.518	9203.3
219.591	9315.86
219.665	9442.37
219.738	9545.56
219.811	9643.93
219.885	9747.77
219.958	9858.16
220.031	9953.56
220.105	10051.06
220.178	10151.21
220.251	10240.04
220.325	10345.46
220.398	10450.68
220.471	10551.37
220.544	10651.58
220.618	10739.71
220.691	10828.71
220.764	10919.88
220.838	11025.7
220.911	11111
220.984	11217.35
221.057	11314.17
221.131	11403.47
221.204	11465.64
221.277	11572.73
221.35	11687.97
221.424	11776.51
221.497	11867.61
221.57	11963.14
221.643	12061.42
221.716	12158.59
221.79	12248.39
221.863	12328.55
221.936	12408.62
222.009	12491.77
222.082	12577.91
222.155	12663.13
222.229	12770.24
222.302	12861.74
222.375	12940.84
222.448	13028.24
222.521	13117.85
222.594	13189.1
222.667	13263.92
222.74	13349.77
222.814	13422.66
222.887	13500.27
222.96	13586.51
223.033	13662.1
223.106	13741.06
223.179	13809.99
223.252	13876.71
223.325	13944.97
223.398	14011.54
223.471	14088.19
223.544	14153.42
223.617	14220.08
223.69	14287.57
223.763	14336.6
223.837	14392.08
223.91	14454.75
223.983	14501.65
224.056	14548.6
224.129	14619.22
224.202	14694.57
224.275	14753.47
224.348	14807.37
224.42	14849.59
224.493	14885.6
224.566	14944.12
224.639	15008.95
224.712	15063.76
224.785	15113.5
224.858	15168.94
224.931	15225.62
225.004	15271.8
225.077	15329.93
225.15	15371.24
225.223	15425.32
225.296	15504.47
225.369	15551.61
225.442	15593.35
225.514	15645.7
225.587	15696.55
225.66	15756.66
225.733	15810.35
225.806	15868.29
225.879	15913.16
225.952	15956.73
226.025	16019.34
226.097	16078.82
226.17	16115.5
226.243	16141.43
226.316	16194.35
226.389	16245.73
226.461	16300.38
226.534	16351.47
226.607	16391.77
226.68	16459.24
226.753	16510.38
226.825	16532.16
226.898	16592.84
226.971	16657.04
227.044	16710.68
227.117	16768.81
227.189	16812.95
227.262	16860.18
227.335	16905.78
227.407	16948.62
227.48	16995.61
227.553	17052.48
227.626	17092.82
227.698	17133.21
227.771	17190.75
227.844	17234.61
227.916	17281.64
227.989	17311.14
228.062	17343.28
228.134	17413.16
228.207	17450.37
228.28	17478.8
228.352	17518.22
228.425	17561.21
228.498	17605.74
228.57	17640.73
228.643	17692.39
228.716	17720.97
228.788	17749.88
228.861	17777.4
228.934	17818.22
229.006	17857.21
229.079	17883.23
229.151	17912.96
229.224	17942.6
229.296	17984.05
229.369	18032.19
229.442	18081.29
229.514	18112.28
229.587	18173.63
229.659	18189.92
229.732	18218.11
229.804	18270.25
229.877	18320.27
229.949	18354.49
230.022	18392.99
230.094	18421.62
230.167	18450.24
230.239	18473.03
230.312	18508.74
230.384	18556.84
230.457	18600.06
230.529	18636.45
230.602	18670.9
230.674	18700.06
230.747	18740.97
230.819	18777.93
230.892	18783.14
230.964	18808.24
231.037	18839.13
231.109	18846.8
231.181	18881.59
231.254	18901.64
231.326	18916.48
231.399	18934.12
231.471	18948.43
231.544	18952.77
231.616	18991.27
231.688	19021.73
231.761	19047.27
231.833	19063.02
231.905	19063.94
231.978	19076.08
232.05	19082.93
232.122	19100.42
232.195	19108.76
232.267	19139.65
232.339	19151.74
232.412	19187.64
232.484	19192.56
232.556	19199.88
232.629	19241.81
232.701	19262.34
232.773	19284.31
232.846	19291.88
232.918	19320.07
232.99	19342.72
233.062	19366.19
233.135	19387.44
233.207	19381.94
233.279	19400.45
233.351	19412.16
233.424	19427.19
233.496	19432.35
233.568	19474.03
233.64	19473.75
233.713	19494.66
233.785	19504.06
233.857	19508.35
233.929	19496.2
234.001	19521.98
234.074	19549.93
234.146	19534.61
234.218	19534.13
234.29	19531
234.362	19539.33
234.434	19522.18
234.507	19518.22
234.579	19508.54
234.651	19508.88
234.723	19516.01
234.795	19514.95
234.867	19515.82
234.939	19532.39
235.012	19531.33
235.084	19529.12
235.156	19532.59
235.228	19523.62
235.3	19514.03
235.372	19514.71
235.444	19528.54
235.516	19507.19
235.588	19507.57
235.66	19513.5
235.732	19502.95
235.804	19541.93
235.876	19546.18
235.948	19550.56
236.02	19536.59
236.092	19524.15
236.164	19504.44
236.236	19494.42
236.308	19486.81
236.38	19479.14
236.452	19463.1
236.524	19458.18
236.596	19458.71
236.668	19460.35
236.74	19446.23
236.812	19449.17
236.884	19450.08
236.956	19433.27
237.028	19407.58
237.1	19380.69
237.172	19377.32
237.244	19378.19
237.316	19342.62
237.388	19318.72
237.46	19307.35
237.532	19313.37
237.604	19291.73
237.675	19289.85
237.747	19280.26
237.819	19254.82
237.891	19238.39
237.963	19208.22
238.035	19189.57
238.107	19140.99
238.178	19139.02
238.25	19126.88
238.322	19114.2
238.394	19077.82
238.466	19058.01
238.538	19052.9
238.609	19045.34
238.681	19007.99
238.753	18976.28
238.825	18956.19
238.897	18944.86
238.968	18933.97
239.04	18907.23
239.112	18921.54
239.184	18890.6
239.255	18864.1
239.327	18856.1
239.399	18845.98
239.471	18835.18
239.542	18824.68
239.614	18807.38
239.686	18754.08
239.758	18740.68
239.829	18710.08
239.901	18708.4
239.973	18687.14
240.044	18673.51
240.116	18648.98
240.188	18623.2
240.259	18605.75
240.331	18573.22
240.403	18552.79
240.474	18515.2
240.546	18484.5
240.618	18435.21
240.689	18404.36
240.761	18379.93
240.833	18372.32
240.904	18343.21
240.976	18315.65
241.048	18286.44
241.119	18280.03
241.191	18267.17
241.262	18252.08
241.334	18222.88
241.405	18189.68
241.477	18162.35
241.549	18127.75
241.62	18093.68
241.692	18078.16
241.763	18065.44
241.835	18045.59
241.906	18015.61
241.978	17974.07
242.049	17952.48
242.121	17934.07
242.192	17923.85
242.264	17885.45
242.335	17831.38
242.407	17808.97
242.478	17779.86
242.55	17756.29
242.621	17717.5
242.693	17684.54
242.764	17651.86
242.836	17622.51
242.907	17596.44
242.979	17567.04
243.05	17540.1
243.122	17524.06
243.193	17484.54
243.264	17430.47
243.336	17394.47
243.407	17371.24
243.479	17365.55
243.55	17340.06
243.622	17322.85
243.693	17285.31
243.764	17267.43
243.836	17232.87
243.907	17198.13
243.978	17164.92
244.05	17140.92
244.121	17101.3
244.192	17076.63
244.264	17030.31
244.335	17000.63
244.407	16957.01
244.478	16935.37
244.549	16903.66
244.62	16862.45
244.692	16836.14
244.763	16817.34
244.834	16782.26
244.906	16749.96
244.977	16716.23
245.048	16697.05
245.119	16646.2
245.191	16613.72
245.262	16562.19
245.333	16550.1
245.405	16514.19
245.476	16485.18
245.547	16454.76
245.618	16429.6
245.689	16398.9
245.761	16377.55
245.832	16350.95
245.903	16324.73
245.974	16294.32
246.045	16265.83
246.117	16247.76
246.188	16198.93
246.259	16158.98
246.33	16126.78
246.401	16092.56
246.473	16044.7
246.544	16003.15
246.615	15985.61
246.686	15948.83
246.757	15938.8
246.828	15893.98
246.899	15884.29
246.97	15852.09
247.042	15810.54
247.113	15786.73
247.184	15775.55
247.255	15734.24
247.326	15692.26
247.397	15657.9
247.468	15627.24
247.539	15588.15
247.61	15547.47
247.681	15536.62
247.752	15517.68
247.823	15484.81
247.894	15456.61
247.965	15422.53
248.037	15388.6
248.108	15343.14
248.179	15313.88
248.25	15280.04
248.321	15264.57
248.392	15213.29
248.463	15199.07
248.534	15163.88
248.605	15138.28
248.675	15105.65
248.746	15086.18
248.817	15064.97
248.888	15041.25
248.959	14990.97
249.03	14974.97
249.101	14944.8
249.172	14918.28
249.243	14874.42
249.314	14851.91
249.385	14829.16
249.456	14816.28
249.527	14788.47
249.598	14773.96
249.669	14745.09
249.739	14722.53
249.81	14696.93
249.881	14668.1
249.952	14635.08
250.023	14608.19
250.094	14566.34
250.165	14524.5
250.235	14500.98
250.306	14479.82
250.377	14440.24
250.448	14423.03
250.519	14379.21
250.59	14371.64
250.66	14333.18
250.731	14323.97
250.802	14299.72
250.873	14274.08
250.944	14248.29
251.014	14214.49
251.085	14210.69
251.156	14188.37
251.227	14177.33
251.297	14160.36
251.368	14146.62
251.439	14126.13
251.51	14112.92
251.58	14080.58
251.651	14048.86
251.722	14029.62
251.792	13974.86
251.863	13950.86
251.934	13937.94
252.005	13933.12
252.075	13903.95
252.146	13891.32
252.217	13867.51
252.287	13856.66
252.358	13831.35
252.429	13816.6
252.499	13787.24
252.57	13756.97
252.641	13743.66
252.711	13707.85
252.782	13668.85
252.852	13654.53
252.923	13634.62
252.994	13613.7
253.064	13605.36
253.135	13578.03
253.205	13546.79
253.276	13546.4
253.347	13539.46
253.417	13507.21
253.488	13475.25
253.558	13442.42
253.629	13411.96
253.699	13391.37
253.77	13370.16
253.841	13336.8
253.911	13317.42
253.982	13295.92
254.052	13275.72
254.123	13255.86
254.193	13234.99
254.264	13244.39
254.334	13213.54
254.405	13169.57
254.475	13139.2
254.546	13114.52
254.616	13106.37
254.687	13083.77
254.757	13064.29
254.827	13040.28
254.898	13029.63
254.968	13015.36
255.039	12986.58
255.109	12970.77
255.18	12942.04
255.25	12900.49
255.321	12884.72
255.391	12851.7
255.461	12847.03
255.532	12805.38
255.602	12778.77
255.673	12740.06
255.743	12713.69
255.813	12670.64
255.884	12669.63
255.954	12650.25
256.024	12642.2
256.095	12617.23
256.165	12587.34
256.235	12574.86
256.306	12545.07
256.376	12531.52
256.446	12516.39
256.517	12501.97
256.587	12497.3
256.657	12477
256.728	12461.72
256.798	12439.02
256.868	12409.18
256.938	12386.67
257.009	12374.72
257.079	12360.25
257.149	12372.69
257.219	12330.51
257.29	12313.64
257.36	12273.3
257.43	12264.72
257.5	12225.72
257.571	12196.27
257.641	12187.83
257.711	12159.54
257.781	12146.04
257.852	12125.51
257.922	12089.93
257.992	12069.45
258.062	12042.89
258.132	12032.23
258.202	12012.38
258.273	11996.32
258.343	11993.77
258.413	11971.6
258.483	11944.32
258.553	11916.02
258.623	11877.12
258.693	11855.1
258.764	11854.81
258.834	11850.52
258.904	11829.69
258.974	11806.32
259.044	11791.23
259.114	11770.75
259.184	11744.72
259.254	11721.25
259.324	11683.55
259.394	11668.13
259.464	11666.25
259.535	11642.3
259.605	11616.75
259.675	11585.18
259.745	11573.33
259.815	11541.8
259.885	11513.27
259.955	11529.47
260.025	11497.95
260.095	11486.96
260.165	11477.61
260.235	11465.13
260.305	11436.11
260.375	11402.57
260.445	11407
260.515	11403.77
260.585	11398.47
260.655	11388.45
260.725	11382.9
260.795	11372.2
260.865	11372.01
260.934	11341.46
261.004	11331.53
261.074	11317.21
261.144	11312.44
261.214	11301.36
261.284	11285.07
261.354	11278.8
261.424	11241.6
261.494	11244.63
261.564	11226.56
261.634	11212.53
261.703	11181.59
261.773	11174.9
261.843	11169.31
261.913	11143.96
261.983	11111.19
262.053	11095.81
262.123	11073.6
262.192	11040.59
262.262	11029.55
262.332	11000.01
262.402	10994.32
262.472	10978.18
