Data from 20250630_urea_2M_MAYP1162681_08-32-26-984.txt Node
Date: Tue Jul 01 08:32:26 BST 2025
User: adleo
Spectrometer: MAYP116268
Trigger mode: 0
Integration Time (sec): 1.000000E0
Scans to average: 1
Electric dark correction enabled: true
Nonlinearity correction enabled: true
Boxcar width: 10
XAxis mode: Wavelengths
Number of Pixels in Spectrum: 2068
>>>>>Begin Spectral Data<<<<<
179.565	1091.02
179.642	1138.31
179.718	1175.25
179.795	1208.91
179.871	1238.55
179.948	1250.71
180.024	1268.95
180.101	1286.76
180.177	1300.76
180.254	1320.84
180.33	1341.34
180.407	1383.25
180.483	1469.62
180.56	1550.05
180.636	1622.73
180.712	1611.18
180.789	1619.68
180.865	1630.61
180.942	1638.73
181.018	1645.62
181.095	1657.93
181.171	1662.25
181.248	1662.77
181.324	1676.03
181.4	1681.83
181.477	1691.42
181.553	1704.96
181.63	1724.73
181.706	1741.03
181.782	1746.25
181.859	1745.73
181.935	1751.01
182.011	1749.34
182.088	1763.41
182.164	1782.76
182.24	1796.02
182.317	1804.76
182.393	1803.43
182.469	1815.59
182.546	1827.19
182.622	1834.41
182.698	1827.81
182.775	1841.59
182.851	1855.18
182.927	1849.67
183.003	1848.2
183.08	1844.68
183.156	1855.42
183.232	1853.04
183.308	1842.97
183.385	1851.81
183.461	1869.49
183.537	1872.39
183.613	1883.8
183.69	1875.81
183.766	1864.16
183.842	1874
183.918	1876.43
183.995	1888.31
184.071	1891.4
184.147	1887.88
184.223	1876.05
184.299	1888.84
184.375	1876.62
184.452	1884.52
184.528	1937.16
184.604	1943.81
184.68	1952.89
184.756	1958.69
184.832	1962.21
184.908	1967.3
184.985	1966.68
185.061	1951.18
185.137	1958.27
185.213	1946.1
185.289	1945.76
185.365	1939.16
185.441	1937.3
185.517	1951.9
185.593	1947.86
185.669	1945.72
185.745	1955.23
185.822	1969.96
185.898	1962.79
185.974	1971.1
186.05	1962.3
186.126	1922.79
186.202	1918.22
186.278	1913.47
186.354	1902.44
186.43	1907.91
186.506	1906.91
186.582	1906.1
186.658	1912.42
186.734	1893.27
186.81	1898.59
186.886	1904.01
186.962	1917.32
187.038	1914.37
187.114	1906.71
187.19	1916.46
187.266	1911.18
187.341	1909.66
187.417	1903.67
187.493	1901.44
187.569	1904.62
187.645	1897.87
187.721	1888.03
187.797	1893.4
187.873	1897.25
187.949	1891.03
188.025	1883.51
188.101	1885.75
188.176	1890.26
188.252	1887.7
188.328	1895.82
188.404	1897.29
188.48	1893.3
188.556	1884.22
188.632	1884.03
188.707	1884.89
188.783	1879.56
188.859	1872.81
188.935	1864.35
189.011	1870.82
189.086	1866.97
189.162	1858.5
189.238	1860.45
189.314	1857.7
189.39	1853.04
189.465	1847.48
189.541	1862.88
189.617	1848.86
189.693	1843.77
189.768	1847.58
189.844	1868.36
189.92	1860.42
189.996	1866.36
190.071	1877.54
190.147	1878.39
190.223	1884.62
190.298	1875.35
190.374	1864.18
190.45	1872.78
190.526	1880.01
190.601	1877.53
190.677	1880.62
190.753	1906.02
190.828	1905.78
190.904	1921.28
190.98	1937.78
191.055	1946.91
191.131	1941.73
191.207	1961.41
191.282	1972.05
191.358	1963.02
191.433	1950.23
191.509	1961.3
191.585	1957.12
191.66	1957.92
191.736	1963.2
191.811	1956.83
191.887	1971.57
191.963	1995.2
192.038	2001.67
192.114	2001.77
192.189	2006.33
192.265	1999.49
192.34	1981.55
192.416	1982.41
192.491	1978.84
192.567	1980.89
192.642	1982.12
192.718	1981.89
192.793	1971.66
192.869	1967.15
192.944	1970.52
193.02	1975.23
193.095	1978.46
193.171	1986.83
193.246	1986.4
193.322	1984.17
193.397	1984.55
193.473	1974.51
193.548	1956.54
193.624	1961.29
193.699	1962.39
193.775	1972.42
193.85	1976.7
193.925	1984.54
194.001	1981.03
194.076	1974.09
194.152	1966.28
194.227	1961.72
194.302	1952.64
194.378	1957.06
194.453	1952.36
194.529	1965.62
194.604	1954.07
194.679	1949.98
194.755	1931.35
194.83	1941.96
194.905	1939.82
194.981	1946.38
195.056	1937.78
195.131	1941.72
195.207	1943.58
195.282	1932.31
195.357	1915.33
195.433	1928.79
195.508	1918.09
195.583	1928.45
195.659	1941.48
195.734	1944.24
195.809	1942.34
195.884	1951.42
195.96	1952.65
196.035	1967.39
196.11	1963.73
196.185	1974.66
196.261	1977.04
196.336	2007.66
196.411	1994.11
196.486	1998.53
196.561	1994.58
196.637	2002.09
196.712	2018.27
196.787	2016.93
196.862	2032.86
196.937	2043.23
197.013	2049.12
197.088	2058.35
197.163	2078.86
197.238	2094.71
197.313	2095.75
197.388	2109.93
197.464	2141.05
197.539	2148.46
197.614	2139.57
197.689	2150.32
197.764	2165.12
197.839	2181.25
197.914	2173.82
197.989	2193.24
198.065	2208.12
198.14	2254.4
198.215	2278.81
198.29	2288.9
198.365	2305.18
198.44	2315.12
198.515	2340.25
198.59	2355.1
198.665	2378.56
198.74	2382.61
198.815	2382.85
198.89	2402.27
198.965	2430.65
199.04	2424.12
199.115	2440.02
199.19	2484.29
199.265	2487.29
199.34	2498.05
199.415	2532.63
199.49	2551.77
199.565	2559.34
199.64	2583.29
199.715	2576.09
199.79	2582.76
199.865	2589.47
199.94	2586.76
200.015	2615.91
200.09	2622.96
200.165	2626.01
200.24	2629.73
200.315	2668.82
200.39	2685.78
200.464	2693.35
200.539	2695.83
200.614	2711.64
200.689	2732.79
200.764	2736.99
200.839	2748.7
200.914	2754.27
200.989	2741.93
201.063	2756.08
201.138	2743.75
201.213	2744.56
201.288	2731.13
201.363	2736.84
201.438	2738.08
201.512	2751.27
201.587	2734.4
201.662	2737.12
201.737	2747.5
201.812	2759.13
201.886	2727.28
201.961	2733.91
202.036	2720.38
202.111	2713.38
202.186	2685.43
202.26	2669.8
202.335	2651.51
202.41	2649.74
202.485	2632.65
202.559	2614.31
202.634	2588.4
202.709	2596.88
202.784	2575.78
202.858	2573.68
202.933	2555.25
203.008	2549.39
203.082	2532.11
203.157	2532.4
203.232	2492.32
203.306	2476.88
203.381	2446.88
203.456	2424.98
203.53	2401.92
203.605	2387.64
203.68	2365.79
203.754	2360.36
203.829	2346.18
203.904	2329.18
203.978	2313.71
204.053	2318.47
204.127	2306.48
204.202	2304.96
204.277	2288.11
204.351	2282.21
204.426	2276.64
204.5	2269.41
204.575	2237.39
204.65	2245.81
204.724	2237.91
204.799	2246.94
204.873	2240.66
204.948	2237.8
205.022	2227.67
205.097	2221.15
205.171	2234.95
205.246	2244.18
205.32	2241.81
205.395	2242.85
205.469	2232.86
205.544	2239.48
205.618	2221.63
205.693	2235.29
205.767	2225.54
205.842	2242.91
205.916	2237.77
205.991	2231.01
206.065	2238.72
206.14	2250.56
206.214	2247.8
206.289	2241.04
206.363	2253.65
206.438	2257.41
206.512	2267.22
206.586	2284.58
206.661	2290.68
206.735	2266.99
206.81	2267.65
206.884	2285.07
206.958	2273.03
207.033	2287.54
207.107	2295.97
207.181	2325.58
207.256	2317.44
207.33	2333.9
207.405	2343.43
207.479	2363.08
207.553	2368.84
207.628	2353.52
207.702	2365.09
207.776	2358.71
207.851	2361.61
207.925	2369.61
207.999	2366.75
208.073	2365.33
208.148	2368.52
208.222	2358.57
208.296	2388.3
208.371	2403.02
208.445	2412.54
208.519	2438.67
208.593	2451.24
208.668	2448.1
208.742	2451.86
208.816	2454.43
208.89	2467.24
208.965	2471.34
209.039	2476.39
209.113	2492.24
209.187	2512.28
209.261	2510.47
209.336	2528.8
209.41	2546.09
209.484	2547.56
209.558	2568.61
209.632	2575.04
209.707	2584.18
209.781	2606.09
209.855	2622.52
209.929	2637.64
210.003	2641.07
210.077	2642.88
210.151	2686.12
210.226	2718
210.3	2742.94
210.374	2765.85
210.448	2770.56
210.522	2776.14
210.596	2788.24
210.67	2798.96
210.744	2841.39
210.818	2871.78
210.892	2892.27
210.966	2889.89
211.041	2904.42
211.115	2900.99
211.189	2926.58
211.263	2945.45
211.337	2950.93
211.411	2963.38
211.485	2961.04
211.559	2974.05
211.633	2976.91
211.707	2949.1
211.781	2958.45
211.855	2924.7
211.929	2921.27
212.003	2904.98
212.077	2920.38
212.151	2933.21
212.225	2943.79
212.299	2936.73
212.373	2928.29
212.447	2927.1
212.52	2959.91
212.594	2970.44
212.668	2986.75
212.742	2979.12
212.816	2980.64
212.89	2984.89
212.964	2992.42
213.038	3004.01
213.112	3025.91
213.186	3052.75
213.26	3045.6
213.333	3013.46
213.407	3031
213.481	3048.54
213.555	3079.42
213.629	3085.76
213.703	3085.81
213.777	3099.79
213.85	3102.94
213.924	3156.86
213.998	3179.81
214.072	3193.85
214.146	3206.25
214.219	3230.16
214.293	3252
214.367	3281.3
214.441	3312.41
214.515	3333.42
214.588	3341.39
214.662	3341.82
214.736	3355.75
214.81	3395.77
214.883	3442.56
214.957	3472.1
215.031	3500.16
215.105	3515.09
215.178	3540.11
215.252	3576.11
215.326	3597.93
215.4	3622.18
215.473	3621.61
215.547	3648.93
215.621	3682.34
215.694	3732.03
215.768	3759.65
215.842	3798.82
215.915	3836.29
215.989	3869.12
216.063	3909.42
216.136	3966.97
216.21	4019.68
216.284	4083.28
216.357	4142.85
216.431	4195.68
216.504	4266.37
216.578	4348.66
216.652	4421.53
216.725	4485.16
216.799	4559.83
216.873	4625.62
216.946	4702.46
217.02	4765.48
217.093	4827.81
217.167	4878.04
217.24	4934.69
217.314	4999.52
217.387	5067.7
217.461	5132.75
217.535	5209.68
217.608	5271.77
217.682	5340.25
217.755	5426.57
217.829	5490.95
217.902	5563.1
217.976	5637.36
218.049	5696.97
218.123	5753.19
218.196	5836.16
218.27	5909.65
218.343	5966.7
218.417	6046.3
218.49	6116.07
218.563	6211
218.637	6294.37
218.71	6396.38
218.784	6485.74
218.857	6577.19
218.931	6658.66
219.004	6741.69
219.077	6830.03
219.151	6915.76
219.224	6994.69
219.298	7070.65
219.371	7161.33
219.444	7232.06
219.518	7316.16
219.591	7401.89
219.665	7512.05
219.738	7591.32
219.811	7663.09
219.885	7755.31
219.958	7847.79
220.031	7930.74
220.105	8009.86
220.178	8093.51
220.251	8159.37
220.325	8242.23
220.398	8329.94
220.471	8417.74
220.544	8502.86
220.618	8578.27
220.691	8664.98
220.764	8751.61
220.838	8836.85
220.911	8911.13
220.984	9005.32
221.057	9092.02
221.131	9178.77
221.204	9225.63
221.277	9322.56
221.35	9440.97
221.424	9508.72
221.497	9582.21
221.57	9661.95
221.643	9746.81
221.716	9839.39
221.79	9912.79
221.863	9986.78
221.936	10060.82
222.009	10137.55
222.082	10218.48
222.155	10293
222.229	10380.45
222.302	10461.68
222.375	10532.45
222.448	10618.17
222.521	10699.65
222.594	10771.78
222.667	10828.35
222.74	10916.43
222.814	10981.49
222.887	11037.29
222.96	11126.54
223.033	11205.62
223.106	11281.57
223.179	11351.89
223.252	11409
223.325	11483.17
223.398	11548.43
223.471	11618.94
223.544	11683.23
223.617	11751.62
223.69	11829.61
223.763	11882.49
223.837	11944.09
223.91	12016.29
223.983	12064.54
224.056	12112.35
224.129	12179.55
224.202	12263.37
224.275	12324.49
224.348	12377.61
224.42	12425.48
224.493	12473.59
224.566	12529.26
224.639	12595.69
224.712	12650.35
224.785	12708.63
224.858	12772.07
224.931	12826.11
225.004	12869.69
225.077	12939.29
225.15	12975.93
225.223	13028.19
225.296	13106.42
225.369	13144.65
225.442	13197.87
225.514	13258.51
225.587	13320.75
225.66	13379.03
225.733	13435.05
225.806	13492.32
225.879	13539.85
225.952	13587.86
226.025	13650.05
226.097	13726.16
226.17	13775.29
226.243	13814.57
226.316	13869.82
226.389	13919.18
226.461	13990.86
226.534	14052.52
226.607	14108.97
226.68	14187.06
226.753	14240.04
226.825	14272.68
226.898	14351.11
226.971	14404.28
227.044	14456.29
227.117	14513.27
227.189	14566.2
227.262	14627.18
227.335	14678.8
227.407	14741.71
227.48	14809.29
227.553	14870.17
227.626	14904.3
227.698	14954.48
227.771	15023.89
227.844	15069.5
227.916	15127.53
227.989	15161.76
228.062	15210.44
228.134	15266.55
228.207	15305.45
228.28	15349.12
228.352	15392.93
228.425	15434.92
228.498	15484.23
228.57	15529.3
228.643	15592.58
228.716	15636.64
228.788	15672.4
228.861	15712.22
228.934	15769
229.006	15801.34
229.079	15839.22
229.151	15877.73
229.224	15914.99
229.296	15952.2
229.369	16022.19
229.442	16075.54
229.514	16113.23
229.587	16165.19
229.659	16190.16
229.732	16242.26
229.804	16289.83
229.877	16356.78
229.949	16413.79
230.022	16474.86
230.094	16517.51
230.167	16546.86
230.239	16575.25
230.312	16611.21
230.384	16677.09
230.457	16712.27
230.529	16760.37
230.602	16803.46
230.674	16848.91
230.747	16895.66
230.819	16942.26
230.892	16951.32
230.964	16990.5
231.037	17027.86
231.109	17067.76
231.181	17118.22
231.254	17146.51
231.326	17182.22
231.399	17211.19
231.471	17230.22
231.544	17245.5
231.616	17293.31
231.688	17332.92
231.761	17367.33
231.833	17408.83
231.905	17420.1
231.978	17459.57
232.05	17490.32
232.122	17525.5
232.195	17549.6
232.267	17595.86
232.339	17619.28
232.412	17656.78
232.484	17679.52
232.556	17709.6
232.629	17754.27
232.701	17797.59
232.773	17827.57
232.846	17854.46
232.918	17883.28
232.99	17919.04
233.062	17957.93
233.135	17981.83
233.207	17993.73
233.279	18027.95
233.351	18053.73
233.424	18066.79
233.496	18070.26
233.568	18111.56
233.64	18114.4
233.713	18139.51
233.785	18151.56
233.857	18179.7
233.929	18190.5
234.001	18223.12
234.074	18254.2
234.146	18254.59
234.218	18254.06
234.29	18258.06
234.362	18267.02
234.434	18265.77
234.507	18269.29
234.579	18260.42
234.651	18256.76
234.723	18273.38
234.795	18284.18
234.867	18293
234.939	18317.67
235.012	18331.55
235.084	18336.99
235.156	18358.05
235.228	18351.6
235.3	18352.95
235.372	18360.95
235.444	18378.97
235.516	18367.02
235.588	18372.41
235.66	18373.23
235.732	18374.25
235.804	18447.01
235.876	18462.39
235.948	18481.85
236.02	18481.85
236.092	18480.17
236.164	18494.72
236.236	18505.56
236.308	18510.53
236.38	18512.94
236.452	18508.21
236.524	18518.77
236.596	18539.3
236.668	18541.47
236.74	18555.25
236.812	18566.24
236.884	18569.85
236.956	18576.89
237.028	18563.78
237.1	18556.55
237.172	18573.13
237.244	18583.44
237.316	18534.09
237.388	18520.6
237.46	18502.82
237.532	18514.38
237.604	18512.17
237.675	18523.59
237.747	18521.66
237.819	18510.38
237.891	18497.61
237.963	18489.28
238.035	18476.7
238.107	18430.92
238.178	18448.89
238.25	18435.5
238.322	18448.07
238.394	18419.45
238.466	18392.56
238.538	18387.93
238.609	18376.22
238.681	18345.38
238.753	18334.87
238.825	18331.79
238.897	18321.86
238.968	18333.62
239.04	18306.06
239.112	18313.43
239.184	18282.11
239.255	18255.65
239.327	18242.16
239.399	18236.76
239.471	18229.48
239.542	18216.95
239.614	18216.47
239.686	18166.4
239.758	18158.3
239.829	18122.4
239.901	18127.41
239.973	18124.43
240.044	18115.66
240.116	18102.64
240.188	18083.42
240.259	18058.12
240.331	18022.94
240.403	18011.95
240.474	17984.24
240.546	17961.01
240.618	17920.92
240.689	17895.66
240.761	17879.86
240.833	17885.54
240.904	17858.46
240.976	17829.83
241.048	17817.4
241.119	17798.32
241.191	17784.34
241.262	17769.55
241.334	17745.45
241.405	17718.27
241.477	17683.48
241.549	17658.27
241.62	17642.56
241.692	17628.97
241.763	17625.36
241.835	17608.39
241.906	17590.8
241.978	17546.9
242.049	17535
242.121	17532.83
242.192	17531.43
242.264	17505.89
242.335	17453.41
242.407	17441.79
242.478	17417.69
242.55	17390.9
242.621	17370.13
242.693	17344.25
242.764	17321.16
242.836	17294.9
242.907	17275.72
242.979	17265.21
243.05	17248.15
243.122	17228.39
243.193	17202.99
243.264	17144.92
243.336	17118.99
243.407	17097.79
243.479	17095.33
243.55	17083.04
243.622	17048.39
243.693	17013.74
243.764	17002.17
243.836	16970.22
243.907	16940.38
243.978	16910.02
244.05	16880.48
244.121	16831.22
244.192	16808.86
244.264	16763.36
244.335	16735.89
244.407	16691.02
244.478	16659.26
244.549	16626.87
244.62	16586.34
244.692	16555.06
244.763	16533.61
244.834	16501.95
244.906	16465.85
244.977	16444.64
245.048	16420.79
245.119	16396.78
245.191	16358.66
245.262	16300.29
245.333	16291.23
245.405	16266.31
245.476	16254.75
245.547	16238.12
245.618	16221.97
245.689	16196.04
245.761	16181.39
245.832	16148.18
245.903	16124.27
245.974	16096.41
246.045	16062
246.117	16051.93
246.188	16010.04
246.259	15970.13
246.33	15936.2
246.401	15901.16
246.473	15847.8
246.544	15814.88
246.615	15792.81
246.686	15761.33
246.757	15746.34
246.828	15703.59
246.899	15680.84
246.97	15631.82
247.042	15588.49
247.113	15559.76
247.184	15553.83
247.255	15510.74
247.326	15483.31
247.397	15455.31
247.468	15434.58
247.539	15415.78
247.61	15371.73
247.681	15354.04
247.752	15347.82
247.823	15314.56
247.894	15288
247.965	15250.11
248.037	15211.16
248.108	15167.44
248.179	15144.84
248.25	15124.01
248.321	15101.41
248.392	15055.57
248.463	15059.13
248.534	15032.43
248.605	15021.68
248.675	14985.67
248.746	14962.63
248.817	14945.28
248.888	14916.5
248.959	14876.44
249.03	14852.58
249.101	14822.94
249.172	14791.56
249.243	14739.16
249.314	14725.76
249.385	14702.76
249.456	14693.07
249.527	14668.97
249.598	14647.67
249.669	14619.03
249.739	14588.9
249.81	14568.13
249.881	14524.5
249.952	14489.65
250.023	14456.63
250.094	14418.84
250.165	14378.49
250.235	14357.62
250.306	14328.55
250.377	14296.2
250.448	14264.48
250.519	14215.94
250.59	14198.63
250.66	14173.13
250.731	14167.69
250.802	14141.51
250.873	14114.95
250.944	14086.46
251.014	14047.89
251.085	14039.6
251.156	14011.93
251.227	13997.52
251.297	13984.31
251.368	13985.42
251.439	13963.78
251.51	13950.13
251.58	13908.15
251.651	13879.13
251.722	13863.51
251.792	13830
251.863	13805.08
251.934	13801.85
252.005	13796.07
252.075	13774.13
252.146	13759.19
252.217	13741.45
252.287	13720.33
252.358	13699.07
252.429	13696.13
252.499	13673.96
252.57	13654.34
252.641	13640.17
252.711	13617.07
252.782	13580.77
252.852	13565.88
252.923	13532.95
252.994	13517.48
253.064	13509.81
253.135	13476.46
253.205	13445.84
253.276	13439
253.347	13430.32
253.417	13394.84
253.488	13374.16
253.558	13346.97
253.629	13318.77
253.699	13298.04
253.77	13291.54
253.841	13260.3
253.911	13237.78
253.982	13210.21
254.052	13192.57
254.123	13171.6
254.193	13148.22
254.264	13160.94
254.334	13128.55
254.405	13097.17
254.475	13053.54
254.546	13029.1
254.616	13022.5
254.687	13006.49
254.757	12985.86
254.827	12960.84
254.898	12946.81
254.968	12932.06
255.039	12898.8
255.109	12885.69
255.18	12858.6
255.25	12807.35
255.321	12792.41
255.391	12752.93
255.461	12759.49
255.532	12716.24
255.602	12693.93
255.673	12654.01
255.743	12616.99
255.813	12576.64
255.884	12571.1
255.954	12560.98
256.024	12547.24
256.095	12522.22
256.165	12487.46
256.235	12469
256.306	12435.69
256.376	12412.46
256.446	12392.45
256.517	12381.9
256.587	12370.91
256.657	12350.85
256.728	12337.21
256.798	12320.97
256.868	12296.48
256.938	12268.33
257.009	12249
257.079	12233.09
257.149	12236.95
257.219	12192.17
257.29	12175.49
257.36	12137.32
257.43	12134.91
257.5	12099.62
257.571	12077.3
257.641	12065.54
257.711	12038.31
257.781	12032.81
257.852	12026.88
257.922	11989.09
257.992	11966.87
258.062	11937.28
258.132	11927.83
258.202	11907.73
258.273	11893.42
258.343	11900.4
258.413	11866.76
258.483	11850.76
258.553	11817.84
258.623	11796.49
258.693	11782.7
258.764	11783.42
258.834	11776.29
258.904	11754.26
258.974	11730.5
259.044	11711.51
259.114	11690.88
259.184	11658.73
259.254	11636.66
259.324	11596.12
259.394	11585.38
259.464	11585.33
259.535	11572.94
259.605	11545.32
259.675	11518.48
259.745	11496.84
259.815	11458.18
259.885	11433.6
259.955	11446.76
260.025	11424.79
260.095	11400.06
260.165	11388.88
260.235	11382.47
260.305	11359.92
260.375	11326.37
260.445	11324.54
260.515	11320.93
260.585	11315.38
260.655	11314.23
260.725	11309.55
260.795	11297.89
260.865	11294.56
260.934	11267.53
261.004	11258.18
261.074	11243.24
261.144	11238.71
261.214	11234.75
261.284	11215.77
261.354	11216.78
261.424	11187.91
261.494	11185.74
261.564	11169.16
261.634	11170.7
261.703	11139.52
261.773	11128.15
261.843	11119.28
261.913	11108.73
261.983	11076.15
262.053	11065.45
262.123	11037.41
262.192	11002.95
262.262	10998.37
262.332	10967.97
262.402	10960.74
262.472	10940.02
262.541	10897.76
