Data from 20250630_urea_2M_MAYP1162681_06-42-27-504.txt Node
Date: Tue Jul 01 06:42:27 BST 2025
User: adleo
Spectrometer: MAYP116268
Trigger mode: 0
Integration Time (sec): 1.000000E0
Scans to average: 1
Electric dark correction enabled: true
Nonlinearity correction enabled: true
Boxcar width: 10
XAxis mode: Wavelengths
Number of Pixels in Spectrum: 2068
>>>>>Begin Spectral Data<<<<<
179.565	1076.13
179.642	1125.34
179.718	1166.67
179.795	1200.24
179.871	1228.61
179.948	1244.76
180.024	1262.07
180.101	1281.77
180.177	1294.73
180.254	1314.57
180.33	1333.67
180.407	1377.24
180.483	1463.13
180.56	1544.32
180.636	1620.57
180.712	1609.97
180.789	1617.47
180.865	1627.64
180.942	1637.23
181.018	1649.01
181.095	1661.61
181.171	1666.17
181.248	1667.78
181.324	1682.75
181.4	1691.12
181.477	1702.47
181.553	1714.54
181.63	1733.31
181.706	1747.13
181.782	1752.55
181.859	1754.02
181.935	1761.91
182.011	1759.49
182.088	1773.98
182.164	1789.86
182.24	1799.08
182.317	1807.39
182.393	1807.35
182.469	1823.5
182.546	1833.1
182.622	1838.48
182.698	1836.15
182.775	1847.89
182.851	1860.72
182.927	1850.64
183.003	1844.75
183.08	1839.05
183.156	1846.74
183.232	1844.7
183.308	1835.48
183.385	1844.37
183.461	1859.05
183.537	1857.96
183.613	1870.04
183.69	1862.71
183.766	1853.21
183.842	1861.43
183.918	1863.47
183.995	1874.45
184.071	1876.74
184.147	1871.74
184.223	1858.92
184.299	1866.57
184.375	1853.45
184.452	1858.02
184.528	1911.47
184.604	1921.02
184.68	1930.95
184.756	1938.89
184.832	1942.75
184.908	1947.64
184.985	1949.3
185.061	1933.05
185.137	1940.84
185.213	1929.91
185.289	1932.43
185.365	1926.39
185.441	1925.73
185.517	1939.61
185.593	1936.05
185.669	1932.81
185.745	1946.18
185.822	1962.57
185.898	1957.62
185.974	1967.75
186.05	1963.18
186.126	1926.18
186.202	1921
186.278	1916.91
186.354	1907.88
186.43	1912.54
186.506	1910.45
186.582	1908.17
186.658	1915.49
186.734	1896.57
186.81	1898.95
186.886	1898.9
186.962	1908.93
187.038	1904.03
187.114	1896.9
187.19	1904.74
187.266	1895.19
187.341	1894
187.417	1885.68
187.493	1883.16
187.569	1887.87
187.645	1881.4
187.721	1871.75
187.797	1878.26
187.873	1882.87
187.949	1875.22
188.025	1868.75
188.101	1872.18
188.176	1876.64
188.252	1873.84
188.328	1884.44
188.404	1883.91
188.48	1880.82
188.556	1874.31
188.632	1873.22
188.707	1874.41
188.783	1871.32
188.859	1866.09
188.935	1854.87
189.011	1862.62
189.086	1859.05
189.162	1850.45
189.238	1848.36
189.314	1844.17
189.39	1838.9
189.465	1832.38
189.541	1849.17
189.617	1837.09
189.693	1829.59
189.768	1831.39
189.844	1853.89
189.92	1843.34
189.996	1849.8
190.071	1859.5
190.147	1859.59
190.223	1871.15
190.298	1863.4
190.374	1851.32
190.45	1863.11
190.526	1872.52
190.601	1869.34
190.677	1869.24
190.753	1897.54
190.828	1900.87
190.904	1916.04
190.98	1929.68
191.055	1939.48
191.131	1931.58
191.207	1948.55
191.282	1961.1
191.358	1951.69
191.433	1938.51
191.509	1950.11
191.585	1947.68
191.66	1947.49
191.736	1953.67
191.811	1943.78
191.887	1957.53
191.963	1978.83
192.038	1984.82
192.114	1984.58
192.189	1987.38
192.265	1985.15
192.34	1962.27
192.416	1960.18
192.491	1952.9
192.567	1956.66
192.642	1960.32
192.718	1960.61
192.793	1951.86
192.869	1946.2
192.944	1949.96
193.02	1955.24
193.095	1960.61
193.171	1966.6
193.246	1966.88
193.322	1966.93
193.397	1965.98
193.473	1952.76
193.548	1935.26
193.624	1940.44
193.699	1938.64
193.775	1954.43
193.85	1959.56
193.925	1968.45
194.001	1968.74
194.076	1962.8
194.152	1953.14
194.227	1943.53
194.302	1934.31
194.378	1936.64
194.453	1935.46
194.529	1950.24
194.604	1936.88
194.679	1930.04
194.755	1913.5
194.83	1926.58
194.905	1921.54
194.981	1931.57
195.056	1926.39
195.131	1933.76
195.207	1932.62
195.282	1923.73
195.357	1905.13
195.433	1916.16
195.508	1907.08
195.583	1913.64
195.659	1927.43
195.734	1933.57
195.809	1934.71
195.884	1941.93
195.96	1944.69
196.035	1957.81
196.11	1951.15
196.185	1961.71
196.261	1964.8
196.336	1991.33
196.411	1977.67
196.486	1985.19
196.561	1978.67
196.637	1988.08
196.712	2004.59
196.787	2006.26
196.862	2020.04
196.937	2031.07
197.013	2035.4
197.088	2042.63
197.163	2063.56
197.238	2078.41
197.313	2078.46
197.388	2090.11
197.464	2121.42
197.539	2130.55
197.614	2125.27
197.689	2139.02
197.764	2155.15
197.839	2173.65
197.914	2169.23
197.989	2188.21
198.065	2200.48
198.14	2246.13
198.215	2271.59
198.29	2277.49
198.365	2289.44
198.44	2297.76
198.515	2321.85
198.59	2337.55
198.665	2360.3
198.74	2368.16
198.815	2371.54
198.89	2392.1
198.965	2420.1
199.04	2415.71
199.115	2429.85
199.19	2469.22
199.265	2470.26
199.34	2478.02
199.415	2509.65
199.49	2527.93
199.565	2537.74
199.64	2560.12
199.715	2558.73
199.79	2563.69
199.865	2570.26
199.94	2567.78
200.015	2600.27
200.09	2606.03
200.165	2612.13
200.24	2619.94
200.315	2656.26
200.39	2669.65
200.464	2672.65
200.539	2675.27
200.614	2688.7
200.689	2711.71
200.764	2716.48
200.839	2729.86
200.914	2738.53
200.989	2729.52
201.063	2742.91
201.138	2727.15
201.213	2727.43
201.288	2709.71
201.363	2712.33
201.438	2714.71
201.512	2731.19
201.587	2711.89
201.662	2715.32
201.737	2725.95
201.812	2733
201.886	2704.63
201.961	2711.11
202.036	2705.06
202.111	2700.68
202.186	2672.02
202.26	2654.92
202.335	2634.91
202.41	2631.72
202.485	2613.05
202.559	2591.43
202.634	2568.24
202.709	2575.66
202.784	2558.23
202.858	2554.99
202.933	2539.75
203.008	2530.71
203.082	2515.37
203.157	2516.85
203.232	2474.92
203.306	2455.24
203.381	2430
203.456	2406.53
203.53	2386.23
203.605	2366.24
203.68	2345.67
203.754	2343.72
203.829	2329.25
203.904	2310.02
203.978	2298.74
204.053	2302.98
204.127	2295.51
204.202	2293.37
204.277	2277.85
204.351	2270.34
204.426	2263.53
204.5	2254.01
204.575	2226.23
204.65	2233.42
204.724	2224.71
204.799	2234.79
204.873	2230.74
204.948	2223.98
205.022	2212.33
205.097	2204.14
205.171	2217.56
205.246	2225.03
205.32	2221.23
205.395	2220.85
205.469	2212
205.544	2215.57
205.618	2200.72
205.693	2210.29
205.767	2199.58
205.842	2218.24
205.916	2213.43
205.991	2205.87
206.065	2214.34
206.14	2227.94
206.214	2220.89
206.289	2217.85
206.363	2227.41
206.438	2228.6
206.512	2236.36
206.586	2255.2
206.661	2263.72
206.735	2241.94
206.81	2241.74
206.884	2256.35
206.958	2244.65
207.033	2263.48
207.107	2272.15
207.181	2299.95
207.256	2292.43
207.33	2307.94
207.405	2322.13
207.479	2340.93
207.553	2349.73
207.628	2332.94
207.702	2343.55
207.776	2339.17
207.851	2341.27
207.925	2357.27
207.999	2353.17
208.073	2355.79
208.148	2356.22
208.222	2344.46
208.296	2372.44
208.371	2389.54
208.445	2400.44
208.519	2428.14
208.593	2436.85
208.668	2433.99
208.742	2436.18
208.816	2441.46
208.89	2456.32
208.965	2454.65
209.039	2460.18
209.113	2477.51
209.187	2497.35
209.261	2493.07
209.336	2509.78
209.41	2525.97
209.484	2523.25
209.558	2544.82
209.632	2555.25
209.707	2565.54
209.781	2586.3
209.855	2603.83
209.929	2621.56
210.003	2627.18
210.077	2626.23
210.151	2670.47
210.226	2701.92
210.3	2728.48
210.374	2748.05
210.448	2752.72
210.522	2758.82
210.596	2769.64
210.67	2777.02
210.744	2818.77
210.818	2849.68
210.892	2869.17
210.966	2864.98
211.041	2882.76
211.115	2879.76
211.189	2899.68
211.263	2916.78
211.337	2923.88
211.411	2938.57
211.485	2930.46
211.559	2941.52
211.633	2945.71
211.707	2920.57
211.781	2929.49
211.855	2899.41
211.929	2893.84
212.003	2877.5
212.077	2889.13
212.151	2904.34
212.225	2919.6
212.299	2915.78
212.373	2911.11
212.447	2913.97
212.52	2947.34
212.594	2955.88
212.668	2979.91
212.742	2976.19
212.816	2982.58
212.89	2986.15
212.964	2992.16
213.038	3008.52
213.112	3034.04
213.186	3062.45
213.26	3056.5
213.333	3029.89
213.407	3051.77
213.481	3072.74
213.555	3105.71
213.629	3116.21
213.703	3120.6
213.777	3141.55
213.85	3146.32
213.924	3201.3
213.998	3226.16
214.072	3245.73
214.146	3261.48
214.219	3282.76
214.293	3308.57
214.367	3340.7
214.441	3384.51
214.515	3409.67
214.588	3419.69
214.662	3423.37
214.736	3443.46
214.81	3493.7
214.883	3543.8
214.957	3579.61
215.031	3614.97
215.105	3638.88
215.178	3676.9
215.252	3725.34
215.326	3750.8
215.4	3787.91
215.473	3793.98
215.547	3832.31
215.621	3876.82
215.694	3936.19
215.768	3973.04
215.842	4021.07
215.915	4067.46
215.989	4103.56
216.063	4157.8
216.136	4232.75
216.21	4299.92
216.284	4376.57
216.357	4439.33
216.431	4507.56
216.504	4578.43
216.578	4671.63
216.652	4757.37
216.725	4828.18
216.799	4908.32
216.873	4986.71
216.946	5069.83
217.02	5143.23
217.093	5218.4
217.167	5274.94
217.24	5343.19
217.314	5421.91
217.387	5499.68
217.461	5578.26
217.535	5678.28
217.608	5749.43
217.682	5829.02
217.755	5922.41
217.829	5993.85
217.902	6080.68
217.976	6161.87
218.049	6238.98
218.123	6311.24
218.196	6400.86
218.27	6486.03
218.343	6557.2
218.417	6644.17
218.49	6726.1
218.563	6831.95
218.637	6922.74
218.71	7038.68
218.784	7137.81
218.857	7239.53
218.931	7337.85
219.004	7426.72
219.077	7521.73
219.151	7620.32
219.224	7707.35
219.298	7797.91
219.371	7905.25
219.444	7986.95
219.518	8080.54
219.591	8180.64
219.665	8299.25
219.738	8393.89
219.811	8473.7
219.885	8578.41
219.958	8677.02
220.031	8763.2
220.105	8857.35
220.178	8954.68
220.251	9028.91
220.325	9114.37
220.398	9205.84
220.471	9298.14
220.544	9392.7
220.618	9469.27
220.691	9558.98
220.764	9644.75
220.838	9732.69
220.911	9807.83
220.984	9913.64
221.057	10004.58
221.131	10088.1
221.204	10135.75
221.277	10238.32
221.35	10354.61
221.424	10422.88
221.497	10509.9
221.57	10603.6
221.643	10692.6
221.716	10776.49
221.79	10859.27
221.863	10946.97
221.936	11032.36
222.009	11114.43
222.082	11202.81
222.155	11283.1
222.229	11379.35
222.302	11459.97
222.375	11533.47
222.448	11625.72
222.521	11698.3
222.594	11764.81
222.667	11826.79
222.74	11920.49
222.814	11986.43
222.887	12050.78
222.96	12144
223.033	12218.43
223.106	12285.38
223.179	12362.12
223.252	12431.87
223.325	12511.26
223.398	12575.61
223.471	12643.2
223.544	12713.43
223.617	12786.17
223.69	12859.16
223.763	12906.83
223.837	12982.03
223.91	13052.46
223.983	13095.6
224.056	13158.71
224.129	13233.86
224.202	13314.89
224.275	13372.79
224.348	13417.91
224.42	13463.37
224.493	13505.11
224.566	13561.85
224.639	13635.18
224.712	13679.57
224.785	13735.88
224.858	13784.9
224.931	13845.16
225.004	13886.91
225.077	13938.25
225.15	13956.95
225.223	14006.08
225.296	14084.22
225.369	14121.38
225.442	14175.81
225.514	14242.23
225.587	14298.01
225.66	14364.72
225.733	14424.35
225.806	14487.02
225.879	14542.17
225.952	14592.83
226.025	14659.11
226.097	14726.74
226.17	14776.1
226.243	14814.33
226.316	14860.8
226.389	14912.66
226.461	14965.54
226.534	15025.85
226.607	15077.86
226.68	15162.94
226.753	15225.12
226.825	15259.44
226.898	15328.9
226.971	15383.7
227.044	15433.4
227.117	15481.21
227.189	15524.5
227.262	15588.31
227.335	15635.21
227.407	15685.49
227.48	15748.24
227.553	15799.34
227.626	15846.14
227.698	15895.83
227.771	15959.89
227.844	16006.4
227.916	16060.14
227.989	16097.83
228.062	16151.05
228.134	16219.73
228.207	16264.94
228.28	16295.01
228.352	16344.95
228.425	16389.58
228.498	16437.48
228.57	16469.34
228.643	16523.18
228.716	16560.39
228.788	16586.03
228.861	16617.21
228.934	16674.61
229.006	16711.19
229.079	16747.39
229.151	16774.04
229.224	16800.11
229.296	16834.48
229.369	16905.75
229.442	16962.53
229.514	16999.16
229.587	17046.92
229.659	17064.65
229.732	17106.34
229.804	17154.44
229.877	17207.74
229.949	17257.28
230.022	17312.03
230.094	17352.94
230.167	17388.66
230.239	17418.29
230.312	17455.11
230.384	17522.2
230.457	17551.31
230.529	17593.38
230.602	17632.9
230.674	17670.68
230.747	17713.81
230.819	17757.96
230.892	17753.96
230.964	17783.21
231.037	17825.47
231.109	17854.68
231.181	17896.46
231.254	17921.81
231.326	17953.81
231.399	17978.48
231.471	17994.43
231.544	17994.53
231.616	18036.02
231.688	18068.93
231.761	18094.76
231.833	18118.14
231.905	18121.46
231.978	18163.58
232.05	18179
232.122	18204.06
232.195	18228.2
232.267	18266.76
232.339	18292.97
232.412	18344.1
232.484	18362.95
232.556	18374.7
232.629	18415.38
232.701	18452.82
232.773	18475.23
232.846	18488.19
232.918	18503.66
232.99	18528.24
233.062	18567.03
233.135	18586.79
233.207	18597.58
233.279	18624.86
233.351	18642.93
233.424	18647.99
233.496	18643.75
233.568	18690.11
233.64	18694.4
233.713	18717.58
233.785	18724.51
233.857	18733.38
233.929	18725.19
234.001	18752.56
234.074	18777.28
234.146	18764.32
234.218	18767.02
234.29	18775.93
234.362	18783.4
234.434	18785.19
234.507	18783.6
234.579	18771.55
234.651	18776.99
234.723	18793.33
234.795	18803.59
234.867	18814.2
234.939	18841.09
235.012	18853.71
235.084	18857.13
235.156	18878.77
235.228	18872.89
235.3	18878.38
235.372	18888.5
235.444	18910.62
235.516	18888.02
235.588	18889.52
235.66	18899.93
235.732	18888.22
235.804	18939.54
235.876	18954.57
235.948	18968.16
236.02	18969.32
236.092	18972.89
236.164	18972.31
236.236	18967.3
236.308	18960.16
236.38	18963.68
236.452	18956.79
236.524	18956.31
236.596	18961.56
236.668	18957.95
236.74	18949.51
236.812	18942.77
236.884	18938.72
236.956	18927.59
237.028	18914.48
237.1	18906.77
237.172	18912.41
237.244	18923.83
237.316	18880.75
237.388	18864.6
237.46	18848.51
237.532	18855.35
237.604	18838.58
237.675	18844.36
237.747	18836.6
237.819	18828.07
237.891	18819.11
237.963	18800.56
238.035	18783.35
238.107	18737.77
238.178	18743.41
238.25	18733.09
238.322	18750.83
238.394	18723.89
238.466	18707.79
238.538	18708.71
238.609	18707.55
238.681	18677.72
238.753	18654.16
238.825	18642.93
238.897	18631.07
238.968	18636.95
239.04	18608.62
239.112	18615.85
239.184	18578.45
239.255	18555.42
239.327	18541.73
239.399	18521.68
239.471	18511.8
239.542	18502.46
239.614	18499.47
239.686	18448.77
239.758	18442.65
239.829	18409.4
239.901	18407.14
239.973	18388.49
240.044	18370.03
240.116	18347.28
240.188	18320.59
240.259	18293.98
240.331	18259.87
240.403	18241.31
240.474	18200.01
240.546	18172.4
240.618	18140.21
240.689	18128.74
240.761	18114.28
240.833	18109.66
240.904	18089.27
240.976	18068.02
241.048	18048.45
241.119	18037.95
241.191	18018.77
241.262	18012.31
241.334	17981.52
241.405	17955.3
241.477	17929.04
241.549	17905.66
241.62	17880.7
241.692	17868.7
241.763	17853.86
241.835	17826.48
241.906	17808.32
241.978	17775.88
242.049	17767.06
242.121	17750.68
242.192	17737.19
242.264	17695.55
242.335	17647.45
242.407	17640.37
242.478	17605.28
242.55	17573.14
242.621	17536.03
242.693	17506.59
242.764	17464.95
242.836	17433.91
242.907	17405.28
242.979	17375.89
243.05	17355.65
243.122	17331.79
243.193	17298.87
243.264	17262.73
243.336	17233.86
243.407	17214.1
243.479	17196.27
243.55	17172.7
243.622	17148.41
243.693	17112.08
243.764	17101.04
243.836	17070.97
243.907	17030.68
243.978	17008.94
244.05	16995.4
244.121	16951.49
244.192	16939.83
244.264	16898.53
244.335	16878.33
244.407	16839.29
244.478	16818.09
244.549	16779.05
244.62	16734.86
244.692	16699.05
244.763	16674.32
244.834	16647.14
244.906	16605.5
244.977	16582.56
245.048	16566.31
245.119	16531.57
245.191	16493.35
245.262	16442.79
245.333	16422.16
245.405	16385.19
245.476	16352.85
245.547	16319.64
245.618	16301.52
245.689	16271.49
245.761	16247.59
245.832	16210.67
245.903	16188.02
245.974	16165.22
246.045	16135.34
246.117	16126.18
246.188	16094.56
246.259	16050.89
246.33	16008.33
246.401	15976.86
246.473	15937.38
246.544	15894.05
246.615	15870.53
246.686	15842.24
246.757	15825.66
246.828	15789.51
246.899	15770.32
246.97	15730.07
247.042	15690.21
247.113	15666.21
247.184	15654.98
247.255	15625.48
247.326	15600.08
247.397	15571.74
247.468	15542.48
247.539	15516.64
247.61	15470.8
247.681	15452.1
247.752	15439.86
247.823	15413.44
247.894	15388.91
247.965	15349.43
248.037	15320.08
248.108	15270.24
248.179	15236.21
248.25	15207.28
248.321	15179.76
248.392	15142.45
248.463	15136.76
248.534	15108.47
248.605	15088.51
248.675	15062.92
248.746	15036.31
248.817	15015.39
248.888	14990.37
248.959	14938.22
249.03	14914.98
249.101	14885.82
249.172	14848.41
249.243	14797.32
249.314	14788.54
249.385	14761.36
249.456	14744.1
249.527	14713.3
249.598	14701.2
249.669	14675.84
249.739	14654.05
249.81	14639.11
249.881	14597.17
249.952	14563.72
250.023	14534.79
250.094	14483.21
250.165	14430.86
250.235	14405.99
250.306	14378.18
250.377	14340.96
250.448	14327.42
250.519	14285.72
250.59	14272.65
250.66	14247.49
250.731	14241.18
250.802	14219.39
250.873	14199.14
250.944	14171.66
251.014	14141.49
251.085	14140.43
251.156	14120.61
251.227	14104.13
251.297	14090.73
251.368	14083.64
251.439	14067.83
251.51	14060.98
251.58	14034.08
251.651	14004.82
251.722	13985.54
251.792	13947.41
251.863	13915.98
251.934	13903.11
252.005	13897.85
252.075	13880.31
252.146	13859.67
252.217	13840.92
252.287	13811.13
252.358	13780.47
252.429	13771.99
252.499	13734.58
252.57	13709.37
252.641	13691.38
252.711	13670.41
252.782	13631.13
252.852	13626.98
252.923	13603.41
252.994	13577.47
253.064	13568.22
253.135	13542.23
253.205	13511.86
253.276	13498.56
253.347	13490.41
253.417	13458.6
253.488	13426.59
253.558	13399.88
253.629	13379.3
253.699	13362.13
253.77	13347.09
253.841	13324.82
253.911	13310.12
253.982	13294.11
254.052	13269.43
254.123	13247.21
254.193	13220.02
254.264	13229.85
254.334	13189.75
254.405	13154.32
254.475	13110.35
254.546	13082.68
254.616	13075.93
254.687	13062.87
254.757	13047.88
254.827	13026.71
254.898	13004.44
254.968	12986.51
255.039	12949.73
255.109	12935.56
255.18	12905.62
255.25	12863.25
255.321	12843.1
255.391	12800.73
255.461	12798.75
255.532	12749.82
255.602	12723.64
255.673	12688.17
255.743	12652.25
255.813	12606.51
255.884	12602.5
255.954	12592.33
256.024	12592.72
256.095	12571.27
256.165	12536.85
256.235	12518.97
256.306	12491.73
256.376	12482.23
256.446	12464.21
256.517	12455.96
256.587	12448.49
256.657	12428.1
256.728	12408.87
256.798	12389.59
256.868	12367.7
256.938	12340.03
257.009	12336.66
257.079	12320.94
257.149	12322.44
257.219	12283.63
257.29	12268.07
257.36	12223.57
257.43	12217.07
257.5	12169.59
257.571	12138.16
257.641	12128.66
257.711	12096.95
257.781	12082.2
257.852	12071.98
257.922	12040.31
257.992	12011.68
258.062	11983.24
258.132	11970.75
258.202	11952
258.273	11935.42
258.343	11929.35
258.413	11898.45
258.483	11872.67
258.553	11842.35
258.623	11812.7
258.693	11801.09
258.764	11799.83
258.834	11793.91
258.904	11774.05
258.974	11754.72
259.044	11727.54
259.114	11714.91
259.184	11699.2
259.254	11673.8
259.324	11628.01
259.394	11617.6
259.464	11618.85
259.535	11599.76
259.605	11580
259.675	11554.6
259.745	11537.73
259.815	11513.1
259.885	11493.97
259.955	11501.97
260.025	11479.9
260.095	11461.87
260.165	11442.59
260.235	11441.2
260.305	11417.24
260.375	11380.37
260.445	11385.1
260.515	11392.91
260.585	11380.42
260.655	11360.9
260.725	11363.6
260.795	11360.42
260.865	11355.26
260.934	11328.66
261.004	11316.47
261.074	11290.2
261.144	11286.3
261.214	11277.48
261.284	11253.96
261.354	11243.6
261.424	11209.14
261.494	11213.23
261.564	11193.04
261.634	11182.58
261.703	11150.05
261.773	11130.87
261.843	11129.14
261.913	11104.51
261.983	11070.49
262.053	11055.31
262.123	11036.66
262.192	11003.75
262.262	10995.94
262.332	10968.57
262.402	10953.68
262.472	10937.1
