Data from 20250630_urea_2M_MAYP1162681_19-42-26-674.txt Node
Date: Mon Jun 30 19:42:26 BST 2025
User: adleo
Spectrometer: MAYP116268
Trigger mode: 0
Integration Time (sec): 1.000000E0
Scans to average: 1
Electric dark correction enabled: true
Nonlinearity correction enabled: true
Boxcar width: 10
XAxis mode: Wavelengths
Number of Pixels in Spectrum: 2068
>>>>>Begin Spectral Data<<<<<
179.565	1131.54
179.642	1182.37
179.718	1215.86
179.795	1249.27
179.871	1282.75
179.948	1302.31
180.024	1322.69
180.101	1344.18
180.177	1357.32
180.254	1379.12
180.33	1399.56
180.407	1446.79
180.483	1535.44
180.56	1617.3
180.636	1696.77
180.712	1684.41
180.789	1693.29
180.865	1707.73
180.942	1712.2
181.018	1719.14
181.095	1734.2
181.171	1738.81
181.248	1740.71
181.324	1759.77
181.4	1769.71
181.477	1775.12
181.553	1786.48
181.63	1806.3
181.706	1820.32
181.782	1828.3
181.859	1828.11
181.935	1835.48
182.011	1831.58
182.088	1846.18
182.164	1867.72
182.24	1876.17
182.317	1883.73
182.393	1882.35
182.469	1892.76
182.546	1908.45
182.622	1911.97
182.698	1908.35
182.775	1918.86
182.851	1930.41
182.927	1922.81
183.003	1918.91
183.08	1916.58
183.156	1925.71
183.232	1921.95
183.308	1910.11
183.385	1917.91
183.461	1934.26
183.537	1931.93
183.613	1944.11
183.69	1935.98
183.766	1926.04
183.842	1935.4
183.918	1939.97
183.995	1954.94
184.071	1959.51
184.147	1953.37
184.223	1945.96
184.299	1957.94
184.375	1950.43
184.452	1959.95
184.528	2013.6
184.604	2021.2
184.68	2033.66
184.756	2039.13
184.832	2043.46
184.908	2052.01
184.985	2053.39
185.061	2037.46
185.137	2047.93
185.213	2037.66
185.289	2040.79
185.365	2032.28
185.441	2031.62
185.517	2047.51
185.593	2041.85
185.669	2038.99
185.745	2047.65
185.822	2062.81
185.898	2052.83
185.974	2058.39
186.05	2046.5
186.126	2006.35
186.202	2000.26
186.278	1996.74
186.354	1987.71
186.43	1994.56
186.506	1992.42
186.582	1989.52
186.658	1994.13
186.734	1972.78
186.81	1972.83
186.886	1975.4
186.962	1985.29
187.038	1982.77
187.114	1974.35
187.19	1985.52
187.266	1975.35
187.341	1979.39
187.417	1972.55
187.493	1973.02
187.569	1977.3
187.645	1975.02
187.721	1965.22
187.797	1973.3
187.873	1977.68
187.949	1971.69
188.025	1962.84
188.101	1966.41
188.176	1969.97
188.252	1969.64
188.328	1978.29
188.404	1980.57
188.48	1974.91
188.556	1970.3
188.632	1970.11
188.707	1969.3
188.783	1965.02
188.859	1963.5
188.935	1950.99
189.011	1957.27
189.086	1949.19
189.162	1941.1
189.238	1938.06
189.314	1935.83
189.39	1928.6
189.465	1919.95
189.541	1938.11
189.617	1925.7
189.693	1918.62
189.768	1926.04
189.844	1949.87
189.92	1942.55
189.996	1950.97
190.071	1964.09
190.147	1961.48
190.223	1969.28
190.298	1962.53
190.374	1948.5
190.45	1957.1
190.526	1965.33
190.601	1962.62
190.677	1965.61
190.753	1992.35
190.828	1998.39
190.904	2012.42
190.98	2028.44
191.055	2040.62
191.131	2031.15
191.207	2049.74
191.282	2059.59
191.358	2048.27
191.433	2032.09
191.509	2045.54
191.585	2044.54
191.66	2044.97
191.736	2055.29
191.811	2047.01
191.887	2060.76
191.963	2084.59
192.038	2089.63
192.114	2089.58
192.189	2089.25
192.265	2084.59
192.34	2061.9
192.416	2057.66
192.491	2056.76
192.567	2057.38
192.642	2057.86
192.718	2058.28
192.793	2048.49
192.869	2042.4
192.944	2044.02
193.02	2050.53
193.095	2053.86
193.171	2058.14
193.246	2056.05
193.322	2053.62
193.397	2055.19
193.473	2043.73
193.548	2023.8
193.624	2028.41
193.699	2026.32
193.775	2044.21
193.85	2046.44
193.925	2054.91
194.001	2055.57
194.076	2045.44
194.152	2037.45
194.227	2030.65
194.302	2019.95
194.378	2021.95
194.453	2022.85
194.529	2036.88
194.604	2023
194.679	2016.34
194.755	1996.75
194.83	2009.5
194.905	2006.93
194.981	2014.26
195.056	2008.65
195.131	2017.06
195.207	2016.26
195.282	2009.22
195.357	1988.48
195.433	2005.45
195.508	1995.71
195.583	2001.22
195.659	2016.06
195.734	2022.1
195.809	2021.15
195.884	2029.61
195.96	2030.61
196.035	2042.93
196.11	2037.93
196.185	2049.78
196.261	2053.01
196.336	2084.44
196.411	2068.89
196.486	2073.74
196.561	2067.41
196.637	2075.02
196.712	2090.1
196.787	2093.53
196.862	2106.89
196.937	2118.4
197.013	2124.35
197.088	2133.2
197.163	2153.99
197.238	2166.32
197.313	2166.7
197.388	2179.31
197.464	2208.95
197.539	2219.71
197.614	2213.81
197.689	2223.85
197.764	2239.79
197.839	2260.2
197.914	2252.44
197.989	2277.09
198.065	2288.8
198.14	2338.37
198.215	2362.17
198.29	2373.26
198.365	2387.02
198.44	2399.68
198.515	2429.05
198.59	2442.77
198.665	2471.28
198.74	2479.62
198.815	2478.33
198.89	2498.09
198.965	2528.81
199.04	2523.24
199.115	2539.23
199.19	2577.13
199.265	2581.8
199.34	2592.37
199.415	2627.25
199.49	2651.06
199.565	2660.11
199.64	2683.49
199.715	2678.82
199.79	2684.92
199.865	2691.73
199.94	2690.21
200.015	2718.84
200.09	2723.23
200.165	2728.42
200.24	2733.09
200.315	2775.06
200.39	2793.49
200.464	2798.54
200.539	2797.35
200.614	2812.45
200.689	2834.99
200.764	2845.19
200.839	2861.91
200.914	2864.58
200.989	2849.66
201.063	2862.29
201.138	2845.71
201.213	2847.57
201.288	2832.23
201.363	2839.38
201.438	2838.66
201.512	2852.66
201.587	2833.98
201.662	2835.6
201.737	2844.66
201.812	2851.38
201.886	2816.65
201.961	2829.38
202.036	2817.95
202.111	2814.76
202.186	2790.24
202.26	2774.55
202.335	2752.68
202.41	2746.87
202.485	2730.86
202.559	2713.9
202.634	2686.27
202.709	2692.56
202.784	2675.69
202.858	2674.6
202.933	2655.83
203.008	2648.59
203.082	2630.35
203.157	2632.25
203.232	2591.97
203.306	2573.72
203.381	2543
203.456	2522.19
203.53	2498.73
203.605	2482.93
203.68	2466.21
203.754	2460.98
203.829	2442.93
203.904	2424.94
203.978	2411.75
204.053	2419.94
204.127	2406.85
204.202	2406.89
204.277	2393.14
204.351	2386.42
204.426	2377.9
204.5	2369.95
204.575	2338.83
204.65	2346.64
204.724	2337.54
204.799	2344.91
204.873	2345.44
204.948	2345.39
205.022	2332.16
205.097	2322.16
205.171	2334.63
205.246	2339.11
205.32	2337.11
205.395	2338.63
205.469	2331.54
205.544	2339.3
205.618	2317.5
205.693	2332.02
205.767	2320.03
205.842	2338.5
205.916	2329.6
205.991	2321.08
206.065	2325.84
206.14	2339.54
206.214	2335.4
206.289	2327.49
206.363	2341.44
206.438	2343.06
206.512	2352.58
206.586	2371.57
206.661	2382.33
206.735	2361.92
206.81	2361.35
206.884	2378.43
206.958	2365.63
207.033	2379
207.107	2383.72
207.181	2415.53
207.256	2411
207.33	2429.28
207.405	2442.14
207.479	2462.42
207.553	2468.18
207.628	2456.1
207.702	2467.66
207.776	2464.52
207.851	2470.47
207.925	2482.38
207.999	2476.95
208.073	2470.71
208.148	2472.33
208.222	2461.62
208.296	2492.98
208.371	2509.56
208.445	2517.13
208.519	2543.12
208.593	2553.93
208.668	2550.69
208.742	2553.46
208.816	2550.93
208.89	2564.89
208.965	2559.98
209.039	2566.6
209.113	2584.61
209.187	2599.69
209.261	2596.74
209.336	2612.84
209.41	2630.13
209.484	2630.08
209.558	2650.52
209.632	2663.04
209.707	2676.76
209.781	2696.43
209.855	2711.21
209.929	2726.9
210.003	2734.09
210.077	2735.66
210.151	2782.16
210.226	2816.19
210.3	2844.29
210.374	2867.2
210.448	2872.2
210.522	2884.69
210.596	2895.94
210.67	2905.81
210.744	2952.33
210.818	2984.78
210.892	3007.86
210.966	3007.09
211.041	3023.87
211.115	3026.54
211.189	3053.24
211.263	3068.25
211.337	3076.26
211.411	3092.1
211.485	3091.33
211.559	3105.02
211.633	3113.26
211.707	3087.97
211.781	3101.72
211.855	3072.53
211.929	3076.15
212.003	3067.76
212.077	3086.56
212.151	3108.69
212.225	3128.34
212.299	3133.12
212.373	3134.41
212.447	3146.38
212.52	3189.99
212.594	3215.23
212.668	3248.44
212.742	3254.69
212.816	3275.88
212.89	3300.83
212.964	3334.74
213.038	3368.16
213.112	3413.56
213.186	3464.01
213.26	3486.24
213.333	3483
213.407	3533.25
213.481	3580.07
213.555	3641.35
213.629	3686.88
213.703	3724.05
213.777	3779.87
213.85	3823.4
213.924	3920.93
213.998	3990.11
214.072	4054.88
214.146	4110.96
214.219	4181.18
214.293	4262.41
214.367	4352.83
214.441	4448.91
214.515	4523.78
214.588	4593.7
214.662	4655.78
214.736	4735.43
214.81	4845.93
214.883	4962.19
214.957	5064.57
215.031	5162.2
215.105	5256.17
215.178	5363.3
215.252	5480.44
215.326	5586.78
215.4	5693.49
215.473	5777.55
215.547	5891.65
215.621	6014.53
215.694	6161.68
215.768	6278.31
215.842	6410.27
215.915	6537.69
215.989	6655.22
216.063	6794.1
216.136	6946.38
216.21	7106.21
216.284	7279.04
216.357	7437.85
216.431	7596.4
216.504	7768.83
216.578	7954.21
216.652	8129.29
216.725	8292.62
216.799	8471.04
216.873	8643.97
216.946	8829.42
217.02	8992.41
217.093	9161.47
217.167	9311.88
217.24	9467.46
217.314	9640.6
217.387	9804.94
217.461	9974.24
217.535	10166.42
217.608	10334.44
217.682	10507.96
217.755	10687.71
217.829	10839.44
217.902	11005.73
217.976	11179.73
218.049	11333.99
218.123	11489.9
218.196	11663.63
218.27	11823.11
218.343	11983.37
218.417	12152.89
218.49	12314.22
218.563	12504.08
218.637	12681.8
218.71	12870.18
218.784	13044.19
218.857	13223.03
218.931	13395.4
219.004	13556.07
219.077	13719.58
219.151	13880.15
219.224	14040.29
219.298	14189.24
219.371	14356.75
219.444	14494.57
219.518	14650.56
219.591	14810.5
219.665	14990.39
219.738	15144.93
219.811	15290.45
219.885	15443.73
219.958	15590.5
220.031	15729.56
220.105	15863.61
220.178	15996.78
220.251	16121.66
220.325	16254.06
220.398	16379.86
220.471	16509.37
220.544	16651.45
220.618	16767.02
220.691	16900.96
220.764	17015.28
220.838	17144.68
220.911	17264.01
220.984	17411.1
221.057	17519.82
221.131	17632.74
221.204	17708.26
221.277	17827.77
221.35	17967.87
221.424	18069.26
221.497	18169.45
221.57	18278.03
221.643	18392.05
221.716	18495.9
221.79	18597.24
221.863	18701.48
221.936	18800.7
222.009	18892.5
222.082	18978.86
222.155	19060.78
222.229	19150.27
222.302	19250.94
222.375	19323.66
222.448	19407.75
222.521	19480.13
222.594	19554.25
222.667	19621.28
222.74	19723.11
222.814	19796.07
222.887	19859.06
222.96	19934.67
223.033	20022.43
223.106	20091.92
223.179	20155.92
223.252	20218.9
223.325	20277.31
223.398	20339.19
223.471	20395.77
223.544	20454.85
223.617	20516.35
223.69	20585.99
223.763	20634.08
223.837	20680.88
223.91	20750.09
223.983	20789.94
224.056	20827.87
224.129	20884.5
224.202	20944.4
224.275	20972.26
224.348	21007.11
224.42	21032.02
224.493	21056.84
224.566	21081.81
224.639	21124.22
224.712	21154.15
224.785	21185.72
224.858	21222.74
224.931	21250.36
225.004	21277.49
225.077	21315.33
225.15	21322.99
225.223	21343.47
225.296	21398.91
225.369	21413.65
225.442	21431.83
225.514	21454.82
225.587	21491.35
225.66	21514.1
225.733	21544.47
225.806	21578.06
225.879	21599.42
225.952	21619.56
226.025	21654.41
226.097	21692.73
226.17	21707.19
226.243	21705.02
226.316	21724.26
226.389	21744.45
226.461	21769.86
226.534	21792.37
226.607	21810.54
226.68	21848.18
226.753	21871.76
226.825	21855.85
226.898	21892.39
226.971	21901.59
227.044	21935.38
227.117	21940.97
227.189	21967.44
227.262	21987.06
227.335	22002.68
227.407	22010.68
227.48	22033.19
227.553	22056.28
227.626	22048.04
227.698	22061.63
227.771	22085.2
227.844	22087.71
227.916	22092.87
227.989	22082.07
228.062	22090.41
228.134	22122.85
228.207	22118.9
228.28	22112.78
228.352	22122.66
228.425	22131.33
228.498	22158.67
228.57	22145.51
228.643	22168.55
228.716	22170.48
228.788	22154.28
228.861	22147.48
228.934	22164.4
229.006	22150.57
229.079	22137.17
229.151	22137.41
229.224	22121.12
229.296	22137.79
229.369	22165.8
229.442	22187.55
229.514	22183.06
229.587	22192.41
229.659	22168.21
229.732	22179.69
229.804	22194.49
229.877	22220.08
229.949	22221.77
230.022	22231.32
230.094	22227.51
230.167	22230.06
230.239	22212.37
230.312	22225.24
230.384	22243.18
230.457	22237.87
230.529	22252.14
230.602	22254.99
230.674	22270.99
230.747	22293.55
230.819	22296.15
230.892	22261.69
230.964	22258.17
231.037	22260.58
231.109	22254.94
231.181	22253.64
231.254	22239.27
231.326	22229.92
231.399	22212.85
231.471	22194.29
231.544	22161.75
231.616	22173.56
231.688	22175.73
231.761	22168.36
231.833	22148.5
231.905	22121.12
231.978	22119.04
232.05	22107.04
232.122	22100.53
232.195	22071.08
232.267	22070.74
232.339	22048.08
232.412	22058.4
232.484	22040.08
232.556	22027.74
232.629	22033.28
232.701	22025.09
232.773	22014.05
232.846	22005.33
232.918	21990.29
232.99	21981.9
233.062	21984.69
233.135	21969.94
233.207	21929.79
233.279	21920.63
233.351	21910.65
233.424	21883.37
233.496	21860.23
233.568	21865.1
233.64	21836.33
233.713	21828.04
233.785	21799.07
233.857	21785.62
233.929	21748.12
234.001	21747.97
234.074	21748.94
234.146	21712.35
234.218	21696.64
234.29	21681.11
234.362	21657.59
234.434	21621.59
234.507	21593.87
234.579	21557.48
234.651	21537.19
234.723	21538.44
234.795	21531.5
234.867	21518.87
234.939	21530.63
235.012	21511.5
235.084	21494.43
235.156	21487.11
235.228	21458.96
235.3	21424.02
235.372	21412.16
235.444	21405.12
235.516	21362.8
235.588	21337.64
235.66	21313.35
235.732	21282.84
235.804	21306.94
235.876	21280.58
235.948	21284.43
236.02	21268.91
236.092	21240.19
236.164	21206.74
236.236	21164.76
236.308	21129.48
236.38	21096.95
236.452	21052.8
236.524	21027.21
236.596	21008.27
236.668	20978
236.74	20948.12
236.812	20936.31
236.884	20902.82
236.956	20874.57
237.028	20831.05
237.1	20789.51
237.172	20781.56
237.244	20766.04
237.316	20700.06
237.388	20666.66
237.46	20618.13
237.532	20595.09
237.604	20560.01
237.675	20551.14
237.747	20530.17
237.819	20485.5
237.891	20453.55
237.963	20419.91
238.035	20377.93
238.107	20314.7
238.178	20303.38
238.25	20272.3
238.322	20260.87
238.394	20212.97
238.466	20182.47
238.538	20165.69
238.609	20147
238.681	20090.66
238.753	20042.95
238.825	20015.48
238.897	19996.59
238.968	19996.35
239.04	19957.03
239.112	19955.19
239.184	19906.47
239.255	19871.24
239.327	19858.19
239.399	19833.61
239.471	19810.04
239.542	19784.16
239.614	19752.79
239.686	19688.22
239.758	19672.75
239.829	19623.74
239.901	19616.08
239.973	19581.04
240.044	19547.93
240.116	19513.24
240.188	19480.61
240.259	19459.22
240.331	19417.44
240.403	19377.44
240.474	19314.89
240.546	19281.35
240.618	19227.33
240.689	19182.56
240.761	19155.23
240.833	19138.08
240.904	19098.23
240.976	19058.13
241.048	19022.38
241.119	19005.56
241.191	18982.52
241.262	18957.71
241.334	18926.38
241.405	18886.1
241.477	18841.66
241.549	18810.68
241.62	18782.78
241.692	18760.8
241.763	18727.89
241.835	18694.54
241.906	18671.89
241.978	18630.59
242.049	18600.04
242.121	18581.44
242.192	18566.4
242.264	18512.91
242.335	18458.75
242.407	18436.29
242.478	18402.6
242.55	18375.71
242.621	18328.63
242.693	18283.67
242.764	18249.26
242.836	18206.66
242.907	18174.86
242.979	18150.47
243.05	18111.53
243.122	18078.28
243.193	18038.86
243.264	17988.89
243.336	17952.46
243.407	17919.25
243.479	17899.93
243.55	17871.35
243.622	17827.21
243.693	17802.24
243.764	17793.62
243.836	17751.5
243.907	17707.93
243.978	17672.27
244.05	17645.57
244.121	17601.81
244.192	17581.14
244.264	17531.55
244.335	17499.79
244.407	17447.07
244.478	17416.61
244.549	17384.37
244.62	17332.95
244.692	17298.34
244.763	17281.33
244.834	17244.41
244.906	17200.03
244.977	17172.46
245.048	17153.86
245.119	17120.27
245.191	17068.85
245.262	17004.36
245.333	16981.76
245.405	16951.93
245.476	16922.77
245.547	16887.39
245.618	16859.15
245.689	16826.81
245.761	16790.23
245.832	16754.57
245.903	16733.79
245.974	16703.38
246.045	16664.15
246.117	16643.43
246.188	16595.42
246.259	16546.22
246.33	16509.68
246.401	16483.75
246.473	16441.1
246.544	16401.92
246.615	16380.42
246.686	16340.56
246.757	16328.85
246.828	16287.25
246.899	16271.59
246.97	16224.26
247.042	16186.33
247.113	16167.87
247.184	16159.24
247.255	16126.18
247.326	16096.68
247.397	16062.55
247.468	16033.39
247.539	16005.34
247.61	15963.75
247.681	15944.76
247.752	15924.85
247.823	15891.3
247.894	15858.77
247.965	15811
248.037	15773.36
248.108	15726.8
248.179	15704.34
248.25	15671.13
248.321	15653.72
248.392	15603.31
248.463	15599.45
248.534	15571.06
248.605	15543.83
248.675	15501.99
248.746	15476.88
248.817	15456.39
248.888	15428.05
248.959	15375.32
249.03	15349.39
249.101	15324.66
249.172	15287.88
249.243	15237.41
249.314	15221.5
249.385	15189.26
249.456	15176.72
249.527	15145.2
249.598	15118.88
249.669	15090.97
249.739	15068.85
249.81	15038.04
249.881	15004.93
249.952	14973.89
250.023	14940.91
250.094	14896.18
250.165	14863.26
250.235	14825.76
250.306	14799.2
250.377	14762.9
250.448	14743.81
250.519	14699.41
250.59	14685.63
250.66	14650.73
250.731	14635.93
250.802	14613.32
250.873	14590.33
250.944	14565.12
251.014	14529.73
251.085	14525.2
251.156	14502.11
251.227	14489.1
251.297	14481.14
251.368	14466.63
251.439	14449.71
251.51	14429.42
251.58	14404.59
251.651	14366.41
251.722	14358.85
251.792	14312.23
251.863	14285
251.934	14274.78
252.005	14280.42
252.075	14249.85
252.146	14243.44
252.217	14230.28
252.287	14207.05
252.358	14182.94
252.429	14173.59
252.499	14142.45
252.57	14119.99
252.641	14104.46
252.711	14066.96
252.782	14019
252.852	14010.9
252.923	13984
252.994	13968.43
253.064	13943.75
253.135	13913.66
253.205	13879.1
253.276	13870.13
253.347	13857.89
253.417	13821.73
253.488	13782.06
253.558	13759.36
253.629	13735.11
253.699	13719.34
253.77	13702.18
253.841	13680.97
253.911	13654.46
253.982	13629.25
254.052	13614.98
254.123	13594.83
254.193	13582.68
254.264	13597.62
254.334	13557.42
254.405	13526.04
254.475	13488.58
254.546	13470.74
254.616	13462.6
254.687	13447.75
254.757	13431.02
254.827	13414.44
254.898	13401.37
254.968	13381.18
255.039	13353.26
255.109	13342.51
255.18	13307.47
255.25	13259.69
255.321	13233.04
255.391	13193.22
255.461	13200.11
255.532	13147.08
255.602	13107.31
255.673	13064.94
255.743	13033.61
255.813	12991.72
255.884	12973.45
255.954	12960.77
256.024	12952.96
256.095	12927.46
256.165	12892.65
256.235	12875.83
256.306	12843.72
256.376	12831.87
256.446	12823.28
256.517	12808.44
256.587	12795.08
256.657	12784.82
256.728	12774.45
256.798	12761.24
256.868	12745.53
256.938	12713.13
257.009	12704.51
257.079	12698
257.149	12701.37
257.219	12653.55
257.29	12634.61
257.36	12600.53
257.43	12590.5
257.5	12555.07
257.571	12534.59
257.641	12520.27
257.711	12491.25
257.781	12473.8
257.852	12459.48
257.922	12417.06
257.992	12393.88
258.062	12366.88
258.132	12349.96
258.202	12328.17
258.273	12312.03
258.343	12306.39
258.413	12285.42
258.483	12266.33
258.553	12239
258.623	12206.17
258.693	12198.8
258.764	12194.17
258.834	12190.36
258.904	12168.19
258.974	12143.12
259.044	12123.26
259.114	12110.1
259.184	12093.86
259.254	12077.91
259.324	12037.99
259.394	12031.44
259.464	12023.44
259.535	12002.08
259.605	11970.42
259.675	11939.95
259.745	11924.58
259.815	11894.21
259.885	11864.47
259.955	11873.34
260.025	11846.2
260.095	11830.11
260.165	11813.43
260.235	11813.53
260.305	11784.08
260.375	11752.26
260.445	11752.22
260.515	11749.52
260.585	11747.06
260.655	11724.36
260.725	11719.15
260.795	11705.94
260.865	11700.11
260.934	11680.21
261.004	11672.4
261.074	11659.63
261.144	11658.9
261.214	11646.37
261.284	11620.97
261.354	11617.79
261.424	11577.83
261.494	11580.24
261.564	11552.38
261.634	11542.21
261.703	11507.71
261.773	11495.95
261.843	11483.32
261.913	11465.25
261.983	11427.32
262.053	11405.92
262.123	11382.88
262.192	11342.01
262.262	11333.34
262.332	11299.98
