Data from 20250630_urea_2M_MAYP1162681_02-32-26-735.txt Node
Date: Tue Jul 01 02:32:26 BST 2025
User: adleo
Spectrometer: MAYP116268
Trigger mode: 0
Integration Time (sec): 1.000000E0
Scans to average: 1
Electric dark correction enabled: true
Nonlinearity correction enabled: true
Boxcar width: 10
XAxis mode: Wavelengths
Number of Pixels in Spectrum: 2068
>>>>>Begin Spectral Data<<<<<
179.565	1071.34
179.642	1118.94
179.718	1151.93
179.795	1184.83
179.871	1212.62
179.948	1228.2
180.024	1247.53
180.101	1266.7
180.177	1280.5
180.254	1301.94
180.33	1321.91
180.407	1363.25
180.483	1447.58
180.56	1526.49
180.636	1601.26
180.712	1588.48
180.789	1594.03
180.865	1606.85
180.942	1615.17
181.018	1625.95
181.095	1637.12
181.171	1643.53
181.248	1645.52
181.324	1662.11
181.4	1668.57
181.477	1678.93
181.553	1691.51
181.63	1710.57
181.706	1726.2
181.782	1733.33
181.859	1730.52
181.935	1736.32
182.011	1735.89
182.088	1752.24
182.164	1769.78
182.24	1780.71
182.317	1789.17
182.393	1787.88
182.469	1801.67
182.546	1815.4
182.622	1820.11
182.698	1815.4
182.775	1824.95
182.851	1835.65
182.927	1829.75
183.003	1827.76
183.08	1821.53
183.156	1828.71
183.232	1824.05
183.308	1813.78
183.385	1821.53
183.461	1837.98
183.537	1837.59
183.613	1847.67
183.69	1839.78
183.766	1831.6
183.842	1838.35
183.918	1844.72
183.995	1860.03
184.071	1859.88
184.147	1853.04
184.223	1840.83
184.299	1853.71
184.375	1841.64
184.452	1848.96
184.528	1900.69
184.604	1910.06
184.68	1922.37
184.756	1929.88
184.832	1935.58
184.908	1938.86
184.985	1936.3
185.061	1922.46
185.137	1930.78
185.213	1919.76
185.289	1918.43
185.365	1909.78
185.441	1907.59
185.517	1921.57
185.593	1915.15
185.669	1911.78
185.745	1923.33
185.822	1939.96
185.898	1932.31
185.974	1942.38
186.05	1937.01
186.126	1900.54
186.202	1895.88
186.278	1893.46
186.354	1884.94
186.43	1889.89
186.506	1888.89
186.582	1890.7
186.658	1895.26
186.734	1877.58
186.81	1880.43
186.886	1884.33
186.962	1896.02
187.038	1893.55
187.114	1886.51
187.19	1893.36
187.266	1888.51
187.341	1885.7
187.417	1875.86
187.493	1877.15
187.569	1880.24
187.645	1875.86
187.721	1864.55
187.797	1869.58
187.873	1873.06
187.949	1865.74
188.025	1858.46
188.101	1860.08
188.176	1864.83
188.252	1864.07
188.328	1871.29
188.404	1870.82
188.48	1866.3
188.556	1857.27
188.632	1860.22
188.707	1857.7
188.783	1855.99
188.859	1851.8
188.935	1842.44
189.011	1851.9
189.086	1844.77
189.162	1837.21
189.238	1834.64
189.314	1830.6
189.39	1825.23
189.465	1818.43
189.541	1834.98
189.617	1821.24
189.693	1817.2
189.768	1818.73
189.844	1838.6
189.92	1830.38
189.996	1839.75
190.071	1850.54
190.147	1854.58
190.223	1859.24
190.298	1852.25
190.374	1839.18
190.45	1848.59
190.526	1857.9
190.601	1852.1
190.677	1851.91
190.753	1878.69
190.828	1879.97
190.904	1894.57
190.98	1908.07
191.055	1916.96
191.131	1909.97
191.207	1930.84
191.282	1940.73
191.358	1931.93
191.433	1921.47
191.509	1936.25
191.585	1934.01
191.66	1936.58
191.736	1942.33
191.811	1934.63
191.887	1948.23
191.963	1971.19
192.038	1976.14
192.114	1977.09
192.189	1982.13
192.265	1981.08
192.34	1957.73
192.416	1956.54
192.491	1953.83
192.567	1956.78
192.642	1959.16
192.718	1960.01
192.793	1947.79
192.869	1944.56
192.944	1945.41
193.02	1948.41
193.095	1949.27
193.171	1951.17
193.246	1948.41
193.322	1945.7
193.397	1947.17
193.473	1936.76
193.548	1922.59
193.624	1928.29
193.699	1927.3
193.775	1940.37
193.85	1940.99
193.925	1951.93
194.001	1951.45
194.076	1945.75
194.152	1936.09
194.227	1930.1
194.302	1919.12
194.378	1921.31
194.453	1918.13
194.529	1932.25
194.604	1921.07
194.679	1915.94
194.755	1903.39
194.83	1915.04
194.905	1911.48
194.981	1920.56
195.056	1915.05
195.131	1918.37
195.207	1915.47
195.282	1902.78
195.357	1885.85
195.433	1900.97
195.508	1889.7
195.583	1897.97
195.659	1907.91
195.734	1914.57
195.809	1915.14
195.884	1924.93
195.96	1929.11
196.035	1943.66
196.11	1939.33
196.185	1950.6
196.261	1953.74
196.336	1979.94
196.411	1966.76
196.486	1974.61
196.561	1966.57
196.637	1974.61
196.712	1989.54
196.787	1993.92
196.862	2009.98
196.937	2019.11
197.013	2022.44
197.088	2029.24
197.163	2047.32
197.238	2064.97
197.313	2064.74
197.388	2075.68
197.464	2102.56
197.539	2111.16
197.614	2103.27
197.689	2114.83
197.764	2129.34
197.839	2147.75
197.914	2141.9
197.989	2160.21
198.065	2171.77
198.14	2220.23
198.215	2242.5
198.29	2252.97
198.365	2264.06
198.44	2274.28
198.515	2300.36
198.59	2316.69
198.665	2343.24
198.74	2350.1
198.815	2349.76
198.89	2369.8
198.965	2399.94
199.04	2395.18
199.115	2408.51
199.19	2447.68
199.265	2449.25
199.34	2460.29
199.415	2490.49
199.49	2513.34
199.565	2524.53
199.64	2547.19
199.715	2543.19
199.79	2552.04
199.865	2557.43
199.94	2555.52
200.015	2582.1
200.09	2587
200.165	2600.63
200.24	2607.39
200.315	2647.05
200.39	2659.91
200.464	2667.39
200.539	2665.77
200.614	2682.86
200.689	2706.49
200.764	2713.07
200.839	2732.45
200.914	2733.59
200.989	2725.87
201.063	2736.16
201.138	2719.74
201.213	2720.02
201.288	2702.45
201.363	2707.35
201.438	2708.73
201.512	2725.59
201.587	2711.39
201.662	2714.54
201.737	2714.92
201.812	2719.92
201.886	2688.69
201.961	2696.98
202.036	2685.7
202.111	2680.98
202.186	2652.99
202.26	2637.5
202.335	2618.68
202.41	2610.68
202.485	2597.16
202.559	2579.02
202.634	2555.06
202.709	2565.67
202.784	2545.72
202.858	2546.58
202.933	2526.72
203.008	2520.48
203.082	2501.39
203.157	2499.01
203.232	2459.93
203.306	2443.07
203.381	2415.26
203.456	2394.5
203.53	2374.64
203.605	2357.7
203.68	2338.65
203.754	2334.94
203.829	2320.75
203.904	2302
203.978	2291.01
204.053	2295.96
204.127	2283.78
204.202	2280.16
204.277	2265.5
204.351	2259.51
204.426	2251.41
204.5	2245.18
204.575	2212.36
204.65	2220.02
204.724	2213.78
204.799	2220.2
204.873	2215.87
204.948	2214.11
205.022	2201.27
205.097	2191.41
205.171	2202.64
205.246	2208.92
205.32	2205.83
205.395	2205.07
205.469	2197.61
205.544	2202.51
205.618	2183.95
205.693	2196.37
205.767	2188.85
205.842	2204.75
205.916	2201.85
205.991	2193.76
206.065	2198.9
206.14	2212.4
206.214	2212.45
206.289	2205.36
206.363	2218.77
206.438	2217.82
206.512	2224.67
206.586	2242.66
206.661	2251.84
206.735	2231.68
206.81	2234.25
206.884	2246.52
206.958	2234.2
207.033	2247.52
207.107	2256.71
207.181	2286.22
207.256	2278.79
207.33	2294.92
207.405	2307.93
207.479	2325.01
207.553	2333.77
207.628	2319.35
207.702	2332.3
207.776	2325.06
207.851	2328.87
207.925	2342.44
207.999	2341.72
208.073	2342.11
208.148	2346.06
208.222	2335.92
208.296	2368.22
208.371	2381.66
208.445	2394.56
208.519	2420.06
208.593	2432.96
208.668	2428.44
208.742	2430.96
208.816	2433.68
208.89	2446.58
208.965	2442.77
209.039	2450.96
209.113	2462.67
209.187	2480.75
209.261	2477.8
209.336	2497.37
209.41	2517.18
209.484	2515.13
209.558	2539.23
209.632	2549.42
209.707	2559.08
209.781	2578.41
209.855	2590.56
209.929	2606.2
210.003	2610.06
210.077	2612.87
210.151	2656.2
210.226	2687.51
210.3	2712.2
210.374	2732.92
210.448	2737.73
210.522	2750.41
210.596	2757.84
210.67	2768.56
210.744	2812.59
210.818	2840.93
210.892	2859.76
210.966	2854.95
211.041	2871.91
211.115	2866.86
211.189	2887.54
211.263	2902.84
211.337	2912.03
211.411	2925.57
211.485	2922.38
211.559	2938.77
211.633	2942.34
211.707	2919.88
211.781	2929.28
211.855	2903.72
211.929	2903.2
212.003	2889.81
212.077	2901.69
212.151	2921
212.225	2937.01
212.299	2934.2
212.373	2934.2
212.447	2938.11
212.52	2975.3
212.594	2991.71
212.668	3016.02
212.742	3020.64
212.816	3033.19
212.89	3043.58
212.964	3058.23
213.038	3081.65
213.112	3108.22
213.186	3144.32
213.26	3146.18
213.333	3131.68
213.407	3162.53
213.481	3192.38
213.555	3233.09
213.629	3252.7
213.703	3268.93
213.777	3302.68
213.85	3325.97
213.924	3396.36
213.998	3438.14
214.072	3474.87
214.146	3506.96
214.219	3549.27
214.293	3592.09
214.367	3641.72
214.441	3704.43
214.515	3749.49
214.588	3785.66
214.662	3819.25
214.736	3859.05
214.81	3926
214.883	4000.86
214.957	4057.19
215.031	4114.87
215.105	4164.99
215.178	4230.65
215.252	4300.23
215.326	4352.8
215.4	4408.85
215.473	4445.18
215.547	4510.37
215.621	4582.96
215.694	4672.26
215.768	4745.27
215.842	4824.55
215.915	4904.68
215.989	4975.87
216.063	5062.4
216.136	5157.7
216.21	5250.11
216.284	5359.24
216.357	5464.54
216.431	5559.32
216.504	5667.59
216.578	5796.42
216.652	5910.86
216.725	6018.23
216.799	6136.48
216.873	6247.51
216.946	6369.2
217.02	6477.76
217.093	6592.14
217.167	6685.58
217.24	6783.04
217.314	6889.13
217.387	6998.06
217.461	7105.64
217.535	7227.59
217.608	7333.27
217.682	7444.98
217.755	7579.68
217.829	7690.37
217.902	7809.58
217.976	7932.69
218.049	8047.93
218.123	8152.82
218.196	8277.26
218.27	8391.39
218.343	8497.79
218.417	8617.37
218.49	8728.63
218.563	8858.43
218.637	8973.58
218.71	9110.63
218.784	9241.78
218.857	9378.43
218.931	9504.04
219.004	9628.28
219.077	9761.4
219.151	9882.95
219.224	10000.33
219.298	10112.33
219.371	10236.86
219.444	10334.84
219.518	10442.85
219.591	10561.41
219.665	10697.01
219.738	10812.26
219.811	10914.5
219.885	11026.25
219.958	11150.48
220.031	11269.02
220.105	11390.33
220.178	11511.1
220.251	11614.44
220.325	11723.51
220.398	11829.16
220.471	11939.15
220.544	12056.56
220.618	12143.86
220.691	12254.48
220.764	12364.67
220.838	12467.58
220.911	12566.4
220.984	12692.88
221.057	12801.19
221.131	12898.62
221.204	12966.44
221.277	13078.23
221.35	13203.76
221.424	13306.34
221.497	13398.07
221.57	13492.36
221.643	13577.64
221.716	13663.98
221.79	13746.02
221.863	13834.77
221.936	13916.63
222.009	14005.42
222.082	14088.19
222.155	14169.8
222.229	14266.65
222.302	14357.9
222.375	14440.67
222.448	14526.95
222.521	14600.37
222.594	14675.57
222.667	14744.17
222.74	14830.84
222.814	14900.3
222.887	14974.53
222.96	15055.17
223.033	15135.77
223.106	15206
223.179	15288.04
223.252	15365.21
223.325	15445.61
223.398	15514.97
223.471	15586.17
223.544	15649.55
223.617	15717.51
223.69	15782.15
223.763	15839.89
223.837	15901.49
223.91	15980.25
223.983	16034.71
224.056	16090.43
224.129	16152.8
224.202	16226.69
224.275	16279.18
224.348	16327.14
224.42	16373.41
224.493	16411.96
224.566	16459.58
224.639	16526.48
224.712	16576.07
224.785	16622.58
224.858	16676.17
224.931	16723.12
225.004	16770.83
225.077	16823.7
225.15	16848.57
225.223	16905.01
225.296	16969.93
225.369	16997.83
225.442	17030.84
225.514	17077.93
225.587	17130.32
225.66	17188.58
225.733	17241.64
225.806	17297.26
225.879	17344.15
225.952	17373.69
226.025	17431.77
226.097	17491.72
226.17	17528.54
226.243	17552.78
226.316	17598.46
226.389	17633.06
226.461	17684
226.534	17735.95
226.607	17779.86
226.68	17852.29
226.753	17882.51
226.825	17904.05
226.898	17962.46
226.971	18003.18
227.044	18053.73
227.117	18098.02
227.189	18131.17
227.262	18170.88
227.335	18213.82
227.407	18256.52
227.48	18307.65
227.553	18349.33
227.626	18383.74
227.698	18424.41
227.771	18466.53
227.844	18492.65
227.916	18532.65
227.989	18554.96
228.062	18590.52
228.134	18644.06
228.207	18669.94
228.28	18713.46
228.352	18753.07
228.425	18789.16
228.498	18832.29
228.57	18850.12
228.643	18886.7
228.716	18922.89
228.788	18945.06
228.861	18966.79
228.934	19003.46
229.006	19030.59
229.079	19052.33
229.151	19069.34
229.224	19083.55
229.296	19118.88
229.369	19169.52
229.442	19212.51
229.514	19229.86
229.587	19261.13
229.659	19266.53
229.732	19287.49
229.804	19319.49
229.877	19362.96
229.949	19396.11
230.022	19433.12
230.094	19459.63
230.167	19488.25
230.239	19496.2
230.312	19531.77
230.384	19580.01
230.457	19610.22
230.529	19634.89
230.602	19661.88
230.674	19696.29
230.747	19733.06
230.819	19762.89
230.892	19760.43
230.964	19779.95
231.037	19822.79
231.109	19839.17
231.181	19873.34
231.254	19887.85
231.326	19905.39
231.399	19920.04
231.471	19921.87
231.544	19918.01
231.616	19946.25
231.688	19967.75
231.761	19985.87
231.833	19984.66
231.905	19975.55
231.978	19987.22
232.05	20004.13
232.122	20017.38
232.195	20020.8
232.267	20046.01
232.339	20050.59
232.412	20078.78
232.484	20089.43
232.556	20081.67
232.629	20100.56
232.701	20105.91
232.773	20129.28
232.846	20142.78
232.918	20146.15
232.99	20159.21
233.062	20173.43
233.135	20178.97
233.207	20172.75
233.279	20190.05
233.351	20204.8
233.424	20204.27
233.496	20193.47
233.568	20209.23
233.64	20208.27
233.713	20208.99
233.785	20201.19
233.857	20205.52
233.929	20188.61
234.001	20209.14
234.074	20222.97
234.146	20211.16
234.218	20209.62
234.29	20201.67
234.362	20188.32
234.434	20163.11
234.507	20154.39
234.579	20134.49
234.651	20120.9
234.723	20109.72
234.795	20099.65
234.867	20087.65
234.939	20097.19
235.012	20088.32
235.084	20079.12
235.156	20084.32
235.228	20070.06
235.3	20062.44
235.372	20057.19
235.444	20057.38
235.516	20006.78
235.588	19999.21
235.66	19983.75
235.732	19966.2
235.804	20001.43
235.876	19998.64
235.948	20014.69
236.02	20006.97
236.092	19994.16
236.164	19987.31
236.236	19975.51
236.308	19965.05
236.38	19958.93
236.452	19936.81
236.524	19942.16
236.596	19937.39
236.668	19919.12
236.74	19906.5
236.812	19892.96
236.884	19883.75
236.956	19880.14
237.028	19871.41
237.1	19846.21
237.172	19844.72
237.244	19846.69
237.316	19795.22
237.388	19780.19
237.46	19748.82
237.532	19734.41
237.604	19714.26
237.675	19705.15
237.747	19692.38
237.819	19662.84
237.891	19640.68
237.963	19612.2
238.035	19578.37
238.107	19534.18
238.178	19527.29
238.25	19502.76
238.322	19495.96
238.394	19455.29
238.466	19421.51
238.538	19405.17
238.609	19388.5
238.681	19358.96
238.753	19321.71
238.825	19302.24
238.897	19274.34
238.968	19262.48
239.04	19228.99
239.112	19225.33
239.184	19186.68
239.255	19168.61
239.327	19152.95
239.399	19125.77
239.471	19106.35
239.542	19087.31
239.614	19079.02
239.686	19025.15
239.758	19011.32
239.829	18973.97
239.901	18963.7
239.973	18944
240.044	18916.96
240.116	18885.93
240.188	18850.99
240.259	18833.74
240.331	18799.14
240.403	18774.56
240.474	18731.43
240.546	18703.14
240.618	18659.82
240.689	18626.38
240.761	18602.33
240.833	18594.52
240.904	18571.49
240.976	18551.1
241.048	18525.95
241.119	18504.41
241.191	18481.04
241.262	18470.87
241.334	18446
241.405	18410.44
241.477	18377.14
241.549	18353.09
241.62	18327.12
241.692	18309.62
241.763	18291.98
241.835	18258.69
241.906	18236.18
241.978	18201.87
242.049	18187.94
242.121	18168.33
242.192	18155.65
242.264	18102.26
242.335	18045.78
242.407	18013.73
242.478	17974.45
242.55	17951.23
242.621	17904
242.693	17877.74
242.764	17834.12
242.836	17796.15
242.907	17764.97
242.979	17730.46
243.05	17699.23
243.122	17683.28
243.193	17647.14
243.264	17585.4
243.336	17554.18
243.407	17517.07
243.479	17506.75
243.55	17480.01
243.622	17452.64
243.693	17422.95
243.764	17411.77
243.836	17377.65
243.907	17345.07
243.978	17313.16
244.05	17277.31
244.121	17235.52
244.192	17212.15
244.264	17172.05
244.335	17145.16
244.407	17105.35
244.478	17085.11
244.549	17056.1
244.62	17009.93
244.692	16978.17
244.763	16958.5
244.834	16924.33
244.906	16889.54
244.977	16858.65
245.048	16831.9
245.119	16791.85
245.191	16763.32
245.262	16718.59
245.333	16703.79
245.405	16682.35
245.476	16657.77
245.547	16629.19
245.618	16607.88
245.689	16573.47
245.761	16544.41
245.832	16501.95
245.903	16478.86
245.974	16440.4
246.045	16402.71
246.117	16384.88
246.188	16343.57
246.259	16308.44
246.33	16276.77
246.401	16241.87
246.473	16192.86
246.544	16152.85
246.615	16125.53
246.686	16078.97
246.757	16055.25
246.828	16017.08
246.899	15991.2
246.97	15943.29
247.042	15906.22
247.113	15881.74
247.184	15870.6
247.255	15830.31
247.326	15804.81
247.397	15772.27
247.468	15749.52
247.539	15718.05
247.61	15667.2
247.681	15645.56
247.752	15621.41
247.823	15585.31
247.894	15561.64
247.965	15534.31
248.037	15503.51
248.108	15457.33
248.179	15429.66
248.25	15391.97
248.321	15360.69
248.392	15318.7
248.463	15311.04
248.534	15277.88
248.605	15254.02
248.675	15213.24
248.746	15192.95
248.817	15170.39
248.888	15149.08
248.959	15101.84
249.03	15081.4
249.101	15057.64
249.172	15023.9
249.243	14977.72
249.314	14958.58
249.385	14928.5
249.456	14894.09
249.527	14868.54
249.598	14857.31
249.669	14832
249.739	14817.44
249.81	14797.73
249.881	14758.63
249.952	14723.35
250.023	14690.76
250.094	14649.06
250.165	14607.46
250.235	14578.11
250.306	14549.14
250.377	14507.15
250.448	14484.3
250.519	14434.46
250.59	14423.61
250.66	14389
250.731	14378.06
250.802	14347.59
250.873	14323.39
250.944	14301.7
251.014	14259.47
251.085	14249.97
251.156	14223.94
251.227	14210.35
251.297	14198.3
251.368	14184.9
251.439	14178.2
251.51	14169.18
251.58	14134.33
251.651	14109.26
251.722	14095.81
251.792	14051.61
251.863	14022.39
251.934	14011.74
252.005	14008.7
252.075	13976.16
252.146	13966.62
252.217	13949.6
252.287	13935.86
252.358	13914.41
252.429	13912.05
252.499	13883.03
252.57	13859.94
252.641	13847.26
252.711	13815.88
252.782	13764.59
252.852	13764.06
252.923	13729.49
252.994	13704.67
253.064	13694.93
253.135	13664.65
253.205	13631.68
253.276	13632.02
253.347	13630.91
253.417	13595.96
253.488	13572.43
253.558	13545.82
253.629	13514.97
253.699	13493.33
253.77	13478.48
253.841	13451.15
253.911	13421.16
253.982	13402.27
254.052	13384.72
254.123	13360.66
254.193	13330.82
254.264	13350.59
254.334	13310.34
254.405	13283.15
254.475	13247.76
254.546	13225.88
254.616	13217.83
254.687	13194.21
254.757	13171.5
254.827	13146.34
254.898	13132.74
254.968	13108.78
255.039	13079.62
255.109	13068.92
255.18	13031.03
255.25	12979.74
255.321	12962.67
255.391	12934.47
255.461	12938.67
255.532	12886.36
255.602	12856.62
255.673	12818.34
255.743	12786.87
255.813	12742.81
255.884	12726.9
255.954	12718.17
256.024	12711.47
256.095	12692.62
256.165	12665
256.235	12647.26
256.306	12612.31
256.376	12599.93
256.446	12589.22
256.517	12577.32
256.587	12565.41
256.657	12560.25
256.728	12547.48
256.798	12520.77
256.868	12493.35
256.938	12462.83
257.009	12451.79
257.079	12436.99
257.149	12445.43
257.219	12400.26
257.29	12381.9
257.36	12342.28
257.43	12324.49
257.5	12278.5
257.571	12247.46
257.641	12237.34
257.711	12206.92
257.781	12196.41
257.852	12173.32
257.922	12129.75
257.992	12109.17
258.062	12088.78
258.132	12072.39
258.202	12057.88
258.273	12045.01
258.343	12033.44
258.413	12010.5
258.483	11986.15
258.553	11951.74
258.623	11923.73
258.693	11909.51
258.764	11903.49
258.834	11899.73
258.904	11886.57
258.974	11862.09
259.044	11840.88
259.114	11825.45
259.184	11806.9
259.254	11788.15
259.324	11754.36
259.394	11744.29
259.464	11743.51
259.535	11714.06
259.605	11686.21
259.675	11653.48
259.745	11635.84
259.815	11612.27
259.885	11580.8
259.955	11591.93
260.025	11573.95
260.095	11553.47
260.165	11541.95
260.235	11544.41
260.305	11525.13
260.375	11487.39
260.445	11488.93
260.515	11486.86
260.585	11476.21
260.655	11458.33
260.725	11445.17
260.795	11431.29
260.865	11434.71
260.934	11404.83
261.004	11396.01
261.074	11379.91
261.144	11377.5
261.214	11369.79
261.284	11349.31
261.354	11340.93
261.424	11314.22
261.494	11317.4
261.564	11295.24
261.634	11282.8
261.703	11239.19
261.773	11219.57
261.843	11213.26
261.913	11196.25
261.983	11163.72
262.053	11149.84
262.123	11133.93
262.192	11111.67
262.262	11105.45
262.332	11068.2
262.402	11052.25
