Data from 20250630_urea_2M_MAYP1162681_02-02-26-868.txt Node
Date: Tue Jul 01 02:02:26 BST 2025
User: adleo
Spectrometer: MAYP116268
Trigger mode: 0
Integration Time (sec): 1.000000E0
Scans to average: 1
Electric dark correction enabled: true
Nonlinearity correction enabled: true
Boxcar width: 10
XAxis mode: Wavelengths
Number of Pixels in Spectrum: 2068
>>>>>Begin Spectral Data<<<<<
179.565	1066.95
179.642	1118.61
179.718	1157.26
179.795	1191.67
179.871	1219.24
179.948	1234.88
180.024	1253.66
180.101	1275.68
180.177	1287.25
180.254	1307.33
180.33	1327.02
180.407	1370.49
180.483	1457.81
180.56	1535.02
180.636	1611.16
180.712	1601.85
180.789	1609.73
180.865	1622.89
180.942	1630.39
181.018	1643.07
181.095	1655.9
181.171	1660.8
181.248	1661.89
181.324	1674.82
181.4	1679.57
181.477	1690.07
181.553	1699.95
181.63	1719.48
181.706	1734.54
181.782	1742
181.859	1741.86
181.935	1745.66
182.011	1742.71
182.088	1755.69
182.164	1774.08
182.24	1786.48
182.317	1794.7
182.393	1794.75
182.469	1806.16
182.546	1818.7
182.622	1819.56
182.698	1814.14
182.775	1826.02
182.851	1837.24
182.927	1832.25
183.003	1827.93
183.08	1823.55
183.156	1834.39
183.232	1829.3
183.308	1817.8
183.385	1826.59
183.461	1842.23
183.537	1844.75
183.613	1857.3
183.69	1851.73
183.766	1842.08
183.842	1848.03
183.918	1850.26
183.995	1862.76
184.071	1864.66
184.147	1860.19
184.223	1851.02
184.299	1863.05
184.375	1852.59
184.452	1858.73
184.528	1910.04
184.604	1922.25
184.68	1932.52
184.756	1937.17
184.832	1939.79
184.908	1943.26
184.985	1942.07
185.061	1927.05
185.137	1937.32
185.213	1925.86
185.289	1925.01
185.365	1918.07
185.441	1916.55
185.517	1929.48
185.593	1926.96
185.669	1927.91
185.745	1938.71
185.822	1953.87
185.898	1946.16
185.974	1955.05
186.05	1948.06
186.126	1910.3
186.202	1901.75
186.278	1896.85
186.354	1890.2
186.43	1898.19
186.506	1897.33
186.582	1895.76
186.658	1903.6
186.734	1881.74
186.81	1884.21
186.886	1886.4
186.962	1900.85
187.038	1898.28
187.114	1891.67
187.19	1899.04
187.266	1886.06
187.341	1887.96
187.417	1883.31
187.493	1885.4
187.569	1886.73
187.645	1880.12
187.721	1868.33
187.797	1879.12
187.873	1884.44
187.949	1877.17
188.025	1872.94
188.101	1873.56
188.176	1881.73
188.252	1875.75
188.328	1883.3
188.404	1883.54
188.48	1878.59
188.556	1869.32
188.632	1867.47
188.707	1868.61
188.783	1865.09
188.859	1860.91
188.935	1847.6
189.011	1853.07
189.086	1846.27
189.162	1838.9
189.238	1838.24
189.314	1835.67
189.39	1826.88
189.465	1819.08
189.541	1835.01
189.617	1818.32
189.693	1814.9
189.768	1815.9
189.844	1841.01
189.92	1833.22
189.996	1839.87
190.071	1850.66
190.147	1850.76
190.223	1858.32
190.298	1849.42
190.374	1837.11
190.45	1850.18
190.526	1861.12
190.601	1857.12
190.677	1857.93
190.753	1881.85
190.828	1886.22
190.904	1900.73
190.98	1915.51
191.055	1927.73
191.131	1919.98
191.207	1942.75
191.282	1953.06
191.358	1943.51
191.433	1926.96
191.509	1939.6
191.585	1938.64
191.66	1939.02
191.736	1946.68
191.811	1937.55
191.887	1954.05
191.963	1975.26
192.038	1979.25
192.114	1980.15
192.189	1984.62
192.265	1981.91
192.34	1965.36
192.416	1963.22
192.491	1959.32
192.567	1962.75
192.642	1964.41
192.718	1964.55
192.793	1953.76
192.869	1949.34
192.944	1952.33
193.02	1963.94
193.095	1966.79
193.171	1969.4
193.246	1967.98
193.322	1964.03
193.397	1963.46
193.473	1949.86
193.548	1934.45
193.624	1940.68
193.699	1936.07
193.775	1946.53
193.85	1946.15
193.925	1951.15
194.001	1951.05
194.076	1945.63
194.152	1935.69
194.227	1929.22
194.302	1920.15
194.378	1921.48
194.453	1919.86
194.529	1931.94
194.604	1915.44
194.679	1911.21
194.755	1893.72
194.83	1906.32
194.905	1904.14
194.981	1914.36
195.056	1907.23
195.131	1912.22
195.207	1909.65
195.282	1903.42
195.357	1889.44
195.433	1905.08
195.508	1895.1
195.583	1900.56
195.659	1911.69
195.734	1917.92
195.809	1915.83
195.884	1926.24
195.96	1925.9
196.035	1939.07
196.11	1933.89
196.185	1944.49
196.261	1948.25
196.336	1979.15
196.411	1965.12
196.486	1971.49
196.561	1965.93
196.637	1978.29
196.712	1993.7
196.787	1996.6
196.862	2008.58
196.937	2015.48
197.013	2023.85
197.088	2032.6
197.163	2052.58
197.238	2070.14
197.313	2070.04
197.388	2082.93
197.464	2110
197.539	2120.09
197.614	2112.62
197.689	2123.94
197.764	2141.07
197.839	2158.43
197.914	2150.53
197.989	2172.03
198.065	2184.83
198.14	2231.39
198.215	2251.04
198.29	2260.51
198.365	2271.98
198.44	2282.3
198.515	2310.95
198.59	2323.52
198.665	2349.22
198.74	2358.31
198.815	2359.98
198.89	2378.87
198.965	2405.96
199.04	2403.2
199.115	2418.48
199.19	2457.74
199.265	2461.55
199.34	2467.45
199.415	2498.75
199.49	2520.17
199.565	2529.93
199.64	2554.31
199.715	2552.88
199.79	2560.16
199.865	2564.88
199.94	2566.21
200.015	2594.26
200.09	2599.93
200.165	2604.31
200.24	2608.5
200.315	2646.69
200.39	2658.03
200.464	2665.6
200.539	2666.79
200.614	2679.46
200.689	2698.04
200.764	2705.23
200.839	2722.75
200.914	2729.76
200.989	2720.94
201.063	2734.99
201.138	2717.81
201.213	2714.95
201.288	2698.13
201.363	2703.37
201.438	2705.42
201.512	2718.52
201.587	2704.41
201.662	2706.32
201.737	2716.51
201.812	2725.52
201.886	2692.81
201.961	2701.34
202.036	2688.58
202.111	2684.15
202.186	2659.68
202.26	2647.58
202.335	2623.95
202.41	2616.76
202.485	2599.43
202.559	2581.38
202.634	2557.13
202.709	2567.65
202.784	2550.79
202.858	2549.27
202.933	2532.84
203.008	2526.94
203.082	2510.6
203.157	2507.79
203.232	2467.24
203.306	2449.05
203.381	2417.57
203.456	2397.24
203.53	2377.9
203.605	2361.81
203.68	2343.1
203.754	2336.01
203.829	2322.97
203.904	2307.41
203.978	2296.56
204.053	2299.98
204.127	2286.61
204.202	2283.9
204.277	2267.24
204.351	2262.77
204.426	2254.06
204.5	2246.21
204.575	2215.19
204.65	2222.23
204.724	2215.14
204.799	2222.42
204.873	2220.94
204.948	2222.89
205.022	2210
205.097	2201.29
205.171	2215.66
205.246	2223.32
205.32	2221.27
205.395	2218.85
205.469	2209.96
205.544	2214.33
205.618	2199.39
205.693	2210.43
205.767	2199.49
205.842	2216.91
205.916	2207.54
205.991	2201.54
206.065	2205.87
206.14	2218.9
206.214	2212.62
206.289	2206.52
206.363	2216.52
206.438	2217.32
206.512	2219.61
206.586	2238.4
206.661	2246.54
206.735	2225.14
206.81	2223.14
206.884	2236.17
206.958	2223.37
207.033	2241.07
207.107	2247.69
207.181	2274.48
207.256	2271.63
207.33	2288.19
207.405	2302.19
207.479	2322.79
207.553	2329.84
207.628	2316.28
207.702	2329.75
207.776	2326.46
207.851	2330.03
207.925	2345.03
207.999	2341.46
208.073	2341.84
208.148	2344.03
208.222	2335.03
208.296	2365.01
208.371	2382.2
208.445	2394.91
208.519	2424.27
208.593	2432.98
208.668	2432.94
208.742	2439.37
208.816	2439.46
208.89	2453.32
208.965	2449.27
209.039	2455.7
209.113	2472.36
209.187	2491.11
209.261	2487.97
209.336	2504.73
209.41	2524.06
209.484	2524.87
209.558	2545.97
209.632	2556.92
209.707	2566.77
209.781	2581.96
209.855	2596.16
209.929	2613.61
210.003	2620.8
210.077	2621.51
210.151	2668.57
210.226	2699.78
210.3	2724.43
210.374	2746.05
210.448	2749.91
210.522	2762.49
210.596	2772.74
210.67	2781.07
210.744	2826.4
210.818	2854.17
210.892	2874.66
210.966	2868.18
211.041	2883.39
211.115	2882.58
211.189	2907.45
211.263	2923.08
211.337	2935.95
211.411	2951.96
211.485	2948.53
211.559	2960.3
211.633	2966.54
211.707	2938.54
211.781	2945.56
211.855	2914.66
211.929	2911.62
212.003	2900.52
212.077	2914.49
212.151	2935.04
212.225	2951.63
212.299	2948.96
212.373	2945.72
212.447	2952.83
212.52	2994.17
212.594	3010.33
212.668	3032.69
212.742	3036.18
212.816	3049.62
212.89	3059.21
212.964	3075.24
213.038	3098.05
213.112	3135.22
213.186	3169.89
213.26	3178.23
213.333	3165.07
213.407	3199.49
213.481	3233.49
213.555	3275.78
213.629	3295.35
213.703	3312.67
213.777	3345.09
213.85	3366.57
213.924	3439.87
213.998	3480.22
214.072	3516.24
214.146	3547.61
214.219	3592.74
214.293	3638.58
214.367	3690.93
214.441	3758.72
214.515	3804.79
214.588	3839.1
214.662	3866.2
214.736	3911.4
214.81	3983.39
214.883	4060.64
214.957	4123.73
215.031	4185.43
215.105	4240.01
215.178	4307.49
215.252	4380.34
215.326	4438.95
215.4	4500.98
215.473	4544.22
215.547	4614.78
215.621	4693.95
215.694	4791.4
215.768	4864.71
215.842	4946.83
215.915	5035.76
215.989	5105.9
216.063	5198.83
216.136	5300.37
216.21	5401.63
216.284	5515.92
216.357	5622.7
216.431	5719.89
216.504	5836.06
216.578	5971.84
216.652	6097.02
216.725	6207.64
216.799	6332.5
216.873	6449.9
216.946	6575.6
217.02	6686.64
217.093	6801.23
217.167	6895.18
217.24	6995.74
217.314	7115.26
217.387	7227.82
217.461	7339.91
217.535	7477.57
217.608	7585.49
217.682	7711.42
217.755	7842.83
217.829	7951.96
217.902	8078.03
217.976	8209.35
218.049	8318.07
218.123	8421.83
218.196	8546.07
218.27	8663.1
218.343	8768.13
218.417	8894.43
218.49	9013.67
218.563	9152.6
218.637	9282.64
218.71	9428.44
218.784	9565.97
218.857	9696.18
218.931	9827.12
219.004	9950.27
219.077	10078.17
219.151	10202.83
219.224	10317.63
219.298	10435.95
219.371	10569.12
219.444	10671.35
219.518	10790.17
219.591	10916.32
219.665	11062.96
219.738	11181.94
219.811	11291.18
219.885	11422.03
219.958	11549.74
220.031	11668.88
220.105	11785.32
220.178	11893.38
220.251	11993.93
220.325	12106.67
220.398	12218.74
220.471	12331.29
220.544	12449.14
220.618	12538.7
220.691	12648.85
220.764	12751.76
220.838	12863.21
220.911	12956.68
220.984	13093.92
221.057	13197.61
221.131	13300.77
221.204	13367.1
221.277	13478.12
221.35	13609.87
221.424	13707.29
221.497	13791.75
221.57	13882.13
221.643	13975.07
221.716	14081.46
221.79	14164.38
221.863	14250.09
221.936	14340.38
222.009	14429.41
222.082	14513.91
222.155	14598.9
222.229	14702.59
222.302	14797.65
222.375	14874.48
222.448	14960.82
222.521	15023.67
222.594	15102.1
222.667	15170.93
222.74	15251.19
222.814	15322.34
222.887	15390.49
222.96	15468.43
223.033	15556.59
223.106	15631.45
223.179	15702.26
223.252	15774.02
223.325	15852.98
223.398	15924.79
223.471	15993.82
223.544	16063.61
223.617	16136.53
223.69	16202.9
223.763	16256.98
223.837	16320.12
223.91	16386.63
223.983	16435.65
224.056	16493.53
224.129	16560.82
224.202	16624.87
224.275	16677.26
224.348	16737.02
224.42	16781.03
224.493	16811.63
224.566	16860.6
224.639	16923.59
224.712	16976.74
224.785	17022.34
224.858	17074.29
224.931	17119.79
225.004	17159.83
225.077	17211.26
225.15	17230.97
225.223	17285.14
225.296	17355.88
225.369	17389.62
225.442	17430.05
225.514	17484.22
225.587	17532.75
225.66	17570.68
225.733	17624.46
225.806	17673.91
225.879	17705.71
225.952	17740.17
226.025	17807.5
226.097	17858.39
226.17	17891.73
226.243	17921.13
226.316	17959.39
226.389	18006.67
226.461	18056.35
226.534	18101.51
226.607	18137.8
226.68	18207.82
226.753	18241.07
226.825	18251.67
226.898	18302.9
226.971	18343.86
227.044	18384.1
227.117	18426.36
227.189	18472.19
227.262	18519.03
227.335	18567.03
227.407	18606.21
227.48	18654.49
227.553	18694.44
227.626	18724.85
227.698	18776.03
227.771	18821.57
227.844	18852.75
227.916	18885.52
227.989	18899.49
228.062	18924.7
228.134	18978.72
228.207	19006.09
228.28	19037.46
228.352	19072.44
228.425	19103.05
228.498	19149.11
228.57	19181.4
228.643	19218.6
228.716	19251.71
228.788	19273.88
228.861	19298.6
228.934	19334.26
229.006	19349.54
229.079	19363.32
229.151	19385.68
229.224	19393.49
229.296	19417.34
229.369	19465.29
229.442	19499.99
229.514	19526.73
229.587	19560.61
229.659	19573.81
229.732	19603.4
229.804	19638.87
229.877	19689.23
229.949	19728.6
230.022	19762.82
230.094	19781.18
230.167	19797.37
230.239	19808.12
230.312	19828.21
230.384	19877.17
230.457	19902.38
230.529	19926.86
230.602	19952.98
230.674	19975.29
230.747	20005.89
230.819	20035.43
230.892	20021.31
230.964	20043.34
231.037	20069.74
231.109	20091.29
231.181	20109.6
231.254	20111.81
231.326	20127.04
231.399	20133.74
231.471	20141.26
231.544	20135.04
231.616	20165.89
231.688	20189.98
231.761	20196.34
231.833	20199.86
231.905	20184.2
231.978	20199.52
232.05	20216.53
232.122	20224.49
232.195	20222.8
232.267	20248.25
232.339	20251.67
232.412	20282.41
232.484	20286.51
232.556	20290.61
232.629	20313.11
232.701	20320.44
232.773	20330.32
232.846	20334.17
232.918	20335.52
232.99	20330.56
233.062	20342.46
233.135	20335.95
233.207	20318.85
233.279	20333.59
233.351	20343.47
233.424	20341.83
233.496	20329.64
233.568	20352.2
233.64	20349.26
233.713	20351.81
233.785	20346.17
233.857	20349.5
233.929	20333.16
234.001	20350.85
234.074	20360.2
234.146	20342.32
234.218	20351.86
234.29	20347.67
234.362	20336.34
234.434	20316.92
234.507	20315.62
234.579	20291.67
234.651	20285.26
234.723	20284.39
234.795	20287.04
234.867	20278.7
234.939	20284.05
235.012	20276
235.084	20264
235.156	20263.62
235.228	20245.21
235.3	20228.78
235.372	20221.07
235.444	20221.4
235.516	20182.66
235.588	20175.72
235.66	20166.51
235.732	20124.1
235.804	20164.44
235.876	20159.67
235.948	20159.43
236.02	20148.63
236.092	20138.08
236.164	20131.53
236.236	20118.13
236.308	20093.41
236.38	20091.09
236.452	20074.13
236.524	20065.31
236.596	20059.29
236.668	20049.79
236.74	20041.84
236.812	20030.13
236.884	20026.47
236.956	20012.01
237.028	19978.04
237.1	19947.77
237.172	19947.58
237.244	19957.41
237.316	19902.04
237.388	19878.47
237.46	19854.76
237.532	19845.61
237.604	19813.75
237.675	19798.77
237.747	19792.12
237.819	19760.98
237.891	19730.62
237.963	19697.37
238.035	19670.72
238.107	19621.62
238.178	19607.16
238.25	19581.72
238.322	19578.54
238.394	19535.26
238.466	19510.64
238.538	19508.18
238.609	19492.95
238.681	19453.24
238.753	19423.27
238.825	19404.28
238.897	19389.1
238.968	19383.8
239.04	19352.76
239.112	19366.98
239.184	19341.83
239.255	19310.45
239.327	19292.77
239.399	19268
239.471	19252.24
239.542	19235.09
239.614	19221.93
239.686	19164.01
239.758	19150.95
239.829	19109.6
239.901	19090.81
239.973	19058.13
240.044	19040.06
240.116	19006.23
240.188	18971.54
240.259	18929.8
240.331	18900.65
240.403	18877.18
240.474	18833.09
240.546	18797.62
240.618	18749.28
240.689	18706.78
240.761	18679.22
240.833	18662.06
240.904	18637.92
240.976	18609.53
241.048	18578.45
241.119	18559.32
241.191	18546.4
241.262	18528.24
241.334	18499.61
241.405	18474.07
241.477	18437.35
241.549	18397.16
241.62	18372.58
241.692	18352.97
241.763	18335.52
241.835	18297.31
241.906	18262.71
241.978	18213.46
242.049	18193.12
242.121	18173.6
242.192	18162.38
242.264	18117.7
242.335	18073.7
242.407	18040.36
242.478	18004.36
242.55	17978.82
242.621	17936.31
242.693	17904.55
242.764	17867.69
242.836	17834.68
242.907	17799.4
242.979	17785.76
243.05	17765.72
243.122	17742.44
243.193	17707.5
243.264	17663.6
243.336	17628.71
243.407	17602.59
243.479	17594.49
243.55	17563.65
243.622	17531.89
243.693	17492.76
243.764	17476.85
243.836	17439.02
243.907	17405.14
243.978	17380.85
244.05	17355.5
244.121	17310.1
244.192	17285.04
244.264	17237.09
244.335	17204.99
244.407	17164.7
244.478	17139.88
244.549	17096.56
244.62	17045.62
244.692	17011.88
244.763	16992.84
244.834	16959.11
244.906	16917.51
244.977	16886.96
245.048	16872.84
245.119	16827.68
245.191	16787.68
245.262	16736.93
245.333	16725.12
245.405	16694.61
245.476	16671.53
245.547	16635.72
245.618	16614.22
245.689	16576.58
245.761	16555.86
245.832	16523.81
245.903	16502.07
245.974	16466.45
246.045	16435.8
246.117	16422.16
246.188	16383.26
246.259	16341.48
246.33	16302.63
246.401	16270.09
246.473	16225.99
246.544	16181.51
246.615	16165.51
246.686	16129.74
246.757	16116.2
246.828	16066.12
246.899	16048.82
246.97	15989.63
247.042	15947.46
247.113	15914.68
247.184	15902.97
247.255	15860.99
247.326	15820.11
247.397	15788.73
247.468	15759.09
247.539	15731.96
247.61	15684.67
247.681	15660.62
247.752	15645.34
247.823	15610.78
247.894	15585.33
247.965	15547.54
248.037	15504.01
248.108	15456.54
248.179	15426.55
248.25	15389.82
248.321	15369.39
248.392	15328.56
248.463	15320.27
248.534	15291.11
248.605	15271.25
248.675	15238.04
248.746	15222.9
248.817	15207.53
248.888	15178.89
248.959	15127.75
249.03	15106.49
249.101	15086.73
249.172	15055.4
249.243	14998.61
249.314	14990.71
249.385	14963.81
249.456	14941.49
249.527	14920.62
249.598	14902.69
249.669	14876.76
249.739	14852.22
249.81	14831.49
249.881	14789.41
249.952	14767.43
250.023	14741.74
250.094	14709.15
250.165	14667.16
250.235	14639.74
250.306	14610.62
250.377	14581.12
250.448	14557.69
250.519	14510.45
250.59	14490.01
250.66	14458.39
250.731	14446.19
250.802	14412.55
250.873	14383.05
250.944	14361.16
251.014	14329.1
251.085	14314.98
251.156	14290.06
251.227	14276.41
251.297	14260.22
251.368	14248.6
251.439	14221.61
251.51	14205.79
251.58	14167.57
251.651	14138.69
251.722	14120.08
251.792	14074.77
251.863	14043.48
251.934	14036.93
252.005	14033.99
252.075	14015.67
252.146	14004.2
252.217	13993.83
252.287	13978.45
252.358	13961.24
252.429	13952.13
252.499	13917.71
252.57	13890.91
252.641	13871.05
252.711	13840.25
252.782	13799.27
252.852	13790.02
252.923	13770.68
252.994	13743.59
253.064	13733.52
253.135	13703.77
253.205	13669.16
253.276	13662.7
253.347	13646.46
253.417	13614.11
253.488	13586.2
253.558	13546.52
253.629	13519.09
253.699	13494.22
253.77	13479.76
253.841	13449.82
253.911	13432.32
253.982	13414.53
254.052	13403.11
254.123	13381.95
254.193	13359.58
254.264	13375.29
254.334	13340.2
254.405	13301.3
254.475	13270.16
254.546	13247.5
254.616	13234.82
254.687	13210.43
254.757	13196.93
254.827	13168.54
254.898	13147.76
254.968	13121.25
255.039	13100.61
255.109	13089.04
255.18	13053.95
255.25	13002.37
255.321	12989.11
255.391	12950.31
255.461	12948.23
255.532	12899.59
255.602	12875.83
255.673	12837.89
255.743	12798.12
255.813	12758.45
255.884	12744.81
255.954	12730.25
256.024	12719.06
256.095	12703.3
256.165	12677.13
256.235	12657.94
256.306	12631.76
256.376	12617.3
256.446	12597.35
256.517	12575.51
256.587	12559.36
256.657	12545.09
256.728	12528.9
256.798	12504.02
256.868	12478.81
256.938	12449.84
257.009	12435.14
257.079	12421.26
257.149	12425.35
257.219	12386.89
257.29	12370.11
257.36	12333.67
257.43	12317.67
257.5	12276.07
257.571	12243.29
257.641	12230.23
257.711	12191.71
257.781	12180.87
257.852	12168.91
257.922	12139.6
257.992	12130.06
258.062	12105.33
258.132	12098.63
258.202	12085.52
258.273	12068.79
258.343	12067.2
258.413	12034.86
258.483	12015.34
258.553	11981.17
258.623	11950.07
258.693	11934.26
258.764	11926.22
258.834	11922.94
258.904	11904.91
258.974	11881.97
259.044	11863.36
259.114	11854.74
259.184	11844.57
259.254	11825.14
259.324	11784.65
259.394	11770.58
259.464	11758.96
259.535	11742.38
259.605	11709.03
259.675	11678.52
259.745	11660.73
259.815	11622.22
259.885	11597.4
259.955	11604.97
260.025	11584.92
260.095	11571.18
260.165	11559.04
260.235	11557.11
260.305	11533.25
260.375	11503.71
260.445	11507.18
260.515	11507.22
260.585	11500.62
260.655	11477.78
260.725	11468.09
260.795	11458.45
260.865	11461.97
260.934	11437.73
261.004	11424.57
261.074	11408.47
261.144	11409.1
261.214	11401.67
261.284	11383.8
261.354	11389.39
261.424	11358.15
261.494	11360.18
261.564	11336.9
261.634	11325.14
261.703	11295.69
261.773	11281.86
261.843	11273.96
261.913	11251.31
261.983	11219.45
262.053	11200.32
262.123	11181.04
262.192	11155.02
262.262	11148.75
262.332	11109.91
