Data from 20250630_standard_H2O_MAYP1162681_13-32-05-545.txt Node
Date: Tue Jul 01 13:32:05 BST 2025
User: adleo
Spectrometer: MAYP116268
Trigger mode: 0
Integration Time (sec): 1.000000E0
Scans to average: 1
Electric dark correction enabled: true
Nonlinearity correction enabled: true
Boxcar width: 10
XAxis mode: Wavelengths
Number of Pixels in Spectrum: 2068
>>>>>Begin Spectral Data<<<<<
179.565	1134.84
179.642	1187.69
179.718	1228.19
179.795	1265.75
179.871	1298.44
179.948	1312.46
180.024	1333.21
180.101	1352.77
180.177	1365.65
180.254	1385.22
180.33	1406.59
180.407	1457.91
180.483	1547.75
180.56	1633.31
180.636	1711.83
180.712	1699.71
180.789	1711.45
180.865	1721.61
180.942	1728.6
181.018	1739.81
181.095	1752.69
181.171	1758.4
181.248	1761.01
181.324	1775.27
181.4	1782.21
181.477	1791.29
181.553	1806.16
181.63	1825.65
181.706	1843.85
181.782	1850.08
181.859	1850.41
181.935	1855.35
182.011	1849.74
182.088	1868.38
182.164	1886.55
182.24	1901.18
182.317	1909.22
182.393	1908.07
182.469	1923.76
182.546	1937.83
182.622	1942.4
182.698	1936.64
182.775	1949.81
182.851	1962.32
182.927	1956.04
183.003	1952.19
183.08	1946.3
183.156	1954.71
183.232	1951.95
183.308	1940.88
183.385	1951.66
183.461	1969.88
183.537	1972.54
183.613	1983.81
183.69	1973.73
183.766	1962.4
183.842	1967.83
183.918	1973.25
183.995	1985.13
184.071	1987.99
184.147	1983.56
184.223	1975.39
184.299	1986.9
184.375	1976.44
184.452	1981.81
184.528	2036.09
184.604	2046.83
184.68	2061.24
184.756	2069.61
184.832	2073.18
184.908	2079.26
184.985	2078.5
185.061	2062.57
185.137	2071.99
185.213	2063.34
185.289	2065.24
185.365	2062.01
185.441	2063.58
185.517	2078.89
185.593	2077.28
185.669	2076.18
185.745	2085.27
185.822	2102.95
185.898	2099.2
185.974	2108.52
186.05	2104
186.126	2070.32
186.202	2068.98
186.278	2068.98
186.354	2066.08
186.43	2077.6
186.506	2080.16
186.582	2089.96
186.658	2104.84
186.734	2092.67
186.81	2102.61
186.886	2115.54
186.962	2133.43
187.038	2138.28
187.114	2143.28
187.19	2161.22
187.266	2164.17
187.341	2177.97
187.417	2184.82
187.493	2198.52
187.569	2217.37
187.645	2227.22
187.721	2231.5
187.797	2255.72
187.873	2279.62
187.949	2296.28
188.025	2314.13
188.101	2344.5
188.176	2375.11
188.252	2404.11
188.328	2446.52
188.404	2480.85
188.48	2512.04
188.556	2545.91
188.632	2586.02
188.707	2625.48
188.783	2664.27
188.859	2707.04
188.935	2743.41
189.011	2795.3
189.086	2834.28
189.162	2872.93
189.238	2918.39
189.314	2958.95
189.39	2999.33
189.465	3036.66
189.541	3094.46
189.617	3130.23
189.693	3173.68
189.768	3224.78
189.844	3293.18
189.92	3332.11
189.996	3391.15
190.071	3454.31
190.147	3513
190.223	3583.89
190.298	3642.03
190.374	3701.37
190.45	3787.86
190.526	3872.09
190.601	3945.42
190.677	4028.68
190.753	4140.42
190.828	4228.54
190.904	4335.1
190.98	4438.72
191.055	4537.21
191.131	4617.98
191.207	4721.52
191.282	4812.18
191.358	4882.53
191.433	4945.91
191.509	5033.96
191.585	5108.98
191.66	5188.72
191.736	5268.61
191.811	5329.21
191.887	5414.71
191.963	5503.19
192.038	5571.84
192.114	5644.97
192.189	5716.98
192.265	5789.87
192.34	5840.83
192.416	5923.92
192.491	5999.18
192.567	6093.09
192.642	6190.6
192.718	6292.52
192.793	6381.39
192.869	6487.07
192.944	6601.82
193.02	6723.71
193.095	6844.07
193.171	6963.19
193.246	7080.24
193.322	7187.95
193.397	7303.98
193.473	7407.26
193.548	7493
193.624	7596.63
193.699	7688.97
193.775	7802.63
193.85	7894.29
193.925	7996.04
194.001	8074.85
194.076	8156.8
194.152	8226.99
194.227	8292.85
194.302	8356.11
194.378	8436.08
194.453	8506.86
194.529	8597.49
194.604	8665.54
194.679	8743.28
194.755	8808.02
194.83	8902.11
194.905	8992.18
194.981	9093.92
195.056	9172.26
195.131	9282.38
195.207	9382.68
195.282	9468.06
195.357	9551.13
195.433	9676.25
195.508	9771.52
195.583	9891.69
195.659	10010.81
195.734	10126.38
195.809	10239.19
195.884	10352.82
195.96	10451.87
196.035	10562.29
196.11	10650.32
196.185	10747.54
196.261	10834.37
196.336	10955.6
196.411	11026.29
196.486	11114.82
196.561	11188.55
196.637	11280.35
196.712	11378.91
196.787	11467.01
196.862	11574.53
196.937	11659.36
197.013	11727.12
197.088	11811.81
197.163	11907.77
197.238	12002.06
197.313	12078.8
197.388	12164.64
197.464	12271.94
197.539	12365.5
197.614	12439.59
197.689	12534.6
197.764	12639.06
197.839	12740.62
197.914	12820.64
197.989	12926.36
198.065	13024.7
198.14	13152.39
198.215	13257.19
198.29	13345.36
198.365	13436.37
198.44	13526.81
198.515	13635.71
198.59	13747.4
198.665	13855.91
198.74	13947.4
198.815	14028.44
198.89	14124.8
198.965	14229.26
199.04	14305.47
199.115	14401.31
199.19	14523.75
199.265	14602.9
199.34	14694.1
199.415	14808.59
199.49	14902.73
199.565	14991.37
199.64	15089.85
199.715	15169.24
199.79	15254.61
199.865	15335.3
199.94	15410.16
200.015	15516.1
200.09	15604.7
200.165	15684.61
200.24	15771.28
200.315	15885.99
200.39	15978.72
200.464	16068.71
200.539	16155.22
200.614	16252.44
200.689	16348.31
200.764	16436.22
200.839	16536.03
200.914	16612.96
200.989	16686.55
201.063	16774.99
201.138	16833.36
201.213	16907.38
201.288	16966.71
201.363	17060.93
201.438	17142.58
201.512	17239.59
201.587	17304.8
201.662	17387.26
201.737	17470.87
201.812	17549.67
201.886	17591.11
201.961	17678.34
202.036	17742.63
202.111	17819.68
202.186	17868.5
202.26	17942.77
202.335	18008.74
202.41	18076.69
202.485	18142.13
202.559	18203.09
202.634	18257.89
202.709	18346.56
202.784	18413.06
202.858	18491.23
202.933	18544.23
203.008	18622.45
203.082	18681.77
203.157	18762.97
203.232	18805.96
203.306	18872.17
203.381	18925.85
203.456	18988.84
203.53	19041.51
203.605	19104.15
203.68	19169.6
203.754	19239.42
203.829	19299.71
203.904	19349.25
203.978	19424.04
204.053	19516.04
204.127	19583.94
204.202	19667.06
204.277	19730.1
204.351	19809.56
204.426	19891.97
204.5	19972.64
204.575	20016.5
204.65	20110.28
204.724	20176.02
204.799	20258.04
204.873	20333.27
204.948	20409.12
205.022	20477.22
205.097	20556.55
205.171	20636.64
205.246	20713.9
205.32	20794.67
205.395	20875.4
205.469	20948.95
205.544	21031.7
205.618	21083.99
205.693	21173.93
205.767	21237.55
205.842	21335.92
205.916	21404.08
205.991	21470.69
206.065	21555.04
206.14	21650.62
206.214	21722.21
206.289	21799.62
206.363	21893.04
206.438	21980.05
206.512	22068.99
206.586	22163.57
206.661	22259.8
206.735	22327.57
206.81	22397.62
206.884	22488.49
206.958	22547.35
207.033	22647.25
207.107	22747.97
207.181	22866.78
207.256	22944.55
207.33	23044.98
207.405	23147.8
207.479	23237.77
207.553	23322.49
207.628	23378.76
207.702	23467.88
207.776	23533.51
207.851	23613.32
207.925	23709.15
207.999	23772.08
208.073	23849.06
208.148	23926.51
208.222	23987.97
208.296	24091.85
208.371	24201.02
208.445	24303.23
208.519	24422.91
208.593	24516.36
208.668	24583.18
208.742	24662.5
208.816	24739.93
208.89	24838.99
208.965	24906.74
209.039	25005.08
209.113	25097.05
209.187	25194.08
209.261	25272.25
209.336	25381.74
209.41	25472.61
209.484	25548.05
209.558	25655.81
209.632	25752.1
209.707	25849.79
209.781	25948.74
209.855	26051.04
209.929	26135.38
210.003	26206.06
210.077	26272.49
210.151	26386.99
210.226	26485.93
210.3	26587.78
210.374	26679.08
210.448	26740.6
210.522	26822.12
210.596	26901.62
210.67	26979.17
210.744	27111.86
210.818	27214.83
210.892	27302.26
210.966	27382.93
211.041	27476.3
211.115	27540.89
211.189	27628.09
211.263	27717.13
211.337	27783.9
211.411	27870.49
211.485	27944
211.559	28034.64
211.633	28117.7
211.707	28171.6
211.781	28253.28
211.855	28293.16
211.929	28360.48
212.003	28438.14
212.077	28527.57
212.151	28615.5
212.225	28705.27
212.299	28761.99
212.373	28820.1
212.447	28882.8
212.52	28981.78
212.594	29066.11
212.668	29148.54
212.742	29212.22
212.816	29269.53
212.89	29339.3
212.964	29404.4
213.038	29473.18
213.112	29554.34
213.186	29629.3
213.26	29666.11
213.333	29704.9
213.407	29782.73
213.481	29853.14
213.555	29920.67
213.629	29969.97
213.703	30032.38
213.777	30111.26
213.85	30154.71
213.924	30258.55
213.998	30331.52
214.072	30379.24
214.146	30421.24
214.219	30489.72
214.293	30545.41
214.367	30611.42
214.441	30686.62
214.515	30735.36
214.588	30772.43
214.662	30797.65
214.736	30849.25
214.81	30916.32
214.883	30963.07
214.957	30997.63
215.031	31047.43
215.105	31076.08
215.178	31116.6
215.252	31144.15
215.326	31155.91
215.4	31197.79
215.473	31191.3
215.547	31222.58
215.621	31266.15
215.694	31314.58
215.768	31339.17
215.842	31365.9
215.915	31385.65
215.989	31410.44
216.063	31444.58
216.136	31490.1
216.21	31523.07
216.284	31569.85
216.357	31618.42
216.431	31664.91
216.504	31716.05
216.578	31771.74
216.652	31830.82
216.725	31868.25
216.799	31916.2
216.873	31952.67
216.946	31987.01
217.02	32025.07
217.093	32061.79
217.167	32068.91
217.24	32086.05
217.314	32121.56
217.387	32150.66
217.461	32203.21
217.535	32235.28
217.608	32251.22
217.682	32280.09
217.755	32324.41
217.829	32340.01
217.902	32373.3
217.976	32400.38
218.049	32419.32
218.123	32427.31
218.196	32455.6
218.27	32483.32
218.343	32500.03
218.417	32535.4
218.49	32557.64
218.563	32599.88
218.637	32629.05
218.71	32674.6
218.784	32707.4
218.857	32735.21
218.931	32773.19
219.004	32795
219.077	32819.71
219.151	32853.14
219.224	32868.94
219.298	32890.84
219.371	32923.02
219.444	32921.37
219.518	32945.89
219.591	32966.34
219.665	33018.15
219.738	33036.22
219.811	33051.15
219.885	33077.12
219.958	33100.39
220.031	33114.49
220.105	33140.76
220.178	33150.69
220.251	33161.65
220.325	33187.67
220.398	33207.35
220.471	33229.21
220.544	33241.57
220.618	33252.71
220.691	33269.82
220.764	33291.78
220.838	33309.42
220.911	33321.24
220.984	33348.87
221.057	33369.66
221.131	33387.93
221.204	33370.1
221.277	33398.69
221.35	33429.23
221.424	33432.72
221.497	33431.75
221.57	33444.69
221.643	33445.18
221.716	33468.35
221.79	33464.91
221.863	33466.12
221.936	33468.49
222.009	33470.24
222.082	33475.08
222.155	33474.99
222.229	33483.52
222.302	33482.02
222.375	33481.68
222.448	33475.33
222.521	33465.63
222.594	33452.64
222.667	33438.3
222.74	33428.36
222.814	33417.21
222.887	33404.9
222.96	33413.77
223.033	33416.97
223.106	33414.11
223.179	33410.13
223.252	33403.4
223.325	33413.72
223.398	33393.7
223.471	33388.47
223.544	33374.12
223.617	33363.51
223.69	33364.72
223.763	33347.36
223.837	33359.92
223.91	33362.05
223.983	33345.14
224.056	33326.87
224.129	33316.74
224.202	33319.65
224.275	33314.36
224.348	33300.84
224.42	33276.85
224.493	33242.29
224.566	33230.37
224.639	33227.66
224.712	33206.57
224.785	33178.32
224.858	33157.04
224.931	33138.04
225.004	33114.83
225.077	33122.2
225.15	33074.81
225.223	33045.44
225.296	33048.44
225.369	32999.69
225.442	32962.23
225.514	32939.26
225.587	32936.5
225.66	32922.01
225.733	32899.82
225.806	32879.56
225.879	32859.31
225.952	32848.02
226.025	32854.56
226.097	32849.18
226.17	32822.82
226.243	32790.21
226.316	32774.56
226.389	32751.25
226.461	32735.94
226.534	32717.53
226.607	32677.89
226.68	32695.28
226.753	32678.62
226.825	32643.68
226.898	32642.76
226.971	32623.28
227.044	32607.49
227.117	32580.6
227.189	32563.3
227.262	32552.5
227.335	32534.38
227.407	32492.72
227.48	32468.98
227.553	32431.67
227.626	32393.69
227.698	32368.69
227.771	32351.54
227.844	32322.38
227.916	32305.47
227.989	32272.14
228.062	32232.91
228.134	32226.71
228.207	32201.81
228.28	32175.66
228.352	32143.98
228.425	32118.98
228.498	32105.42
228.57	32080.47
228.643	32063.13
228.716	32034.85
228.788	32001.67
228.861	31992.32
228.934	31992.27
229.006	31957.21
229.079	31926.26
229.151	31898.6
229.224	31868.57
229.296	31844.41
229.369	31845.48
229.442	31825.08
229.514	31800.87
229.587	31802.62
229.659	31754.77
229.732	31727.17
229.804	31729.78
229.877	31736.8
229.949	31725.52
230.022	31715.44
230.094	31690.12
230.167	31661.02
230.239	31628.09
230.312	31607.75
230.384	31604.75
230.457	31584.36
230.529	31571.53
230.602	31561.61
230.674	31543.5
230.747	31524.08
230.819	31535.56
230.892	31478.13
230.964	31470.77
231.037	31461.28
231.109	31435.72
231.181	31434.51
231.254	31412.58
231.326	31380.33
231.399	31351.22
231.471	31318.35
231.544	31268.24
231.616	31256.91
231.688	31237.55
231.761	31215.38
231.833	31188.46
231.905	31136.75
231.978	31115.69
232.05	31092.41
232.122	31065.34
232.195	31037.32
232.267	31024.34
232.339	30972.3
232.412	30965.81
232.484	30931.05
232.556	30900.75
232.629	30898.48
232.701	30866.82
232.773	30845.57
232.846	30805.79
232.918	30766.05
232.99	30743.73
233.062	30740.44
233.135	30714.16
233.207	30682.22
233.279	30666.11
233.351	30641.67
233.424	30591.97
233.496	30545.71
233.568	30531.57
233.64	30499.92
233.713	30477.23
233.785	30448.53
233.857	30430.29
233.929	30386.25
234.001	30362.1
234.074	30340.33
234.146	30286.42
234.218	30261.07
234.29	30226.52
234.362	30193.67
234.434	30157.43
234.507	30105.18
234.579	30052.78
234.651	30015.09
234.723	29990.42
234.795	29970.48
234.867	29941.5
234.939	29931.64
235.012	29913.79
235.084	29894.96
235.156	29872.57
235.228	29842.86
235.3	29807.84
235.372	29777.6
235.444	29759.66
235.516	29710.17
235.588	29681.78
235.66	29656.58
235.732	29624.75
235.804	29643.33
235.876	29625.58
235.948	29614.64
236.02	29594.19
236.092	29563.82
236.164	29535.91
236.236	29494.62
236.308	29450.99
236.38	29415.11
236.452	29384.06
236.524	29342.13
236.596	29313.79
236.668	29296.38
236.74	29254.06
236.812	29221.71
236.884	29184.82
236.956	29161.07
237.028	29120.41
237.1	29077.62
237.172	29057.41
237.244	29030.96
237.316	28950.97
237.388	28902.14
237.46	28846.15
237.532	28826.23
237.604	28788.38
237.675	28765.56
237.747	28746.32
237.819	28695.08
237.891	28657.38
237.963	28614.46
238.035	28573.47
238.107	28503.85
238.178	28462.85
238.25	28422.83
238.322	28402.58
238.394	28352.12
238.466	28309.92
238.538	28281.51
238.609	28248.55
238.681	28188.56
238.753	28145.69
238.825	28124.04
238.897	28090.16
238.968	28067.21
239.04	28013.23
239.112	28005.74
239.184	27958.43
239.255	27926.14
239.327	27899.86
239.399	27863.96
239.471	27838.79
239.542	27810.67
239.614	27784.77
239.686	27719.01
239.758	27690.21
239.829	27644.79
239.901	27621.65
239.973	27581.89
240.044	27545.41
240.116	27511.98
240.188	27477.69
240.259	27432.95
240.331	27384.93
240.403	27344.69
240.474	27301.07
240.546	27258.66
240.618	27194.03
240.689	27152.78
240.761	27110.27
240.833	27090.85
240.904	27057.67
240.976	27011.35
241.048	26975.66
241.119	26949.58
241.191	26919.01
241.262	26903.07
241.334	26860.43
241.405	26824.64
241.477	26773.35
241.549	26731.34
241.62	26691.99
241.692	26651.47
241.763	26631.38
241.835	26588.74
241.906	26564.84
241.978	26516.95
242.049	26482.96
242.121	26465.96
242.192	26442.83
242.264	26385.81
242.335	26322.9
242.407	26290.46
242.478	26248.55
242.55	26211.86
242.621	26160.06
242.693	26125.83
242.764	26081.65
242.836	26040.08
242.907	26004.79
242.979	25968.78
243.05	25931.71
243.122	25898.31
243.193	25868.77
243.264	25803.41
243.336	25763.06
243.407	25729.08
243.479	25714.31
243.55	25689.11
243.622	25636.5
243.693	25599.77
243.764	25577.95
243.836	25540.8
243.907	25498.52
243.978	25464.3
244.05	25435.73
244.121	25390.37
244.192	25365.95
244.264	25310.83
244.335	25281.2
244.407	25221.94
244.478	25191.3
244.549	25156.66
244.62	25105.8
244.692	25062.18
244.763	25038.06
244.834	24999.84
244.906	24962.06
244.977	24920.08
245.048	24896.91
245.119	24857.54
245.191	24798.92
245.262	24749.91
245.333	24729.21
245.405	24693.02
245.476	24660.36
245.547	24620.61
245.618	24584.81
245.689	24538.74
245.761	24502.12
245.832	24459.57
245.903	24441.05
245.974	24404.29
246.045	24363
246.117	24349.44
246.188	24307.53
246.259	24263.15
246.33	24227.17
246.401	24184.19
246.473	24134.6
246.544	24092.39
246.615	24062.87
246.686	24019.27
246.757	23990.14
246.828	23940.75
246.899	23917.99
246.97	23864.26
247.042	23818.1
247.113	23790.95
247.184	23781.64
247.255	23737.23
247.326	23707.61
247.397	23672.98
247.468	23645.4
247.539	23615.55
247.61	23566.55
247.681	23543.16
247.752	23522.23
247.823	23476.23
247.894	23443.19
247.965	23395.75
248.037	23345.35
248.108	23304.56
248.179	23280.35
248.25	23242.5
248.321	23210.48
248.392	23155.75
248.463	23150.3
248.534	23116.99
248.605	23089.02
248.675	23045.37
248.746	23024.83
248.817	22986.93
248.888	22950.1
248.959	22898.75
249.03	22882.26
249.101	22842.96
249.172	22806.13
249.243	22754.3
249.314	22741.96
249.385	22705.8
249.456	22690.51
249.527	22660.09
249.598	22630.39
249.669	22613.37
249.739	22591.78
249.81	22566.71
249.881	22528.33
249.952	22491.69
250.023	22452.5
250.094	22405.06
250.165	22363.26
250.235	22330.09
250.306	22305.89
250.377	22261.06
250.448	22236.86
250.519	22184.07
250.59	22169.27
250.66	22132.11
250.731	22110.61
250.802	22071.47
250.873	22053.34
250.944	22024.56
251.014	21997.76
251.085	21992.46
251.156	21950.13
251.227	21931.38
251.297	21917.5
251.368	21895.28
251.439	21870.36
251.51	21852.04
251.58	21820.56
251.651	21780.41
251.722	21765.85
251.792	21722.18
251.863	21696.16
251.934	21677.36
252.005	21666.42
252.075	21633.35
252.146	21614.94
252.217	21593.44
252.287	21581.44
252.358	21535.12
252.429	21519.4
252.499	21466.72
252.57	21437.56
252.641	21421.66
252.711	21390.76
252.782	21342.7
252.852	21339.19
252.923	21311.71
252.994	21291.52
253.064	21267.9
253.135	21236.57
253.205	21196.14
253.276	21184.66
253.347	21170.98
253.417	21140.61
253.488	21112.9
253.558	21090.54
253.629	21056.7
253.699	21040.99
253.77	21022.48
253.841	20999.88
253.911	20974.96
253.982	20960.74
254.052	20939.39
254.123	20910.86
254.193	20881.12
254.264	20888.88
254.334	20848.35
254.405	20804.35
254.475	20768.83
254.546	20748.59
254.616	20735.24
254.687	20717.99
254.757	20691.77
254.827	20665.16
254.898	20642.9
254.968	20611.48
255.039	20573.07
255.109	20565.93
255.18	20524.1
255.25	20470.13
255.321	20447.23
255.391	20396.58
255.461	20388.78
255.532	20344.78
255.602	20313.31
255.673	20273.31
255.743	20232.73
255.813	20189.26
255.884	20184.87
255.954	20162.27
256.024	20145.69
256.095	20119.91
256.165	20073.45
256.235	20048.92
256.306	20007.19
256.376	19989.31
256.446	19969.94
256.517	19946.33
256.587	19923.77
256.657	19903.82
256.728	19883.53
256.798	19858.81
256.868	19842.09
256.938	19810.86
257.009	19784.79
257.079	19770.72
257.149	19771.88
257.219	19731.2
257.29	19712.6
257.36	19660.8
257.43	19645.13
257.5	19605.86
257.571	19576.9
257.641	19565.19
257.711	19533.43
257.781	19534.49
257.852	19514.64
257.922	19481.05
257.992	19462.69
258.062	19431.12
258.132	19407.12
258.202	19381.73
258.273	19360.62
258.343	19352.57
258.413	19320.53
258.483	19298.36
258.553	19258.36
258.623	19223.04
258.693	19202.03
258.764	19187.47
258.834	19176.49
258.904	19158.95
258.974	19127.04
259.044	19101.6
259.114	19080.35
259.184	19055.63
259.254	19022.13
259.324	18981.41
259.394	18953.85
259.464	18943.54
259.535	18919.54
259.605	18891.69
259.675	18853.23
259.745	18832.6
259.815	18798.87
259.885	18772.51
259.955	18773.28
260.025	18745.24
260.095	18715.6
260.165	18693.67
260.235	18686.88
260.305	18669.05
260.375	18631.89
260.445	18631.27
260.515	18627.32
260.585	18613.73
260.655	18591.46
260.725	18572.09
260.795	18556.81
260.865	18559.13
260.934	18518.07
261.004	18496
261.074	18474.26
261.144	18476.82
