Data from 20250630_urea_2M_MAYP1162681_16-42-27-567.txt Node
Date: Mon Jun 30 16:42:27 BST 2025
User: adleo
Spectrometer: MAYP116268
Trigger mode: 0
Integration Time (sec): 1.000000E0
Scans to average: 1
Electric dark correction enabled: true
Nonlinearity correction enabled: true
Boxcar width: 10
XAxis mode: Wavelengths
Number of Pixels in Spectrum: 2068
>>>>>Begin Spectral Data<<<<<
179.565	1028.57
179.642	1073.23
179.718	1105.96
179.795	1136.79
179.871	1163.25
179.948	1178.36
180.024	1197.56
180.101	1217.89
180.177	1230.99
180.254	1247.97
180.33	1268.51
180.407	1309.13
180.483	1389.8
180.56	1465.43
180.636	1535.03
180.712	1522.15
180.789	1529.94
180.865	1541.05
180.942	1550.64
181.018	1560.47
181.095	1570.26
181.171	1572.49
181.248	1574.06
181.324	1589.12
181.4	1593.4
181.477	1602.61
181.553	1615.29
181.63	1631.35
181.706	1643.61
181.782	1647.45
181.859	1649.59
181.935	1652.58
182.011	1648.83
182.088	1664.89
182.164	1679.81
182.24	1693.25
182.317	1702.13
182.393	1700.19
182.469	1711.4
182.546	1723.61
182.622	1725.51
182.698	1722.14
182.775	1736.35
182.851	1749.51
182.927	1742.76
183.003	1743.23
183.08	1736.68
183.156	1745.09
183.232	1742.24
183.308	1732.93
183.385	1741.24
183.461	1754.78
183.537	1756.78
183.613	1769.37
183.69	1760.34
183.766	1751.36
183.842	1758.2
183.918	1762.29
183.995	1775.4
184.071	1778.3
184.147	1772.89
184.223	1763.05
184.299	1774.27
184.375	1762.87
184.452	1767.71
184.528	1823.15
184.604	1830.75
184.68	1842.58
184.756	1844.01
184.832	1849.1
184.908	1852.9
184.985	1853.56
185.061	1838.88
185.137	1845.11
185.213	1833.22
185.289	1836.12
185.365	1831.85
185.441	1829.71
185.517	1841.97
185.593	1838.65
185.669	1837.27
185.745	1844.78
185.822	1858.79
185.898	1849.71
185.974	1856.7
186.05	1851.52
186.126	1808.25
186.202	1802.88
186.278	1800.17
186.354	1796.13
186.43	1798.31
186.506	1798.55
186.582	1797.89
186.658	1805.3
186.734	1786.81
186.81	1786.86
186.886	1787.95
186.962	1798.65
187.038	1796.65
187.114	1791.71
187.19	1797.36
187.266	1790.09
187.341	1790.42
187.417	1783.63
187.493	1786.62
187.569	1791
187.645	1784.82
187.721	1774.27
187.797	1780.44
187.873	1784.48
187.949	1776.98
188.025	1773.27
188.101	1774.88
188.176	1778.92
188.252	1776.4
188.328	1784.38
188.404	1787.38
188.48	1782.96
188.556	1774.07
188.632	1773.64
188.707	1772.6
188.783	1770.74
188.859	1766.04
188.935	1757.53
189.011	1766.66
189.086	1758.72
189.162	1753.02
189.238	1748.65
189.314	1750.22
189.39	1744.37
189.465	1738.72
189.541	1753.97
189.617	1742
189.693	1738.34
189.768	1740.95
189.844	1763.06
189.92	1756.55
189.996	1764.2
190.071	1774.52
190.147	1776.75
190.223	1784.16
190.298	1776.56
190.374	1765.82
190.45	1775.56
190.526	1783.31
190.601	1777.22
190.677	1781.21
190.753	1804.23
190.828	1810.79
190.904	1823.14
190.98	1836.64
191.055	1844.11
191.131	1833.84
191.207	1851.18
191.282	1858.64
191.358	1852.13
191.433	1838.11
191.509	1851.17
191.585	1847.51
191.66	1847.08
191.736	1855.12
191.811	1847.7
191.887	1861.82
191.963	1881.69
192.038	1885.87
192.114	1885.21
192.189	1887.58
192.265	1882.55
192.34	1862.67
192.416	1860.91
192.491	1857.87
192.567	1861.43
192.642	1865.05
192.718	1869.33
192.793	1858.77
192.869	1855.64
192.944	1857.58
193.02	1861.77
193.095	1863.38
193.171	1869.14
193.246	1868.19
193.322	1862.67
193.397	1863.05
193.473	1850.55
193.548	1833.77
193.624	1838.09
193.699	1838.85
193.775	1855.07
193.85	1858.11
193.925	1866.38
194.001	1863.15
194.076	1855.45
194.152	1847.41
194.227	1839.28
194.302	1829.87
194.378	1831.49
194.453	1828.02
194.529	1838.15
194.604	1827.83
194.679	1822.37
194.755	1804.36
194.83	1814.96
194.905	1813.01
194.981	1820.62
195.056	1815.96
195.131	1823.18
195.207	1820.76
195.282	1808.78
195.357	1791.43
195.433	1801.65
195.508	1792.24
195.583	1799.27
195.659	1812.91
195.734	1814.43
195.809	1815.2
195.884	1823.32
195.96	1825.84
196.035	1839.58
196.11	1835.53
196.185	1845.37
196.261	1848.75
196.336	1878.6
196.411	1868.52
196.486	1874.55
196.561	1866.95
196.637	1874.84
196.712	1890.44
196.787	1894.24
196.862	1909.12
196.937	1917.29
197.013	1926.85
197.088	1933.84
197.163	1953.53
197.238	1967.7
197.313	1970.89
197.388	1981.16
197.464	2008.41
197.539	2017.68
197.614	2013.55
197.689	2028.48
197.764	2041.99
197.839	2060.87
197.914	2053.92
197.989	2069.9
198.065	2082.41
198.14	2128.05
198.215	2150.88
198.29	2158.63
198.365	2170.43
198.44	2180.18
198.515	2204.97
198.59	2214.29
198.665	2239.03
198.74	2248.08
198.815	2249.32
198.89	2268.68
198.965	2299
199.04	2296.29
199.115	2310.8
199.19	2347.68
199.265	2348.87
199.34	2361.29
199.415	2386.38
199.49	2403.61
199.565	2413.75
199.64	2434.4
199.715	2432.69
199.79	2436.02
199.865	2441.88
199.94	2440.07
200.015	2469.68
200.09	2474.92
200.165	2482.3
200.24	2487.01
200.315	2523.76
200.39	2535.76
200.464	2540.37
200.539	2539.04
200.614	2554.04
200.689	2575.33
200.764	2578.52
200.839	2594.99
200.914	2594.7
200.989	2590.32
201.063	2605.7
201.138	2592.76
201.213	2594.19
201.288	2578.28
201.363	2588.24
201.438	2588.76
201.512	2600.94
201.587	2584.61
201.662	2587.56
201.737	2597.08
201.812	2604.37
201.886	2570.91
201.961	2578.59
202.036	2569.21
202.111	2566.59
202.186	2538.46
202.26	2523.69
202.335	2504.69
202.41	2494.79
202.485	2482.65
202.559	2467.75
202.634	2444.32
202.709	2449.22
202.784	2431.61
202.858	2431.94
202.933	2413.52
203.008	2408.9
203.082	2395.71
203.157	2393.95
203.232	2355.84
203.306	2340.13
203.381	2311.37
203.456	2290.58
203.53	2271.76
203.605	2257.35
203.68	2236.83
203.754	2231.55
203.829	2216.75
203.904	2202.58
203.978	2192.53
204.053	2196.63
204.127	2181.31
204.202	2177.36
204.277	2167.51
204.351	2161.85
204.426	2153.76
204.5	2144.96
204.575	2112.19
204.65	2121.28
204.724	2117.04
204.799	2126.31
204.873	2122.27
204.948	2120.46
205.022	2111.71
205.097	2103.53
205.171	2113.75
205.246	2119.27
205.32	2121.84
205.395	2120.36
205.469	2110.14
205.544	2115.71
205.618	2098.35
205.693	2106.24
205.767	2095.78
205.842	2109.67
205.916	2102.06
205.991	2093.79
206.065	2098.26
206.14	2111.52
206.214	2106.81
206.289	2096.34
206.363	2106.52
206.438	2107.19
206.512	2114.32
206.586	2131.3
206.661	2142.58
206.735	2119.24
206.81	2123.52
206.884	2134.55
206.958	2123.57
207.033	2139.07
207.107	2145.97
207.181	2175.09
207.256	2174.86
207.33	2192.41
207.405	2204.36
207.479	2223.06
207.553	2229.38
207.628	2216.64
207.702	2228.01
207.776	2222.44
207.851	2228.96
207.925	2243.28
207.999	2238.91
208.073	2240.52
208.148	2243
208.222	2229.58
208.296	2258.82
208.371	2272.58
208.445	2282.48
208.519	2307.98
208.593	2318.6
208.668	2316.5
208.742	2318.07
208.816	2317.22
208.89	2328.78
208.965	2326.59
209.039	2336.78
209.113	2351.2
209.187	2369.33
209.261	2367.18
209.336	2384.41
209.41	2400.7
209.484	2401.41
209.558	2423.64
209.632	2429.92
209.707	2441.68
209.781	2459.63
209.855	2474.34
209.929	2489.4
210.003	2494.92
210.077	2496.78
210.151	2539.62
210.226	2568.11
210.3	2594.04
210.374	2612.51
210.448	2618.84
210.522	2629.8
210.596	2636.18
210.67	2645.85
210.744	2687.54
210.818	2716.01
210.892	2736.64
210.966	2734.45
211.041	2750.56
211.115	2750.75
211.189	2780.05
211.263	2799.25
211.337	2809.2
211.411	2827.79
211.485	2828.27
211.559	2844.99
211.633	2852.99
211.707	2833.92
211.781	2851.04
211.855	2824.35
211.929	2831.88
212.003	2824.68
212.077	2844.14
212.151	2867.59
212.225	2889.47
212.299	2893.95
212.373	2900.15
212.447	2911.64
212.52	2952.98
212.594	2974.53
212.668	3007.81
212.742	3016.82
212.816	3030.89
212.89	3056.69
212.964	3084.08
213.038	3112.42
213.112	3154.6
213.186	3201.82
213.26	3217.27
213.333	3213.83
213.407	3264.15
213.481	3306.65
213.555	3365.12
213.629	3407.28
213.703	3444.76
213.777	3497.92
213.85	3539.52
213.924	3630.68
213.998	3693.55
214.072	3757.7
214.146	3816.19
214.219	3882.91
214.293	3952.44
214.367	4037.34
214.441	4122.97
214.515	4196.48
214.588	4270.09
214.662	4330.55
214.736	4408.48
214.81	4515.84
214.883	4625.57
214.957	4720.76
215.031	4821.06
215.105	4909.51
215.178	5007.75
215.252	5122.77
215.326	5220.32
215.4	5323.61
215.473	5404.45
215.547	5514.3
215.621	5628.03
215.694	5762.73
215.768	5875.25
215.842	6003.53
215.915	6129.86
215.989	6249.52
216.063	6387.65
216.136	6533.39
216.21	6679.87
216.284	6835.21
216.357	6985.96
216.431	7132.55
216.504	7293.4
216.578	7470.3
216.652	7640
216.725	7799.59
216.799	7964.32
216.873	8130.45
216.946	8305.09
217.02	8461.61
217.093	8626.71
217.167	8778.78
217.24	8934.07
217.314	9106.09
217.387	9261.42
217.461	9424.69
217.535	9607.96
217.608	9767.22
217.682	9932.28
217.755	10111.21
217.829	10273.93
217.902	10442.01
217.976	10610.67
218.049	10773.24
218.123	10927.77
218.196	11099.12
218.27	11258.19
218.343	11410.91
218.417	11577.08
218.49	11740.27
218.563	11919.51
218.637	12090.33
218.71	12271.56
218.784	12435.44
218.857	12603.85
218.931	12775.59
219.004	12939.39
219.077	13107.96
219.151	13268.72
219.224	13422.06
219.298	13576.56
219.371	13750
219.444	13889.94
219.518	14052.39
219.591	14199.03
219.665	14375.41
219.738	14524.79
219.811	14670.08
219.885	14825.58
219.958	14976.8
220.031	15119.48
220.105	15262.64
220.178	15409.32
220.251	15545.63
220.325	15685.94
220.398	15820.13
220.471	15957.5
220.544	16092.84
220.618	16202.93
220.691	16339.18
220.764	16470.09
220.838	16598.29
220.911	16695.17
220.984	16841.73
221.057	16956.2
221.131	17075.87
221.204	17156.78
221.277	17284.54
221.35	17422.48
221.424	17524.55
221.497	17632.16
221.57	17728.5
221.643	17842.38
221.716	17940.4
221.79	18034.85
221.863	18140.39
221.936	18237.21
222.009	18331.13
222.082	18425.78
222.155	18516.52
222.229	18613
222.302	18702.25
222.375	18788.07
222.448	18893.42
222.521	18972.07
222.594	19053.27
222.667	19129.36
222.74	19225.88
222.814	19298.5
222.887	19367.99
222.96	19451.03
223.033	19538.16
223.106	19623.45
223.179	19701.23
223.252	19768.8
223.325	19835.01
223.398	19899.54
223.471	19966.91
223.544	20031.72
223.617	20092.69
223.69	20159.91
223.763	20216.01
223.837	20284.68
223.91	20345.74
223.983	20379.86
224.056	20424.34
224.129	20478.95
224.202	20540.15
224.275	20579.14
224.348	20625.36
224.42	20667.19
224.493	20698.75
224.566	20734.03
224.639	20780.93
224.712	20805.89
224.785	20851.39
224.858	20893.03
224.931	20922.67
225.004	20952.12
225.077	20988.5
225.15	21011.83
225.223	21043.64
225.296	21101.72
225.369	21124.61
225.442	21139.02
225.514	21170.78
225.587	21194.88
225.66	21228.19
225.733	21253.63
225.806	21283.08
225.879	21307.91
225.952	21328.82
226.025	21366.85
226.097	21403.82
226.17	21425.56
226.243	21430.96
226.316	21444.69
226.389	21462.82
226.461	21483.25
226.534	21502
226.607	21513.04
226.68	21545.33
226.753	21566.2
226.825	21561.82
226.898	21581.53
226.971	21603.99
227.044	21633.4
227.117	21659.09
227.189	21667.04
227.262	21690.37
227.335	21696.1
227.407	21696.06
227.48	21708.54
227.553	21724.3
227.626	21721.27
227.698	21720.16
227.771	21734.18
227.844	21729.27
227.916	21734.38
227.989	21729.56
228.062	21735.87
228.134	21771.73
228.207	21783.74
228.28	21778.53
228.352	21774.53
228.425	21780.07
228.498	21797.38
228.57	21791.4
228.643	21810.34
228.716	21817.09
228.788	21815.16
228.861	21829.05
228.934	21847.85
229.006	21843.41
229.079	21839.36
229.151	21831.84
229.224	21824.8
229.296	21839.22
229.369	21867.37
229.442	21881.97
229.514	21874.12
229.587	21880.67
229.659	21856.67
229.732	21847.36
229.804	21856.28
229.877	21871.85
229.949	21873.01
230.022	21883.18
230.094	21886.55
230.167	21886.41
230.239	21876
230.312	21879.13
230.384	21891.66
230.457	21893.06
230.529	21895.76
230.602	21890.36
230.674	21894.65
230.747	21911.23
230.819	21912.63
230.892	21872.86
230.964	21875.08
231.037	21892.58
231.109	21889.35
231.181	21895.37
231.254	21878.5
231.326	21871.95
231.399	21864.67
231.471	21857.78
231.544	21828.76
231.616	21823.6
231.688	21808.85
231.761	21804.61
231.833	21787.54
231.905	21755.25
231.978	21733.8
232.05	21720.83
232.122	21712.97
232.195	21692.78
232.267	21696.68
232.339	21688.49
232.412	21702.71
232.484	21673.16
232.556	21649.01
232.629	21658.94
232.701	21649.93
232.773	21643.9
232.846	21632.43
232.918	21620.81
232.99	21614.69
233.062	21614.5
233.135	21601.05
233.207	21564.47
233.279	21553
233.351	21546.1
233.424	21530.1
233.496	21499.3
233.568	21507.74
233.64	21485.37
233.713	21470.34
233.785	21452.26
233.857	21436.55
233.929	21403.97
234.001	21418.38
234.074	21421.99
234.146	21374.56
234.218	21364.59
234.29	21341.36
234.362	21322.99
234.434	21282.07
234.507	21250.41
234.579	21223.17
234.651	21204.86
234.723	21202.16
234.795	21191.65
234.867	21169.24
234.939	21161.92
235.012	21151.65
235.084	21130.49
235.156	21121.62
235.228	21102.49
235.3	21064.8
235.372	21036.27
235.444	21031.45
235.516	20980.5
235.588	20951.73
235.66	20938.67
235.732	20904.74
235.804	20939.05
235.876	20917.13
235.948	20911.78
236.02	20877.41
236.092	20845.94
236.164	20820.11
236.236	20785.6
236.308	20744.88
236.38	20718.13
236.452	20690.9
236.524	20674.42
236.596	20663.72
236.668	20642.51
236.74	20625.84
236.812	20604.39
236.884	20580.92
236.956	20557.07
237.028	20524.44
237.1	20482.76
237.172	20469.65
237.244	20456.25
237.316	20399.47
237.388	20368.97
237.46	20334.03
237.532	20330.94
237.604	20296.73
237.675	20291.86
237.747	20276.54
237.819	20250.46
237.891	20219.81
237.963	20189.94
238.035	20156.11
238.107	20087.96
238.178	20065.84
238.25	20032.06
238.322	20032.44
238.394	19991.24
238.466	19954.52
238.538	19941.32
238.609	19929.8
238.681	19885.37
238.753	19855.49
238.825	19821.17
238.897	19787.44
238.968	19775.73
239.04	19732.46
239.112	19730.91
239.184	19685.04
239.255	19656.65
239.327	19632.32
239.399	19609.23
239.471	19584.61
239.542	19559.55
239.614	19546.49
239.686	19488.76
239.758	19468.23
239.829	19417.87
239.901	19415.94
239.973	19389.24
240.044	19365.82
240.116	19331.27
240.188	19304.82
240.259	19262.02
240.331	19221.45
240.403	19200.92
240.474	19147.96
240.546	19107.33
240.618	19058.23
240.689	19021.6
240.761	18995.77
240.833	18984.31
240.904	18946.57
240.976	18913.08
241.048	18885.23
241.119	18857.04
241.191	18834.24
241.262	18808.51
241.334	18773.43
241.405	18724.13
241.477	18681.19
241.549	18634.88
241.62	18606.4
241.692	18577.34
241.763	18556.48
241.835	18524.19
241.906	18490.65
241.978	18452.29
242.049	18432.34
242.121	18407.52
242.192	18384.58
242.264	18330.46
242.335	18272.39
242.407	18240.4
242.478	18204.25
242.55	18175.58
242.621	18139
242.693	18102.47
242.764	18068.79
242.836	18036.02
242.907	18012.45
242.979	17990.05
243.05	17963.97
243.122	17938.29
243.193	17900.36
243.264	17849.62
243.336	17818.68
243.407	17794.97
243.479	17775.31
243.55	17751.74
243.622	17724.37
243.693	17694.49
243.764	17681.52
243.836	17644.42
243.907	17615.64
243.978	17570.3
244.05	17532.32
244.121	17479.5
244.192	17458.34
244.264	17407.74
244.335	17373.72
244.407	17318.58
244.478	17291.93
244.549	17255.07
244.62	17202.73
244.692	17177.38
244.763	17159.98
244.834	17120.65
244.906	17083.5
244.977	17061.04
245.048	17035.98
245.119	16992.27
245.191	16940.46
245.262	16883.54
245.333	16862.72
245.405	16827.44
245.476	16801.32
245.547	16776.4
245.618	16755.39
245.689	16725.17
245.761	16702.28
245.832	16672.88
245.903	16653.98
245.974	16619.47
246.045	16584.77
246.117	16579.71
246.188	16530.79
246.259	16477.15
246.33	16451.22
246.401	16414.16
246.473	16362.1
246.544	16318.68
246.615	16300.56
246.686	16271.25
246.757	16253.9
246.828	16220.79
246.899	16201.8
246.97	16162.32
247.042	16125.21
247.113	16102.03
247.184	16091.47
247.255	16047.52
247.326	16010.64
247.397	15975.56
247.468	15945.09
247.539	15923.21
247.61	15869.52
247.681	15854.77
247.752	15842.19
247.823	15800.25
247.894	15771.19
247.965	15737.3
248.037	15708.67
248.108	15651.32
248.179	15624.85
248.25	15592.12
248.321	15562.34
248.392	15518.43
248.463	15510.04
248.534	15468.92
248.605	15444.97
248.675	15402.02
248.746	15379.75
248.817	15357.39
248.888	15335.26
248.959	15294.29
249.03	15268.07
249.101	15238.28
249.172	15199.52
249.243	15140.86
249.314	15122.98
249.385	15092.32
249.456	15074.1
249.527	15037.9
249.598	15017.99
249.669	14988.06
249.739	14964.58
249.81	14945.98
249.881	14915.22
249.952	14890.06
250.023	14868.75
250.094	14829.13
250.165	14787.1
250.235	14757.07
250.306	14737.59
250.377	14702.79
250.448	14676.52
250.519	14630.1
250.59	14622.91
250.66	14594.67
250.731	14592.83
250.802	14573.17
250.873	14551.19
250.944	14527.56
251.014	14496.18
251.085	14488.33
251.156	14461.96
251.227	14452.27
251.297	14438.24
251.368	14424.26
251.439	14403.48
251.51	14396.11
251.58	14363.23
251.651	14340.91
251.722	14329.54
251.792	14284.85
251.863	14256.17
251.934	14249.08
252.005	14248.36
252.075	14223.34
252.146	14206.37
252.217	14193.31
252.287	14172.1
252.358	14150.84
252.429	14140.09
252.499	14114.59
252.57	14098.05
252.641	14089.95
252.711	14065.66
252.782	14018.61
252.852	14013.07
252.923	13980.38
252.994	13953.44
253.064	13941.05
253.135	13914.15
253.205	13882.67
253.276	13875.34
253.347	13870.09
253.417	13831.09
253.488	13796.57
253.558	13759.98
253.629	13734
253.699	13705.99
253.77	13686.47
253.841	13662.61
253.911	13640.33
253.982	13619.65
254.052	13606.06
254.123	13575.01
254.193	13549.75
254.264	13562.67
254.334	13522.04
254.405	13489.64
254.475	13455.37
254.546	13439.7
254.616	13426.44
254.687	13406.53
254.757	13384.5
254.827	13358.76
254.898	13345.55
254.968	13331.14
255.039	13309.88
255.109	13299.47
255.18	13273.43
255.25	13241.09
255.321	13219.97
255.391	13184.25
255.461	13183.77
255.532	13132.96
255.602	13108.95
255.673	13065.62
255.743	13031.53
255.813	12989.6
255.884	12982.89
255.954	12970.55
256.024	12955.32
256.095	12932.76
256.165	12907.31
256.235	12890.39
256.306	12859.05
256.376	12845.46
256.446	12827.86
256.517	12806.8
256.587	12797.21
256.657	12779.32
256.728	12752.52
256.798	12733.19
256.868	12704.89
256.938	12673.27
257.009	12669.41
257.079	12662.13
257.149	12666.38
257.219	12629.98
257.29	12618.22
257.36	12584.14
257.43	12565.58
257.5	12523.3
257.571	12502.77
257.641	12480.69
257.711	12451.53
257.781	12435.67
257.852	12418.94
257.922	12378.07
257.992	12361.48
258.062	12328.9
258.132	12311.88
258.202	12293.61
258.273	12271.68
258.343	12265.27
258.413	12243.58
258.483	12214.41
258.553	12178.26
258.623	12152.76
258.693	12139.17
258.764	12134.3
258.834	12126.88
258.904	12113.28
258.974	12086.87
259.044	12058.14
259.114	12046.77
259.184	12031.73
259.254	12012.78
259.324	11974.42
259.394	11967.23
259.464	11960.92
259.535	11937.45
259.605	11920.19
259.675	11889.34
259.745	11873.63
259.815	11847.46
259.885	11818.2
259.955	11824.66
260.025	11802.05
260.095	11778.63
260.165	11763.25
260.235	11758.24
260.305	11727.54
260.375	11697.08
260.445	11702.57
260.515	11703.63
260.585	11691.72
260.655	11663.58
260.725	11654.42
260.795	11644.2
260.865	11644.59
260.934	11617.31
261.004	11618.46
261.074	11595.47
261.144	11592.24
261.214	11588.87
261.284	11570.46
261.354	11568.63
261.424	11545.3
261.494	11542.36
261.564	11523.71
261.634	11515.95
261.703	11479.17
261.773	11472.76
261.843	11462.83
261.913	11436.86
261.983	11400.71
262.053	11394.45
262.123	11379.41
262.192	11351.31
262.262	11341.05
