Data from 20250630_urea_2M_MAYP1162681_19-32-26-725.txt Node
Date: Mon Jun 30 19:32:26 BST 2025
User: adleo
Spectrometer: MAYP116268
Trigger mode: 0
Integration Time (sec): 1.000000E0
Scans to average: 1
Electric dark correction enabled: true
Nonlinearity correction enabled: true
Boxcar width: 10
XAxis mode: Wavelengths
Number of Pixels in Spectrum: 2068
>>>>>Begin Spectral Data<<<<<
179.565	1133.07
179.642	1188.86
179.718	1225.7
179.795	1262.48
179.871	1290.03
179.948	1304.66
180.024	1322.56
180.101	1344.74
180.177	1357.85
180.254	1378.84
180.33	1401.39
180.407	1450.19
180.483	1539.07
180.56	1623.21
180.636	1700.17
180.712	1687.24
180.789	1698.12
180.865	1708
180.942	1716.93
181.018	1725.25
181.095	1734.8
181.171	1740.84
181.248	1738.13
181.324	1755.1
181.4	1759.85
181.477	1771.06
181.553	1785.03
181.63	1804.47
181.706	1817.45
181.782	1825.29
181.859	1825.57
181.935	1828
182.011	1822.58
182.088	1841.02
182.164	1859.8
182.24	1875.68
182.317	1884.56
182.393	1880.57
182.469	1894.83
182.546	1908
182.622	1911.47
182.698	1910.8
182.775	1921.17
182.851	1935.43
182.927	1927.3
183.003	1923.5
183.08	1919.5
183.156	1927.4
183.232	1927.11
183.308	1918.41
183.385	1925.97
183.461	1941.13
183.537	1944.03
183.613	1956.82
183.69	1945.6
183.766	1934.38
183.842	1942.27
183.918	1949.55
183.995	1963.86
184.071	1964.81
184.147	1959.86
184.223	1948.12
184.299	1956.54
184.375	1946.18
184.452	1953.22
184.528	2006.25
184.604	2016.33
184.68	2027.88
184.756	2034.92
184.832	2037.73
184.908	2041.2
184.985	2040.96
185.061	2023.56
185.137	2031.45
185.213	2021.56
185.289	2025.46
185.365	2021.18
185.441	2016.85
185.517	2028.6
185.593	2024.7
185.669	2021.57
185.745	2031.46
185.822	2048.33
185.898	2040.91
185.974	2049.37
186.05	2039.62
186.126	2000.38
186.202	1995.44
186.278	1990.87
186.354	1982.64
186.43	1989.26
186.506	1989.45
186.582	1989.16
186.658	1998.38
186.734	1979.93
186.81	1981.31
186.886	1982.69
186.962	1992.01
187.038	1990.3
187.114	1981.69
187.19	1990.2
187.266	1982.74
187.341	1980.84
187.417	1974.08
187.493	1974.08
187.569	1977.36
187.645	1974.8
187.721	1964.05
187.797	1970.56
187.873	1973.32
187.949	1966.81
188.025	1960.62
188.101	1963.1
188.176	1969.52
188.252	1965.19
188.328	1972.46
188.404	1972.75
188.48	1965.47
188.556	1957.1
188.632	1956.15
188.707	1957.49
188.783	1954.44
188.859	1950.59
188.935	1942.7
189.011	1953.63
189.086	1948.31
189.162	1941.89
189.238	1939.89
189.314	1939.61
189.39	1935.14
189.465	1930.91
189.541	1949.45
189.617	1934.53
189.693	1928.25
189.768	1927.21
189.844	1951.37
189.92	1941.86
189.996	1950.61
190.071	1964.45
190.147	1965.02
190.223	1973.2
190.298	1965.4
190.374	1953.8
190.45	1964.63
190.526	1972.81
190.601	1963.4
190.677	1965.2
190.753	1989.37
190.828	1991.42
190.904	2003.97
190.98	2017.34
191.055	2025.61
191.131	2014.29
191.207	2034.17
191.282	2042.87
191.358	2033.21
191.433	2021.65
191.509	2036.72
191.585	2034.06
191.66	2031.49
191.736	2040.24
191.811	2031.39
191.887	2045.38
191.963	2063.69
192.038	2070.01
192.114	2069.11
192.189	2073.67
192.265	2069.44
192.34	2048.17
192.416	2047.56
192.491	2041.33
192.567	2044.04
192.642	2046.56
192.718	2047.46
192.793	2037.19
192.869	2033.58
192.944	2039.61
193.02	2042.42
193.095	2044.23
193.171	2048.03
193.246	2048.98
193.322	2046.03
193.397	2046.51
193.473	2035.09
193.548	2020.25
193.624	2024.82
193.699	2025.15
193.775	2041.47
193.85	2044.89
193.925	2051.69
194.001	2051.98
194.076	2049.13
194.152	2037.8
194.227	2030.24
194.302	2019.83
194.378	2022.16
194.453	2019.21
194.529	2030.72
194.604	2016.6
194.679	2010.13
194.755	1992.21
194.83	2003.77
194.905	2000.2
194.981	2008.72
195.056	2001.49
195.131	2006.06
195.207	2002.3
195.282	1992.41
195.357	1973.95
195.433	1987.69
195.508	1980.46
195.583	1987.79
195.659	2000.87
195.734	2010.91
195.809	2010.05
195.884	2019.37
195.96	2019.79
196.035	2035.82
196.11	2031.21
196.185	2045.47
196.261	2052.22
196.336	2084.71
196.411	2072.01
196.486	2078.85
196.561	2073.53
196.637	2081.94
196.712	2095.31
196.787	2100.21
196.862	2113.14
196.937	2121.8
197.013	2127.08
197.088	2136.55
197.163	2156.44
197.238	2169.48
197.313	2168.58
197.388	2181.61
197.464	2211.36
197.539	2220.77
197.614	2211.74
197.689	2223.63
197.764	2238.53
197.839	2253.71
197.914	2246.76
197.989	2266.7
198.065	2278.31
198.14	2324.78
198.215	2349.38
198.29	2363.14
198.365	2373.9
198.44	2386.7
198.515	2411.31
198.59	2428.31
198.665	2453.16
198.74	2459.64
198.815	2463.5
198.89	2483.73
198.965	2511.78
199.04	2505.83
199.115	2524.35
199.19	2567.39
199.265	2569.58
199.34	2578.62
199.415	2613.31
199.49	2630.21
199.565	2640.45
199.64	2662.79
199.715	2662.17
199.79	2665.55
199.865	2670.7
199.94	2672.03
200.015	2702.28
200.09	2709.57
200.165	2715
200.24	2720.86
200.315	2760.44
200.39	2772.45
200.464	2777.45
200.539	2780.74
200.614	2797.94
200.689	2816.76
200.764	2822.1
200.839	2843.25
200.914	2847.78
200.989	2838.38
201.063	2851.87
201.138	2835.96
201.213	2838.25
201.288	2816.38
201.363	2827.2
201.438	2828.29
201.512	2843.82
201.587	2826.66
201.662	2832
201.737	2838.72
201.812	2844.58
201.886	2809.05
201.961	2818.4
202.036	2808.49
202.111	2805.15
202.186	2776.77
202.26	2761.85
202.335	2742.98
202.41	2734.5
202.485	2716.35
202.559	2692.54
202.634	2671.86
202.709	2680.81
202.784	2659.33
202.858	2661.04
202.933	2642.65
203.008	2637.6
203.082	2616.55
203.157	2615.46
203.232	2573.99
203.306	2557.45
203.381	2530.06
203.456	2510.3
203.53	2489.28
203.605	2470.72
203.68	2448.38
203.754	2442.34
203.829	2427.48
203.904	2407.63
203.978	2396.06
204.053	2401.53
204.127	2392.4
204.202	2387.3
204.277	2370.4
204.351	2365.41
204.426	2356.88
204.5	2347.13
204.575	2314.24
204.65	2326.67
204.724	2318.43
204.799	2325.38
204.873	2323.33
204.948	2320.43
205.022	2309.58
205.097	2301.86
205.171	2315.24
205.246	2321.9
205.32	2323.8
205.395	2323.04
205.469	2314.96
205.544	2319.53
205.618	2301.96
205.693	2315.86
205.767	2306.16
205.842	2325.96
205.916	2319.58
205.991	2314.39
206.065	2321.44
206.14	2335.33
206.214	2327.56
206.289	2321.61
206.363	2333.94
206.438	2333.32
206.512	2341.94
206.586	2360.31
206.661	2366.73
206.735	2345.33
206.81	2348.8
206.884	2359.51
206.958	2347.28
207.033	2361.41
207.107	2366.93
207.181	2399.41
207.256	2393.55
207.33	2411.16
207.405	2423.36
207.479	2442.64
207.553	2447.4
207.628	2430.98
207.702	2444.12
207.776	2440.02
207.851	2444.35
207.925	2460.36
207.999	2458.41
208.073	2453.5
208.148	2455.03
208.222	2445.79
208.296	2478.25
208.371	2492.35
208.445	2502.97
208.519	2530.91
208.593	2542.67
208.668	2539.53
208.742	2541.44
208.816	2541.1
208.89	2556.63
208.965	2557.78
209.039	2564.26
209.113	2580.78
209.187	2600.39
209.261	2597.34
209.336	2614.82
209.41	2634.21
209.484	2631.63
209.558	2648.45
209.632	2660.26
209.707	2670.83
209.781	2692.88
209.855	2707.28
209.929	2726.59
210.003	2733.31
210.077	2732.74
210.151	2779.8
210.226	2816.37
210.3	2841.83
210.374	2865.79
210.448	2870.56
210.522	2878.19
210.596	2891.91
210.67	2901.59
210.744	2948.5
210.818	2979.43
210.892	3001.59
210.966	2998.26
211.041	3013.61
211.115	3020.14
211.189	3049.41
211.263	3072
211.337	3078.63
211.411	3095.85
211.485	3092.08
211.559	3110.24
211.633	3120.77
211.707	3095.96
211.781	3106.8
211.855	3081.8
211.929	3084.47
212.003	3074.46
212.077	3093.64
212.151	3113.73
212.225	3137.48
212.299	3140.3
212.373	3148.69
212.447	3160.05
212.52	3202.84
212.594	3227.03
212.668	3258.09
212.742	3264.39
212.816	3283.72
212.89	3310.1
212.964	3339.76
213.038	3373.75
213.112	3419.16
213.186	3465.41
213.26	3482.72
213.333	3479.62
213.407	3528.39
213.481	3577.08
213.555	3638.31
213.629	3678.58
213.703	3721.97
213.777	3776.11
213.85	3820.23
213.924	3911.21
213.998	3975.7
214.072	4042.43
214.146	4104.97
214.219	4176.37
214.293	4258.04
214.367	4344.88
214.441	4441.1
214.515	4514.09
214.588	4586.51
214.662	4650.07
214.736	4733.12
214.81	4844.66
214.883	4965.61
214.957	5066.94
215.031	5168.61
215.105	5262.38
215.178	5372.23
215.252	5486.41
215.326	5587.09
215.4	5693.27
215.473	5776.41
215.547	5896.55
215.621	6020.29
215.694	6168.86
215.768	6288.95
215.842	6417.36
215.915	6543.28
215.989	6662.25
216.063	6803.62
216.136	6954.95
216.21	7113.01
216.284	7285.41
216.357	7452.83
216.431	7608.94
216.504	7774.96
216.578	7959.4
216.652	8135.39
216.725	8298.76
216.799	8482.48
216.873	8652.8
216.946	8831.94
217.02	9003.7
217.093	9175.12
217.167	9321.77
217.24	9471.53
217.314	9644.77
217.387	9817.4
217.461	9990.2
217.535	10176.31
217.608	10346.02
217.682	10515.21
217.755	10696.94
217.829	10857.06
217.902	11028.8
217.976	11197.88
218.049	11359.03
218.123	11512.43
218.196	11684.53
218.27	11855.67
218.343	12003.5
218.417	12178.03
218.49	12346.15
218.563	12524.97
218.637	12693.97
218.71	12887.17
218.784	13064.31
218.857	13238.38
218.931	13403.86
219.004	13568.1
219.077	13737.44
219.151	13905.14
219.224	14066.2
219.298	14227.59
219.371	14394.71
219.444	14529.54
219.518	14684.66
219.591	14847.49
219.665	15033.36
219.738	15186.21
219.811	15314.38
219.885	15478.02
219.958	15626.87
220.031	15774.17
220.105	15920.26
220.178	16060.91
220.251	16195.04
220.325	16331.64
220.398	16462.15
220.471	16593.45
220.544	16732.11
220.618	16844.35
220.691	16975.98
220.764	17099.31
220.838	17217.29
220.911	17327.36
220.984	17465.15
221.057	17584.09
221.131	17696.47
221.204	17769.34
221.277	17894.06
221.35	18035.02
221.424	18129.62
221.497	18239.35
221.57	18334.48
221.643	18433.13
221.716	18529.61
221.79	18611.53
221.863	18710.46
221.936	18806.31
222.009	18898.84
222.082	18982.98
222.155	19074.01
222.229	19162.25
222.302	19256.46
222.375	19332.12
222.448	19424.26
222.521	19503.14
222.594	19580.06
222.667	19643.33
222.74	19736.92
222.814	19814.07
222.887	19890.45
222.96	19969.87
223.033	20041.87
223.106	20121.05
223.179	20188.62
223.252	20259.84
223.325	20328.56
223.398	20387.65
223.471	20447.89
223.544	20517.38
223.617	20574.3
223.69	20639.6
223.763	20686.01
223.837	20742.59
223.91	20806.59
223.983	20835.75
224.056	20877.68
224.129	20928.77
224.202	20992.19
224.275	21036.1
224.348	21057.5
224.42	21077.06
224.493	21098.46
224.566	21125.84
224.639	21157.07
224.712	21196.83
224.785	21232.31
224.858	21263.59
224.931	21286.53
225.004	21304.17
225.077	21326.87
225.15	21338.68
225.223	21366.68
225.296	21415.94
225.369	21421.58
225.442	21441.1
225.514	21480.58
225.587	21503.28
225.66	21538.71
225.733	21560.06
225.806	21579.77
225.879	21604.16
225.952	21628.84
226.025	21663.5
226.097	21700.04
226.17	21731.08
226.243	21730.5
226.316	21742.79
226.389	21770.31
226.461	21796.44
226.534	21818.71
226.607	21836.45
226.68	21876.98
226.753	21893.9
226.825	21887.4
226.898	21924.7
226.971	21942.06
227.044	21953.43
227.117	21971.99
227.189	21979.95
227.262	22001.83
227.335	22017.26
227.407	22023.96
227.48	22038.71
227.553	22059.77
227.626	22071.39
227.698	22079.2
227.771	22104.51
227.844	22103.01
227.916	22102.19
227.989	22096.99
228.062	22103.54
228.134	22127.69
228.207	22123.45
228.28	22124.7
228.352	22137.91
228.425	22144.76
228.498	22158.45
228.57	22155.08
228.643	22174.02
228.716	22175.13
228.788	22171.85
228.861	22175.13
228.934	22192.29
229.006	22190.02
229.079	22187.86
229.151	22182.84
229.224	22167.42
229.296	22170.89
229.369	22196.92
229.442	22212.87
229.514	22213.31
229.587	22228.64
229.659	22213.11
229.732	22230.71
229.804	22245.75
229.877	22257.47
229.949	22269.04
230.022	22278.73
230.094	22285.52
230.167	22279.69
230.239	22265.86
230.312	22273.62
230.384	22290.01
230.457	22294.59
230.529	22299.46
230.602	22290.92
230.674	22288.61
230.747	22302.35
230.819	22303.07
230.892	22281.72
230.964	22282.92
231.037	22288.13
231.109	22288.17
231.181	22292.75
231.254	22267.59
231.326	22252.26
231.399	22245.22
231.471	22218.23
231.544	22187.81
231.616	22184.77
231.688	22184.77
231.761	22189.59
231.833	22171.9
231.905	22141.05
231.978	22126.05
232.05	22110.44
232.122	22106.1
232.195	22082.14
232.267	22084.79
232.339	22075.54
232.412	22072.84
232.484	22053.12
232.556	22022.17
232.629	22025.31
232.701	22024.92
232.773	22023.43
232.846	22005.06
232.918	21988.91
232.99	21986.36
233.062	21987.95
233.135	21983.18
233.207	21955.7
233.279	21938.25
233.351	21927.26
233.424	21903.45
233.496	21884.6
233.568	21890.58
233.64	21857.95
233.713	21851.97
233.785	21823.91
233.857	21802.75
233.929	21776.68
234.001	21772.39
234.074	21782.75
234.146	21746.26
234.218	21713.92
234.29	21694.63
234.362	21671.02
234.434	21637.76
234.507	21604.11
234.579	21571.39
234.651	21538.8
234.723	21519.71
234.795	21499.81
234.867	21473.01
234.939	21468.38
235.012	21447.75
235.084	21421.77
235.156	21415.6
235.228	21378.35
235.3	21354.05
235.372	21331.98
235.444	21313.47
235.516	21268.79
235.588	21244.64
235.66	21219.39
235.732	21194.28
235.804	21218.14
235.876	21199.53
235.948	21193.7
236.02	21169.22
236.092	21133.31
236.164	21108.35
236.236	21081.79
236.308	21050.75
236.38	21038.9
236.452	21001.64
236.524	20976.77
236.596	20965.93
236.668	20938.6
236.74	20926.21
236.812	20897.54
236.884	20873.2
236.956	20846.69
237.028	20813.44
237.1	20770.83
237.172	20758.26
237.244	20744.47
237.316	20680.18
237.388	20633.91
237.46	20595.79
237.532	20580.08
237.604	20545.96
237.675	20532.75
237.747	20511.64
237.819	20483.36
237.891	20445.19
237.963	20412.22
238.035	20375.16
238.107	20308.42
238.178	20284.99
238.25	20242.05
238.322	20228.32
238.394	20180.56
238.466	20157.09
238.538	20131.45
238.609	20113.82
238.681	20065.91
238.753	20032.85
238.825	19993.38
238.897	19969.05
238.968	19947.65
239.04	19907.65
239.112	19908.81
239.184	19864.81
239.255	19829.39
239.327	19802.84
239.399	19779.18
239.471	19758.36
239.542	19736.33
239.614	19718.26
239.686	19664.72
239.758	19649.74
239.829	19615.18
239.901	19601.74
239.973	19555.96
240.044	19534.37
240.116	19498.23
240.188	19457.84
240.259	19422.57
240.331	19389.99
240.403	19368.79
240.474	19309.32
240.546	19261.13
240.618	19204.7
240.689	19168.66
240.761	19136.66
240.833	19119.65
240.904	19078.78
240.976	19033.44
241.048	19005.15
241.119	18978.93
241.191	18957.44
241.262	18933.3
241.334	18900.43
241.405	18862.17
241.477	18833.01
241.549	18790.85
241.62	18759.77
241.692	18733.45
241.763	18711.48
241.835	18680.54
241.906	18651
241.978	18622.67
242.049	18606.62
242.121	18594.57
242.192	18566.09
242.264	18523.1
242.335	18465.76
242.407	18426.87
242.478	18389.09
242.55	18355.02
242.621	18310.25
242.693	18269.96
242.764	18236.95
242.836	18195.8
242.907	18155.6
242.979	18124.43
243.05	18092.57
243.122	18061.73
243.193	18038.84
243.264	17973.06
243.336	17938.07
243.407	17910.89
243.479	17894.84
243.55	17868.82
243.622	17832.53
243.693	17800.73
243.764	17786.03
243.836	17749.69
243.907	17722.56
243.978	17692.2
244.05	17661.31
244.121	17619.09
244.192	17594.03
244.264	17538.32
244.335	17506.66
244.407	17468.78
244.478	17441.98
244.549	17409.31
244.62	17365.79
244.692	17328.58
244.763	17307.43
244.834	17265.98
244.906	17226.08
244.977	17202.13
245.048	17181.45
245.119	17137.45
245.191	17101.35
245.262	17039.38
245.333	17013.49
245.405	16975.57
245.476	16943.8
245.547	16910.84
245.618	16882.69
245.689	16849.97
245.761	16831.9
245.832	16791.99
245.903	16769.82
245.974	16745.87
246.045	16717.43
246.117	16700.37
246.188	16655.45
246.259	16610.53
246.33	16581.42
246.401	16538.14
246.473	16484.16
246.544	16439.49
246.615	16412.11
246.686	16368.39
246.757	16348.73
246.828	16305.3
246.899	16288.43
246.97	16241.54
247.042	16194.45
247.113	16176.28
247.184	16163.07
247.255	16115.31
247.326	16085.04
247.397	16046.77
247.468	15999.2
247.539	15960.64
247.61	15916.34
247.681	15896.49
247.752	15877.25
247.823	15831.46
247.894	15803.41
247.965	15760.99
248.037	15725.09
248.108	15684.89
248.179	15658.28
248.25	15627.87
248.321	15605.93
248.392	15559.18
248.463	15552.48
248.534	15522.84
248.605	15496.13
248.675	15465.38
248.746	15449.86
248.817	15422.58
248.888	15404.12
248.959	15366.67
249.03	15343.72
249.101	15312.82
249.172	15272.38
249.243	15223.26
249.314	15211.84
249.385	15191.35
249.456	15172.46
249.527	15142.96
249.598	15115.82
249.669	15090.61
249.739	15069.06
249.81	15052.96
249.881	15013.77
249.952	14987.02
250.023	14962
250.094	14915.2
250.165	14872.88
250.235	14834.8
250.306	14810.98
250.377	14774.4
250.448	14747.02
250.519	14702.52
250.59	14683.1
250.66	14651.96
250.731	14643.28
250.802	14612.77
250.873	14588.81
250.944	14564.22
251.014	14530.53
251.085	14523.35
251.156	14496.54
251.227	14483.29
251.297	14461.64
251.368	14451.18
251.439	14435.71
251.51	14431.08
251.58	14401.34
251.651	14365.28
251.722	14354.82
251.792	14308.25
251.863	14279.52
251.934	14279.38
252.005	14279.23
252.075	14250.21
252.146	14234.6
252.217	14221.19
252.287	14210.54
252.358	14183.88
252.429	14173.91
252.499	14149.99
252.57	14133.6
252.641	14119.38
252.711	14086.07
252.782	14045.2
252.852	14041.29
252.923	14012.46
252.994	13981.03
253.064	13966.52
253.135	13943.29
253.205	13907.23
253.276	13910.65
253.347	13901.97
253.417	13861.72
253.488	13836.56
253.558	13816.7
253.629	13793.65
253.699	13769.55
253.77	13748.87
253.841	13712.81
253.911	13691.46
253.982	13664.22
254.052	13635.78
254.123	13618.28
254.193	13599.91
254.264	13617.51
254.334	13580.2
254.405	13540.72
254.475	13503.74
254.546	13484.7
254.616	13463.54
254.687	13449.07
254.757	13424.15
254.827	13395.81
254.898	13381.34
254.968	13358.98
255.039	13324.7
255.109	13306.19
255.18	13277.12
255.25	13229.25
255.321	13221.64
255.391	13187.6
255.461	13181.53
255.532	13137.85
255.602	13108.16
255.673	13061.78
255.743	13020.23
255.813	12971.88
255.884	12979.35
255.954	12972.7
256.024	12961.52
256.095	12946.28
256.165	12912.1
256.235	12894.75
256.306	12861.58
256.376	12845.24
256.446	12826.2
256.517	12821.72
256.587	12811.21
256.657	12792.84
256.728	12780.89
256.798	12754.23
256.868	12732.06
256.938	12700.77
257.009	12685.83
257.079	12668.43
257.149	12685.3
257.219	12646.3
257.29	12641.43
257.36	12594.77
257.43	12577.32
257.5	12538.61
257.571	12512.96
257.641	12505.06
257.711	12473.73
257.781	12464.81
257.852	12453.58
257.922	12416.89
257.992	12390.04
258.062	12367.97
258.132	12358.57
258.202	12333.4
258.273	12319.86
258.343	12311.28
258.413	12293.54
258.483	12283.56
258.553	12251.6
258.623	12211.3
258.693	12199.11
258.764	12188.7
258.834	12181.23
258.904	12157.94
258.974	12135.48
259.044	12113.5
259.114	12094.46
259.184	12075.95
259.254	12051.18
259.324	12003.55
259.394	11988.56
259.464	11990.06
259.535	11971.07
259.605	11941.71
259.675	11916.22
259.745	11897.8
259.815	11872.35
259.885	11842.95
259.955	11846.04
260.025	11817.74
260.095	11803.33
260.165	11790.56
260.235	11795.52
260.305	11761.69
260.375	11736.38
260.445	11736.38
260.515	11734.89
260.585	11725.1
260.655	11704.33
260.725	11701.78
260.795	11692.09
260.865	11689.73
260.934	11651.55
261.004	11635.31
261.074	11617.28
261.144	11622.3
261.214	11612.03
261.284	11591.98
261.354	11585.96
261.424	11554.05
261.494	11556.02
261.564	11537.23
261.634	11526.57
261.703	11480.55
261.773	11470.38
261.843	11461.6
261.913	11438.62
261.983	11407.63
262.053	11396.49
262.123	11376.59
262.192	11337.36
262.262	11333.65
262.332	11309.36
