Data from 20250630_urea_2M_MAYP1162681_00-32-27-292.txt Node
Date: Tue Jul 01 00:32:27 BST 2025
User: adleo
Spectrometer: MAYP116268
Trigger mode: 0
Integration Time (sec): 1.000000E0
Scans to average: 1
Electric dark correction enabled: true
Nonlinearity correction enabled: true
Boxcar width: 10
XAxis mode: Wavelengths
Number of Pixels in Spectrum: 2068
>>>>>Begin Spectral Data<<<<<
179.565	1096.32
179.642	1144.46
179.718	1180.66
179.795	1216.68
179.871	1244.04
179.948	1260.31
180.024	1277.54
180.101	1298.07
180.177	1310.45
180.254	1330.17
180.33	1350.67
180.407	1396.19
180.483	1481.47
180.56	1565.61
180.636	1641.85
180.712	1630.35
180.789	1638.95
180.865	1649.25
180.942	1658.33
181.018	1667.02
181.095	1681.18
181.171	1684.13
181.248	1685.46
181.324	1702.47
181.4	1708.65
181.477	1719.53
181.553	1730.79
181.63	1749.89
181.706	1763.63
181.782	1769.18
181.859	1769.75
181.935	1774.46
182.011	1769.47
182.088	1786.67
182.164	1801.79
182.24	1815.62
182.317	1824.17
182.393	1821.89
182.469	1832.77
182.546	1844.85
182.622	1848.65
182.698	1844.09
182.775	1857.39
182.851	1871.51
182.927	1863.15
183.003	1858.06
183.08	1851.26
183.156	1860.72
183.232	1859.68
183.308	1851.03
183.385	1861.67
183.461	1878.26
183.537	1879.07
183.613	1893.09
183.69	1882.3
183.766	1869.65
183.842	1876.55
183.918	1882.68
183.995	1894.42
184.071	1898.99
184.147	1891.95
184.223	1881.12
184.299	1892.58
184.375	1881.64
184.452	1887.06
184.528	1940.71
184.604	1950.4
184.68	1962.1
184.756	1970.23
184.832	1971.18
184.908	1975.84
184.985	1975.79
185.061	1960.91
185.137	1972.65
185.213	1959.3
185.289	1964.14
185.365	1959.58
185.441	1954.64
185.517	1965.62
185.593	1965.72
185.669	1962.34
185.745	1973.56
185.822	1989.67
185.898	1982.92
185.974	1992.24
186.05	1984.77
186.126	1947.01
186.202	1941.4
186.278	1938.21
186.354	1928.04
186.43	1934.74
186.506	1934.5
186.582	1931.99
186.658	1936.98
186.734	1914.4
186.81	1919.01
186.886	1920.38
186.962	1930.65
187.038	1929.94
187.114	1920.47
187.19	1925.8
187.266	1917.62
187.341	1917.53
187.417	1910.3
187.493	1908.97
187.569	1909.64
187.645	1905.55
187.721	1892.9
187.797	1899.36
187.873	1902.22
187.949	1894.47
188.025	1891.47
188.101	1892.76
188.176	1898.84
188.252	1894.85
188.328	1904.16
188.404	1902.55
188.48	1897.41
188.556	1892.85
188.632	1891.42
188.707	1892.76
188.783	1891.23
188.859	1887.15
188.935	1876.83
189.011	1886.91
189.086	1881.96
189.162	1877.31
189.238	1875.4
189.314	1872.7
189.39	1866.47
189.465	1860.91
189.541	1879.78
189.617	1865.43
189.693	1860.05
189.768	1861.62
189.844	1882.31
189.92	1874.51
189.996	1883.79
190.071	1894.24
190.147	1891.53
190.223	1898.38
190.298	1890.58
190.374	1874.37
190.45	1883.07
190.526	1891.25
190.601	1885.3
190.677	1884.92
190.753	1910.75
190.828	1911.47
190.904	1926.68
190.98	1942.52
191.055	1952.64
191.131	1942.47
191.207	1958.68
191.282	1967.18
191.358	1961.38
191.433	1951.3
191.509	1965.8
191.585	1963.28
191.66	1962.9
191.736	1970.93
191.811	1966.13
191.887	1984.2
191.963	2007.74
192.038	2015.15
192.114	2016.87
192.189	2020.1
192.265	2019.34
192.34	1995.98
192.416	1997.17
192.491	1991.32
192.567	1993.93
192.642	1998.55
192.718	1999.88
192.793	1990.04
192.869	1986.61
192.944	1985.76
193.02	1992.27
193.095	1992.84
193.171	1998.12
193.246	2001.26
193.322	2000.22
193.397	1998.79
193.473	1984.47
193.548	1969.25
193.624	1973.49
193.699	1970.78
193.775	1987.71
193.85	1990.04
193.925	1998.46
194.001	1995.56
194.076	1990.57
194.152	1980.01
194.227	1971.4
194.302	1960.04
194.378	1964.79
194.453	1962.42
194.529	1975.68
194.604	1962.89
194.679	1957.23
194.755	1936.89
194.83	1945.5
194.905	1941.41
194.981	1948.83
195.056	1943.41
195.131	1947.26
195.207	1947.5
195.282	1941.84
195.357	1919.82
195.433	1933.37
195.508	1923.72
195.583	1931.71
195.659	1945.55
195.734	1951.68
195.809	1950.87
195.884	1962.09
195.96	1964.51
196.035	1977.4
196.11	1971.45
196.185	1980.11
196.261	1983.1
196.336	2014.29
196.411	1999.74
196.486	2007.3
196.561	2004.44
196.637	2012.48
196.712	2026.7
196.787	2028.03
196.862	2040.11
196.937	2049.86
197.013	2052.71
197.088	2061.18
197.163	2081.59
197.238	2097.1
197.313	2098.15
197.388	2111.75
197.464	2138.49
197.539	2143.82
197.614	2139.02
197.689	2150.29
197.764	2165.09
197.839	2183.64
197.914	2178.41
197.989	2199.96
198.065	2214.8
198.14	2256.08
198.215	2280.96
198.29	2290.53
198.365	2302.67
198.44	2312.13
198.515	2337.93
198.59	2352.3
198.665	2378.53
198.74	2384.15
198.815	2384.05
198.89	2405.52
198.965	2431.38
199.04	2430.28
199.115	2447.94
199.19	2489.64
199.265	2493.83
199.34	2501.68
199.415	2535.51
199.49	2555.69
199.565	2565.26
199.64	2585.27
199.715	2584.27
199.79	2587.79
199.865	2597.27
199.94	2594.55
200.015	2625.75
200.09	2631.85
200.165	2637.9
200.24	2642
200.315	2685.67
200.39	2699.44
200.464	2707.34
200.539	2710.54
200.614	2722.4
200.689	2743.98
200.764	2745.98
200.839	2765.41
200.914	2774.41
200.989	2763.69
201.063	2774.93
201.138	2759.17
201.213	2759.22
201.288	2742.6
201.363	2751.98
201.438	2748.03
201.512	2762.79
201.587	2746.35
201.662	2751.3
201.737	2762.21
201.812	2772.94
201.886	2738.46
201.961	2748.47
202.036	2735.56
202.111	2731.32
202.186	2704.51
202.26	2688.27
202.335	2669.45
202.41	2660.16
202.485	2644.68
202.559	2626.63
202.634	2604.81
202.709	2611.19
202.784	2592.38
202.858	2592.43
202.933	2574.9
203.008	2572.52
203.082	2559.14
203.157	2557.61
203.232	2516.01
203.306	2496.86
203.381	2464.09
203.456	2444.09
203.53	2422.22
203.605	2401.99
203.68	2379.42
203.754	2375.43
203.829	2359.24
203.904	2340.2
203.978	2331.73
204.053	2333.25
204.127	2321.12
204.202	2318.97
204.277	2305.7
204.351	2297.7
204.426	2292.32
204.5	2282.85
204.575	2252.83
204.65	2258.35
204.724	2252.35
204.799	2261.77
204.873	2257.48
204.948	2257.29
205.022	2243.78
205.097	2234.59
205.171	2248.96
205.246	2255.24
205.32	2254.67
205.395	2255.24
205.469	2248.54
205.544	2251.54
205.618	2237.07
205.693	2247.21
205.767	2234.03
205.842	2252.11
205.916	2245.93
205.991	2236.41
206.065	2242.22
206.14	2255.34
206.214	2251.06
206.289	2240.16
206.363	2247.82
206.438	2252.25
206.512	2258.86
206.586	2276.99
206.661	2287.65
206.735	2265.68
206.81	2270.39
206.884	2281.86
206.958	2270.3
207.033	2285.57
207.107	2294.76
207.181	2324.28
207.256	2317.66
207.33	2336.74
207.405	2346.89
207.479	2367.16
207.553	2375.63
207.628	2360.17
207.702	2372.21
207.776	2367.45
207.851	2374.07
207.925	2389.54
207.999	2384.83
208.073	2384.4
208.148	2385.73
208.222	2374.16
208.296	2406.85
208.371	2422.62
208.445	2432.33
208.519	2460.22
208.593	2470.31
208.668	2464.69
208.742	2464.26
208.816	2467.26
208.89	2481.93
208.965	2482.6
209.039	2490.17
209.113	2503.84
209.187	2524.63
209.261	2519.82
209.336	2537.87
209.41	2551.82
209.484	2553.44
209.558	2574.11
209.632	2584.11
209.707	2596.02
209.781	2615.59
209.855	2629.17
209.929	2642.9
210.003	2653.09
210.077	2651.85
210.151	2697.53
210.226	2729.41
210.3	2756.83
210.374	2779.07
210.448	2779.21
210.522	2788.22
210.596	2799.13
210.67	2810.42
210.744	2857.43
210.818	2887.77
210.892	2910.13
210.966	2909.17
211.041	2926.19
211.115	2925
211.189	2950.07
211.263	2968.51
211.337	2976.71
211.411	2990.44
211.485	2987.25
211.559	3001.4
211.633	3007.21
211.707	2983.98
211.781	2999.87
211.855	2972.79
211.929	2972.5
212.003	2965.45
212.077	2983.91
212.151	3004.13
212.225	3021.73
212.299	3018.62
212.373	3019.77
212.447	3028.21
212.52	3069.56
212.594	3086.06
212.668	3111.19
212.742	3114.82
212.816	3128.27
212.89	3142.62
212.964	3164.48
213.038	3192.11
213.112	3229.43
213.186	3272.27
213.26	3281.33
213.333	3266.58
213.407	3301.3
213.481	3338.51
213.555	3384
213.629	3413.37
213.703	3436.76
213.777	3477.5
213.85	3505.01
213.924	3582.83
213.998	3631.27
214.072	3675.14
214.146	3717.8
214.219	3775.19
214.293	3830.4
214.367	3894.68
214.441	3966.61
214.515	4022.69
214.588	4071.22
214.662	4110.33
214.736	4166.18
214.81	4248
214.883	4336.72
214.957	4411.32
215.031	4486.12
215.105	4549.96
215.178	4624.72
215.252	4714.37
215.326	4786.81
215.4	4860.23
215.473	4913.99
215.547	4995.96
215.621	5086.49
215.694	5194.41
215.768	5278.81
215.842	5375.22
215.915	5466.51
215.989	5555.55
216.063	5661.12
216.136	5772.63
216.21	5888.74
216.284	6019.35
216.357	6143.63
216.431	6255.79
216.504	6384.04
216.578	6529.2
216.652	6671.42
216.725	6802.41
216.799	6935.88
216.873	7060.72
216.946	7203.4
217.02	7334.67
217.093	7470.8
217.167	7590.89
217.24	7714.91
217.314	7845.87
217.387	7971.7
217.461	8105.65
217.535	8255.53
217.608	8381.2
217.682	8522.08
217.755	8669.48
217.829	8792.99
217.902	8929.59
217.976	9069.61
218.049	9198.53
218.123	9318.09
218.196	9461.1
218.27	9586.98
218.343	9717.69
218.417	9865.93
218.49	10002.77
218.563	10153.2
218.637	10286.84
218.71	10436.33
218.784	10568
218.857	10716.25
218.931	10862.57
219.004	11000.04
219.077	11134.88
219.151	11269.8
219.224	11397.61
219.298	11526.92
219.371	11670.39
219.444	11794.6
219.518	11929.89
219.591	12061.9
219.665	12216.96
219.738	12333.22
219.811	12452.09
219.885	12580.79
219.958	12706.07
220.031	12827.3
220.105	12952.54
220.178	13071.36
220.251	13182.43
220.325	13309.59
220.398	13432.28
220.471	13549.66
220.544	13669.54
220.618	13778.3
220.691	13899.15
220.764	14010.36
220.838	14116.32
220.911	14211.62
220.984	14329.19
221.057	14437.56
221.131	14545.78
221.204	14622.28
221.277	14759.03
221.35	14892.26
221.424	14988.67
221.497	15091.05
221.57	15187.27
221.643	15288.44
221.716	15390.58
221.79	15478.94
221.863	15567.1
221.936	15648.41
222.009	15742.35
222.082	15831.43
222.155	15912.6
222.229	16011.36
222.302	16104.77
222.375	16193.5
222.448	16289.85
222.521	16372.94
222.594	16452.61
222.667	16523.46
222.74	16609.01
222.814	16669.78
222.887	16740.1
222.96	16820.15
223.033	16896.35
223.106	16970.67
223.179	17036.69
223.252	17102.67
223.325	17181.18
223.398	17247.74
223.471	17322.48
223.544	17378.63
223.617	17445.67
223.69	17515.79
223.763	17562.44
223.837	17629.18
223.91	17692.94
223.983	17736.7
224.056	17778.77
224.129	17836.75
224.202	17898.43
224.275	17945.32
224.348	17987.01
224.42	18032.69
224.493	18065.13
224.566	18110.62
224.639	18160.4
224.712	18212.88
224.785	18259.43
224.858	18297.02
224.931	18342.22
225.004	18377.11
225.077	18431.62
225.15	18452.53
225.223	18496.29
225.296	18556.28
225.369	18582.69
225.442	18619.65
225.514	18662.16
225.587	18705.09
225.66	18742.34
225.733	18786.87
225.806	18834.34
225.879	18868.79
225.952	18899.3
226.025	18954.38
226.097	19011.49
226.17	19060.78
226.243	19076.35
226.316	19120.68
226.389	19169.84
226.461	19222.51
226.534	19259.61
226.607	19285.15
226.68	19348.09
226.753	19374.26
226.825	19392.57
226.898	19443.75
226.971	19476.76
227.044	19514.39
227.117	19552.51
227.189	19596.61
227.262	19631.16
227.335	19666.15
227.407	19701.42
227.48	19732.79
227.553	19762.82
227.626	19772.98
227.698	19792.69
227.771	19829.17
227.844	19851.63
227.916	19876.59
227.989	19881.41
228.062	19912.93
228.134	19971.77
228.207	19991.24
228.28	20020.88
228.352	20054.9
228.425	20068.54
228.498	20092.88
228.57	20118.75
228.643	20159.91
228.716	20177.02
228.788	20205.21
228.861	20224.2
228.934	20259.04
229.006	20277.16
229.079	20299.71
229.151	20314.41
229.224	20323.96
229.296	20347.09
229.369	20388.73
229.442	20412.87
229.514	20431.09
229.587	20458.8
229.659	20452.92
229.732	20481.21
229.804	20511.67
229.877	20546.75
229.949	20575.43
230.022	20614.75
230.094	20623.19
230.167	20640.3
230.239	20650.13
230.312	20661.21
230.384	20704.93
230.457	20733.22
230.529	20761.89
230.602	20776.98
230.674	20799.82
230.747	20819.15
230.819	20840.35
230.892	20819.19
230.964	20838.66
231.037	20857.85
231.109	20873.89
231.181	20891.49
231.254	20888.26
231.326	20892.59
231.399	20888.93
231.471	20894.28
231.544	20885.27
231.616	20917.12
231.688	20928.35
231.761	20928.5
231.833	20931.25
231.905	20915.63
231.978	20912.69
232.05	20907.63
232.122	20909.89
232.195	20916.93
232.267	20934.62
232.339	20932.79
232.412	20956.35
232.484	20951.87
232.556	20948.26
232.629	20958.57
232.701	20978.62
232.773	20979.1
232.846	20977.56
232.918	20985.22
232.99	20982.77
233.062	20990.09
233.135	20979.1
233.207	20965.22
233.279	20976.4
233.351	20971.73
233.424	20956.5
233.496	20940.16
233.568	20955.44
233.64	20941.51
233.713	20935.68
233.785	20934.52
233.857	20941.85
233.929	20916.35
234.001	20923.68
234.074	20928.64
234.146	20905.32
234.218	20878.04
234.29	20869.46
234.362	20857.94
234.434	20825.12
234.507	20808.01
234.579	20778.76
234.651	20764.2
234.723	20756.49
234.795	20741.89
234.867	20740.15
234.939	20740.88
235.012	20731.82
235.084	20721.21
235.156	20722.42
235.228	20698.99
235.3	20683.09
235.372	20654.75
235.444	20654.08
235.516	20618.37
235.588	20596.58
235.66	20577.74
235.732	20565.79
235.804	20597.64
235.876	20595.81
235.948	20601.07
236.02	20589.6
236.092	20577.64
236.164	20564.92
236.236	20542.37
236.308	20523.57
236.38	20499.62
236.452	20472.78
236.524	20460.1
236.596	20449.69
236.668	20431.09
236.74	20416.39
236.812	20397.55
236.884	20393.45
236.956	20381.88
237.028	20360.87
237.1	20340.78
237.172	20325.6
237.244	20314.46
237.316	20265.69
237.388	20230.22
237.46	20196.44
237.532	20182.85
237.604	20152.1
237.675	20134.42
237.747	20116.39
237.819	20093.12
237.891	20079.48
237.963	20050.61
238.035	20018.52
238.107	19958.28
238.178	19942.28
238.25	19905.56
238.322	19902.18
238.394	19852.69
238.466	19811.1
238.538	19791.87
238.609	19780.89
238.681	19741.81
238.753	19709.52
238.825	19674.43
238.897	19650.92
238.968	19642.97
239.04	19612.75
239.112	19615.83
239.184	19581.28
239.255	19554.39
239.327	19527.6
239.399	19491.26
239.471	19468.32
239.542	19450.69
239.614	19442.4
239.686	19389.39
239.758	19374.55
239.829	19332.09
239.901	19322.89
239.973	19301.39
240.044	19278.02
240.116	19232.39
240.188	19205.4
240.259	19178.51
240.331	19149.36
240.403	19123.48
240.474	19077.94
240.546	19039.43
240.618	18986.96
240.689	18946.96
240.761	18915.64
240.833	18903.2
240.904	18870.77
240.976	18838.63
241.048	18803.55
241.119	18783.84
241.191	18760.66
241.262	18744.85
241.334	18704.03
241.405	18665.05
241.477	18633.77
241.549	18594.21
241.62	18564.14
241.692	18539.75
241.763	18512.72
241.835	18483.03
241.906	18444
241.978	18397.21
242.049	18370.56
242.121	18345.6
242.192	18337.21
242.264	18288.15
242.335	18234.23
242.407	18215.05
242.478	18174.13
242.55	18143
242.621	18093.56
242.693	18064.89
242.764	18027.97
242.836	18002.48
242.907	17969.56
242.979	17937.95
243.05	17907.98
243.122	17887.3
243.193	17856.89
243.264	17805.14
243.336	17768.75
243.407	17754.58
243.479	17744.66
243.55	17722.29
243.622	17695.16
243.693	17658.68
243.764	17652.66
243.836	17608.95
243.907	17569.24
243.978	17542.49
244.05	17513.81
244.121	17467.26
244.192	17433.14
244.264	17393.09
244.335	17355.6
244.407	17323.31
244.478	17290.3
244.549	17250.92
244.62	17203.59
244.692	17169.57
244.763	17145.91
244.834	17105.47
244.906	17062.58
244.977	17030.29
245.048	17009.42
245.119	16968.55
245.191	16917.8
245.262	16856.74
245.333	16840.26
245.405	16803.77
245.476	16775.58
245.547	16741.36
245.618	16717.5
245.689	16693.79
245.761	16656.63
245.832	16628.58
245.903	16595.43
245.974	16570.41
246.045	16538.02
246.117	16520.43
246.188	16470.16
246.259	16432.47
246.33	16400.66
246.401	16369
246.473	16320.32
246.544	16276.99
246.615	16258.58
246.686	16217.27
246.757	16194.47
246.828	16149.65
246.899	16129.02
246.97	16089.26
247.042	16050.17
247.113	16029.01
247.184	16007.27
247.255	15973.34
247.326	15935.12
247.397	15899.26
247.468	15868.26
247.539	15836.89
247.61	15792.69
247.681	15777.84
247.752	15753.45
247.823	15714.6
247.894	15682.94
247.965	15637.24
248.037	15596.9
248.108	15551.93
248.179	15532.26
248.25	15495.58
248.321	15476.73
248.392	15434.65
248.463	15420.1
248.534	15389.15
248.605	15361.34
248.675	15335.89
248.746	15303.79
248.817	15284.7
248.888	15267.49
248.959	15221.17
249.03	15201.07
249.101	15177.69
249.172	15149.1
249.243	15102.11
249.314	15086.68
249.385	15057.62
249.456	15037.47
249.527	15008.45
249.598	14981.12
249.669	14946.07
249.739	14928.67
249.81	14904.91
249.881	14863.11
249.952	14831.06
250.023	14806.43
250.094	14768.2
250.165	14723.66
250.235	14712.48
250.306	14677.87
250.377	14639.69
250.448	14617.51
250.519	14567.62
250.59	14548.53
250.66	14506.02
250.731	14488.66
250.802	14455.74
250.873	14430.48
250.944	14414.28
251.014	14380.01
251.085	14368.82
251.156	14346.65
251.227	14338.74
251.297	14325.01
251.368	14322.35
251.439	14309.72
251.51	14291.12
251.58	14253.66
251.651	14226.57
251.722	14200.3
251.792	14155.61
251.863	14122.16
251.934	14112.71
252.005	14116.18
252.075	14087.88
252.146	14075.35
252.217	14068.65
252.287	14057.03
252.358	14025.98
252.429	14017.5
252.499	13994.27
252.57	13975.66
252.641	13964.14
252.711	13939.94
252.782	13890.43
252.852	13871.53
252.923	13840.54
252.994	13821.16
253.064	13809.06
253.135	13774.06
253.205	13744.51
253.276	13743.69
253.347	13737.66
253.417	13704.35
253.488	13673.79
253.558	13652.48
253.629	13627.13
253.699	13599.21
253.77	13589.04
253.841	13564.5
253.911	13539.87
253.982	13517.74
254.052	13501.5
254.123	13483.9
254.193	13455.08
254.264	13474.7
254.334	13449.77
254.405	13418.2
254.475	13377.46
254.546	13356.06
254.616	13343.91
254.687	13318.65
254.757	13298.5
254.827	13273.05
254.898	13243.84
254.968	13220.21
255.039	13187.72
255.109	13177.65
255.18	13151.04
255.25	13090.3
255.321	13073.86
255.391	13038.67
255.461	13032.4
255.532	12976.1
255.602	12947.37
255.673	12901.19
255.743	12873.76
255.813	12821.45
255.884	12811.86
255.954	12801.83
256.024	12803.67
256.095	12781.39
256.165	12754.3
256.235	12738.88
256.306	12707.35
256.376	12705.52
256.446	12690.14
256.517	12673.8
256.587	12660.64
256.657	12636.44
256.728	12628.05
256.798	12611.33
256.868	12587.85
256.938	12556.04
257.009	12545.86
257.079	12535.16
257.149	12540.27
257.219	12494.77
257.29	12486.38
257.36	12439.38
257.43	12424.63
257.5	12381.15
257.571	12357.72
257.641	12346.06
257.711	12309.42
257.781	12300.94
257.852	12283.73
257.922	12247.92
257.992	12233.46
258.062	12208
258.132	12202.46
258.202	12180.09
258.273	12154.16
258.343	12148.33
258.413	12124.71
258.483	12110.88
258.553	12077.95
258.623	12053.37
258.693	12033.51
258.764	12029.03
258.834	12033.85
258.904	12013.46
258.974	11981.89
259.044	11966.51
259.114	11947.91
259.184	11934.22
259.254	11915.47
259.324	11869.97
259.394	11863.22
259.464	11861.48
259.535	11834.49
259.605	11806.05
259.675	11783.25
259.745	11771.3
259.815	11740.89
259.885	11710.52
259.955	11715.68
260.025	11688.4
260.095	11669.84
260.165	11660.16
260.235	11652.4
260.305	11619.67
260.375	11588.34
260.445	11599.09
260.515	11590.51
260.585	11581.88
260.655	11565.83
260.725	11557.16
260.795	11551.81
260.865	11549.11
260.934	11511.61
261.004	11502.12
261.074	11479.13
261.144	11473.15
261.214	11464.91
261.284	11450.35
261.354	11449.49
261.424	11414.49
261.494	11415.99
261.564	11394.68
261.634	11390.4
261.703	11356.85
261.773	11349.48
261.843	11347.36
261.913	11325.14
261.983	11289.62
262.053	11282.05
262.123	11255.4
262.192	11218.58
262.262	11206.3
262.332	11169.67
262.402	11159.45
