Data from 20250630_urea_2M_MAYP1162681_22-52-26-757.txt Node
Date: Mon Jun 30 22:52:26 BST 2025
User: adleo
Spectrometer: MAYP116268
Trigger mode: 0
Integration Time (sec): 1.000000E0
Scans to average: 1
Electric dark correction enabled: true
Nonlinearity correction enabled: true
Boxcar width: 10
XAxis mode: Wavelengths
Number of Pixels in Spectrum: 2068
>>>>>Begin Spectral Data<<<<<
179.565	1116.65
179.642	1166.57
179.718	1203.75
179.795	1238.03
179.871	1266.88
179.948	1286.02
180.024	1306.95
180.101	1330.99
180.177	1345.3
180.254	1365.77
180.33	1387.23
180.407	1434.36
180.483	1524.44
180.56	1606.82
180.636	1685.53
180.712	1670.66
180.789	1679.97
180.865	1691.7
180.942	1699.49
181.018	1708.52
181.095	1719.78
181.171	1725.63
181.248	1727.34
181.324	1742.78
181.4	1748.39
181.477	1759.03
181.553	1769.49
181.63	1788.5
181.706	1802.95
181.782	1810.65
181.859	1809.93
181.935	1813.21
182.011	1808.89
182.088	1824.29
182.164	1843.41
182.24	1855.81
182.317	1865.12
182.393	1864.55
182.469	1877.48
182.546	1890.08
182.622	1894.4
182.698	1889.6
182.775	1902.06
182.851	1912.37
182.927	1906.05
183.003	1904.34
183.08	1898.44
183.156	1906.38
183.232	1904.05
183.308	1890.93
183.385	1899.01
183.461	1918.46
183.537	1919.5
183.613	1930.44
183.69	1920.36
183.766	1908.9
183.842	1914.74
183.918	1920.97
183.995	1932.62
184.071	1933.38
184.147	1928.96
184.223	1917.93
184.299	1931.49
184.375	1918.6
184.452	1926.83
184.528	1978.57
184.604	1988.32
184.68	1999.2
184.756	2006.34
184.832	2010.19
184.908	2017.46
184.985	2016.99
185.061	2000.15
185.137	2010.81
185.213	2000.73
185.289	2001.87
185.365	1996.78
185.441	1994.5
185.517	2007.49
185.593	2004.01
185.669	2004.68
185.745	2016.62
185.822	2033.92
185.898	2025.45
185.974	2033.72
186.05	2025.73
186.126	1988.59
186.202	1981.41
186.278	1976.99
186.354	1970.9
186.43	1976.85
186.506	1974.61
186.582	1972.76
186.658	1978.13
186.734	1956.17
186.81	1959.49
186.886	1963.11
186.962	1970.95
187.038	1968.53
187.114	1960.91
187.19	1966.95
187.266	1958.73
187.341	1958.16
187.417	1950.46
187.493	1949.98
187.569	1953.64
187.645	1948.79
187.721	1936.9
187.797	1945.03
187.873	1951.07
187.949	1940.95
188.025	1932.81
188.101	1933.29
188.176	1938.42
188.252	1933.72
188.328	1940.75
188.404	1940.46
188.48	1936.57
188.556	1932.9
188.632	1932.76
188.707	1934.38
188.783	1933.29
188.859	1929.91
188.935	1918.74
189.011	1927.96
189.086	1923.11
189.162	1916.41
189.238	1915.36
189.314	1913.46
189.39	1906.19
189.465	1901.57
189.541	1919.45
189.617	1905.85
189.693	1902.43
189.768	1904.95
189.844	1928.21
189.92	1920.84
189.996	1927.6
190.071	1938.86
190.147	1939.01
190.223	1946.24
190.298	1937.34
190.374	1922.75
190.45	1934.49
190.526	1942.81
190.601	1938.39
190.677	1940.67
190.753	1964.27
190.828	1968.64
190.904	1983
190.98	2000.31
191.055	2006.44
191.131	1998.69
191.207	2018.95
191.282	2025.98
191.358	2017.71
191.433	2006.43
191.509	2024.5
191.585	2022.59
191.66	2023.21
191.736	2031.82
191.811	2027.68
191.887	2045.52
191.963	2069.68
192.038	2073.48
192.114	2074.1
192.189	2074.34
192.265	2070.2
192.34	2050.6
192.416	2047.61
192.491	2044.28
192.567	2045.51
192.642	2050.41
192.718	2052.79
192.793	2040.24
192.869	2038.19
192.944	2041.09
193.02	2045.51
193.095	2046.7
193.171	2053.08
193.246	2049.03
193.322	2044.52
193.397	2043.33
193.473	2026.87
193.548	2009.51
193.624	2013.5
193.699	2010.93
193.775	2027.68
193.85	2028.39
193.925	2040.14
194.001	2040.62
194.076	2033.72
194.152	2025.35
194.227	2018.17
194.302	2007.61
194.378	2012.51
194.453	2009.8
194.529	2016.74
194.604	2004.38
194.679	1995.72
194.755	1978.13
194.83	1992.22
194.905	1989.74
194.981	1995.54
195.056	1992.79
195.131	2000.01
195.207	1999.06
195.282	1990.55
195.357	1972.05
195.433	1988.55
195.508	1973.09
195.583	1981.03
195.659	1992.78
195.734	1997.11
195.809	1996.87
195.884	2003.43
195.96	2002.34
196.035	2017.13
196.11	2017.46
196.185	2028.59
196.261	2032.2
196.336	2060.26
196.411	2043.51
196.486	2049.84
196.561	2046.7
196.637	2053.12
196.712	2067.01
196.787	2068.58
196.862	2083.56
196.937	2091.55
197.013	2095.97
197.088	2105.67
197.163	2126.8
197.238	2146.51
197.313	2147.37
197.388	2159.12
197.464	2185.72
197.539	2196.23
197.614	2190.42
197.689	2201.65
197.764	2219.4
197.839	2242.05
197.914	2237.15
197.989	2262.56
198.065	2275.12
198.14	2322.02
198.215	2346.34
198.29	2361.25
198.365	2372.72
198.44	2383.14
198.515	2410.27
198.59	2423.74
198.665	2449.64
198.74	2455.11
198.815	2455.07
198.89	2474.25
198.965	2502.73
199.04	2501.92
199.115	2517.01
199.19	2560.58
199.265	2563.72
199.34	2571.2
199.415	2600.98
199.49	2621.64
199.565	2627.93
199.64	2650.88
199.715	2649.31
199.79	2655.64
199.865	2659.27
199.94	2659.41
200.015	2689.23
200.09	2695.81
200.165	2702.62
200.24	2711.58
200.315	2750.48
200.39	2761.06
200.464	2769.59
200.539	2768.59
200.614	2783.21
200.689	2804.51
200.764	2806.61
200.839	2824.99
200.914	2829.42
200.989	2819.6
201.063	2834.9
201.138	2821.42
201.213	2820.85
201.288	2801.17
201.363	2805.84
201.438	2806.51
201.512	2820.03
201.587	2803.16
201.662	2805.5
201.737	2816.51
201.812	2820.7
201.886	2788.65
201.961	2800.33
202.036	2787.76
202.111	2786.95
202.186	2761.42
202.26	2747.03
202.335	2725.11
202.41	2715.2
202.485	2699.29
202.559	2680.76
202.634	2653.18
202.709	2661.18
202.784	2645.22
202.858	2645.55
202.933	2627.84
203.008	2620.12
203.082	2602.55
203.157	2601.36
203.232	2561.08
203.306	2541.6
203.381	2512.49
203.456	2490.11
203.53	2466.66
203.605	2449.77
203.68	2427.95
203.754	2418.63
203.829	2404.96
203.904	2386.78
203.978	2378.45
204.053	2381.78
204.127	2372.83
204.202	2369.07
204.277	2354.46
204.351	2346.56
204.426	2337.32
204.5	2331.46
204.575	2300.44
204.65	2310.68
204.724	2302.2
204.799	2310
204.873	2305.19
204.948	2303.76
205.022	2294.01
205.097	2288.44
205.171	2301.81
205.246	2306.33
205.32	2308.62
205.395	2305.71
205.469	2299.15
205.544	2303.01
205.618	2286.16
205.693	2294.49
205.767	2286.49
205.842	2306.16
205.916	2298.49
205.991	2290.83
206.065	2296.16
206.14	2310.53
206.214	2303.77
206.289	2295.67
206.363	2309.52
206.438	2310.52
206.512	2318.38
206.586	2335.36
206.661	2341.13
206.735	2320.72
206.81	2325.1
206.884	2339.42
206.958	2330.24
207.033	2344.6
207.107	2353.7
207.181	2386.03
207.256	2379.41
207.33	2395.74
207.405	2406.51
207.479	2425.74
207.553	2431.73
207.628	2413.94
207.702	2424.08
207.776	2421.79
207.851	2430.26
207.925	2442.93
207.999	2442.69
208.073	2441.36
208.148	2443.74
208.222	2435.55
208.296	2465.68
208.371	2479.49
208.445	2489.59
208.519	2516.39
208.593	2525.53
208.668	2520.53
208.742	2520.19
208.816	2521.29
208.89	2534.53
208.965	2532.24
209.039	2541.34
209.113	2561.72
209.187	2580.81
209.261	2576.76
209.336	2594.67
209.41	2613.25
209.484	2614.34
209.558	2636.3
209.632	2647.4
209.707	2658.83
209.781	2676.21
209.855	2692.94
209.929	2709.15
210.003	2713.96
210.077	2714.72
210.151	2760.11
210.226	2792.24
210.3	2820.71
210.374	2844.19
210.448	2849.01
210.522	2858.97
210.596	2867.88
210.67	2874.12
210.744	2923.18
210.818	2955.76
210.892	2974.41
210.966	2969.78
211.041	2986.61
211.115	2985.37
211.189	3009.92
211.263	3030.32
211.337	3039.38
211.411	3053.3
211.485	3052.45
211.559	3065.55
211.633	3072.7
211.707	3052.19
211.781	3066.12
211.855	3039.22
211.929	3038.13
212.003	3029.69
212.077	3047.72
212.151	3069.28
212.225	3092.22
212.299	3092.8
212.373	3095.52
212.447	3107.68
212.52	3152.53
212.594	3172.57
212.668	3199.85
212.742	3207.72
212.816	3221.6
212.89	3240.54
212.964	3260.83
213.038	3291.19
213.112	3334.58
213.186	3377.04
213.26	3388.54
213.333	3377.89
213.407	3421.12
213.481	3467.64
213.555	3520.36
213.629	3551.31
213.703	3580.2
213.777	3625.21
213.85	3655.92
213.924	3737.93
213.998	3794.27
214.072	3845.58
214.146	3894.38
214.219	3959.72
214.293	4020.75
214.367	4092.28
214.441	4177.83
214.515	4249.34
214.588	4309.52
214.662	4362.05
214.736	4430.94
214.81	4528.45
214.883	4635.74
214.957	4720.73
215.031	4801.9
215.105	4885.41
215.178	4974.34
215.252	5078.71
215.326	5163.94
215.4	5261.42
215.473	5333.42
215.547	5428.44
215.621	5535.02
215.694	5662.07
215.768	5763.56
215.842	5880.63
215.915	5992.28
215.989	6089.41
216.063	6205.72
216.136	6334.41
216.21	6471.27
216.284	6621.44
216.357	6758.22
216.431	6892.87
216.504	7034.11
216.578	7203.74
216.652	7350.52
216.725	7505.98
216.799	7658.98
216.873	7814.42
216.946	7973.25
217.02	8119.87
217.093	8267.83
217.167	8394.36
217.24	8525.78
217.314	8677.4
217.387	8817.81
217.461	8967.79
217.535	9135.48
217.608	9283.09
217.682	9439.86
217.755	9596.17
217.829	9736.18
217.902	9892.17
217.976	10038.26
218.049	10188.06
218.123	10321.03
218.196	10481.45
218.27	10624.02
218.343	10758.26
218.417	10907.88
218.49	11055.47
218.563	11218.98
218.637	11377.67
218.71	11552.22
218.784	11710.3
218.857	11864.68
218.931	12026.47
219.004	12177.81
219.077	12330.61
219.151	12476.51
219.224	12618.23
219.298	12760
219.371	12910.49
219.444	13038.37
219.518	13178.79
219.591	13316.56
219.665	13479.11
219.738	13615.63
219.811	13744.62
219.885	13887.7
219.958	14025.61
220.031	14154.23
220.105	14287.27
220.178	14417.47
220.251	14542.32
220.325	14675.17
220.398	14798.77
220.471	14917.49
220.544	15049.18
220.618	15160.39
220.691	15281.81
220.764	15394.41
220.838	15518.19
220.911	15624.71
220.984	15762.85
221.057	15887.69
221.131	15998.31
221.204	16081.31
221.277	16204.99
221.35	16343.51
221.424	16445.35
221.497	16551.62
221.57	16649.46
221.643	16757.71
221.716	16856.56
221.79	16943.4
221.863	17038.93
221.936	17126.5
222.009	17222.07
222.082	17308
222.155	17395.71
222.229	17503.81
222.302	17601.44
222.375	17679.66
222.448	17769.3
222.521	17840.77
222.594	17909.25
222.667	17975.95
222.74	18060.09
222.814	18124.81
222.887	18182.54
222.96	18276.32
223.033	18339.16
223.106	18410.58
223.179	18477.66
223.252	18544.26
223.325	18609.85
223.398	18671.29
223.471	18746.42
223.544	18809.01
223.617	18873.78
223.69	18939.13
223.763	18977.1
223.837	19029.68
223.91	19090.78
223.983	19126.97
224.056	19170.44
224.129	19237.47
224.202	19311.59
224.275	19359.34
224.348	19393.99
224.42	19432.59
224.493	19450.13
224.566	19499.38
224.639	19551.04
224.712	19593.5
224.785	19633.98
224.858	19678.55
224.931	19706.7
225.004	19740.05
225.077	19772
225.15	19784
225.223	19819.75
225.296	19882.21
225.369	19908.38
225.442	19930.88
225.514	19974.11
225.587	20021.29
225.66	20059.31
225.733	20086.49
225.806	20132.61
225.879	20171.69
225.952	20195.16
226.025	20240.56
226.097	20280.9
226.17	20309.09
226.243	20314.25
226.316	20347.98
226.389	20380.17
226.461	20431.4
226.534	20463.64
226.607	20499.02
226.68	20555.35
226.753	20578.05
226.825	20582.39
226.898	20629.86
226.971	20656.66
227.044	20685.96
227.117	20703.98
227.189	20718.06
227.262	20756.42
227.335	20777.05
227.407	20797.05
227.48	20834.4
227.553	20860.66
227.626	20886.26
227.698	20911.32
227.771	20942.4
227.844	20952.81
227.916	20965.92
227.989	20964.09
228.062	20975.61
228.134	21018.6
228.207	21031.13
228.28	21051.81
228.352	21070.22
228.425	21077.59
228.498	21112.05
228.57	21121.79
228.643	21154.47
228.716	21177.7
228.788	21180.16
228.861	21184.45
228.934	21223.87
229.006	21234.47
229.079	21251.78
229.151	21254.81
229.224	21254.19
229.296	21270.38
229.369	21305.62
229.442	21334.68
229.514	21334.73
229.587	21363.45
229.659	21352.42
229.732	21371.21
229.804	21391.26
229.877	21423.56
229.949	21449.1
230.022	21478.75
230.094	21497.79
230.167	21509.88
230.239	21503.28
230.312	21525.26
230.384	21560.5
230.457	21561.27
230.529	21567
230.602	21563.39
230.674	21576.83
230.747	21603.39
230.819	21625.66
230.892	21609.27
230.964	21626.14
231.037	21647.3
231.109	21644.65
231.181	21660.56
231.254	21656.22
231.326	21646.63
231.399	21644.07
231.471	21636.22
231.544	21610.09
231.616	21622.77
231.688	21615.34
231.761	21613.32
231.833	21602.81
231.905	21575.05
231.978	21574.81
232.05	21577.75
232.122	21586.95
232.195	21576.4
232.267	21576.2
232.339	21569.17
232.412	21580.35
232.484	21565.5
232.556	21556.59
232.629	21585.7
232.701	21592.16
232.773	21586.57
232.846	21583.44
232.918	21583.19
232.99	21575.63
233.062	21580.64
233.135	21577.7
233.207	21560.64
233.279	21561.07
233.351	21562.71
233.424	21550.85
233.496	21527.38
233.568	21535.33
233.64	21512
233.713	21496.77
233.785	21488.97
233.857	21474.22
233.929	21453.06
234.001	21455.66
234.074	21455.18
234.146	21412.23
234.218	21387.46
234.29	21372.9
234.362	21359.94
234.434	21315.93
234.507	21299.88
234.579	21266.38
234.651	21239.01
234.723	21232.02
234.795	21212.45
234.867	21187.43
234.939	21186.71
235.012	21178.52
235.084	21160.49
235.156	21150.76
235.228	21136.3
235.3	21121.4
235.372	21110.75
235.444	21098.37
235.516	21053.88
235.588	21038.41
235.66	21021.88
235.732	21001.88
235.804	21036.96
235.876	21027.23
235.948	21033.74
236.02	21014.17
236.092	20995.23
236.164	20970.6
236.236	20948.48
236.308	20930.45
236.38	20912.24
236.452	20879.95
236.524	20850.11
236.596	20844.81
236.668	20828.91
236.74	20805.2
236.812	20775.6
236.884	20758.01
236.956	20730.98
237.028	20690.4
237.1	20656.66
237.172	20647.17
237.244	20634.45
237.316	20559.64
237.388	20524.22
237.46	20491.16
237.532	20473.96
237.604	20446.25
237.675	20440.56
237.747	20418.25
237.819	20388.7
237.891	20358.15
237.963	20328.42
238.035	20305.38
238.107	20236.66
238.178	20222.3
238.25	20187.5
238.322	20175.36
238.394	20120.18
238.466	20089.33
238.538	20074.54
238.609	20045.14
238.681	19988.42
238.753	19950.88
238.825	19926.88
238.897	19899.46
238.968	19883.03
239.04	19834.64
239.112	19825.01
239.184	19782.65
239.255	19748.96
239.327	19724.58
239.399	19689.88
239.471	19660.1
239.542	19633.21
239.614	19616.53
239.686	19547.09
239.758	19532.44
239.829	19494.03
239.901	19485.75
239.973	19459.48
240.044	19433.75
240.116	19413.6
240.188	19384.84
240.259	19355.44
240.331	19318.43
240.403	19289.08
240.474	19247.35
240.546	19222.15
240.618	19169.33
240.689	19126.2
240.761	19096.85
240.833	19084.42
240.904	19058.01
240.976	19032.91
241.048	19006.21
241.119	18977.92
241.191	18965.1
241.262	18949.25
241.334	18909.88
241.405	18867.47
241.477	18836.1
241.549	18805.31
241.62	18769.98
241.692	18741.45
241.763	18712.15
241.835	18679.39
241.906	18646.42
241.978	18593.85
242.049	18568.16
242.121	18550.28
242.192	18523.68
242.264	18472.79
242.335	18413.62
242.407	18385.62
242.478	18342.97
242.55	18309
242.621	18268.8
242.693	18226.83
242.764	18181.87
242.836	18148.38
242.907	18123.27
242.979	18083.7
243.05	18054.12
243.122	18022.7
243.193	17983.13
243.264	17928.82
243.336	17888.24
243.407	17868.15
243.479	17854.22
243.55	17820.92
243.622	17789.74
243.693	17753.26
243.764	17740.29
243.836	17703.67
243.907	17667.04
243.978	17638.66
244.05	17609.64
244.121	17563.43
244.192	17540.15
244.264	17490.51
244.335	17453.6
244.407	17394.8
244.478	17370.42
244.549	17330.99
244.62	17280.3
244.692	17250.41
244.763	17226.75
244.834	17188.97
244.906	17143.62
244.977	17105.79
245.048	17084.92
245.119	17040.1
245.191	17005.93
245.262	16950.46
245.333	16926.5
245.405	16893.15
245.476	16853.87
245.547	16823.75
245.618	16800.23
245.689	16768.47
245.761	16731.89
245.832	16695.94
245.903	16681
245.974	16644.13
246.045	16609.96
246.117	16597.96
246.188	16555.59
246.259	16513.85
246.33	16479.54
246.401	16449.65
246.473	16409.99
246.544	16374.9
246.615	16355.43
246.686	16318.51
246.757	16300.92
246.828	16258.46
246.899	16243.27
246.97	16199.41
247.042	16156.18
247.113	16124.18
247.184	16107.5
247.255	16077.38
247.326	16046.43
247.397	16009.46
247.468	15981.85
247.539	15949.55
247.61	15904.29
247.681	15888.72
247.752	15871.28
247.823	15842.98
247.894	15802.16
247.965	15757.43
248.037	15715.59
248.108	15664.55
248.179	15633.46
248.25	15597.74
248.321	15578.6
248.392	15522.79
248.463	15517.97
248.534	15483.31
248.605	15464.37
248.675	15426.39
248.746	15408.89
248.817	15393.03
248.888	15374.19
248.959	15326.95
249.03	15302.08
249.101	15272.58
249.172	15235.17
249.243	15179.06
249.314	15160.22
249.385	15144.21
249.456	15126.23
249.527	15099.14
249.598	15078.61
249.669	15047.08
249.739	15018.98
249.81	14991.07
249.881	14954.96
249.952	14925.95
250.023	14899.92
250.094	14853.45
250.165	14817.54
250.235	14786.83
250.306	14755.6
250.377	14713.56
250.448	14694.96
250.519	14643.57
250.59	14622.02
250.66	14582.11
250.731	14572.13
250.802	14549.47
250.873	14518.33
250.944	14489.75
251.014	14458.03
251.085	14454.8
251.156	14434.84
251.227	14426.07
251.297	14409.44
251.368	14398.3
251.439	14380.27
251.51	14367.55
251.58	14338.77
251.651	14309.07
251.722	14287.57
251.792	14243.85
251.863	14213.14
251.934	14192.32
252.005	14202.49
252.075	14187.02
252.146	14173.62
252.217	14162.19
252.287	14135.2
252.358	14109.69
252.429	14106.95
252.499	14068.04
252.57	14036.33
252.641	14022.3
252.711	13987.73
252.782	13941.5
252.852	13933.6
252.923	13898.89
252.994	13865.96
253.064	13848.13
253.135	13815.2
253.205	13784.88
253.276	13777.26
253.347	13774.52
253.417	13750.32
253.488	13711.9
253.558	13674.63
253.629	13653.71
253.699	13634.62
253.77	13623
253.841	13595.57
253.911	13577.83
253.982	13566.02
254.052	13550.16
254.123	13531.75
254.193	13513.33
254.264	13535.07
254.334	13500.7
254.405	13469.8
254.475	13444.93
254.546	13425.36
254.616	13415.14
254.687	13399.13
254.757	13375.56
254.827	13343.79
254.898	13322.72
254.968	13301.71
255.039	13277.99
255.109	13265.07
255.18	13229.83
255.25	13187.22
255.321	13176.13
255.391	13131.78
255.461	13130.43
255.532	13079.43
255.602	13046.65
255.673	13008.85
255.743	12970.87
255.813	12931.77
255.884	12927.77
255.954	12911.91
256.024	12908.44
256.095	12891.71
256.165	12858.74
256.235	12841.77
256.306	12818.3
256.376	12802.87
256.446	12793.37
256.517	12776.69
256.587	12766.23
256.657	12746.32
256.728	12725.55
256.798	12700.82
256.868	12676.91
256.938	12639.26
257.009	12643.79
257.079	12636.46
257.149	12636.46
257.219	12597.37
257.29	12578.33
257.36	12537.07
257.43	12515.86
257.5	12474.98
257.571	12441.38
257.641	12429.72
257.711	12402.48
257.781	12381.9
257.852	12371.1
257.922	12328.78
257.992	12306.36
258.062	12282.21
258.132	12273.87
258.202	12249.96
258.273	12235.55
258.343	12231.89
258.413	12215.16
258.483	12184.46
258.553	12144.83
258.623	12113.16
258.693	12098.03
258.764	12092.87
258.834	12086.41
258.904	12073.59
258.974	12043.08
259.044	12023.32
259.114	12007.03
259.184	11982.64
259.254	11960.46
259.324	11922.82
259.394	11913.76
259.464	11908.31
259.535	11884.84
259.605	11858.23
259.675	11836.54
259.745	11818.13
259.815	11783.95
259.885	11751.37
259.955	11757.54
260.025	11736.62
260.095	11711.85
260.165	11698.88
260.235	11694.06
260.305	11670.2
260.375	11642.3
260.445	11651.5
260.515	11652.13
260.585	11645.14
260.655	11632.66
260.725	11623.69
260.795	11605.52
260.865	11609.14
260.934	11585.52
261.004	11573.86
261.074	11556.51
261.144	11554.38
261.214	11544.99
261.284	11538.43
261.354	11533.95
261.424	11503.15
261.494	11506.96
261.564	11500.98
261.634	11492.69
261.703	11459.44
261.773	11447.63
261.843	11435.1
261.913	11410.37
261.983	11381.17
262.053	11367.04
262.123	11344.39
262.192	11317.6
262.262	11317.36
262.332	11280.34
262.402	11273.55
