Data from 20250630_urea_2M_MAYP1162681_02-42-26-681.txt Node
Date: Tue Jul 01 02:42:26 BST 2025
User: adleo
Spectrometer: MAYP116268
Trigger mode: 0
Integration Time (sec): 1.000000E0
Scans to average: 1
Electric dark correction enabled: true
Nonlinearity correction enabled: true
Boxcar width: 10
XAxis mode: Wavelengths
Number of Pixels in Spectrum: 2068
>>>>>Begin Spectral Data<<<<<
179.565	1069.04
179.642	1118.93
179.718	1158.08
179.795	1193.78
179.871	1221.72
179.948	1235.52
180.024	1254.14
180.101	1273.4
180.177	1287.86
180.254	1307.51
180.33	1326.04
180.407	1371.42
180.483	1455.22
180.56	1533.52
180.636	1608.1
180.712	1599.73
180.789	1607.57
180.865	1615.98
180.942	1625.48
181.018	1634.69
181.095	1647.33
181.171	1652.6
181.248	1651.99
181.324	1664.01
181.4	1668.66
181.477	1678.64
181.553	1692.89
181.63	1711.66
181.706	1724.16
181.782	1728.67
181.859	1727.91
181.935	1733.66
182.011	1729.1
182.088	1745.97
182.164	1764.98
182.24	1777.43
182.317	1786.93
182.393	1785.41
182.469	1800
182.546	1807.32
182.622	1810.93
182.698	1807.37
182.775	1816.4
182.851	1830.32
182.927	1828.33
183.003	1823.62
183.08	1817.54
183.156	1822.2
183.232	1816.87
183.308	1807.75
183.385	1815.21
183.461	1831.7
183.537	1834.22
183.613	1846.06
183.69	1833.98
183.766	1821.91
183.842	1827.23
183.918	1832.03
183.995	1842.35
184.071	1847.58
184.147	1845.44
184.223	1835.7
184.299	1846.39
184.375	1838.46
184.452	1845.21
184.528	1890.33
184.604	1902.25
184.68	1912.66
184.756	1923.22
184.832	1931.54
184.908	1936.57
184.985	1938.19
185.061	1923.26
185.137	1929.49
185.213	1917.61
185.289	1923.74
185.365	1916.71
185.441	1916.85
185.517	1927.41
185.593	1927.41
185.669	1922.27
185.745	1929.55
185.822	1943.09
185.898	1938.48
185.974	1944.7
186.05	1936.29
186.126	1901.49
186.202	1893.79
186.278	1891.6
186.354	1880.19
186.43	1881.09
186.506	1881.09
186.582	1881.04
186.658	1886.13
186.734	1866.22
186.81	1869.54
186.886	1870.49
186.962	1884.47
187.038	1881.04
187.114	1873.77
187.19	1882.09
187.266	1872.77
187.341	1875.82
187.417	1871.54
187.493	1868.97
187.569	1871.68
187.645	1866.98
187.721	1855.52
187.797	1865.64
187.873	1869.78
187.949	1865.64
188.025	1860.56
188.101	1859.41
188.176	1861.98
188.252	1859.42
188.328	1868.68
188.404	1866.21
188.48	1859.32
188.556	1852.52
188.632	1850.95
188.707	1850.43
188.783	1844.58
188.859	1839.31
188.935	1830.37
189.011	1834.98
189.086	1830.84
189.162	1823.05
189.238	1818.82
189.314	1817.92
189.39	1810.6
189.465	1802.85
189.541	1819.68
189.617	1807.98
189.693	1806.56
189.768	1810.27
189.844	1833.57
189.92	1825.87
189.996	1835.71
190.071	1849.83
190.147	1847.88
190.223	1856.01
190.298	1848.92
190.374	1837.95
190.45	1852.3
190.526	1857.53
190.601	1853.77
190.677	1853.72
190.753	1881.93
190.828	1886.34
190.904	1901.37
190.98	1915.59
191.055	1925.95
191.131	1915.06
191.207	1933.03
191.282	1941.16
191.358	1934.17
191.433	1919.47
191.509	1933.54
191.585	1929.4
191.66	1928.16
191.736	1934.2
191.811	1927.35
191.887	1939.96
191.963	1960.59
192.038	1963.73
192.114	1963.92
192.189	1967.2
192.265	1963.68
192.34	1941.66
192.416	1940.66
192.491	1933.91
192.567	1936.43
192.642	1939.28
192.718	1939.95
192.793	1929.25
192.869	1924.73
192.944	1927.3
193.02	1933.1
193.095	1933.86
193.171	1939.19
193.246	1939.99
193.322	1939.66
193.397	1939.66
193.473	1930.1
193.548	1913.13
193.624	1920.59
193.699	1918.6
193.775	1934.58
193.85	1937.86
193.925	1946.65
194.001	1947.18
194.076	1941.28
194.152	1929.44
194.227	1925.11
194.302	1917.46
194.378	1921.36
194.453	1922.45
194.529	1930.53
194.604	1919.65
194.679	1916.65
194.755	1901.4
194.83	1910.72
194.905	1907.49
194.981	1915.85
195.056	1909.06
195.131	1914.47
195.207	1911.29
195.282	1902.21
195.357	1883.38
195.433	1897.55
195.508	1885.42
195.583	1892.93
195.659	1907.34
195.734	1912.9
195.809	1909.72
195.884	1917.13
195.96	1917.7
196.035	1929.73
196.11	1927.83
196.185	1936.34
196.261	1936.48
196.336	1963.87
196.411	1954.07
196.486	1961.58
196.561	1955.11
196.637	1964.86
196.712	1982.08
196.787	1987.07
196.862	2003.09
196.937	2012.93
197.013	2017.26
197.088	2028.1
197.163	2044.23
197.238	2057.08
197.313	2058.5
197.388	2071.06
197.464	2097.6
197.539	2108.69
197.614	2098.75
197.689	2109.12
197.764	2127.53
197.839	2147.89
197.914	2141.61
197.989	2159.78
198.065	2171.34
198.14	2216.23
198.215	2240.59
198.29	2251.58
198.365	2261.24
198.44	2271.28
198.515	2296.31
198.59	2309.88
198.665	2330.77
198.74	2341.05
198.815	2343.72
198.89	2364.09
198.965	2390.32
199.04	2389.56
199.115	2402.84
199.19	2443
199.265	2449.85
199.34	2457.95
199.415	2486.67
199.49	2509.23
199.565	2519.32
199.64	2540.75
199.715	2539.13
199.79	2542.03
199.865	2548.27
199.94	2544.7
200.015	2574.42
200.09	2579.9
200.165	2585.9
200.24	2595.47
200.315	2633.13
200.39	2644.56
200.464	2649.33
200.539	2651.47
200.614	2664.38
200.689	2683.72
200.764	2692.29
200.839	2705.2
200.914	2708.2
200.989	2701.91
201.063	2712.96
201.138	2697.01
201.213	2697.68
201.288	2681.58
201.363	2685.58
201.438	2683.15
201.512	2698.86
201.587	2681.52
201.662	2683.61
201.737	2692.28
201.812	2701.2
201.886	2669.59
201.961	2680.17
202.036	2673.26
202.111	2669.78
202.186	2642.89
202.26	2628.64
202.335	2610.82
202.41	2605.01
202.485	2590.87
202.559	2571.3
202.634	2547.96
202.709	2557.62
202.784	2537.1
202.858	2536.44
202.933	2521.15
203.008	2515.91
203.082	2497.82
203.157	2497.2
203.232	2458.18
203.306	2439.84
203.381	2408.65
203.456	2387.56
203.53	2368.36
203.605	2345.19
203.68	2324.57
203.754	2321.43
203.829	2307.34
203.904	2285.83
203.978	2275.5
204.053	2279.12
204.127	2268.27
204.202	2265.46
204.277	2246.38
204.351	2243.05
204.426	2233.58
204.5	2226.15
204.575	2194.28
204.65	2204.94
204.724	2195.47
204.799	2204.79
204.873	2201.7
204.948	2197.03
205.022	2188.09
205.097	2179.05
205.171	2192.93
205.246	2199.07
205.32	2197.12
205.395	2198.84
205.469	2190.94
205.544	2193.71
205.618	2176.34
205.693	2183
205.767	2172.72
205.842	2191.95
205.916	2187.43
205.991	2181.81
206.065	2186.33
206.14	2199.84
206.214	2196.27
206.289	2192.22
206.363	2203.07
206.438	2206.11
206.512	2215.63
206.586	2232.81
206.661	2239.14
206.735	2222.78
206.81	2224.06
206.884	2238.43
206.958	2223.92
207.033	2240.66
207.107	2248.04
207.181	2281.03
207.256	2280.75
207.33	2298.35
207.405	2313.16
207.479	2329.82
207.553	2335.43
207.628	2321.21
207.702	2334.39
207.776	2327.73
207.851	2329.16
207.925	2342.96
207.999	2339.82
208.073	2339.92
208.148	2338.92
208.222	2330.16
208.296	2354.14
208.371	2369.19
208.445	2375.8
208.519	2403.97
208.593	2416.68
208.668	2412.92
208.742	2410.97
208.816	2413.11
208.89	2424.49
208.965	2423.68
209.039	2431.3
209.113	2446.73
209.187	2465.23
209.261	2460.38
209.336	2477.42
209.41	2497.9
209.484	2498.99
209.558	2519.85
209.632	2529.85
209.707	2538.56
209.781	2556.94
209.855	2575.89
209.929	2592.05
210.003	2601.1
210.077	2603.2
210.151	2643.86
210.226	2676.6
210.3	2702.1
210.374	2722.34
210.448	2729.35
210.522	2736.78
210.596	2747.41
210.67	2756.74
210.744	2802.21
210.818	2832.69
210.892	2854.42
210.966	2849.7
211.041	2866.62
211.115	2861.19
211.189	2888.5
211.263	2909.08
211.337	2917.47
211.411	2930.2
211.485	2926.67
211.559	2938.63
211.633	2941.92
211.707	2919.69
211.781	2931.57
211.855	2901.87
211.929	2897.11
212.003	2882.96
212.077	2899.17
212.151	2917.25
212.225	2931.5
212.299	2928.3
212.373	2928.87
212.447	2932.98
212.52	2969.59
212.594	2983.18
212.668	3010.69
212.742	3008.4
212.816	3018.18
212.89	3027.19
212.964	3045.27
213.038	3067.4
213.112	3100.7
213.186	3132.94
213.26	3133.37
213.333	3115.19
213.407	3150.42
213.481	3181.56
213.555	3221.88
213.629	3242.89
213.703	3259.69
213.777	3293.38
213.85	3312.33
213.924	3379.85
213.998	3424.54
214.072	3457.26
214.146	3489.3
214.219	3532.47
214.293	3578.59
214.367	3629.98
214.441	3692.45
214.515	3733.44
214.588	3767.46
214.662	3791.44
214.736	3835.49
214.81	3908.99
214.883	3981.73
214.957	4035.87
215.031	4094.02
215.105	4145.81
215.178	4203.06
215.252	4268.47
215.326	4322.95
215.4	4384.78
215.473	4418
215.547	4476.44
215.621	4549.64
215.694	4640.85
215.768	4709.84
215.842	4789.75
215.915	4870.08
215.989	4940.92
216.063	5030.95
216.136	5126.9
216.21	5224.76
216.284	5333.03
216.357	5425.39
216.431	5523.37
216.504	5631.24
216.578	5756.79
216.652	5870.99
216.725	5981.44
216.799	6099.87
216.873	6210.31
216.946	6329.6
217.02	6438.63
217.093	6550.87
217.167	6645.13
217.24	6736.58
217.314	6848.29
217.387	6955.59
217.461	7058.21
217.535	7182.61
217.608	7284.59
217.682	7398.55
217.755	7529.21
217.829	7638.98
217.902	7760.72
217.976	7872.18
218.049	7985
218.123	8087.13
218.196	8213.31
218.27	8318.19
218.343	8416.59
218.417	8537.71
218.49	8652.77
218.563	8782.81
218.637	8900.98
218.71	9044.39
218.784	9176.35
218.857	9299.26
218.931	9424.83
219.004	9544.87
219.077	9664.4
219.151	9780.02
219.224	9893.21
219.298	9996.96
219.371	10118.64
219.444	10223.22
219.518	10343.84
219.591	10455.27
219.665	10586.81
219.738	10696.61
219.811	10803.57
219.885	10930.15
219.958	11042.09
220.031	11148.11
220.105	11267.96
220.178	11376.49
220.251	11466.91
220.325	11576.65
220.398	11684.47
220.471	11785.54
220.544	11903
220.618	12002.15
220.691	12111.12
220.764	12215.72
220.838	12331.16
220.911	12428.34
220.984	12543.5
221.057	12643.66
221.131	12737.76
221.204	12805.77
221.277	12914.72
221.35	13039.76
221.424	13127.98
221.497	13223.66
221.57	13320.94
221.643	13409.59
221.716	13515.26
221.79	13600.73
221.863	13676.56
221.936	13765.89
222.009	13856.37
222.082	13941.31
222.155	14024.61
222.229	14127.67
222.302	14219.07
222.375	14296.1
222.448	14380.94
222.521	14462.75
222.594	14540.93
222.667	14617.48
222.74	14712.01
222.814	14781.96
222.887	14840.43
222.96	14927.68
223.033	15013.04
223.106	15090.65
223.179	15172.6
223.252	15240.85
223.325	15318.36
223.398	15396.25
223.471	15461.95
223.544	15532.04
223.617	15598.94
223.69	15665.94
223.763	15720.07
223.837	15789.48
223.91	15859.99
223.983	15902.02
224.056	15952.2
224.129	16023.87
224.202	16098.39
224.275	16159.55
224.348	16212.67
224.42	16269.59
224.493	16307.76
224.566	16355.52
224.639	16412.4
224.712	16452.4
224.785	16497.17
224.858	16547.25
224.931	16588.17
225.004	16629.91
225.077	16681.24
225.15	16707.75
225.223	16760.95
225.296	16831.99
225.369	16868.14
225.442	16900.52
225.514	16964.58
225.587	17026.46
225.66	17070.02
225.733	17119.47
225.806	17164.92
225.879	17208.92
225.952	17246.41
226.025	17309.93
226.097	17366.94
226.17	17406.85
226.243	17437.11
226.316	17487.52
226.389	17527.28
226.461	17584.78
226.534	17637.16
226.607	17680.34
226.68	17750.61
226.753	17785.35
226.825	17797.01
226.898	17846.56
226.971	17890.12
227.044	17930.99
227.117	17964.24
227.189	18007.76
227.262	18061.92
227.335	18107.9
227.407	18150.11
227.48	18199.17
227.553	18234.49
227.626	18273.96
227.698	18308.56
227.771	18359.4
227.844	18387.64
227.916	18428.41
227.989	18454.05
228.062	18492.26
228.134	18543.54
228.207	18577.46
228.28	18612.45
228.352	18649.51
228.425	18683.14
228.498	18734.66
228.57	18757.98
228.643	18800.25
228.716	18836.24
228.788	18853.01
228.861	18885.59
228.934	18920.72
229.006	18944.19
229.079	18979.56
229.151	18993.15
229.224	19021.15
229.296	19041.77
229.369	19098.15
229.442	19148.99
229.514	19165.86
229.587	19203.11
229.659	19208.51
229.732	19232.65
229.804	19271.49
229.877	19327.35
229.949	19369.22
230.022	19405.99
230.094	19436.3
230.167	19463.92
230.239	19473.36
230.312	19493.65
230.384	19531.53
230.457	19552.2
230.529	19579.43
230.602	19599.47
230.674	19627.18
230.747	19657.25
230.819	19696.05
230.892	19680.67
230.964	19697.98
231.037	19733.73
231.109	19746.94
231.181	19781.06
231.254	19792.38
231.326	19806.55
231.399	19810.64
231.471	19814.98
231.544	19809.2
231.616	19831.46
231.688	19850.26
231.761	19860.91
231.833	19876.42
231.905	19865.29
231.978	19887.51
232.05	19901.97
232.122	19917.15
232.195	19926.11
232.267	19944.95
232.339	19949.48
232.412	19983.79
232.484	19987.22
232.556	19990.06
232.629	20017.86
232.701	20027.99
232.773	20041.43
232.846	20047.45
232.918	20061.62
232.99	20071.36
233.062	20093
233.135	20106.1
233.207	20101.91
233.279	20116.13
233.351	20130.92
233.424	20129.62
233.496	20112.46
233.568	20138.87
233.64	20126.49
233.713	20132.95
233.785	20140.56
233.857	20155.21
233.929	20134.78
234.001	20151.02
234.074	20161.04
234.146	20140.99
234.218	20145.67
234.29	20141.19
234.362	20128.22
234.434	20110.63
234.507	20093.48
234.579	20074.25
234.651	20054.59
234.723	20058.35
234.795	20063.17
234.867	20051.36
234.939	20059.5
235.012	20071.98
235.084	20063.7
235.156	20076.51
235.228	20067.79
235.3	20052.71
235.372	20040.23
235.444	20049.33
235.516	20017.09
235.588	20019.89
235.66	20016.37
235.732	19996.52
235.804	20032.03
235.876	20034.68
235.948	20037.67
236.02	20040.18
236.092	20030.15
236.164	20025.91
236.236	20004.52
236.308	19992.47
236.38	19988.76
236.452	19970.3
236.524	19946.45
236.596	19946.54
236.668	19924.47
236.74	19906.79
236.812	19899.32
236.884	19886.98
236.956	19868.67
237.028	19846.5
237.1	19810.6
237.172	19809.3
237.244	19812.81
237.316	19770.21
237.388	19750.55
237.46	19727.03
237.532	19715.28
237.604	19675.86
237.675	19680.58
237.747	19670.84
237.819	19638.41
237.891	19618.22
237.963	19584.2
238.035	19570.13
238.107	19508.25
238.178	19506.37
238.25	19481.12
238.322	19467.77
238.394	19423.97
238.466	19401.08
238.538	19396.69
238.609	19382.67
238.681	19344.07
238.753	19312.31
238.825	19288.5
238.897	19275.11
238.968	19263.4
239.04	19227.78
239.112	19234.58
239.184	19196.7
239.255	19173.96
239.327	19143.21
239.399	19115.65
239.471	19116.47
239.542	19100.61
239.614	19094.54
239.686	19032.47
239.758	19025.72
239.829	18997.2
239.901	18993.82
239.973	18962.55
240.044	18930.21
240.116	18898.26
240.188	18872.1
240.259	18836.97
240.331	18799.33
240.403	18772.25
240.474	18736.44
240.546	18709.41
240.618	18664.49
240.689	18631
240.761	18605.37
240.833	18613.17
240.904	18577.56
240.976	18545.03
241.048	18511.64
241.119	18487.54
241.191	18473.85
241.262	18454.15
241.334	18422.29
241.405	18391.74
241.477	18367.02
241.549	18343.16
241.62	18326.73
241.692	18302.44
241.763	18288.76
241.835	18262.3
241.906	18231.02
241.978	18178.98
242.049	18152.95
242.121	18145.39
242.192	18126.06
242.264	18082.11
242.335	18024.04
242.407	18003.51
242.478	17966.55
242.55	17940.53
242.621	17907.04
242.693	17872.48
242.764	17842.51
242.836	17804.53
242.907	17775.18
242.979	17747.09
243.05	17723.09
243.122	17690.99
243.193	17657.26
243.264	17603.72
243.336	17572.34
243.407	17549.41
243.479	17543.53
243.55	17516.78
243.622	17477.5
243.693	17437.45
243.764	17409.12
243.836	17372.49
243.907	17341.26
243.978	17311.14
244.05	17282.95
244.121	17237.11
244.192	17214.8
244.264	17164.82
244.335	17135.52
244.407	17090.65
244.478	17062.89
244.549	17012.87
244.62	16971.81
244.692	16939.18
244.763	16919.66
244.834	16882.89
244.906	16842.45
244.977	16811.37
245.048	16799.9
245.119	16770.16
245.191	16743.41
245.262	16701.63
245.333	16684.56
245.405	16649.86
245.476	16622.82
245.547	16593.91
245.618	16570
245.689	16543.93
245.761	16516.41
245.832	16482.33
245.903	16456.5
245.974	16426.14
246.045	16403.39
246.117	16388.64
246.188	16349.21
246.259	16301.21
246.33	16273.16
246.401	16244.04
246.473	16201.05
246.544	16151.41
246.615	16125
246.686	16080.41
246.757	16064.03
246.828	16015.63
246.899	15998.52
246.97	15949.07
247.042	15909.45
247.113	15885.69
247.184	15868.87
247.255	15826.55
247.326	15799.03
247.397	15761.96
247.468	15733.47
247.539	15705.71
247.61	15659.34
247.681	15633.8
247.752	15612.2
247.823	15563.71
247.894	15529.83
247.965	15490.3
248.037	15458.39
248.108	15412.21
248.179	15380.79
248.25	15350.13
248.321	15330.66
248.392	15295.61
248.463	15287.95
248.534	15259.37
248.605	15239.31
248.675	15205.86
248.746	15183.16
248.817	15161.76
248.888	15148.5
248.959	15099.14
249.03	15072.54
249.101	15043.52
249.172	15013.1
249.243	14966.15
249.314	14958.15
249.385	14933.23
249.456	14905.61
249.527	14868.49
249.598	14841.59
249.669	14821.87
249.739	14795.51
249.81	14771.07
249.881	14723.06
249.952	14698.62
250.023	14659.33
250.094	14616.57
250.165	14576.66
250.235	14544.36
250.306	14514.67
250.377	14473.31
250.448	14457.5
250.519	14415.7
250.59	14404.71
250.66	14373.81
250.731	14370.05
250.802	14340.6
250.873	14319.63
250.944	14298.04
251.014	14273.93
251.085	14273.06
251.156	14251.32
251.227	14230.02
251.297	14217.87
251.368	14203.02
251.439	14175.5
251.51	14169.18
251.58	14133.61
251.651	14103.09
251.722	14090.22
251.792	14049.44
251.863	14024.9
251.934	14011.64
252.005	14005.38
252.075	13973.9
252.146	13960.64
252.217	13941.94
252.287	13930.13
252.358	13894.6
252.429	13886.74
252.499	13852.61
252.57	13826.97
252.641	13803.78
252.711	13785.56
252.782	13736.53
252.852	13734.07
252.923	13714.07
252.994	13692.86
253.064	13683.55
253.135	13647.69
253.205	13620.21
253.276	13617.07
253.347	13599.62
253.417	13568.29
253.488	13541.44
253.558	13512.51
253.629	13480.41
253.699	13464.79
253.77	13440.98
253.841	13414.75
253.911	13397.88
253.982	13382.69
254.052	13361.92
254.123	13337.48
254.193	13313.71
254.264	13345
254.334	13308.36
254.405	13281.65
254.475	13245.69
254.546	13220.77
254.616	13214.31
254.687	13191.31
254.757	13170.15
254.827	13144.12
254.898	13125.27
254.968	13098.76
255.039	13077.02
255.109	13064.34
255.18	13024.52
255.25	12983.5
255.321	12972.22
255.391	12931.1
255.461	12924.59
255.532	12883.47
255.602	12866.98
255.673	12825.04
255.743	12779.2
255.813	12732.88
255.884	12719.76
255.954	12700.67
256.024	12690.41
256.095	12667.65
256.165	12638.15
256.235	12613.71
256.306	12586.86
256.376	12576.5
256.446	12561.46
256.517	12544.1
256.587	12535.52
256.657	12518.6
256.728	12498.41
256.798	12476.43
256.868	12449.14
256.938	12423.59
257.009	12410.68
257.079	12390.04
257.149	12389.66
257.219	12356.06
257.29	12352.35
257.36	12308.29
257.43	12300.34
257.5	12269.49
257.571	12249.87
257.641	12235.02
257.711	12206.49
257.781	12202.58
257.852	12173.95
257.922	12140.3
257.992	12119.05
258.062	12092.87
258.132	12081.25
258.202	12068.63
258.273	12049.01
258.343	12046.45
258.413	12020.86
258.483	12003.89
258.553	11978.44
258.623	11952.03
258.693	11929.9
258.764	11921.23
258.834	11911.63
258.904	11892.98
258.974	11859.05
259.044	11837.5
259.114	11820.78
259.184	11806.9
259.254	11778.84
259.324	11753.3
259.394	11742.21
259.464	11742.6
259.535	11721.49
259.605	11693.19
259.675	11665.62
259.745	11650.06
259.815	11622.97
259.885	11598.68
259.955	11600.94
260.025	11568.46
260.095	11555.21
260.165	11545.81
260.235	11537.13
260.305	11511.11
260.375	11479.25
260.445	11485.32
260.515	11482.57
260.585	11481.32
260.655	11461.61
260.725	11451.58
260.795	11443
260.865	11442.76
260.934	11407.96
261.004	11399.24
261.074	11388.98
261.144	11375.48
261.214	11370.18
261.284	11350.04
261.354	11339.29
261.424	11307.81
261.494	11314.71
261.564	11291.14
261.634	11286.22
261.703	11250.66
261.773	11245.55
261.843	11242.03
261.913	11219.62
261.983	11180.1
262.053	11171.38
262.123	11147.24
262.192	11122.71
262.262	11105.98
262.332	11069.41
262.402	11063.48
262.472	11042.42
