Data from 20250630_urea_2M_MAYP1162681_05-12-26-942.txt Node
Date: Tue Jul 01 05:12:26 BST 2025
User: adleo
Spectrometer: MAYP116268
Trigger mode: 0
Integration Time (sec): 1.000000E0
Scans to average: 1
Electric dark correction enabled: true
Nonlinearity correction enabled: true
Boxcar width: 10
XAxis mode: Wavelengths
Number of Pixels in Spectrum: 2068
>>>>>Begin Spectral Data<<<<<
179.565	1057.15
179.642	1106.06
179.718	1141.76
179.795	1173.08
179.871	1200.08
179.948	1215.49
180.024	1233.24
180.101	1251.85
180.177	1263.99
180.254	1284.14
180.33	1305.6
180.407	1348.93
180.483	1431.83
180.56	1508.94
180.636	1582.05
180.712	1567.98
180.789	1580.33
180.865	1589.45
180.942	1596.95
181.018	1603.55
181.095	1612.58
181.171	1619.71
181.248	1619.33
181.324	1634.11
181.4	1642.37
181.477	1653.63
181.553	1666.65
181.63	1686.08
181.706	1701.43
181.782	1708.31
181.859	1707.13
181.935	1710.79
182.011	1706.37
182.088	1723.33
182.164	1742.96
182.24	1755.46
182.317	1767.33
182.393	1764.29
182.469	1776.17
182.546	1791.38
182.622	1796.37
182.698	1792.71
182.775	1803.92
182.851	1818.42
182.927	1810.39
183.003	1803.59
183.08	1797.13
183.156	1803.78
183.232	1799.27
183.308	1790.81
183.385	1798.98
183.461	1814.09
183.537	1814.24
183.613	1824.22
183.69	1815.76
183.766	1801.68
183.842	1807.86
183.918	1812.19
183.995	1822.31
184.071	1826.07
184.147	1818.08
184.223	1808.44
184.299	1817.99
184.375	1807.44
184.452	1810.44
184.528	1865.26
184.604	1876.47
184.68	1887.31
184.756	1891.49
184.832	1893.92
184.908	1895.72
184.985	1895.72
185.061	1882.94
185.137	1889.64
185.213	1879.47
185.289	1879.71
185.365	1875.48
185.441	1872.53
185.517	1884.28
185.593	1880.57
185.669	1879.05
185.745	1890.36
185.822	1906.23
185.898	1901.52
185.974	1905.23
186.05	1897.24
186.126	1857.35
186.202	1850.79
186.278	1848.74
186.354	1841.99
186.43	1851.03
186.506	1849.94
186.582	1851.93
186.658	1854.97
186.734	1837.06
186.81	1839.81
186.886	1842.05
186.962	1854.5
187.038	1851.79
187.114	1843.51
187.19	1852.02
187.266	1845.37
187.341	1843.09
187.417	1838.38
187.493	1839.33
187.569	1847.56
187.645	1841.66
187.721	1831.21
187.797	1839.62
187.873	1839.9
187.949	1833.87
188.025	1828.11
188.101	1830.39
188.176	1831.63
188.252	1830.06
188.328	1838.14
188.404	1839.14
188.48	1837.09
188.556	1827.4
188.632	1828.06
188.707	1831.44
188.783	1829.11
188.859	1824.31
188.935	1815.33
189.011	1820.13
189.086	1812.38
189.162	1803.16
189.238	1803.35
189.314	1800.07
189.39	1792.89
189.465	1790.52
189.541	1808.34
189.617	1793.32
189.693	1789.85
189.768	1792.28
189.844	1813.96
189.92	1807.88
189.996	1819.05
190.071	1829.22
190.147	1829.46
190.223	1840.73
190.298	1831.74
190.374	1821
190.45	1829.51
190.526	1837.21
190.601	1833.21
190.677	1836.92
190.753	1863.41
190.828	1866.97
190.904	1881.47
190.98	1896.49
191.055	1904.05
191.131	1892.5
191.207	1912.7
191.282	1920.59
191.358	1913.13
191.433	1898.81
191.509	1911.41
191.585	1904.13
191.66	1901.42
191.736	1910.41
191.811	1899.28
191.887	1913.64
191.963	1936.84
192.038	1943.97
192.114	1944.16
192.189	1949.06
192.265	1945.31
192.34	1921.05
192.416	1920.57
192.491	1916.82
192.567	1918.43
192.642	1920.34
192.718	1925.23
192.793	1912.16
192.869	1907.88
192.944	1912.02
193.02	1922.29
193.095	1925.04
193.171	1930.8
193.246	1932.32
193.322	1928.9
193.397	1927.61
193.473	1913.92
193.548	1894.18
193.624	1897.94
193.699	1897.75
193.775	1911.26
193.85	1911.4
193.925	1920.38
194.001	1921.14
194.076	1914.58
194.152	1903.27
194.227	1896.99
194.302	1885.3
194.378	1887.49
194.453	1885.59
194.529	1894.81
194.604	1879.6
194.679	1873.8
194.755	1856.64
194.83	1867.58
194.905	1864.49
194.981	1876.8
195.056	1873.05
195.131	1878.37
195.207	1877.37
195.282	1866.87
195.357	1849.32
195.433	1865.39
195.508	1855.74
195.583	1862.11
195.659	1877.14
195.734	1885.55
195.809	1885.5
195.884	1894.96
195.96	1895.91
196.035	1909.03
196.11	1905.65
196.185	1916.87
196.261	1917.92
196.336	1947.73
196.411	1933.65
196.486	1940.49
196.561	1932.89
196.637	1940.02
196.712	1954.38
196.787	1955.71
196.862	1970.78
196.937	1979.53
197.013	1983.24
197.088	1991.75
197.163	2011.87
197.238	2025.72
197.313	2026.72
197.388	2041.17
197.464	2068.15
197.539	2078.18
197.614	2072.33
197.689	2081.18
197.764	2096.45
197.839	2116.8
197.914	2109
197.989	2131.5
198.065	2141.68
198.14	2185.85
198.215	2210.26
198.29	2220.97
198.365	2233.62
198.44	2243.75
198.515	2270.12
198.59	2284.68
198.665	2309.04
198.74	2316.61
198.815	2319.14
198.89	2339.5
198.965	2366.5
199.04	2362.12
199.115	2376.49
199.19	2417.8
199.265	2421.37
199.34	2429.56
199.415	2461.66
199.49	2480.79
199.565	2487.55
199.64	2510.74
199.715	2509.02
199.79	2512.07
199.865	2520.5
199.94	2520.78
200.015	2551.36
200.09	2552.98
200.165	2556.07
200.24	2560.22
200.315	2594.77
200.39	2604.73
200.464	2611.2
200.539	2606.34
200.614	2621.63
200.689	2645.97
200.764	2649.64
200.839	2666.01
200.914	2668.92
200.989	2654.96
201.063	2666.91
201.138	2652.06
201.213	2652.73
201.288	2636.77
201.363	2643.25
201.438	2641.34
201.512	2651.72
201.587	2635.67
201.662	2641.24
201.737	2653.39
201.812	2662.77
201.886	2633.88
201.961	2642.17
202.036	2630.89
202.111	2631.84
202.186	2603
202.26	2583.56
202.335	2561.98
202.41	2556.7
202.485	2541.65
202.559	2526.18
202.634	2504.99
202.709	2510.51
202.784	2492.65
202.858	2490.23
202.933	2472.56
203.008	2465.99
203.082	2450.19
203.157	2446.38
203.232	2406.12
203.306	2387.26
203.381	2358.59
203.456	2334.46
203.53	2315.31
203.605	2297.52
203.68	2277.38
203.754	2274.09
203.829	2263.38
203.904	2246.4
203.978	2233.93
204.053	2237.45
204.127	2224.37
204.202	2220.32
204.277	2208.38
204.351	2204
204.426	2198.2
204.5	2191.54
204.575	2161.43
204.65	2169.99
204.724	2164.57
204.799	2173.84
204.873	2170.27
204.948	2169.7
205.022	2161.8
205.097	2156.23
205.171	2168.08
205.246	2174.12
205.32	2172.12
205.395	2171.65
205.469	2163.76
205.544	2170.61
205.618	2156.91
205.693	2169.04
205.767	2161.67
205.842	2180.51
205.916	2172.8
205.991	2164.05
206.065	2169.52
206.14	2182.79
206.214	2178.55
206.289	2173.22
206.363	2184.64
206.438	2187.78
206.512	2193.2
206.586	2209.61
206.661	2216.9
206.735	2198.73
206.81	2199.25
206.884	2214.33
206.958	2202.87
207.033	2219.47
207.107	2226.8
207.181	2253.45
207.256	2248.36
207.33	2266.63
207.405	2277.44
207.479	2293.86
207.553	2300.18
207.628	2284.3
207.702	2293.67
207.776	2290.29
207.851	2290.96
207.925	2301.81
207.999	2296.39
208.073	2295.34
208.148	2296.77
208.222	2282.72
208.296	2309.13
208.371	2324.7
208.445	2335.27
208.519	2360.49
208.593	2370.29
208.668	2366.2
208.742	2367.1
208.816	2369.05
208.89	2378.53
208.965	2378.1
209.039	2386.15
209.113	2401.47
209.187	2421.07
209.261	2418.26
209.336	2435.12
209.41	2451.83
209.484	2451.26
209.558	2472.44
209.632	2485.34
209.707	2499.53
209.781	2521.43
209.855	2536.67
209.929	2552.02
210.003	2556.69
210.077	2557.21
210.151	2600.25
210.226	2629.98
210.3	2658.54
210.374	2679.87
210.448	2683.96
210.522	2694.73
210.596	2705.59
210.67	2715.41
210.744	2758.34
210.818	2787.86
210.892	2806.69
210.966	2804.07
211.041	2820.93
211.115	2819.79
211.189	2840.76
211.263	2854.24
211.337	2862.53
211.411	2877.5
211.485	2872.97
211.559	2885.74
211.633	2887.69
211.707	2861.56
211.781	2873.01
211.855	2844.36
211.929	2841.69
212.003	2828.59
212.077	2842.95
212.151	2856.96
212.225	2868.93
212.299	2865.3
212.373	2863.63
212.447	2868.3
212.52	2903.29
212.594	2917.27
212.668	2938.48
212.742	2937.9
212.816	2945.29
212.89	2949.11
212.964	2960.6
213.038	2977.34
213.112	3003.77
213.186	3036.8
213.26	3035.9
213.333	3013.1
213.407	3036.17
213.481	3061.1
213.555	3094.55
213.629	3105.14
213.703	3115.45
213.777	3143.69
213.85	3152
213.924	3210.6
213.998	3238.09
214.072	3262.11
214.146	3282.68
214.219	3311.65
214.293	3341.51
214.367	3379.61
214.441	3432.73
214.515	3466.69
214.588	3490.75
214.662	3508.89
214.736	3534.63
214.81	3592.75
214.883	3650.64
214.957	3692.61
215.031	3733.05
215.105	3767.09
215.178	3811.38
215.252	3861.59
215.326	3895.8
215.4	3940.85
215.473	3955.67
215.547	4000.51
215.621	4055.18
215.694	4129.32
215.768	4180.44
215.842	4239.3
215.915	4298.96
215.989	4343.74
216.063	4405.33
216.136	4478.83
216.21	4550.94
216.284	4639.82
216.357	4722.6
216.431	4796.13
216.504	4886.68
216.578	4983.99
216.652	5076.05
216.725	5159.42
216.799	5262.46
216.873	5352.58
216.946	5455.08
217.02	5550.2
217.093	5646.14
217.167	5714.56
217.24	5788.96
217.314	5879.02
217.387	5969.03
217.461	6054.71
217.535	6164.79
217.608	6254.29
217.682	6357.16
217.755	6461.18
217.829	6548.38
217.902	6641.16
217.976	6742.1
218.049	6831.19
218.123	6919.16
218.196	7019.45
218.27	7111.31
218.343	7191.77
218.417	7288.08
218.49	7380.8
218.563	7484.52
218.637	7579.86
218.71	7703.81
218.784	7809.56
218.857	7916.99
218.931	8021.63
219.004	8130.24
219.077	8239.46
219.151	8338.42
219.224	8429.7
219.298	8527.82
219.371	8642.5
219.444	8733.99
219.518	8826.29
219.591	8926.07
219.665	9050.72
219.738	9158.5
219.811	9248.47
219.885	9357.53
219.958	9464.62
220.031	9556.68
220.105	9657.19
220.178	9756.25
220.251	9842.13
220.325	9946.18
220.398	10045.4
220.471	10145.16
220.544	10244.74
220.618	10322.5
220.691	10421.98
220.764	10513.42
220.838	10611.18
220.911	10696.23
220.984	10803.73
221.057	10905.83
221.131	11000.08
221.204	11060.66
221.277	11164.85
221.35	11288.7
221.424	11373.09
221.497	11463.55
221.57	11549.86
221.643	11642.54
221.716	11731.61
221.79	11814.7
221.863	11895.63
221.936	11980.17
222.009	12060.72
222.082	12146.76
222.155	12227.54
222.229	12317.82
222.302	12400.49
222.375	12474.77
222.448	12558.5
222.521	12629.27
222.594	12704.9
222.667	12766.46
222.74	12856.02
222.814	12922.3
222.887	12991.14
222.96	13070.34
223.033	13153.64
223.106	13232.46
223.179	13309.11
223.252	13382.72
223.325	13453.34
223.398	13517.12
223.471	13583.21
223.544	13655.52
223.617	13719.97
223.69	13788.23
223.763	13838.7
223.837	13919.01
223.91	13992.62
223.983	14038.37
224.056	14093.52
224.129	14158.69
224.202	14240.89
224.275	14293.67
224.348	14334.94
224.42	14381.55
224.493	14424.64
224.566	14474.25
224.639	14538.7
224.712	14584.88
224.785	14638.43
224.858	14703.65
224.931	14756.58
225.004	14803.97
225.077	14856.56
225.15	14892.85
225.223	14952.1
225.296	15031.58
225.369	15056.46
225.442	15100.37
225.514	15159.22
225.587	15225.16
225.66	15284.93
225.733	15332.99
225.806	15392.04
225.879	15450.41
225.952	15497.65
226.025	15562.62
226.097	15628.61
226.17	15680.33
226.243	15718.41
226.316	15772.49
226.389	15815.82
226.461	15876.02
226.534	15925.14
226.607	15979.07
226.68	16051.42
226.753	16098.7
226.825	16130.27
226.898	16191.68
226.971	16245.18
227.044	16298.58
227.117	16344.46
227.189	16392.61
227.262	16454.06
227.335	16503.08
227.407	16544.29
227.48	16588.24
227.553	16630.61
227.626	16667.38
227.698	16717.94
227.771	16778.66
227.844	16811.87
227.916	16854.28
227.989	16881.95
228.062	16930.05
228.134	16986.24
228.207	17025.13
228.28	17057.38
228.352	17098.73
228.425	17151.59
228.498	17200.94
228.57	17229.91
228.643	17282.01
228.716	17325.48
228.788	17356.13
228.861	17379.84
228.934	17434.83
229.006	17475.55
229.079	17512.46
229.151	17537.62
229.224	17549.28
229.296	17587.31
229.369	17648.51
229.442	17701.09
229.514	17742.1
229.587	17782.48
229.659	17807.54
229.732	17838.63
229.804	17890.67
229.877	17949.71
229.949	17995.88
230.022	18043.92
230.094	18081.94
230.167	18109.08
230.239	18127.24
230.312	18158.04
230.384	18224.83
230.457	18253.5
230.529	18287.24
230.602	18331.14
230.674	18365.4
230.747	18415.95
230.819	18456.19
230.892	18459.08
230.964	18490.79
231.037	18513.97
231.109	18545.59
231.181	18576.91
231.254	18593.78
231.326	18611.75
231.399	18629.1
231.471	18639.03
231.544	18633.58
231.616	18676.04
231.688	18710.35
231.761	18730.39
231.833	18749.77
231.905	18733.53
231.978	18769.67
232.05	18788.51
232.122	18802.53
232.195	18827.74
232.267	18860.99
232.339	18873.52
232.412	18909.08
232.484	18925.18
232.556	18942.91
232.629	18980.6
232.701	19003.05
232.773	19024.06
232.846	19038.18
232.918	19051.58
232.99	19072.59
233.062	19098.23
233.135	19107.43
233.207	19097.26
233.279	19122.27
233.351	19142.51
233.424	19170.37
233.496	19172.63
233.568	19209.59
233.64	19218.7
233.713	19220.1
233.785	19216.15
233.857	19224.68
233.929	19221.01
234.001	19247.08
234.074	19272.91
234.146	19257.59
234.218	19261.45
234.29	19265.97
234.362	19274.07
234.434	19258.99
234.507	19255.86
234.579	19254.55
234.651	19256.67
234.723	19281.2
234.795	19285.54
234.867	19287.23
234.939	19296.24
235.012	19297.15
235.084	19285.59
235.156	19283.47
235.228	19283.56
235.3	19287.13
235.372	19290.36
235.444	19292.53
235.516	19259.28
235.588	19260.19
235.66	19256.19
235.732	19251.37
235.804	19302.84
235.876	19304.38
235.948	19323.71
236.02	19325.06
236.092	19319.51
236.164	19313.78
236.236	19297.4
236.308	19287.28
236.38	19288.62
236.452	19272.53
236.524	19266.79
236.596	19283.56
236.668	19286.36
236.74	19285.2
236.812	19287.23
236.884	19288.87
236.956	19289.83
237.028	19273.83
237.1	19251.23
237.172	19265.59
237.244	19276.58
237.316	19238.6
237.388	19221.25
237.46	19200.68
237.532	19191.18
237.604	19174.7
237.675	19176.49
237.747	19174.03
237.819	19155.86
237.891	19129.55
237.963	19126.61
238.035	19110.56
238.107	19052.16
238.178	19049.27
238.25	19028.98
238.322	19026.76
238.394	18984.16
238.466	18967.87
238.538	18962.77
238.609	18950.09
238.681	18915.35
238.753	18879.69
238.825	18858.29
238.897	18842.05
238.968	18842.15
239.04	18817.33
239.112	18819.93
239.184	18789.38
239.255	18768.17
239.327	18754.3
239.399	18746.39
239.471	18725.14
239.542	18704.23
239.614	18712.8
239.686	18662.83
239.758	18653.05
239.829	18623.99
239.901	18626.26
239.973	18603.03
240.044	18580.19
240.116	18560.91
240.188	18534.16
240.259	18512.33
240.331	18481.4
240.403	18463.57
240.474	18429.83
240.546	18408.24
240.618	18367.43
240.689	18337.79
240.761	18306.8
240.833	18294.23
240.904	18257.99
240.976	18230.95
241.048	18205.36
241.119	18183.68
241.191	18174.81
241.262	18164.06
241.334	18126.09
241.405	18087.73
241.477	18051.83
241.549	18033.03
241.62	18003.83
241.692	17985.03
241.763	17964.26
241.835	17934.77
241.906	17914.58
241.978	17874.68
242.049	17856.85
242.121	17841.86
242.192	17831.88
242.264	17788.75
242.335	17751.11
242.407	17735.59
242.478	17705.38
242.55	17680.03
242.621	17642.54
242.693	17602.05
242.764	17573.62
242.836	17549.04
242.907	17525.48
242.979	17504.27
243.05	17479.89
243.122	17454.78
243.193	17418.97
243.264	17368.8
243.336	17343.16
243.407	17320.32
243.479	17304.8
243.55	17279.65
243.622	17251.55
243.693	17220.18
243.764	17213.72
243.836	17166.58
243.907	17131.02
243.978	17100.41
244.05	17082.24
244.121	17042.63
244.192	17027.64
244.264	16970.29
244.335	16941.37
244.407	16903.3
244.478	16883.68
244.549	16844.98
244.62	16805.17
244.692	16781.7
244.763	16767.29
244.834	16727
244.906	16677.21
244.977	16650.08
245.048	16622.7
245.119	16588.24
245.191	16547.86
245.262	16500.19
245.333	16493.73
245.405	16470.69
245.476	16448.57
245.547	16413.19
245.618	16393.1
245.689	16361.87
245.761	16342.88
245.832	16315.98
245.903	16292.94
245.974	16262.39
246.045	16226.53
246.117	16213.37
246.188	16171.39
246.259	16125.12
246.33	16098.9
246.401	16071.81
246.473	16026.36
246.544	15992.04
246.615	15972.81
246.686	15938.2
246.757	15922.87
246.828	15872.75
246.899	15845.85
246.97	15798.66
247.042	15769.26
247.113	15739.19
247.184	15732.53
247.255	15698.99
247.326	15675.42
247.397	15639.51
247.468	15611.84
247.539	15590.78
247.61	15547.97
247.681	15527.2
247.752	15511.44
247.823	15470.03
247.894	15445.02
247.965	15412.43
248.037	15376.33
248.108	15327.02
248.179	15293.23
248.25	15250.13
248.321	15238.18
248.392	15200.34
248.463	15194.56
248.534	15162.94
248.605	15150.4
248.675	15107.12
248.746	15092.51
248.817	15050
248.888	15028.6
248.959	14985.46
249.03	14965.6
249.101	14942.7
249.172	14912.04
249.243	14865.14
249.314	14849.76
249.385	14827.54
249.456	14803.73
249.527	14774.37
249.598	14747.14
249.669	14721.54
249.739	14708.43
249.81	14686.64
249.881	14653.18
249.952	14621.27
250.023	14592.83
250.094	14544.05
250.165	14512.38
250.235	14475.31
250.306	14456.7
250.377	14416.64
250.448	14394.08
250.519	14347.33
250.59	14328.19
250.66	14301
250.731	14298.06
250.802	14279.5
250.873	14249.66
250.944	14222.14
251.014	14183.09
251.085	14190.37
251.156	14169.98
251.227	14155.27
251.297	14134.59
251.368	14114.59
251.439	14101.24
251.51	14083.69
251.58	14051.78
251.651	14014.27
251.722	14002.12
251.792	13957.63
251.863	13935.07
251.934	13920.41
252.005	13920.94
252.075	13899.97
252.146	13878.76
252.217	13854.52
252.287	13826.27
252.358	13801.25
252.429	13791.03
252.499	13767.6
252.57	13737.33
252.641	13728.12
252.711	13699.29
252.782	13655.33
252.852	13650.17
252.923	13621.39
252.994	13602.15
253.064	13587.11
253.135	13562.29
253.205	13526.08
253.276	13522.37
253.347	13513.55
253.417	13478.36
253.488	13450.16
253.558	13411.21
253.629	13386.04
253.699	13369.9
253.77	13360.06
253.841	13330.03
253.911	13304.72
253.982	13283.56
254.052	13270.64
254.123	13243.98
254.193	13219.68
254.264	13231.06
254.334	13203.15
254.405	13160.05
254.475	13119.9
254.546	13099.46
254.616	13090.68
254.687	13074.87
254.757	13052.36
254.827	13030.62
254.898	13018.13
254.968	12990.41
255.039	12971.28
255.109	12963.27
255.18	12928.9
255.25	12885.71
255.321	12876.55
255.391	12854.57
255.461	12857.08
255.532	12800.44
255.602	12771.66
255.673	12735.07
255.743	12717.28
255.813	12670.47
255.884	12664.93
255.954	12658.52
256.024	12648.69
256.095	12622.56
256.165	12589.68
256.235	12572.38
256.306	12541.48
256.376	12528.32
256.446	12518.34
256.517	12499.3
256.587	12485.8
256.657	12466.86
256.728	12450.08
256.798	12422.41
256.868	12397.64
256.938	12370.79
257.009	12361.19
257.079	12347.17
257.149	12347.17
257.219	12294.34
257.29	12278.57
257.36	12239.43
257.43	12223.43
257.5	12182.6
257.571	12165.35
257.641	12155.37
257.711	12131.41
257.781	12125.1
257.852	12104.37
257.922	12067.54
257.992	12050.82
258.062	12023.73
258.132	12014.28
258.202	11994.66
258.273	11980.35
258.343	11973.93
258.413	11946.07
258.483	11929.11
258.553	11895.66
258.623	11870.06
258.693	11861.77
258.764	11860.04
258.834	11852.03
258.904	11831.31
258.974	11803.31
259.044	11780.03
259.114	11762.19
259.184	11736.26
259.254	11708.98
259.324	11672.49
259.394	11655.77
259.464	11652.11
259.535	11632.01
259.605	11603.96
259.675	11576.05
259.745	11559.95
259.815	11527.47
259.885	11501.97
259.955	11508.77
260.025	11482.45
260.095	11465.44
260.165	11452.14
260.235	11450.93
260.305	11428.38
260.375	11403.8
260.445	11411.46
260.515	11400.18
260.585	11389.96
260.655	11376.71
260.725	11366.3
260.795	11357.14
260.865	11357.14
260.934	11328.8
261.004	11317.91
261.074	11300.66
261.144	11294.49
261.214	11283.98
261.284	11269.29
261.354	11263.5
261.424	11228.85
261.494	11237.43
261.564	11221.72
261.634	11209.86
261.703	11168.51
261.773	11158.49
261.843	11141.43
261.913	11118.82
261.983	11090.58
262.053	11076.17
262.123	11059.64
262.192	11026.83
262.262	11015.55
262.332	10983.36
262.402	10973
262.472	10953.19
