Data from 20250630_urea_2M_MAYP1162681_11-32-27-103.txt Node
Date: Tue Jul 01 11:32:27 BST 2025
User: adleo
Spectrometer: MAYP116268
Trigger mode: 0
Integration Time (sec): 1.000000E0
Scans to average: 1
Electric dark correction enabled: true
Nonlinearity correction enabled: true
Boxcar width: 10
XAxis mode: Wavelengths
Number of Pixels in Spectrum: 2068
>>>>>Begin Spectral Data<<<<<
179.565	1125.81
179.642	1177.46
179.718	1219.02
179.795	1253.64
179.871	1278.85
179.948	1297.18
180.024	1318.33
180.101	1339.3
180.177	1353.91
180.254	1374.34
180.33	1395.35
180.407	1443.96
180.483	1533.8
180.56	1615.13
180.636	1692.51
180.712	1679.63
180.789	1689.04
180.865	1702.39
180.942	1709.42
181.018	1719.78
181.095	1734.75
181.171	1738.55
181.248	1738.6
181.324	1752.72
181.4	1758.8
181.477	1773.06
181.553	1783.84
181.63	1800.57
181.706	1815.93
181.782	1823.15
181.859	1822.39
181.935	1826.48
182.011	1821.87
182.088	1837.41
182.164	1857.47
182.24	1870.97
182.317	1880.57
182.393	1879.86
182.469	1894.21
182.546	1908.52
182.622	1915.18
182.698	1909.8
182.775	1920.07
182.851	1935.24
182.927	1926.68
183.003	1924.45
183.08	1918.5
183.156	1927.06
183.232	1924.68
183.308	1912.66
183.385	1919.17
183.461	1936.47
183.537	1939.09
183.613	1949.26
183.69	1941.27
183.766	1931.86
183.842	1940.75
183.918	1949.31
183.995	1959.81
184.071	1960.48
184.147	1956.44
184.223	1941.99
184.299	1952.69
184.375	1942.71
184.452	1948.65
184.528	2004.4
184.604	2011.67
184.68	2020.33
184.756	2028.51
184.832	2033.97
184.908	2039.49
184.985	2040.25
185.061	2025.75
185.137	2031.93
185.213	2023.8
185.289	2023.13
185.365	2019.28
185.441	2017.28
185.517	2028.42
185.593	2026.61
185.669	2024.47
185.745	2032.89
185.822	2050.38
185.898	2041.49
185.974	2051.52
186.05	2041.96
186.126	2001.43
186.202	1994.39
186.278	1994.06
186.354	1985.59
186.43	1990.4
186.506	1990.97
186.582	1990.59
186.658	1994.48
186.734	1977.99
186.81	1979.89
186.886	1984.17
186.962	1993.11
187.038	1988.4
187.114	1977.79
187.19	1984.64
187.266	1975.8
187.341	1977.75
187.417	1972.37
187.493	1970.23
187.569	1971.85
187.645	1966.48
187.721	1955.45
187.797	1968.42
187.873	1971.18
187.949	1967.14
188.025	1963.34
188.101	1963.57
188.176	1967.33
188.252	1963.48
188.328	1970.42
188.404	1970.85
188.48	1964.57
188.556	1957.25
188.632	1956.2
188.707	1960.34
188.783	1957.01
188.859	1953.21
188.935	1942.03
189.011	1949.07
189.086	1946.88
189.162	1940.7
189.238	1941.13
189.314	1940.42
189.39	1933.38
189.465	1925.91
189.541	1939.37
189.617	1924.78
189.693	1920.36
189.768	1924.83
189.844	1950.61
189.92	1942.19
189.996	1950.9
190.071	1961.69
190.147	1962.78
190.223	1972.53
190.298	1961.26
190.374	1948.42
190.45	1959.74
190.526	1964.16
190.601	1958.07
190.677	1960.5
190.753	1986.09
190.828	1988.23
190.904	2001.93
190.98	2016.58
191.055	2027.61
191.131	2019.19
191.207	2034.45
191.282	2043.2
191.358	2033.45
191.433	2019.94
191.509	2033.06
191.585	2029.82
191.66	2030.58
191.736	2034.15
191.811	2025.26
191.887	2038.62
191.963	2060.93
192.038	2065.59
192.114	2068.92
192.189	2072.24
192.265	2068.11
192.34	2047.27
192.416	2045.03
192.491	2041.13
192.567	2041.75
192.642	2043.94
192.718	2045.65
192.793	2037.85
192.869	2033.14
192.944	2034.76
193.02	2040.47
193.095	2044.65
193.171	2049.84
193.246	2048.32
193.322	2048.51
193.397	2048.93
193.473	2041.61
193.548	2022.54
193.624	2026.77
193.699	2022.68
193.775	2038.28
193.85	2038.71
193.925	2045.89
194.001	2045.23
194.076	2035.34
194.152	2026.54
194.227	2020.64
194.302	2009.75
194.378	2014.17
194.453	2013.6
194.529	2022.97
194.604	2010.65
194.679	2002.62
194.755	1984.6
194.83	1997.35
194.905	1995.69
194.981	2002.96
195.056	1996.02
195.131	2002.96
195.207	2004.1
195.282	1997.26
195.357	1978.47
195.433	1992.21
195.508	1982.08
195.583	1988.92
195.659	2006.24
195.734	2011.61
195.809	2009.38
195.884	2016.79
195.96	2018.17
196.035	2032.44
196.11	2029.59
196.185	2037.86
196.261	2043.42
196.336	2072.43
196.411	2060.54
196.486	2064.15
196.561	2061.54
196.637	2067.48
196.712	2083.94
196.787	2085.75
196.862	2099.73
196.937	2109.01
197.013	2117.9
197.088	2128.65
197.163	2152.4
197.238	2165.82
197.313	2165.73
197.388	2179.47
197.464	2210.5
197.539	2218.02
197.614	2210.12
197.689	2223.35
197.764	2240.24
197.839	2257.99
197.914	2252.42
197.989	2274.41
198.065	2288.68
198.14	2334.68
198.215	2359.48
198.29	2371.67
198.365	2381.71
198.44	2394.18
198.515	2420.65
198.59	2434.26
198.665	2457.59
198.74	2464.55
198.815	2467.02
198.89	2488.63
198.965	2519.21
199.04	2514.54
199.115	2531.35
199.19	2571.72
199.265	2575.67
199.34	2585.1
199.415	2617.07
199.49	2637.5
199.565	2644.12
199.64	2666.36
199.715	2664.83
199.79	2673.31
199.865	2679.08
199.94	2678.17
200.015	2706.86
200.09	2712
200.165	2715.76
200.24	2718.53
200.315	2758.01
200.39	2770.11
200.464	2777.88
200.539	2777.12
200.614	2791.22
200.689	2813.86
200.764	2821.48
200.839	2841.39
200.914	2846.06
200.989	2837.58
201.063	2852.11
201.138	2837.92
201.213	2839.02
201.288	2815.72
201.363	2819.82
201.438	2817.86
201.512	2833.34
201.587	2817.09
201.662	2820.42
201.737	2835.06
201.812	2847.4
201.886	2815.06
201.961	2826.27
202.036	2812.4
202.111	2808.02
202.186	2779.92
202.26	2760.48
202.335	2738.75
202.41	2731.03
202.485	2717.07
202.559	2695.92
202.634	2670.48
202.709	2677.38
202.784	2656.81
202.858	2659.47
202.933	2642.18
203.008	2640.18
203.082	2620.94
203.157	2620.28
203.232	2580
203.306	2559.17
203.381	2527.64
203.456	2504.4
203.53	2481.38
203.605	2464.77
203.68	2444.38
203.754	2441.43
203.829	2431.24
203.904	2412.96
203.978	2398.63
204.053	2401.3
204.127	2392.4
204.202	2387.64
204.277	2374.88
204.351	2369.69
204.426	2362.41
204.5	2355.46
204.575	2317.72
204.65	2331.15
204.724	2319.53
204.799	2326.04
204.873	2321.38
204.948	2321.23
205.022	2312.05
205.097	2305.96
205.171	2318.57
205.246	2326.8
205.32	2323.66
205.395	2320.81
205.469	2315.96
205.544	2323.43
205.618	2306.34
205.693	2313.72
205.767	2302.21
205.842	2319.2
205.916	2315.44
205.991	2307.02
206.065	2312.73
206.14	2327.19
206.214	2321.52
206.289	2319.57
206.363	2333.23
206.438	2335.27
206.512	2341.99
206.586	2356.69
206.661	2363.79
206.735	2340.76
206.81	2342.38
206.884	2360.7
206.958	2348.81
207.033	2362.75
207.107	2370.51
207.181	2402.79
207.256	2400.18
207.33	2422.07
207.405	2435.03
207.479	2451.98
207.553	2459.21
207.628	2441.84
207.702	2452.93
207.776	2445.17
207.851	2447.89
207.925	2458.89
207.999	2455.74
208.073	2453.51
208.148	2458.41
208.222	2444.37
208.296	2476.39
208.371	2489.4
208.445	2495.02
208.519	2522.63
208.593	2530.15
208.668	2525.1
208.742	2523.53
208.816	2524.91
208.89	2535.15
208.965	2533.91
209.039	2538.96
209.113	2554.58
209.187	2574.47
209.261	2571.47
209.336	2589.86
209.41	2607.24
209.484	2609.58
209.558	2630.2
209.632	2642.73
209.707	2651.68
209.781	2675.07
209.855	2688.26
209.929	2700.76
210.003	2709.14
210.077	2707.47
210.151	2754.92
210.226	2787.38
210.3	2815.37
210.374	2836.19
210.448	2843.38
210.522	2851.44
210.596	2862.64
210.67	2872.93
210.744	2919.03
210.818	2950.47
210.892	2969.83
210.966	2964.06
211.041	2981.75
211.115	2982.27
211.189	3006.92
211.263	3024.13
211.337	3031.28
211.411	3047.49
211.485	3048.73
211.559	3060.69
211.633	3063.07
211.707	3034.55
211.781	3039.8
211.855	3005.08
211.929	2999.32
212.003	2978.97
212.077	2990.09
212.151	3004.49
212.225	3016.98
212.299	3007.2
212.373	2998.81
212.447	2998.86
212.52	3028.9
212.594	3035.67
212.668	3047.02
212.742	3036.86
212.816	3036.62
212.89	3035.43
212.964	3038.48
213.038	3045.69
213.112	3064.05
213.186	3086.65
213.26	3077.02
213.333	3044.36
213.407	3060.23
213.481	3071.48
213.555	3099.45
213.629	3099.69
213.703	3096.11
213.777	3106.42
213.85	3106.42
213.924	3154.42
213.998	3169.88
214.072	3181.86
214.146	3187.54
214.219	3201.95
214.293	3215.2
214.367	3234.34
214.441	3264.44
214.515	3279.38
214.588	3280.34
214.662	3268.93
214.736	3273.32
214.81	3303.32
214.883	3338.65
214.957	3355.68
215.031	3372.75
215.105	3376.71
215.178	3394.8
215.252	3421.01
215.326	3427.83
215.4	3436.47
215.473	3421.33
215.547	3437.23
215.621	3461.21
215.694	3500.91
215.768	3518.34
215.842	3549.37
215.915	3575.45
215.989	3586.82
216.063	3617.4
216.136	3657.86
216.21	3703.75
216.284	3757.16
216.357	3803.5
216.431	3845.64
216.504	3899.21
216.578	3970.57
216.652	4029.51
216.725	4076.99
216.799	4135.28
216.873	4189.54
216.946	4251.77
217.02	4301.58
217.093	4350.93
217.167	4378.87
217.24	4413.61
217.314	4467.75
217.387	4512.52
217.461	4563.33
217.535	4635.54
217.608	4680.87
217.682	4739.27
217.755	4806.25
217.829	4858.88
217.902	4917.59
217.976	4974.18
218.049	5025.24
218.123	5066.01
218.196	5133.36
218.27	5189.32
218.343	5238.54
218.417	5298.92
218.49	5361.89
218.563	5441.69
218.637	5508.66
218.71	5599.56
218.784	5675.9
218.857	5748.78
218.931	5824.2
219.004	5893.89
219.077	5965.38
219.151	6032.77
219.224	6098.46
219.298	6161.52
219.371	6237.98
219.444	6292.54
219.518	6368.47
219.591	6444.07
219.665	6546.17
219.738	6615.7
219.811	6682.38
219.885	6758.17
219.958	6837.04
220.031	6903.17
220.105	6975.23
220.178	7049.85
220.251	7110.26
220.325	7185.04
220.398	7259.58
220.471	7330.98
220.544	7410.25
220.618	7471.73
220.691	7556.39
220.764	7631.19
220.838	7712.17
220.911	7774.78
220.984	7870.12
221.057	7946.16
221.131	8019.41
221.204	8061.17
221.277	8146.22
221.35	8246.19
221.424	8314.79
221.497	8386.05
221.57	8459.94
221.643	8540.07
221.716	8620.06
221.79	8694.7
221.863	8763.53
221.936	8835.97
222.009	8909.85
222.082	8979.26
222.155	9054.84
222.229	9129.75
222.302	9203.6
222.375	9269.23
222.448	9346.56
222.521	9410.12
222.594	9476.18
222.667	9528.42
222.74	9603.5
222.814	9658.5
222.887	9716.78
222.96	9793.7
223.033	9870.91
223.106	9943.97
223.179	10009.54
223.252	10070.77
223.325	10134.21
223.398	10199.15
223.471	10266.06
223.544	10330.52
223.617	10402.02
223.69	10462.63
223.763	10515.91
223.837	10574.98
223.91	10635.55
223.983	10682.72
224.056	10735.24
224.129	10801.83
224.202	10882.3
224.275	10942.19
224.348	11006.28
224.42	11061.66
224.493	11110.04
224.566	11164.84
224.639	11226.43
224.712	11283.54
224.785	11347.44
224.858	11409.52
224.931	11470.2
225.004	11516.03
225.077	11576.47
225.15	11608.38
225.223	11669.88
225.296	11752.4
225.369	11803.44
225.442	11861.13
225.514	11922.87
225.587	11985
225.66	12039.95
225.733	12098.37
225.806	12164.89
225.879	12218.59
225.952	12259.42
226.025	12325.79
226.097	12400.08
226.17	12459.61
226.243	12495.47
226.316	12549.85
226.389	12597.76
226.461	12656.67
226.534	12718.95
226.607	12777.9
226.68	12859.95
226.753	12909.6
226.825	12938.91
226.898	13005.67
226.971	13060.2
227.044	13122.62
227.117	13183.17
227.189	13244.25
227.262	13312.26
227.335	13371.27
227.407	13423.43
227.48	13480.89
227.553	13544.23
227.626	13584.68
227.698	13636.02
227.771	13701.87
227.844	13742.41
227.916	13802.48
227.989	13839.88
228.062	13890.45
228.134	13962.86
228.207	14008.36
228.28	14062.36
228.352	14117.84
228.425	14167.15
228.498	14225.63
228.57	14269.69
228.643	14335.05
228.716	14382.59
228.788	14416.47
228.861	14455.9
228.934	14520.98
229.006	14573.14
229.079	14615.61
229.151	14660.29
229.224	14698.91
229.296	14743.06
229.369	14822.02
229.442	14893.45
229.514	14935.92
229.587	14994.73
229.659	15019.99
229.732	15067.08
229.804	15124.2
229.877	15192.84
229.949	15255.75
230.022	15325.21
230.094	15379.53
230.167	15429.61
230.239	15467.06
230.312	15522.45
230.384	15586.26
230.457	15630.08
230.529	15687.05
230.602	15731.49
230.674	15783.65
230.747	15837.97
230.819	15902.51
230.892	15914.12
230.964	15955
231.037	16008.79
231.109	16050.53
231.181	16102.58
231.254	16147.31
231.326	16186.4
231.399	16223.95
231.471	16254.26
231.544	16275.18
231.616	16313.3
231.688	16345.6
231.761	16387.14
231.833	16421.17
231.905	16442.71
231.978	16483.2
232.05	16510.05
232.122	16554.77
232.195	16583.83
232.267	16628.51
232.339	16657.19
232.412	16708.42
232.484	16734.59
232.556	16768.09
232.629	16824.38
232.701	16867.85
232.773	16906.41
232.846	16939.9
232.918	16970.46
232.99	17010.07
233.062	17046.22
233.135	17092.77
233.207	17112
233.279	17144.34
233.351	17179.47
233.424	17200.49
233.496	17217.31
233.568	17266.13
233.64	17272.63
233.713	17295
233.785	17323.48
233.857	17351.29
233.929	17361.36
234.001	17397.12
234.074	17430.27
234.146	17425.31
234.218	17440.54
234.29	17455.91
234.362	17472.73
234.434	17481.98
234.507	17486.9
234.579	17495.67
234.651	17511.96
234.723	17537.94
234.795	17566.56
234.867	17584.2
234.939	17619.81
235.012	17638.42
235.084	17662.95
235.156	17689.89
235.228	17710.66
235.3	17717.21
235.372	17730.03
235.444	17769.59
235.516	17768.49
235.588	17780.1
235.66	17796.15
235.732	17796.25
235.804	17859.28
235.876	17881.83
235.948	17910.31
236.02	17926.07
236.092	17932.05
236.164	17938.02
236.236	17951.08
236.308	17951.52
236.38	17957.73
236.452	17948.29
236.524	17956.58
236.596	17979.42
236.668	17996.38
236.74	17997.97
236.812	18015.9
236.884	18035.18
236.956	18032.14
237.028	18022.69
237.1	18029.49
237.172	18055.46
237.244	18075.17
237.316	18040.57
237.388	18028.82
237.46	18020.77
237.532	18029.68
237.604	18027.76
237.675	18039.95
237.747	18048.77
237.819	18045.3
237.891	18041.35
237.963	18036.09
238.035	18030.94
238.107	17987.03
238.178	17987.9
238.25	17987.66
238.322	17986.84
238.394	17959.37
238.466	17949.16
238.538	17943.66
238.609	17934.94
238.681	17905.45
238.753	17892.29
238.825	17890.84
238.897	17880.68
238.968	17881.74
239.04	17871.28
239.112	17881.06
239.184	17858.17
239.255	17840.92
239.327	17842.89
239.399	17836.1
239.471	17839.86
239.542	17840.97
239.614	17855.81
239.686	17826.61
239.758	17824.77
239.829	17811.81
239.901	17814.56
239.973	17803.18
240.044	17801.84
240.116	17789.98
240.188	17777.79
240.259	17757.16
240.331	17725.64
240.403	17723.76
240.474	17700.01
240.546	17678.42
240.618	17650.22
240.689	17629.31
240.761	17614.13
240.833	17605.02
240.904	17587.14
240.976	17575.19
241.048	17565.41
241.119	17547
241.191	17536.68
241.262	17533.36
241.334	17513.12
241.405	17481.79
241.477	17447.04
241.549	17430.13
241.62	17417.7
241.692	17410.85
241.763	17412.88
241.835	17398.23
241.906	17380.3
241.978	17347.28
242.049	17338.42
242.121	17327.57
242.192	17317.94
242.264	17276.92
242.335	17233.74
242.407	17220.39
242.478	17193.07
242.55	17156.2
242.621	17123.14
242.693	17097.69
242.764	17072.58
242.836	17041.98
242.907	17028.15
242.979	17023.23
243.05	17003.57
243.122	16975.08
243.193	16946.94
243.264	16897.64
243.336	16876.43
243.407	16862.12
243.479	16858.89
243.55	16835.75
243.622	16815.85
243.693	16787.75
243.764	16788.38
243.836	16756.57
243.907	16724.86
243.978	16696.61
244.05	16685.86
244.121	16649.72
244.192	16629.43
244.264	16575.25
244.335	16551.54
244.407	16519.11
244.478	16501.51
244.549	16472.98
244.62	16442.96
244.692	16418.23
244.763	16410.13
244.834	16376.44
244.906	16339.48
244.977	16308.05
245.048	16293.69
245.119	16259.13
245.191	16230.45
245.262	16181.34
245.333	16173.1
245.405	16143.46
245.476	16120.85
245.547	16098.15
245.618	16083.45
245.689	16052.75
245.761	16035.49
245.832	16010.91
245.903	15986.52
245.974	15956.93
246.045	15922.13
246.117	15904.1
246.188	15859.76
246.259	15817.63
246.33	15792.52
246.401	15767.55
246.473	15727.79
246.544	15688.5
246.615	15665.9
246.686	15628.78
246.757	15616.93
246.828	15570.65
246.899	15565.69
246.97	15523.51
247.042	15481.24
247.113	15457.91
247.184	15458.01
247.255	15425.57
247.326	15401.23
247.397	15386.04
247.468	15363.19
247.539	15346.32
247.61	15306.03
247.681	15286.02
247.752	15275.47
247.823	15233.87
247.894	15210.34
247.965	15171.93
248.037	15141.99
248.108	15099.43
248.179	15076.34
248.25	15045.97
248.321	15037.2
248.392	14992.32
248.463	14987.36
248.534	14958.05
248.605	14941.13
248.675	14900.93
248.746	14887.05
248.817	14866.85
248.888	14835.61
248.959	14784.08
249.03	14757.24
249.101	14735.54
249.172	14706.86
249.243	14653.79
249.314	14650.17
249.385	14616.53
249.456	14600.81
249.527	14570.83
249.598	14554.44
249.669	14529.52
249.739	14507.78
249.81	14482.42
249.881	14445.73
249.952	14424.72
250.023	14400.81
250.094	14346.58
250.165	14312.26
250.235	14271.33
250.306	14238.45
250.377	14203.12
250.448	14191.89
250.519	14156.07
250.59	14141.95
250.66	14115.14
250.731	14106.13
250.802	14068.29
250.873	14039.84
250.944	14022.35
251.014	13993.81
251.085	13991.06
251.156	13970.23
251.227	13958.28
251.297	13944.83
251.368	13939.77
251.439	13916.82
251.51	13907.42
251.58	13885.15
251.651	13855.55
251.722	13852.18
251.792	13806.53
251.863	13778.13
251.934	13763.33
252.005	13757.4
252.075	13733.11
252.146	13721.2
252.217	13706.64
252.287	13702.74
252.358	13684.27
252.429	13674.78
252.499	13645.81
252.57	13625.37
252.641	13610.04
252.711	13578.89
252.782	13544.72
252.852	13535.65
252.923	13512.03
252.994	13487.21
253.064	13477.18
253.135	13452.01
253.205	13425.5
253.276	13426.32
253.347	13422.9
253.417	13389.59
253.488	13357.43
253.558	13332.75
253.629	13305.42
253.699	13295.15
253.77	13272.88
253.841	13248.54
253.911	13226.02
253.982	13203.65
254.052	13183.02
254.123	13167.6
254.193	13153.13
254.264	13162.63
254.334	13123.87
254.405	13084.73
254.475	13050.6
254.546	13020.86
254.616	13013.48
254.687	12989.96
254.757	12972.89
254.827	12943.68
254.898	12928.11
254.968	12909.79
255.039	12879.71
255.109	12866.89
255.18	12828.52
255.25	12786.96
255.321	12774.48
255.391	12738.08
255.461	12740.54
255.532	12693.78
255.602	12657.19
255.673	12616.65
255.743	12585.32
255.813	12543.96
255.884	12534.61
255.954	12525.45
256.024	12526.61
256.095	12502.07
256.165	12466.98
256.235	12447.84
256.306	12424.94
256.376	12413.42
256.446	12402.58
256.517	12383.1
256.587	12375.24
256.657	12353.6
256.728	12336.3
256.798	12313.4
256.868	12295.76
256.938	12258.16
257.009	12253.63
257.079	12248.71
257.149	12248.04
257.219	12208.27
257.29	12198.05
257.36	12159.25
257.43	12141.8
257.5	12098.8
257.571	12078.94
257.641	12073.21
257.711	12043.9
257.781	12031.99
257.852	12017.29
257.922	11982.68
257.992	11966.1
258.062	11936.84
258.132	11933.71
258.202	11916.89
258.273	11902.67
258.343	11894.67
258.413	11880.83
258.483	11851.24
258.553	11820.25
258.623	11787.81
258.693	11776.43
258.764	11772.34
258.834	11771.47
258.904	11755.56
258.974	11726.26
259.044	11698.74
259.114	11683.31
259.184	11666.69
259.254	11638.35
259.324	11601.23
259.394	11581.13
259.464	11585.62
259.535	11571.78
259.605	11536.7
259.675	11507.15
259.745	11487.15
259.815	11455.15
259.885	11425.94
259.955	11441.46
260.025	11416.79
260.095	11402.28
260.165	11388.4
260.235	11379.87
260.305	11359.19
260.375	11330.08
260.445	11338.85
260.515	11337.26
260.585	11324.88
260.655	11308.2
260.725	11307.24
260.795	11291.77
260.865	11298.9
260.934	11262.85
261.004	11252.68
261.074	11239.52
261.144	11241.12
261.214	11234.13
261.284	11225.55
261.354	11222.66
261.424	11188.24
261.494	11193.5
261.564	11168.25
261.634	11152.15
261.703	11121.02
261.773	11107.86
261.843	11100.92
261.913	11081.21
261.983	11052.54
262.053	11044.63
262.123	11023.72
262.192	10987.1
262.262	10982.28
262.332	10943.34
262.402	10931.73
262.472	10907.78
262.541	10870.67
