Data from 20250630_urea_2M_MAYP1162681_09-32-26-690.txt Node
Date: Tue Jul 01 09:32:26 BST 2025
User: adleo
Spectrometer: MAYP116268
Trigger mode: 0
Integration Time (sec): 1.000000E0
Scans to average: 1
Electric dark correction enabled: true
Nonlinearity correction enabled: true
Boxcar width: 10
XAxis mode: Wavelengths
Number of Pixels in Spectrum: 2068
>>>>>Begin Spectral Data<<<<<
179.565	1101.61
179.642	1155.1
179.718	1196.21
179.795	1225.82
179.871	1258.47
179.948	1272.45
180.024	1291.35
180.101	1313.25
180.177	1324.08
180.254	1344.65
180.33	1364.74
180.407	1409.16
180.483	1495.86
180.56	1576.44
180.636	1653.11
180.712	1640.09
180.789	1645.36
180.865	1657.76
180.942	1666.78
181.018	1674.48
181.095	1688.5
181.171	1692.87
181.248	1692.16
181.324	1704.37
181.4	1715.11
181.477	1724.19
181.553	1737.68
181.63	1757.02
181.706	1771.28
181.782	1776.65
181.859	1775.17
181.935	1779.74
182.011	1775.65
182.088	1791.71
182.164	1809.21
182.24	1819.47
182.317	1828.97
182.393	1831.92
182.469	1843.23
182.546	1853.31
182.622	1858.68
182.698	1853.26
182.775	1863.53
182.851	1874.98
182.927	1868.85
183.003	1862.34
183.08	1856.64
183.156	1864.43
183.232	1859.25
183.308	1848.41
183.385	1861.72
183.461	1879.88
183.537	1881.97
183.613	1893.33
183.69	1885.63
183.766	1875.21
183.842	1884.1
183.918	1886.62
183.995	1895.89
184.071	1898.22
184.147	1895.75
184.223	1886.72
184.299	1897.42
184.375	1887.06
184.452	1895.43
184.528	1948.98
184.604	1961.29
184.68	1970.51
184.756	1974.5
184.832	1981.07
184.908	1984.34
184.985	1983.44
185.061	1968.47
185.137	1975.69
185.213	1968.18
185.289	1967.14
185.365	1962.76
185.441	1963.29
185.517	1977.13
185.593	1975.65
185.669	1974.75
185.745	1981.98
185.822	1998.85
185.898	1992.1
185.974	2002.36
186.05	1994.8
186.126	1954.94
186.202	1948.38
186.278	1944.2
186.354	1938.78
186.43	1942.82
186.506	1941.4
186.582	1938.12
186.658	1941.92
186.734	1924.28
186.81	1925.8
186.886	1930.03
186.962	1940.44
187.038	1934.36
187.114	1928.56
187.19	1936.54
187.266	1926.94
187.341	1929.23
187.417	1921
187.493	1921.52
187.569	1920.81
187.645	1913.63
187.721	1902.5
187.797	1910.82
187.873	1916.1
187.949	1911.4
188.025	1907.4
188.101	1907.69
188.176	1913.82
188.252	1911.54
188.328	1918
188.404	1918
188.48	1913.44
188.556	1907.07
188.632	1908.63
188.707	1908.73
188.783	1906.35
188.859	1901.31
188.935	1891.8
189.011	1897.65
189.086	1892.28
189.162	1887.43
189.238	1887.67
189.314	1885.43
189.39	1876.5
189.465	1870.7
189.541	1885.1
189.617	1871.7
189.693	1870.65
189.768	1873.51
189.844	1897.43
189.92	1887.78
189.996	1894.01
190.071	1903.57
190.147	1903.38
190.223	1908.84
190.298	1901.66
190.374	1887.31
190.45	1899.52
190.526	1904.94
190.601	1900.62
190.677	1901.99
190.753	1927.97
190.828	1930.77
190.904	1944.56
190.98	1959.3
191.055	1968.38
191.131	1961.06
191.207	1979.27
191.282	1987.97
191.358	1978.03
191.433	1963.05
191.509	1978.3
191.585	1976.07
191.66	1976.3
191.736	1984.2
191.811	1977.11
191.887	1991.38
191.963	2012.97
192.038	2016.48
192.114	2019.05
192.189	2022.62
192.265	2019.01
192.34	1997.98
192.416	1996.5
192.491	1993.84
192.567	1998.74
192.642	1999.22
192.718	2002.16
192.793	1991.04
192.869	1984.1
192.944	1987.71
193.02	1994.37
193.095	1997.74
193.171	2002.07
193.246	2001.69
193.322	1997.55
193.397	1999.93
193.473	1987.09
193.548	1971.92
193.624	1977.58
193.699	1976.1
193.775	1989.75
193.85	1993.22
193.925	1999.69
194.001	1996.7
194.076	1988.52
194.152	1977.53
194.227	1972.82
194.302	1958.56
194.378	1963.51
194.453	1964.55
194.529	1975.44
194.604	1963.08
194.679	1957.18
194.755	1941.07
194.83	1954.96
194.905	1953.11
194.981	1959.53
195.056	1953.77
195.131	1957.86
195.207	1956.48
195.282	1945.83
195.357	1929.38
195.433	1942.07
195.508	1932.18
195.583	1939.74
195.659	1955.63
195.734	1959.57
195.809	1956.53
195.884	1966.65
195.96	1966.61
196.035	1980.54
196.11	1976.59
196.185	1987.48
196.261	1988
196.336	2015.96
196.411	2000.22
196.486	2005.92
196.561	1999.83
196.637	2006.01
196.712	2021.05
196.787	2022.28
196.862	2036.69
196.937	2045.77
197.013	2049.48
197.088	2060.85
197.163	2081.97
197.238	2097.44
197.313	2099.25
197.388	2113.47
197.464	2140.54
197.539	2148.53
197.614	2140.26
197.689	2152.25
197.764	2164.85
197.839	2188.21
197.914	2185.5
197.989	2207.43
198.065	2221.99
198.14	2270.84
198.215	2297.25
198.29	2310.91
198.365	2324.28
198.44	2337.13
198.515	2364.69
198.59	2381.59
198.665	2405.96
198.74	2414.29
198.815	2415.25
198.89	2435.05
198.965	2462.09
199.04	2458.09
199.115	2473.32
199.19	2511.64
199.265	2514.92
199.34	2525.54
199.415	2554.41
199.49	2571.17
199.565	2578.26
199.64	2596.45
199.715	2592.64
199.79	2597.36
199.865	2598.59
199.94	2596.36
200.015	2623.7
200.09	2626.22
200.165	2629.84
200.24	2634.32
200.315	2676.52
200.39	2689.48
200.464	2697.24
200.539	2698.48
200.614	2715.68
200.689	2737.31
200.764	2746.36
200.839	2764.55
200.914	2771.41
200.989	2758.5
201.063	2773.93
201.138	2761.37
201.213	2762.56
201.288	2744.88
201.363	2748.6
201.438	2752.65
201.512	2769.22
201.587	2751.06
201.662	2754.97
201.737	2765.69
201.812	2772.27
201.886	2735.98
201.961	2744.32
202.036	2731.13
202.111	2731.56
202.186	2704.03
202.26	2688.88
202.335	2666.34
202.41	2658.68
202.485	2641.96
202.559	2627.39
202.634	2604.05
202.709	2609.85
202.784	2591.42
202.858	2589.61
202.933	2576.56
203.008	2568.37
203.082	2549.71
203.157	2549.37
203.232	2514.05
203.306	2494.85
203.381	2465.42
203.456	2443.28
203.53	2422.65
203.605	2404.9
203.68	2382.23
203.754	2376.23
203.829	2360.76
203.904	2343.67
203.978	2332.39
204.053	2336.63
204.127	2324.54
204.202	2321.44
204.277	2307.79
204.351	2302.93
204.426	2296.32
204.5	2286.75
204.575	2256.44
204.65	2267.01
204.724	2259.82
204.799	2262.39
204.873	2259.2
204.948	2258.53
205.022	2250.45
205.097	2241.73
205.171	2256.96
205.246	2264.1
205.32	2263.34
205.395	2262.72
205.469	2254.4
205.544	2260.02
205.618	2239.51
205.693	2249.98
205.767	2239.22
205.842	2258.74
205.916	2253.08
205.991	2243.32
206.065	2249.79
206.14	2263.01
206.214	2257.87
206.289	2252.06
206.363	2266.1
206.438	2269.96
206.512	2278.76
206.586	2293.51
206.661	2301.51
206.735	2279.92
206.81	2281.25
206.884	2294.33
206.958	2282.72
207.033	2299.71
207.107	2307.47
207.181	2340.69
207.256	2338.51
207.33	2355.26
207.405	2363.26
207.479	2383.25
207.553	2390.1
207.628	2373.5
207.702	2385.63
207.776	2379.78
207.851	2383.01
207.925	2394.44
207.999	2388.44
208.073	2385.64
208.148	2389.21
208.222	2375.54
208.296	2404.95
208.371	2420.91
208.445	2429.71
208.519	2456.03
208.593	2466.84
208.668	2461.51
208.742	2461.74
208.816	2458.27
208.89	2469.51
208.965	2468.89
209.039	2472.89
209.113	2490.46
209.187	2509.16
209.261	2505.92
209.336	2522.44
209.41	2541.73
209.484	2542.16
209.558	2563.64
209.632	2575.02
209.707	2585.64
209.781	2606.92
209.855	2620.88
209.929	2635.57
210.003	2644.24
210.077	2646.05
210.151	2692.73
210.226	2724.94
210.3	2752.08
210.374	2775.03
210.448	2782.17
210.522	2790.75
210.596	2800.76
210.67	2809.29
210.744	2855.85
210.818	2885.77
210.892	2904.64
210.966	2898.88
211.041	2915.75
211.115	2912.84
211.189	2935.38
211.263	2951.06
211.337	2961.26
211.411	2974.56
211.485	2966.79
211.559	2975.61
211.633	2977.7
211.707	2944.89
211.781	2956.39
211.855	2924.78
211.929	2919.39
212.003	2902.86
212.077	2915.31
212.151	2933.95
212.225	2948.45
212.299	2944.25
212.373	2938.29
212.447	2940.53
212.52	2972.9
212.594	2980.34
212.668	2997.98
212.742	2988.82
212.816	2992.02
212.89	2992.69
212.964	3001.22
213.038	3015.82
213.112	3037.95
213.186	3062.17
213.26	3054.78
213.333	3018.68
213.407	3037.03
213.481	3051.81
213.555	3079.16
213.629	3086.55
213.703	3079.78
213.777	3092.9
213.85	3090.47
213.924	3140.62
213.998	3160.85
214.072	3172.07
214.146	3180.9
214.219	3201.6
214.293	3221.06
214.367	3247.02
214.441	3281.47
214.515	3298.04
214.588	3302.38
214.662	3301.14
214.736	3308.2
214.81	3343.77
214.883	3388.08
214.957	3410.5
215.031	3432.35
215.105	3443.46
215.178	3460.7
215.252	3497.98
215.326	3514.35
215.4	3531.97
215.473	3525.18
215.547	3547.73
215.621	3578.83
215.694	3626.13
215.768	3648.44
215.842	3684.83
215.915	3715.6
215.989	3737.96
216.063	3775.82
216.136	3826.95
216.21	3877.5
216.284	3944.55
216.357	4000.47
216.431	4048.13
216.504	4110.37
216.578	4196.84
216.652	4263.17
216.725	4321.9
216.799	4382.66
216.873	4442.21
216.946	4512.37
217.02	4577.67
217.093	4631.83
217.167	4674.33
217.24	4722.02
217.314	4782.36
217.387	4842.72
217.461	4900.84
217.535	4981.3
217.608	5036.71
217.682	5100.42
217.755	5178.46
217.829	5231.32
217.902	5303.73
217.976	5372.92
218.049	5433.03
218.123	5478.87
218.196	5553.12
218.27	5621.92
218.343	5682.68
218.417	5760.57
218.49	5828.67
218.563	5908.25
218.637	5990.19
218.71	6085.63
218.784	6171.34
218.857	6257.04
218.931	6338.62
219.004	6413.73
219.077	6491.14
219.151	6578.62
219.224	6658.04
219.298	6731.72
219.371	6821.78
219.444	6884.55
219.518	6962.8
219.591	7042.11
219.665	7149.1
219.738	7232.37
219.811	7300.07
219.885	7386.44
219.958	7467.24
220.031	7545.88
220.105	7626.6
220.178	7698.57
220.251	7768.02
220.325	7843.77
220.398	7923.07
220.471	8006.08
220.544	8099.39
220.618	8169.44
220.691	8242.8
220.764	8318.19
220.838	8400.47
220.911	8473.38
220.984	8573.13
221.057	8654.07
221.131	8735.3
221.204	8779.44
221.277	8867.39
221.35	8977.96
221.424	9051.08
221.497	9123.01
221.57	9201.09
221.643	9285.02
221.716	9376.79
221.79	9450.7
221.863	9531.99
221.936	9610.25
222.009	9683.35
222.082	9755.74
222.155	9834.49
222.229	9918.97
222.302	9997.63
222.375	10069.02
222.448	10148.36
222.521	10216.09
222.594	10284.98
222.667	10342.59
222.74	10433.4
222.814	10493.44
222.887	10553.76
222.96	10636.59
223.033	10722.07
223.106	10792.13
223.179	10860.31
223.252	10927.88
223.325	10995.96
223.398	11057.98
223.471	11125.16
223.544	11191.47
223.617	11266.85
223.69	11328.68
223.763	11384.29
223.837	11454.23
223.91	11521.41
223.983	11567.49
224.056	11612.98
224.129	11682.05
224.202	11765.48
224.275	11817.24
224.348	11872.86
224.42	11922.12
224.493	11960.97
224.566	12007.63
224.639	12072.22
224.712	12129.25
224.785	12188.49
224.858	12248.21
224.931	12312.9
225.004	12358.02
225.077	12409.35
225.15	12430.47
225.223	12493.13
225.296	12582.31
225.369	12617.79
225.442	12670.82
225.514	12734.64
225.587	12805.93
225.66	12865.13
225.733	12916.47
225.806	12970.56
225.879	13028.26
225.952	13085.86
226.025	13166.37
226.097	13244.56
226.17	13303.52
226.243	13332.15
226.316	13382.19
226.389	13438.06
226.461	13492.53
226.534	13559.2
226.607	13621.29
226.68	13700.35
226.753	13746.92
226.825	13770.44
226.898	13848.15
226.971	13900.12
227.044	13959.22
227.117	14009.98
227.189	14069.03
227.262	14138.3
227.335	14206.61
227.407	14262.58
227.48	14316.52
227.553	14361.25
227.626	14399.05
227.698	14452.51
227.771	14520.91
227.844	14559.96
227.916	14614.91
227.989	14653.96
228.062	14704.14
228.134	14777.84
228.207	14829.13
228.28	14881.09
228.352	14934.21
228.425	14979.77
228.498	15038.91
228.57	15069.76
228.643	15134.35
228.716	15177.83
228.788	15214.03
228.861	15255.73
228.934	15318.63
229.006	15369.43
229.079	15415.37
229.151	15454.51
229.224	15484.68
229.296	15531.44
229.369	15616.85
229.442	15672.47
229.514	15706.65
229.587	15756.44
229.659	15771.72
229.732	15826.62
229.804	15881.47
229.877	15947.69
229.949	16003.94
230.022	16064.57
230.094	16118.22
230.167	16162.03
230.239	16200.11
230.312	16243.34
230.384	16315.25
230.457	16355.4
230.529	16394.78
230.602	16431.65
230.674	16483.89
230.747	16538.98
230.819	16600.63
230.892	16602.84
230.964	16648.92
231.037	16699.72
231.109	16734.56
231.181	16787.24
231.254	16812.35
231.326	16844.93
231.399	16881.56
231.471	16917.51
231.544	16931.73
231.616	16979.78
231.688	17013.23
231.761	17040.6
231.833	17060.89
231.905	17061.18
231.978	17090.39
232.05	17121.04
232.122	17169.09
232.195	17195.26
232.267	17239.84
232.339	17266.29
232.412	17318.25
232.484	17345.67
232.556	17371.16
232.629	17418.59
232.701	17450.3
232.773	17482.3
232.846	17506.68
232.918	17523.74
232.99	17545.09
233.062	17582.78
233.135	17610.83
233.207	17631.55
233.279	17669.52
233.351	17718.54
233.424	17739.6
233.496	17764.08
233.568	17816.32
233.64	17821.86
233.713	17843.35
233.785	17856.17
233.857	17872.41
233.929	17873.66
234.001	17903.88
234.074	17939.83
234.146	17943.73
234.218	17970.29
234.29	17990.14
234.362	18009.23
234.434	18015.44
234.507	18018.19
234.579	18019.15
234.651	18024.17
234.723	18040.65
234.795	18053.9
234.867	18054
234.939	18085.75
235.012	18104.55
235.084	18109.95
235.156	18130.14
235.228	18140.31
235.3	18153.17
235.372	18163.77
235.444	18191.68
235.516	18175.53
235.588	18189.17
235.66	18201.99
235.732	18201.03
235.804	18260.59
235.876	18273.79
235.948	18297.41
236.02	18306.13
236.092	18304.49
236.164	18312.15
236.236	18312.15
236.308	18315.72
236.38	18328.54
236.452	18323.57
236.524	18322.37
236.596	18338.37
236.668	18351.86
236.74	18355.52
236.812	18360.1
236.884	18367.23
236.956	18363.52
237.028	18357.74
237.1	18351.33
237.172	18370.85
237.244	18385.74
237.316	18352.1
237.388	18338.56
237.46	18322.47
237.532	18337.65
237.604	18326.18
237.675	18337.5
237.747	18342.42
237.819	18326.22
237.891	18326.75
237.963	18311.09
238.035	18300.3
238.107	18262.37
238.178	18259.24
238.25	18246.52
238.322	18256.97
238.394	18234.76
238.466	18226.23
238.538	18221.89
238.609	18210.71
238.681	18174.81
238.753	18151.1
238.825	18139
238.897	18136.45
238.968	18150.04
239.04	18126.33
239.112	18155.68
239.184	18141.17
239.255	18128.45
239.327	18130.81
239.399	18111.15
239.471	18107.58
239.542	18099.1
239.614	18092.5
239.686	18053.61
239.758	18047.97
239.829	18020.55
239.901	18019.06
239.973	18001.08
240.044	17994.96
240.116	17983.44
240.188	17967.2
240.259	17955.06
240.331	17926.77
240.403	17920.07
240.474	17895.54
240.546	17874.29
240.618	17826.77
240.689	17799.31
240.761	17781.04
240.833	17781.57
240.904	17764.37
240.976	17744.13
241.048	17725.91
241.119	17717.33
241.191	17704.9
241.262	17700.61
241.334	17680.37
241.405	17652.75
241.477	17631.45
241.549	17605
241.62	17583.31
241.692	17578.44
241.763	17564.56
241.835	17544.47
241.906	17522.97
241.978	17480.23
242.049	17469.72
242.121	17469.96
242.192	17459.84
242.264	17424.13
242.335	17375.21
242.407	17356.85
242.478	17334.88
242.55	17317.86
242.621	17289.43
242.693	17261.09
242.764	17236.13
242.836	17200.75
242.907	17184.22
242.979	17164.85
243.05	17151.07
243.122	17131.06
243.193	17096.32
243.264	17048.51
243.336	17016.46
243.407	16994.96
243.479	16982.05
243.55	16962.1
243.622	16935.11
243.693	16908.36
243.764	16896.74
243.836	16870.53
243.907	16835.78
243.978	16804.5
244.05	16781.61
244.121	16739.87
244.192	16734.18
244.264	16686.66
244.335	16662.08
244.407	16626.22
244.478	16598.99
244.549	16560.48
244.62	16525.2
244.692	16492.62
244.763	16475.61
244.834	16450.64
244.906	16411.51
244.977	16391.89
245.048	16378.59
245.119	16340.37
245.191	16306.78
245.262	16261.42
245.333	16248.6
245.405	16224.74
245.476	16202.96
245.547	16170.28
245.618	16146.95
245.689	16106.27
245.761	16075.57
245.832	16049.64
245.903	16020.57
245.974	15998.07
246.045	15968.37
246.117	15948.81
246.188	15912.08
246.259	15872.6
246.33	15843.92
246.401	15816.55
246.473	15772.25
246.544	15730.03
246.615	15715.62
246.686	15683.08
246.757	15670.74
246.828	15632.57
246.899	15620.42
246.97	15581.52
247.042	15544.65
247.113	15527.25
247.184	15521.51
247.255	15500.79
247.326	15477.84
247.397	15445.16
247.468	15421.83
247.539	15404.33
247.61	15371.85
247.681	15351.94
247.752	15337.38
247.823	15297.37
247.894	15269.8
247.965	15235.39
248.037	15205.98
248.108	15157.01
248.179	15128.47
248.25	15096.27
248.321	15066.53
248.392	15022.38
248.463	15012.54
248.534	14984.01
248.605	14966.85
248.675	14929.88
248.746	14902.4
248.817	14872.27
248.888	14860.03
248.959	14809.99
249.03	14786.42
249.101	14755.19
249.172	14729.16
249.243	14681
249.314	14669.09
249.385	14641.47
249.456	14622.82
249.527	14586.28
249.598	14563.33
249.669	14535.61
249.739	14513.05
249.81	14496.23
249.881	14463.45
249.952	14432.89
250.023	14412.88
250.094	14368.92
250.165	14339.85
250.235	14316.76
250.306	14299.89
250.377	14255.64
250.448	14235.44
250.519	14189.74
250.59	14180.15
250.66	14154.7
250.731	14151.08
250.802	14126.54
250.873	14105.86
250.944	14080.27
251.014	14044.88
251.085	14043.48
251.156	14025.07
251.227	14016.2
251.297	14000.53
251.368	13980.38
251.439	13964.52
251.51	13952.47
251.58	13912.8
251.651	13878.28
251.722	13862.66
251.792	13817.73
251.863	13795.46
251.934	13789.15
252.005	13791.08
252.075	13763.5
252.146	13744.56
252.217	13723.83
252.287	13706.23
252.358	13673.89
252.429	13672.34
252.499	13651.08
252.57	13626.5
252.641	13611.07
252.711	13574.1
252.782	13536.74
252.852	13536.93
252.923	13512.25
252.994	13479.85
253.064	13474.65
253.135	13444.13
253.205	13412.36
253.276	13411.69
253.347	13410.05
253.417	13373.9
253.488	13342.85
253.558	13309.68
253.629	13287.61
253.699	13264.8
253.77	13246.68
253.841	13225.08
253.911	13204.35
253.982	13188.11
254.052	13173.5
254.123	13152.82
254.193	13134.02
254.264	13142.94
254.334	13102.35
254.405	13070.2
254.475	13040.84
254.546	13010.76
254.616	13004.73
254.687	12993.4
254.757	12971.81
254.827	12940.38
254.898	12923.26
254.968	12904.85
255.039	12877.95
255.109	12863.59
255.18	12836.3
255.25	12793.74
255.321	12780.96
255.391	12743.36
255.461	12741.29
255.532	12688.74
255.602	12654.95
255.673	12618.8
255.743	12587.03
255.813	12545.29
255.884	12526.92
255.954	12512.89
256.024	12515.98
256.095	12497.76
256.165	12458.57
256.235	12442.08
256.306	12411.66
256.376	12396.77
256.446	12385.97
256.517	12373.25
256.587	12363.8
256.657	12352.08
256.728	12337.09
256.798	12315.64
256.868	12290.34
256.938	12262.91
257.009	12257.6
257.079	12246.86
257.149	12247.39
257.219	12209.21
257.29	12199.95
257.36	12169.88
257.43	12160.24
257.5	12114.69
257.571	12084.27
257.641	12072.56
257.711	12038.28
257.781	12028.89
257.852	12018.43
257.922	11978.42
257.992	11957.07
258.062	11923.71
258.132	11907.56
258.202	11888.09
258.273	11875.56
258.343	11875.56
258.413	11842.11
258.483	11821.62
258.553	11787.21
258.623	11754.77
258.693	11743.1
258.764	11738.91
258.834	11729.95
258.904	11707.39
258.974	11693.6
259.044	11679.24
259.114	11656.73
259.184	11634.61
259.254	11609.02
259.324	11572.72
259.394	11557.54
259.464	11561.45
259.535	11546.75
259.605	11520.43
259.675	11497.49
259.745	11478.79
259.815	11443.41
259.885	11422.25
259.955	11433.63
260.025	11413.05
260.095	11405.1
260.165	11386.88
260.235	11378.45
260.305	11354.35
260.375	11321.96
260.445	11319.07
260.515	11309.67
260.585	11316.85
260.655	11307.02
260.725	11301.72
260.795	11291.07
260.865	11293.48
260.934	11267.16
261.004	11250.92
261.074	11240.75
261.144	11234.1
261.214	11226.78
261.284	11213.38
261.354	11205.86
261.424	11179.02
261.494	11182.63
261.564	11157.28
261.634	11152.56
261.703	11115.36
261.773	11106.73
261.843	11100.99
261.913	11082.87
261.983	11049.53
262.053	11033.91
262.123	11016.71
262.192	10987.12
262.262	10978.45
262.332	10945.53
262.402	10929.73
262.472	10918.64
262.541	10879.13
