Data from 20250630_urea_2M_MAYP1162681_23-42-27-548.txt Node
Date: Mon Jun 30 23:42:27 BST 2025
User: adleo
Spectrometer: MAYP116268
Trigger mode: 0
Integration Time (sec): 1.000000E0
Scans to average: 1
Electric dark correction enabled: true
Nonlinearity correction enabled: true
Boxcar width: 10
XAxis mode: Wavelengths
Number of Pixels in Spectrum: 2068
>>>>>Begin Spectral Data<<<<<
179.565	1110.76
179.642	1165
179.718	1200.99
179.795	1234.33
179.871	1263.16
179.948	1279.91
180.024	1298.85
180.101	1318.91
180.177	1332.33
180.254	1351.35
180.33	1371.6
180.407	1419.64
180.483	1507.91
180.56	1588.62
180.636	1665.77
180.712	1649.8
180.789	1658.59
180.865	1668.85
180.942	1675.88
181.018	1685.24
181.095	1696.79
181.171	1701.82
181.248	1701.35
181.324	1716.22
181.4	1724.16
181.477	1732.9
181.553	1743.35
181.63	1761.51
181.706	1774.67
181.782	1784.03
181.859	1783.94
181.935	1787.69
182.011	1781.94
182.088	1795.53
182.164	1816.79
182.24	1826.34
182.317	1838.41
182.393	1837.36
182.469	1849.57
182.546	1861.22
182.622	1867.4
182.698	1863.64
182.775	1873.86
182.851	1883.51
182.927	1877.47
183.003	1870.35
183.08	1864.98
183.156	1873.63
183.232	1869.82
183.308	1860.7
183.385	1865.26
183.461	1883.9
183.537	1884.89
183.613	1896.07
183.69	1889.22
183.766	1877.19
183.842	1886.08
183.918	1890.88
183.995	1905.14
184.071	1907.19
184.147	1901.29
184.223	1889.36
184.299	1901.06
184.375	1891.36
184.452	1900.35
184.528	1952.28
184.604	1966.68
184.68	1978.33
184.756	1983.28
184.832	1988.55
184.908	1993.73
184.985	1993.64
185.061	1979.71
185.137	1989.12
185.213	1978.05
185.289	1978.28
185.365	1970.49
185.441	1967.92
185.517	1981.95
185.593	1975.82
185.669	1975.01
185.745	1988.28
185.822	2004.82
185.898	1996.54
185.974	2004.62
186.05	1996.3
186.126	1960.06
186.202	1952.45
186.278	1949.32
186.354	1941.61
186.43	1946.99
186.506	1945.89
186.582	1945.94
186.658	1949.13
186.734	1929.54
186.81	1935.34
186.886	1937.48
186.962	1953.74
187.038	1952.36
187.114	1942.13
187.19	1950.07
187.266	1941.18
187.341	1939.33
187.417	1932.39
187.493	1934.1
187.569	1936
187.645	1931.77
187.721	1919.22
187.797	1928.63
187.873	1933.19
187.949	1928.06
188.025	1922.16
188.101	1922.64
188.176	1927.11
188.252	1924.73
188.328	1934.33
188.404	1931.95
188.48	1928.1
188.556	1917.78
188.632	1919.35
188.707	1922.3
188.783	1918.64
188.859	1912.89
188.935	1904
189.011	1911.99
189.086	1902.53
189.162	1896.3
189.238	1893.35
189.314	1891.64
189.39	1883.08
189.465	1877.71
189.541	1892.97
189.617	1880.85
189.693	1879
189.768	1881.75
189.844	1902.87
189.92	1894.41
189.996	1902.68
190.071	1916
190.147	1914.66
190.223	1922.04
190.298	1912.76
190.374	1902.83
190.45	1916.75
190.526	1924.17
190.601	1917.09
190.677	1922.17
190.753	1949.76
190.828	1954.99
190.904	1967.35
190.98	1982.62
191.055	1990.51
191.131	1983.52
191.207	2000.83
191.282	2008.91
191.358	2001.21
191.433	1985.89
191.509	2000.1
191.585	1997.44
191.66	1995.25
191.736	2005.57
191.811	1994.01
191.887	2008.42
191.963	2029.35
192.038	2031.49
192.114	2029.92
192.189	2034.25
192.265	2027.35
192.34	2005.75
192.416	2004.23
192.491	2000.67
192.567	2003.95
192.642	2007.8
192.718	2007.85
192.793	1999.72
192.869	1996.63
192.944	1999.29
193.02	2008.18
193.095	2009.18
193.171	2014.13
193.246	2013.03
193.322	2009.51
193.397	2012.98
193.473	2001.9
193.548	1986.82
193.624	1992.53
193.699	1990.15
193.775	2004.71
193.85	2008.37
193.925	2017.26
194.001	2016.6
194.076	2011.41
194.152	2000.23
194.227	1993.77
194.302	1983.93
194.378	1985.78
194.453	1981.27
194.529	1991.68
194.604	1978.03
194.679	1971.28
194.755	1955.59
194.83	1969.1
194.905	1964.11
194.981	1972.24
195.056	1965.97
195.131	1967.49
195.207	1965.64
195.282	1960.12
195.357	1943.57
195.433	1959.97
195.508	1948.23
195.583	1952.08
195.659	1966.16
195.734	1972.24
195.809	1969.11
195.884	1976.76
195.96	1975.57
196.035	1993.73
196.11	1990.69
196.185	1999.82
196.261	2006.38
196.336	2032.68
196.411	2019.59
196.486	2025.63
196.561	2017.79
196.637	2026.06
196.712	2042.33
196.787	2045.89
196.862	2059.49
196.937	2067.96
197.013	2073.19
197.088	2083.61
197.163	2104.92
197.238	2120.2
197.313	2121.39
197.388	2135.66
197.464	2166.73
197.539	2177.81
197.614	2166.68
197.689	2176.39
197.764	2198.23
197.839	2216.74
197.914	2212.12
197.989	2232.25
198.065	2247.28
198.14	2294.42
198.215	2318.49
198.29	2329.87
198.365	2342.44
198.44	2352.72
198.515	2379.18
198.59	2394.27
198.665	2418.5
198.74	2426.5
198.815	2426.98
198.89	2447.21
198.965	2475.73
199.04	2472.11
199.115	2487.15
199.19	2529.95
199.265	2535.43
199.34	2541.38
199.415	2571.06
199.49	2592.34
199.565	2601.05
199.64	2622.44
199.715	2622.91
199.79	2629.06
199.865	2634.96
199.94	2634.11
200.015	2661.97
200.09	2665.98
200.165	2670.07
200.24	2674.88
200.315	2714.55
200.39	2729.89
200.464	2736.61
200.539	2737.13
200.614	2755.38
200.689	2777.96
200.764	2782.21
200.839	2796.59
200.914	2800.92
200.989	2790.58
201.063	2804.64
201.138	2789.5
201.213	2790.97
201.288	2771.87
201.363	2773.92
201.438	2773.58
201.512	2787.01
201.587	2773.19
201.662	2778.15
201.737	2788.92
201.812	2799.12
201.886	2766.26
201.961	2771.79
202.036	2759.5
202.111	2754.83
202.186	2722.74
202.26	2704.11
202.335	2683
202.41	2678.09
202.485	2661.42
202.559	2644.42
202.634	2615.6
202.709	2623.69
202.784	2604.4
202.858	2603.02
202.933	2586.07
203.008	2581.5
203.082	2563.31
203.157	2560.83
203.232	2521.51
203.306	2500.59
203.381	2470.44
203.456	2450.54
203.53	2434.05
203.605	2415.97
203.68	2398.72
203.754	2394.59
203.829	2383.59
203.904	2366.45
203.978	2352.98
204.053	2358.84
204.127	2346.46
204.202	2346.22
204.277	2332.99
204.351	2326.8
204.426	2318.38
204.5	2313.57
204.575	2281.36
204.65	2291.83
204.724	2282.07
204.799	2289.3
204.873	2286.25
204.948	2284.97
205.022	2273.45
205.097	2260.98
205.171	2274.87
205.246	2278.3
205.32	2280.06
205.395	2277.11
205.469	2269.59
205.544	2278.07
205.618	2263.93
205.693	2273.64
205.767	2262.65
205.842	2277.69
205.916	2276.07
205.991	2270.27
206.065	2275.31
206.14	2287.87
206.214	2282.1
206.289	2279.06
206.363	2289.67
206.438	2294.05
206.512	2299.43
206.586	2317.18
206.661	2328.03
206.735	2307.1
206.81	2308.29
206.884	2316.67
206.958	2304.11
207.033	2321.14
207.107	2327.28
207.181	2354.9
207.256	2350.71
207.33	2370.08
207.405	2384.47
207.479	2401.99
207.553	2408.27
207.628	2392.33
207.702	2403.37
207.776	2398.8
207.851	2398.66
207.925	2413.13
207.999	2408.33
208.073	2406.76
208.148	2407.76
208.222	2393.23
208.296	2420.69
208.371	2436.36
208.445	2446.12
208.519	2472.58
208.593	2482.06
208.668	2476.29
208.742	2476.77
208.816	2479.2
208.89	2492.63
208.965	2490.53
209.039	2493.39
209.113	2510.49
209.187	2530.52
209.261	2528.52
209.336	2544.95
209.41	2565.42
209.484	2564.66
209.558	2582.66
209.632	2596.71
209.707	2609
209.781	2631.1
209.855	2650.3
209.929	2667.27
210.003	2676.8
210.077	2679.46
210.151	2725.19
210.226	2759.27
210.3	2789.6
210.374	2812.22
210.448	2817.08
210.522	2826.38
210.596	2839.63
210.67	2850.06
210.744	2895.39
210.818	2924.59
210.892	2946.95
210.966	2941.38
211.041	2960.2
211.115	2963.49
211.189	2984.94
211.263	3002.86
211.337	3010.82
211.411	3026.99
211.485	3026.04
211.559	3039.33
211.633	3046.81
211.707	3021.24
211.781	3032.07
211.855	3000.03
211.929	3000.22
212.003	2988.73
212.077	3006.62
212.151	3026.37
212.225	3042.82
212.299	3043.82
212.373	3046.83
212.447	3057.37
212.52	3106.16
212.594	3121.72
212.668	3148.66
212.742	3152.57
212.816	3171.13
212.89	3189.4
212.964	3206.1
213.038	3233.84
213.112	3277.56
213.186	3320.59
213.26	3332.9
213.333	3325.36
213.407	3364.13
213.481	3400.39
213.555	3449.76
213.629	3480.03
213.703	3507.21
213.777	3552.49
213.85	3583.53
213.924	3665.76
213.998	3720.23
214.072	3763.97
214.146	3811.66
214.219	3871.74
214.293	3934.04
214.367	3999.39
214.441	4078.56
214.515	4139.72
214.588	4195.05
214.662	4236.38
214.736	4292.95
214.81	4381.54
214.883	4474.4
214.957	4556.96
215.031	4637.13
215.105	4709.46
215.178	4790.37
215.252	4880.91
215.326	4959.26
215.4	5044.55
215.473	5108.05
215.547	5192.59
215.621	5293.32
215.694	5408.19
215.768	5497.74
215.842	5609.6
215.915	5719.46
215.989	5816.03
216.063	5934.31
216.136	6055.47
216.21	6184.83
216.284	6327.82
216.357	6455.89
216.431	6583.65
216.504	6718.45
216.578	6882.6
216.652	7027.28
216.725	7170.67
216.799	7322.41
216.873	7461.59
216.946	7608.17
217.02	7744.89
217.093	7887.6
217.167	8012.46
217.24	8144.07
217.314	8288.12
217.387	8418.73
217.461	8550.91
217.535	8706.3
217.608	8837.64
217.682	8977.42
217.755	9127.13
217.829	9257.9
217.902	9403.93
217.976	9548.86
218.049	9691.07
218.123	9818.14
218.196	9968.55
218.27	10103.52
218.343	10232.48
218.417	10380.81
218.49	10527.95
218.563	10683.95
218.637	10830.43
218.71	10986.07
218.784	11138.25
218.857	11287.78
218.931	11442.62
219.004	11589.75
219.077	11740.56
219.151	11889.49
219.224	12030.13
219.298	12161.71
219.371	12305.49
219.444	12434.09
219.518	12572.29
219.591	12712.46
219.665	12867.68
219.738	13001.06
219.811	13124.7
219.885	13260.45
219.958	13396.82
220.031	13514.01
220.105	13642.72
220.178	13764.29
220.251	13883.46
220.325	14004.89
220.398	14125.06
220.471	14243.02
220.544	14361.75
220.618	14460.04
220.691	14578
220.764	14697.4
220.838	14818.53
220.911	14924.15
220.984	15052.03
221.057	15165.89
221.131	15273.23
221.204	15342.4
221.277	15459.24
221.35	15592.66
221.424	15690.8
221.497	15791.2
221.57	15897.29
221.643	15992.34
221.716	16103.34
221.79	16194.58
221.863	16296.37
221.936	16391.71
222.009	16487.23
222.082	16584.69
222.155	16676.41
222.229	16774.63
222.302	16864.47
222.375	16943.41
222.448	17037.15
222.521	17112.24
222.594	17190.55
222.667	17253.98
222.74	17347.13
222.814	17416
222.887	17486.75
222.96	17566.94
223.033	17641.69
223.106	17717.11
223.179	17793.35
223.252	17855.76
223.325	17929.49
223.398	17980.09
223.471	18041.68
223.544	18099.32
223.617	18161.19
223.69	18224.47
223.763	18267.02
223.837	18318.92
223.91	18394.68
223.983	18440.12
224.056	18494.67
224.129	18554.14
224.202	18619.73
224.275	18672.25
224.348	18718.42
224.42	18748.92
224.493	18782.37
224.566	18830.03
224.639	18877.4
224.712	18921.49
224.785	18966.6
224.858	19007.41
224.931	19056.42
225.004	19094.59
225.077	19138.15
225.15	19161.52
225.223	19203.26
225.296	19270
225.369	19305.42
225.442	19338.77
225.514	19376.93
225.587	19415.39
225.66	19455.24
225.733	19496.68
225.806	19538.47
225.879	19579.62
225.952	19614.9
226.025	19664.29
226.097	19714.99
226.17	19748.43
226.243	19764.72
226.316	19796.86
226.389	19836.52
226.461	19871.37
226.534	19904.38
226.607	19939.36
226.68	19990.64
226.753	20024.08
226.825	20031.6
226.898	20077.09
226.971	20103.45
227.044	20147.12
227.117	20182.87
227.189	20212.85
227.262	20252.13
227.335	20279.93
227.407	20304.22
227.48	20337.52
227.553	20375.06
227.626	20388.37
227.698	20414.68
227.771	20449.14
227.844	20465.81
227.916	20484.8
227.989	20499.5
228.062	20529.42
228.134	20569.04
228.207	20585.96
228.28	20598.39
228.352	20618.05
228.425	20634.87
228.498	20659.26
228.57	20659.26
228.643	20687.26
228.716	20707.79
228.788	20714.78
228.861	20724.66
228.934	20750.01
229.006	20767.94
229.079	20768.61
229.151	20783.55
229.224	20789.48
229.296	20811.46
229.369	20859.89
229.442	20885.2
229.514	20891.17
229.587	20923.32
229.659	20926.21
229.732	20949.54
229.804	20975.27
229.877	21019.47
229.949	21036.05
230.022	21061.74
230.094	21087.14
230.167	21100.87
230.239	21101.16
230.312	21118.51
230.384	21154.08
230.457	21175.29
230.529	21192.26
230.602	21217.51
230.674	21235.39
230.747	21256.26
230.819	21281.03
230.892	21259.54
230.964	21274.67
231.037	21285.18
231.109	21282.09
231.181	21302.58
231.254	21297.81
231.326	21302.34
231.399	21306.96
231.471	21304.6
231.544	21292.31
231.616	21303.49
231.688	21307.2
231.761	21311.49
231.833	21301.18
231.905	21280.7
231.978	21278
232.05	21276.26
232.122	21272.94
232.195	21265.13
232.267	21278.53
232.339	21272.94
232.412	21275.73
232.484	21267.83
232.556	21277.18
232.629	21294.72
232.701	21289.13
232.773	21278.96
232.846	21274.77
232.918	21271.06
232.99	21280.84
233.062	21281.37
233.135	21283.15
233.207	21270.62
233.279	21264.36
233.351	21271.2
233.424	21267.39
233.496	21253.75
233.568	21260.45
233.64	21239.2
233.713	21231.92
233.785	21221.89
233.857	21213.65
233.929	21200.88
234.001	21208.74
234.074	21198.95
234.146	21171.14
234.218	21157.84
234.29	21158.23
234.362	21146.51
234.434	21123.43
234.507	21094.89
234.579	21070.12
234.651	21048.82
234.723	21032.1
234.795	21023.13
234.867	21008.14
234.939	21006.99
235.012	20998.36
235.084	20981.78
235.156	20978.89
235.228	20954.93
235.3	20931.61
235.372	20908.04
235.444	20901.92
235.516	20855.94
235.588	20841.1
235.66	20824.71
235.732	20804.03
235.804	20830.69
235.876	20817.14
235.948	20799.99
236.02	20787.5
236.092	20768.32
236.164	20754.49
236.236	20737.77
236.308	20716.23
236.38	20703.7
236.452	20670.92
236.524	20642.39
236.596	20643.41
236.668	20624.46
236.74	20610.15
236.812	20595.07
236.884	20586.68
236.956	20569.28
237.028	20547.36
237.1	20523.98
237.172	20519.84
237.244	20511.5
237.316	20457.52
237.388	20428.8
237.46	20398.68
237.532	20381.91
237.604	20356.9
237.675	20344.85
237.747	20326.82
237.819	20299.31
237.891	20261.19
237.963	20231.21
238.035	20195.7
238.107	20135.6
238.178	20128.9
238.25	20099.94
238.322	20094.3
238.394	20042.35
238.466	20007.07
238.538	19990.11
238.609	19967.99
238.681	19919.22
238.753	19878.79
238.825	19858.79
238.897	19826.16
238.968	19814.45
239.04	19783.85
239.112	19784.96
239.184	19735.56
239.255	19696
239.327	19671.52
239.399	19654.94
239.471	19635.14
239.542	19617.26
239.614	19597.64
239.686	19531.53
239.758	19505.5
239.829	19457.46
239.901	19442.04
239.973	19415.58
240.044	19383.15
240.116	19349.37
240.188	19311.3
240.259	19282.91
240.331	19233.95
240.403	19214.2
240.474	19169.14
240.546	19130.2
240.618	19068.08
240.689	19032.38
240.761	19003.56
240.833	18981.78
240.904	18937.06
240.976	18902.65
241.048	18881.2
241.119	18860.63
241.191	18840.58
241.262	18818.17
241.334	18782.03
241.405	18755.86
241.477	18717.94
241.549	18681.12
241.62	18653.94
241.692	18632.3
241.763	18609.08
241.835	18580.84
241.906	18551.87
241.978	18504.6
242.049	18481.42
242.121	18466.14
242.192	18450.39
242.264	18409.38
242.335	18366.1
242.407	18343.26
242.478	18299.94
242.55	18262.2
242.621	18206.78
242.693	18175.46
242.764	18148.38
242.836	18121.29
242.907	18088.86
242.979	18058.79
243.05	18032.19
243.122	18001.3
243.193	17967.32
243.264	17911.57
243.336	17878.75
243.407	17847.42
243.479	17833.16
243.55	17805.5
243.622	17774.12
243.693	17740.1
243.764	17726.75
243.836	17679.91
243.907	17643.76
243.978	17613.69
244.05	17587.62
244.121	17553.6
244.192	17529.36
244.264	17477.31
244.335	17436.87
244.407	17385.16
244.478	17350.42
244.549	17317.02
244.62	17267.81
244.692	17231.28
244.763	17207.91
244.834	17163.86
244.906	17116.05
244.977	17091.57
245.048	17062.89
245.119	17020.72
245.191	16978.51
245.262	16919.56
245.333	16904.96
245.405	16868.38
245.476	16839.08
245.547	16807.22
245.618	16781.82
245.689	16737.82
245.761	16702.49
245.832	16662.59
245.903	16641.72
245.974	16619.98
246.045	16577.86
246.117	16560.12
246.188	16513.27
246.259	16465.46
246.33	16433.41
246.401	16401.55
246.473	16356.06
246.544	16316.39
246.615	16289.26
246.686	16248.05
246.757	16231.47
246.828	16181.63
246.899	16164.76
246.97	16117.38
247.042	16064.22
247.113	16037.71
247.184	16027.25
247.255	15993.8
247.326	15964.45
247.397	15928.68
247.468	15897.64
247.539	15873.4
247.61	15822.84
247.681	15807.56
247.752	15791.75
247.823	15755.4
247.894	15729.42
247.965	15683.34
248.037	15645.94
248.108	15603.19
248.179	15578.61
248.25	15547.42
248.321	15527.03
248.392	15485.29
248.463	15484.04
248.534	15463.31
248.605	15439.3
248.675	15408.46
248.746	15385.66
248.817	15370.72
248.888	15339.14
248.959	15293.06
249.03	15271.08
249.101	15253.05
249.172	15215.07
249.243	15161.76
249.314	15141.7
249.385	15112.06
249.456	15084.01
249.527	15054.51
249.598	15031.75
249.669	14998.3
249.739	14972.22
249.81	14947.93
249.881	14907.58
249.952	14873.45
250.023	14840.63
250.094	14792.95
250.165	14753.91
250.235	14719.88
250.306	14691.34
250.377	14660.39
250.448	14631.86
250.519	14583.51
250.59	14565.19
250.66	14532.31
250.731	14524.99
250.802	14504.59
250.873	14474.66
250.944	14457.5
251.014	14427.13
251.085	14419.03
251.156	14405.58
251.227	14390.69
251.297	14382.44
251.368	14364.75
251.439	14347.54
251.51	14334.86
251.58	14302.33
251.651	14270.7
251.722	14262.65
251.792	14221.92
251.863	14194.83
251.934	14179.93
252.005	14179.59
252.075	14149.03
252.146	14134.57
252.217	14119.29
252.287	14094.08
252.358	14072.43
252.429	14064.86
252.499	14031.12
252.57	14005.62
252.641	13981.56
252.711	13948.3
252.782	13900.77
252.852	13897.68
252.923	13870.5
252.994	13846.73
253.064	13840.56
253.135	13804.84
253.205	13769.7
253.276	13762.22
253.347	13746.7
253.417	13712.67
253.488	13685.67
253.558	13662.29
253.629	13642.91
253.699	13624.98
253.77	13608.59
253.841	13582.32
253.911	13555.8
253.982	13534.98
254.052	13520.28
254.123	13499.79
254.193	13481.28
254.264	13499.06
254.334	13469.03
254.405	13435.67
254.475	13403.13
254.546	13374.31
254.616	13370.45
254.687	13350.4
254.757	13330.82
254.827	13310.05
254.898	13296.31
254.968	13272.3
255.039	13241.45
255.109	13222.5
255.18	13185.29
255.25	13141.57
255.321	13129.56
255.391	13089.94
255.461	13090.8
255.532	13034.02
255.602	13004.95
255.673	12964.46
255.743	12931.87
255.813	12877.78
255.884	12869.68
255.954	12855.32
256.024	12845.58
256.095	12811.45
256.165	12780.65
256.235	12754.76
256.306	12726.42
256.376	12714.17
256.446	12698.94
256.517	12683.18
256.587	12667.85
256.657	12648.28
256.728	12633.67
256.798	12610.63
256.868	12593.23
256.938	12558.61
257.009	12559.67
257.079	12546.47
257.149	12548.06
257.219	12500.38
257.29	12493.88
257.36	12450.64
257.43	12438.54
257.5	12404.17
257.571	12390
257.641	12379.29
257.711	12352.83
257.781	12337.26
257.852	12322.22
257.922	12287.66
257.992	12268.67
258.062	12244.9
258.132	12234.54
258.202	12214.15
258.273	12191.35
258.343	12191.88
258.413	12172.21
258.483	12148.64
258.553	12120.49
258.623	12093.88
258.693	12085.35
258.764	12082.94
258.834	12075.52
258.904	12057.88
258.974	12030.35
259.044	12008.81
259.114	11987.84
259.184	11974.01
259.254	11952.8
259.324	11914.43
259.394	11897.03
259.464	11894.38
259.535	11871.87
259.605	11847.29
259.675	11820.44
259.745	11811.14
259.815	11774.07
259.885	11747.71
259.955	11754.36
260.025	11726.21
260.095	11709.87
260.165	11687.36
260.235	11679.41
260.305	11651.6
260.375	11612.17
260.445	11616.99
260.515	11610.54
260.585	11603.64
260.655	11583.35
260.725	11582.48
260.795	11571.16
260.865	11568.94
260.934	11543.73
261.004	11536.36
261.074	11515.44
261.144	11512.79
261.214	11502.14
261.284	11486.43
261.354	11484.84
261.424	11460.83
261.494	11462.47
261.564	11438.71
261.634	11429.99
261.703	11388.64
261.773	11387.48
261.843	11384.01
261.913	11357.26
261.983	11321.07
262.053	11312.68
262.123	11292.97
262.192	11256.15
262.262	11242.56
262.332	11212.97
262.402	11201.84
