Data from 20250630_urea_2M_MAYP1162681_18-42-26-990.txt Node
Date: Mon Jun 30 18:42:26 BST 2025
User: adleo
Spectrometer: MAYP116268
Trigger mode: 0
Integration Time (sec): 1.000000E0
Scans to average: 1
Electric dark correction enabled: true
Nonlinearity correction enabled: true
Boxcar width: 10
XAxis mode: Wavelengths
Number of Pixels in Spectrum: 2068
>>>>>Begin Spectral Data<<<<<
179.565	1112.25
179.642	1165.17
179.718	1205.41
179.795	1242.27
179.871	1269.75
179.948	1284.76
180.024	1304.86
180.101	1324.62
180.177	1338.93
180.254	1357.06
180.33	1377.59
180.407	1425.96
180.483	1513.85
180.56	1595.94
180.636	1673.84
180.712	1659.82
180.789	1667.47
180.865	1678.92
180.942	1689.18
181.018	1699.06
181.095	1709.66
181.171	1714.13
181.248	1713.37
181.324	1726.63
181.4	1730.29
181.477	1741.93
181.553	1754.09
181.63	1774.1
181.706	1789.55
181.782	1794.11
181.859	1795.34
181.935	1800.76
182.011	1794.82
182.088	1811.32
182.164	1829.57
182.24	1842.5
182.317	1853.14
182.393	1851.53
182.469	1866.22
182.546	1877.48
182.622	1884.66
182.698	1880.67
182.775	1894.5
182.851	1910.14
182.927	1904.24
183.003	1899.68
183.08	1893.88
183.156	1904.82
183.232	1900.59
183.308	1891.41
183.385	1900.15
183.461	1917.46
183.537	1919.17
183.613	1929.68
183.69	1921.31
183.766	1911.42
183.842	1916.98
183.918	1920.07
183.995	1931.86
184.071	1932.1
184.147	1927.86
184.223	1915.22
184.299	1929.06
184.375	1917.03
184.452	1919.55
184.528	1972.87
184.604	1984.7
184.68	1995.83
184.756	2002.68
184.832	2009.81
184.908	2014.66
184.985	2017.46
185.061	2002.92
185.137	2010.05
185.213	2001.92
185.289	2005.34
185.365	1999.21
185.441	1997.5
185.517	2011.15
185.593	2007.3
185.669	2005.87
185.745	2015.05
185.822	2031.83
185.898	2023.03
185.974	2032.49
186.05	2027.11
186.126	1988.25
186.202	1983.59
186.278	1980.69
186.354	1970.85
186.43	1972.18
186.506	1967.14
186.582	1966.43
186.658	1973.66
186.734	1953.74
186.81	1955.69
186.886	1954.26
186.962	1964.67
187.038	1963.67
187.114	1956.25
187.19	1964.38
187.266	1957.11
187.341	1957.06
187.417	1948.03
187.493	1947.36
187.569	1949.12
187.645	1943.99
187.721	1931.43
187.797	1937.71
187.873	1941.42
187.949	1935.48
188.025	1931.01
188.101	1935.76
188.176	1939.94
188.252	1933.86
188.328	1941.6
188.404	1940.42
188.48	1939.56
188.556	1933.24
188.632	1931.71
188.707	1932.52
188.783	1928.81
188.859	1924.3
188.935	1914.69
189.011	1923.11
189.086	1918.45
189.162	1909.51
189.238	1905.95
189.314	1907.94
189.39	1900.81
189.465	1896.29
189.541	1911.99
189.617	1899.53
189.693	1894.21
189.768	1895.49
189.844	1918.99
189.92	1912.76
189.996	1923.03
190.071	1929.88
190.147	1931.25
190.223	1938.63
190.298	1929.73
190.374	1920.8
190.45	1931.97
190.526	1938.1
190.601	1932.92
190.677	1935.91
190.753	1965.5
190.828	1972.73
190.904	1982.38
190.98	2000.93
191.055	2008.49
191.131	1999.22
191.207	2016.43
191.282	2026.79
191.358	2019.61
191.433	2006.53
191.509	2018.22
191.585	2012.94
191.66	2015.37
191.736	2021.45
191.811	2014.8
191.887	2031.92
191.963	2051.56
192.038	2054.46
192.114	2054.27
192.189	2057.74
192.265	2053.23
192.34	2029.44
192.416	2026.92
192.491	2025.73
192.567	2024.68
192.642	2026.68
192.718	2030.15
192.793	2019.45
192.869	2017.69
192.944	2018.69
193.02	2025.35
193.095	2030.67
193.171	2037.66
193.246	2036.38
193.322	2033.72
193.397	2034.29
193.473	2022.11
193.548	2004.32
193.624	2011.22
193.699	2012.41
193.775	2028.2
193.85	2030.96
193.925	2040.66
194.001	2039.47
194.076	2031.77
194.152	2022.06
194.227	2017.45
194.302	2005.57
194.378	2008.94
194.453	2004.38
194.529	2015.65
194.604	2002.24
194.679	1996.01
194.755	1979.61
194.83	1991.45
194.905	1989.22
194.981	1997.21
195.056	1989.41
195.131	1996.3
195.207	1994.35
195.282	1983.85
195.357	1964.58
195.433	1977.04
195.508	1966.15
195.583	1973.33
195.659	1987.17
195.734	1994.64
195.809	1992.31
195.884	2001.86
195.96	2001.86
196.035	2015.41
196.11	2010.85
196.185	2020.74
196.261	2023.45
196.336	2049.56
196.411	2036.57
196.486	2041.94
196.561	2036.14
196.637	2045.46
196.712	2060.54
196.787	2061.16
196.862	2075.76
196.937	2086.69
197.013	2094.07
197.088	2103.44
197.163	2123.42
197.238	2138.04
197.313	2137.23
197.388	2150.26
197.464	2178.96
197.539	2187.42
197.614	2180.15
197.689	2193.75
197.764	2209.46
197.839	2230.06
197.914	2227.68
197.989	2250.66
198.065	2263.94
198.14	2307.93
198.215	2332.58
198.29	2343.58
198.365	2354.86
198.44	2364.04
198.515	2389.99
198.59	2403.46
198.665	2428.35
198.74	2434.12
198.815	2435.16
198.89	2455.06
198.965	2481.82
199.04	2479.39
199.115	2494.24
199.19	2535.23
199.265	2536.38
199.34	2546.66
199.415	2574.68
199.49	2593.58
199.565	2600.34
199.64	2621.58
199.715	2619.63
199.79	2628.39
199.865	2633.39
199.94	2632.25
200.015	2664.12
200.09	2666.84
200.165	2670.03
200.24	2677.13
200.315	2719.18
200.39	2732.81
200.464	2740.29
200.539	2743.05
200.614	2759.96
200.689	2784.55
200.764	2792.56
200.839	2814.09
200.914	2817.94
200.989	2810.65
201.063	2824.52
201.138	2810.76
201.213	2811.42
201.288	2794.56
201.363	2798.7
201.438	2799.85
201.512	2817.66
201.587	2800.74
201.662	2803.27
201.737	2815.75
201.812	2824
201.886	2789.23
201.961	2800.29
202.036	2791.05
202.111	2787.28
202.186	2757.09
202.26	2742.13
202.335	2717.82
202.41	2709.2
202.485	2693.39
202.559	2672.72
202.634	2643.14
202.709	2650.56
202.784	2630.94
202.858	2632.89
202.933	2610.41
203.008	2603.17
203.082	2587.6
203.157	2584.79
203.232	2546.8
203.306	2528.65
203.381	2496.31
203.456	2474.12
203.53	2453.15
203.605	2430.87
203.68	2408.25
203.754	2400.54
203.829	2385.59
203.904	2367.27
203.978	2355.6
204.053	2360.89
204.127	2351.56
204.202	2353.41
204.277	2337.04
204.351	2330.62
204.426	2322.14
204.5	2318.19
204.575	2288.21
204.65	2292.74
204.724	2286.12
204.799	2294.01
204.873	2288.68
204.948	2285.87
205.022	2275.74
205.097	2266.31
205.171	2278.16
205.246	2285.2
205.32	2286.44
205.395	2285.77
205.469	2280.3
205.544	2287.26
205.618	2271.36
205.693	2280.54
205.767	2269.89
205.842	2287.4
205.916	2283.93
205.991	2272.89
206.065	2277.84
206.14	2292.25
206.214	2288.92
206.289	2285.54
206.363	2295
206.438	2297.81
206.512	2306.76
206.586	2323.61
206.661	2332.08
206.735	2314.82
206.81	2318.48
206.884	2333.61
206.958	2322.15
207.033	2337.28
207.107	2344.99
207.181	2372.18
207.256	2368.13
207.33	2385.46
207.405	2397.94
207.479	2414.41
207.553	2424.59
207.628	2408.46
207.702	2419.07
207.776	2415.74
207.851	2417.79
207.925	2435.07
207.999	2432.69
208.073	2429.36
208.148	2432.74
208.222	2419.93
208.296	2450.53
208.371	2465.54
208.445	2474.01
208.519	2500.01
208.593	2513.05
208.668	2506.14
208.742	2508.29
208.816	2509.72
208.89	2523.77
208.965	2526.91
209.039	2536.73
209.113	2553.87
209.187	2571.86
209.261	2568.86
209.336	2585.05
209.41	2603.34
209.484	2602.15
209.558	2620.63
209.632	2634.48
209.707	2646.87
209.781	2665.82
209.855	2681.74
209.929	2698.52
210.003	2703.19
210.077	2705.62
210.151	2749.01
210.226	2782.76
210.3	2810.56
210.374	2833.9
210.448	2840.34
210.522	2847.68
210.596	2858.07
210.67	2865.98
210.744	2914.65
210.818	2946.19
210.892	2968.17
210.966	2964.5
211.041	2982.28
211.115	2983.61
211.189	3006.16
211.263	3023.17
211.337	3037.28
211.411	3054.4
211.485	3051.21
211.559	3069.32
211.633	3074.51
211.707	3052.57
211.781	3064.78
211.855	3040.32
211.929	3041.13
212.003	3031.98
212.077	3051.25
212.151	3075.87
212.225	3099.67
212.299	3104.01
212.373	3110.97
212.447	3126.1
212.52	3173.9
212.594	3196.09
212.668	3230.57
212.742	3243.79
212.816	3264.16
212.89	3283.72
212.964	3309.55
213.038	3345.69
213.112	3393.63
213.186	3445.41
213.26	3463.87
213.333	3460.39
213.407	3510.69
213.481	3558.74
213.555	3618.68
213.629	3662.06
213.703	3699.23
213.777	3754.91
213.85	3795.1
213.924	3886.74
213.998	3955.35
214.072	4017.77
214.146	4080.36
214.219	4152.71
214.293	4229.65
214.367	4316.66
214.441	4417.71
214.515	4500.41
214.588	4571.72
214.662	4632.36
214.736	4711.53
214.81	4820.53
214.883	4937.3
214.957	5037.77
215.031	5143.36
215.105	5239.23
215.178	5340.98
215.252	5460.47
215.326	5560.82
215.4	5671.12
215.473	5764.1
215.547	5878.83
215.621	6004.2
215.694	6151.07
215.768	6277.46
215.842	6411.86
215.915	6543.21
215.989	6670.07
216.063	6814.1
216.136	6969.13
216.21	7121.02
216.284	7296.64
216.357	7450.28
216.431	7613.35
216.504	7789.63
216.578	7980.47
216.652	8154.05
216.725	8328.49
216.799	8501.95
216.873	8679.98
216.946	8864.52
217.02	9028.44
217.093	9192.15
217.167	9350.27
217.24	9502.34
217.314	9663.39
217.387	9827.45
217.461	9997.56
217.535	10185.62
217.608	10348.68
217.682	10520.53
217.755	10708.22
217.829	10870.22
217.902	11050.86
217.976	11225.54
218.049	11386.5
218.123	11542.17
218.196	11722.8
218.27	11883.54
218.343	12038.11
218.417	12210.23
218.49	12371.27
218.563	12550.28
218.637	12726.17
218.71	12905.49
218.784	13083.02
218.857	13268.56
218.931	13447.34
219.004	13620.06
219.077	13783.91
219.151	13948.05
219.224	14104.23
219.298	14263.74
219.371	14436.6
219.444	14581.55
219.518	14736.86
219.591	14892.32
219.665	15066.91
219.738	15214.41
219.811	15356.94
219.885	15517.07
219.958	15666.25
220.031	15818.08
220.105	15969.86
220.178	16117.78
220.251	16250.71
220.325	16396.17
220.398	16527.85
220.471	16652.2
220.544	16785.46
220.618	16891.68
220.691	17016.65
220.764	17142.06
220.838	17269.58
220.911	17382.83
220.984	17528.23
221.057	17647.46
221.131	17758.16
221.204	17844.13
221.277	17980.08
221.35	18116.37
221.424	18221.57
221.497	18325.57
221.57	18422
221.643	18524.45
221.716	18618.66
221.79	18718.46
221.863	18812.34
221.936	18904.33
222.009	19007.75
222.082	19091.17
222.155	19192.65
222.229	19301.28
222.302	19402.28
222.375	19482.71
222.448	19570.8
222.521	19640.63
222.594	19710.32
222.667	19780.87
222.74	19863.37
222.814	19928.91
222.887	20000.72
222.96	20083.8
223.033	20157.43
223.106	20230.73
223.179	20295.94
223.252	20358.59
223.325	20423.7
223.398	20480.66
223.471	20547.99
223.544	20604.66
223.617	20672.66
223.69	20726.88
223.763	20769.29
223.837	20824.96
223.91	20888.91
223.983	20917.88
224.056	20965.54
224.129	21026.75
224.202	21077.93
224.275	21104.25
224.348	21136.83
224.42	21171.58
224.493	21197.89
224.566	21238.53
224.639	21283.54
224.712	21323.64
224.785	21364.47
224.858	21405.44
224.931	21433.92
225.004	21457.59
225.077	21492.92
225.15	21490.31
225.223	21517.98
225.296	21566.09
225.369	21581.65
225.442	21596.45
225.514	21631.83
225.587	21657.09
225.66	21685.05
225.733	21714.83
225.806	21752.62
225.879	21773.78
225.952	21783.62
226.025	21814.8
226.097	21851.15
226.17	21874.29
226.243	21872.12
226.316	21884.6
226.389	21888.07
226.461	21911.26
226.534	21932.23
226.607	21942.45
226.68	21990.84
226.753	22018.94
226.825	22014.61
226.898	22039.67
226.971	22052.01
227.044	22070.81
227.117	22081.8
227.189	22094.38
227.262	22117.09
227.335	22134.49
227.407	22148.23
227.48	22166.5
227.553	22173.44
227.626	22166.69
227.698	22166.6
227.771	22174.31
227.844	22183.47
227.916	22206.17
227.989	22201.01
228.062	22198.41
228.134	22221.45
228.207	22215.52
228.28	22206.32
228.352	22212.29
228.425	22205.69
228.498	22219.09
228.57	22210.13
228.643	22230.76
228.716	22231.53
228.788	22216.83
228.861	22210.61
228.934	22217.6
229.006	22217.02
229.079	22221.07
229.151	22214.22
229.224	22206.94
229.296	22227.34
229.369	22252.89
229.442	22262.43
229.514	22258.29
229.587	22279.93
229.659	22266.48
229.732	22275.35
229.804	22284.03
229.877	22294.54
229.949	22314.06
230.022	22334.41
230.094	22332
230.167	22322.45
230.239	22309.44
230.312	22320.23
230.384	22351.91
230.457	22363.38
230.529	22361.6
230.602	22355.81
230.674	22367.96
230.747	22378.9
230.819	22378.47
230.892	22341.16
230.964	22328.38
231.037	22337.44
231.109	22328.09
231.181	22331.13
231.254	22311.51
231.326	22300.47
231.399	22289.96
231.471	22268.8
231.544	22231.82
231.616	22237.56
231.688	22226.95
231.761	22214.32
231.833	22202.95
231.905	22159.41
231.978	22128.61
232.05	22124.37
232.122	22114.97
232.195	22086.33
232.267	22079.49
232.339	22053.07
232.412	22048.44
232.484	22030.56
232.556	22004.19
232.629	22012.87
232.701	22008.68
232.773	21996.67
232.846	21976.57
232.918	21963.46
232.99	21953.39
233.062	21946.98
233.135	21924.32
233.207	21896.55
233.279	21897.81
233.351	21887.4
233.424	21881.18
233.496	21868.5
233.568	21857.85
233.64	21827.91
233.713	21808.34
233.785	21793.02
233.857	21778.36
233.929	21753.49
234.001	21754.5
234.074	21752.48
234.146	21704.71
234.218	21675.07
234.29	21663.02
234.362	21651.11
234.434	21613.85
234.507	21580.83
234.579	21550.42
234.651	21530.56
234.723	21525.69
234.795	21501.3
234.867	21473.78
234.939	21457.54
235.012	21435.32
235.084	21419.84
235.156	21401.05
235.228	21379.46
235.3	21346.39
235.372	21325.23
235.444	21315.3
235.516	21268.98
235.588	21242.38
235.66	21218.33
235.732	21188.45
235.804	21212.98
235.876	21184.93
235.948	21173.75
236.02	21145.94
236.092	21111.19
236.164	21087.57
236.236	21065.02
236.308	21023.28
236.38	21000.58
236.452	20966.84
236.524	20939.52
236.596	20932.86
236.668	20918.55
236.74	20890.84
236.812	20869.39
236.884	20852.62
236.956	20829.58
237.028	20795.27
237.1	20758.01
237.172	20745.68
237.244	20735.75
237.316	20675.98
237.388	20647.84
237.46	20612.95
237.532	20602.44
237.604	20569.19
237.675	20549.81
237.747	20520.66
237.819	20497.72
237.891	20467.5
237.963	20431.69
238.035	20392.51
238.107	20316.95
238.178	20287.74
238.25	20262.1
238.322	20251.11
238.394	20203.12
238.466	20164.75
238.538	20142.35
238.609	20113.72
238.681	20070.93
238.753	20030.35
238.825	19994.11
238.897	19963.02
238.968	19948.09
239.04	19915.7
239.112	19911.17
239.184	19879.51
239.255	19838.55
239.327	19802.84
239.399	19769.44
239.471	19737.78
239.542	19717.59
239.614	19702.6
239.686	19654.22
239.758	19630.89
239.829	19583.86
239.901	19564.15
239.973	19524.59
240.044	19491.53
240.116	19463
240.188	19431.92
240.259	19397.61
240.331	19358.19
240.403	19329.71
240.474	19287.35
240.546	19240.31
240.618	19187.88
240.689	19141.43
240.761	19110.83
240.833	19083.79
240.904	19051.94
240.976	19022.26
241.048	18980.67
241.119	18950.12
241.191	18927.13
241.262	18903.08
241.334	18864.96
241.405	18822.99
241.477	18792.34
241.549	18753.98
241.62	18719.96
241.692	18689.84
241.763	18668.54
241.835	18633.07
241.906	18601.85
241.978	18552.55
242.049	18526.04
242.121	18497.18
242.192	18469.18
242.264	18422.44
242.335	18383.11
242.407	18352.08
242.478	18310.1
242.55	18286.73
242.621	18246.3
242.693	18205.53
242.764	18169.15
242.836	18132.04
242.907	18108.67
242.979	18073.34
243.05	18046.31
243.122	18016.96
243.193	17971.66
243.264	17914.84
243.336	17885.49
243.407	17853.01
243.479	17834.94
243.55	17808.73
243.622	17785.74
243.693	17756.87
243.764	17741.02
243.836	17697.4
243.907	17657.16
243.978	17616.25
244.05	17587.14
244.121	17537.98
244.192	17510.46
244.264	17460.49
244.335	17421.31
244.407	17361.74
244.478	17333.35
244.549	17291.72
244.62	17244.73
244.692	17208.34
244.763	17174.36
244.834	17129.16
244.906	17088.82
244.977	17052.58
245.048	17029.06
245.119	16982.31
245.191	16940.09
245.262	16887.66
245.333	16871.95
245.405	16843.27
245.476	16819.7
245.547	16785.24
245.618	16767.94
245.689	16741.44
245.761	16709.1
245.832	16682.83
245.903	16671.84
245.974	16641.53
246.045	16616.51
246.117	16605.72
246.188	16563.4
246.259	16525.8
246.33	16491.73
246.401	16450.14
246.473	16406.18
246.544	16361.36
246.615	16342.08
246.686	16306.99
246.757	16288.24
246.828	16241.15
246.899	16224.33
246.97	16173.1
247.042	16136.75
247.113	16109.09
247.184	16096.51
247.255	16058.48
247.326	16022.67
247.397	15983.24
247.468	15953.89
247.539	15918.37
247.61	15871.08
247.681	15849.15
247.752	15834.26
247.823	15801.68
247.894	15782.68
247.965	15746.29
248.037	15712.41
248.108	15666.23
248.179	15636.3
248.25	15605.11
248.321	15590.8
248.392	15546.7
248.463	15542.98
248.534	15519.17
248.605	15493.39
248.675	15453.33
248.746	15437.96
248.817	15413.04
248.888	15388.98
248.959	15337.89
249.03	15319.19
249.101	15291.42
249.172	15262.5
249.243	15210.1
249.314	15189.86
249.385	15157.56
249.456	15139.68
249.527	15109.36
249.598	15091.81
249.669	15064.87
249.739	15038.89
249.81	15009.05
249.881	14967.45
249.952	14945.37
250.023	14904.3
250.094	14858.8
250.165	14817.35
250.235	14784.04
250.306	14757.04
250.377	14719.49
250.448	14705.37
250.519	14653.45
250.59	14630.94
250.66	14605.73
250.731	14594.26
250.802	14569.09
250.873	14549.04
250.944	14527.44
251.014	14495.24
251.085	14490.18
251.156	14473.17
251.227	14456.92
251.297	14448.24
251.368	14433.44
251.439	14415.32
251.51	14397.58
251.58	14359.16
251.651	14333.95
251.722	14317.8
251.792	14280.25
251.863	14250.94
251.934	14238.21
252.005	14238.84
252.075	14220.95
252.146	14204.03
252.217	14190.01
252.287	14175.93
252.358	14144.31
252.429	14130.47
252.499	14102.7
252.57	14070.36
252.641	14045.48
252.711	14018.1
252.782	13970.19
252.852	13965.12
252.923	13935.43
252.994	13917.5
253.064	13921.26
253.135	13886.26
253.205	13854.15
253.276	13851.07
253.347	13843.11
253.417	13818
253.488	13789.7
253.558	13765.12
253.629	13741.93
253.699	13720.09
253.77	13703.22
253.841	13676.66
253.911	13653.71
253.982	13635.78
254.052	13624.02
254.123	13597.89
254.193	13573.5
254.264	13595.09
254.334	13554.89
254.405	13523.26
254.475	13492.51
254.546	13454.62
254.616	13439
254.687	13425.6
254.757	13400.19
254.827	13376.62
254.898	13353.09
254.968	13323.21
255.039	13291.49
255.109	13268.01
255.18	13236.58
255.25	13189.19
255.321	13174.63
255.391	13136.26
255.461	13135.35
255.532	13086.18
255.602	13062.55
255.673	13019.36
255.743	12974
255.813	12930.08
255.884	12917.55
255.954	12904.92
256.024	12904.78
256.095	12890.31
256.165	12857.63
256.235	12844.33
256.306	12825.14
256.376	12808.65
256.446	12807.74
256.517	12793.13
256.587	12781.9
256.657	12768.6
256.728	12753.89
256.798	12737.65
256.868	12721.74
256.938	12685.25
257.009	12672.23
257.079	12662.83
257.149	12673.73
257.219	12640.61
257.29	12633.28
257.36	12594.29
257.43	12578.23
257.5	12539.67
257.571	12507.28
257.641	12490.65
257.711	12459.65
257.781	12444.23
257.852	12431.21
257.922	12385.85
257.992	12366.42
258.062	12351.82
258.132	12341.55
258.202	12319.86
258.273	12302.65
258.343	12299.37
258.413	12273.58
258.483	12259.99
258.553	12222.39
258.623	12196.6
258.693	12177.8
258.764	12176.36
258.834	12171.39
258.904	12146.23
258.974	12118.23
259.044	12103.53
259.114	12090.51
259.184	12073.74
259.254	12041.54
259.324	12000.86
259.394	11988.13
259.464	11983.99
259.535	11956.13
259.605	11924.02
259.675	11896.21
259.745	11880.74
259.815	11850.47
259.885	11823.62
259.955	11831.77
260.025	11808.44
260.095	11783.91
260.165	11769.74
260.235	11764.15
260.305	11742.94
260.375	11719.99
260.445	11722.5
260.515	11723.42
260.585	11718.07
260.655	11700.86
260.725	11704.96
260.795	11696.33
260.865	11699.7
260.934	11672.37
261.004	11661.19
261.074	11642.83
261.144	11640.08
261.214	11626.06
261.284	11604.37
261.354	11608.17
261.424	11571.06
261.494	11576.36
261.564	11553.08
261.634	11548.7
261.703	11503.73
261.773	11490.81
261.843	11476.5
261.913	11453.8
261.983	11414.62
262.053	11394.08
262.123	11369.75
262.192	11334.27
