Data from 20250630_urea_2M_MAYP1162681_08-52-26-890.txt Node
Date: Tue Jul 01 08:52:26 BST 2025
User: adleo
Spectrometer: MAYP116268
Trigger mode: 0
Integration Time (sec): 1.000000E0
Scans to average: 1
Electric dark correction enabled: true
Nonlinearity correction enabled: true
Boxcar width: 10
XAxis mode: Wavelengths
Number of Pixels in Spectrum: 2068
>>>>>Begin Spectral Data<<<<<
179.565	1095.65
179.642	1139.97
179.718	1176.56
179.795	1209.13
179.871	1239.09
179.948	1254.45
180.024	1272
180.101	1294.14
180.177	1308.06
180.254	1331.42
180.33	1350.13
180.407	1395.88
180.483	1482.82
180.56	1561.78
180.636	1636.31
180.712	1622.77
180.789	1630.89
180.865	1641.2
180.942	1651.89
181.018	1659.82
181.095	1671.94
181.171	1675.26
181.248	1678.12
181.324	1693.42
181.4	1702.11
181.477	1711.47
181.553	1724.73
181.63	1743.31
181.706	1756.76
181.782	1763.98
181.859	1758.75
181.935	1765.21
182.011	1762.17
182.088	1777.29
182.164	1795.68
182.24	1809.22
182.317	1817.92
182.393	1815.4
182.469	1827.33
182.546	1835.08
182.622	1841.16
182.698	1837.41
182.775	1851.14
182.851	1865.31
182.927	1857.84
183.003	1853.38
183.08	1850.86
183.156	1861.84
183.232	1859.32
183.308	1846.72
183.385	1851.9
183.461	1868.11
183.537	1869.63
183.613	1881.85
183.69	1872.63
183.766	1863.5
183.842	1869.58
183.918	1875.57
183.995	1887.26
184.071	1890.31
184.147	1887.27
184.223	1876.95
184.299	1887.65
184.375	1876.62
184.452	1882.62
184.528	1936.64
184.604	1947.05
184.68	1957.17
184.756	1958.93
184.832	1964.73
184.908	1971.2
184.985	1972.53
185.061	1960.45
185.137	1969.2
185.213	1957.79
185.289	1958.93
185.365	1952.99
185.441	1952.61
185.517	1963.55
185.593	1961.03
185.669	1958.61
185.745	1969.45
185.822	1984.51
185.898	1978.47
185.974	1988.03
186.05	1979.75
186.126	1943.66
186.202	1935.1
186.278	1928.44
186.354	1919.5
186.43	1924.4
186.506	1923.12
186.582	1921.31
186.658	1926.02
186.734	1904.34
186.81	1906.29
186.886	1910.86
186.962	1922.5
187.038	1920.36
187.114	1914.27
187.19	1922.98
187.266	1914.23
187.341	1914.18
187.417	1908.72
187.493	1907.57
187.569	1908.91
187.645	1903.91
187.721	1889.08
187.797	1898.44
187.873	1902.82
187.949	1901.2
188.025	1894.83
188.101	1896.97
188.176	1901.77
188.252	1900.39
188.328	1910.03
188.404	1911.56
188.48	1906.66
188.556	1898.1
188.632	1895.92
188.707	1894.96
188.783	1891.78
188.859	1887.12
188.935	1877.9
189.011	1884.89
189.086	1877.09
189.162	1869.53
189.238	1867.58
189.314	1863.69
189.39	1857.13
189.465	1853.04
189.541	1865.92
189.617	1854.7
189.693	1851.71
189.768	1854.18
189.844	1875.35
189.92	1868.12
189.996	1874.54
190.071	1883
190.147	1884.81
190.223	1893.65
190.298	1886.71
190.374	1876.16
190.45	1887.99
190.526	1895.5
190.601	1887.33
190.677	1889.32
190.753	1914.72
190.828	1918.43
190.904	1935.07
190.98	1952.66
191.055	1961.7
191.131	1953
191.207	1971.97
191.282	1979
191.358	1970.73
191.433	1954.89
191.509	1967.63
191.585	1965.63
191.66	1968.67
191.736	1977.09
191.811	1967.96
191.887	1984.27
191.963	2004.34
192.038	2011.28
192.114	2007.29
192.189	2013.8
192.265	2013.28
192.34	1993.92
192.416	1991.73
192.491	1987.45
192.567	1989.12
192.642	1992.11
192.718	1993.68
192.793	1981.65
192.869	1978.46
192.944	1983.69
193.02	1991.87
193.095	1993.96
193.171	2000.81
193.246	2000.05
193.322	1994.11
193.397	1996.01
193.473	1979.46
193.548	1961.05
193.624	1964.05
193.699	1968.47
193.775	1982.12
193.85	1984.45
193.925	1991.06
194.001	1992.68
194.076	1985.45
194.152	1971.09
194.227	1963.19
194.302	1954.97
194.378	1955.97
194.453	1952.12
194.529	1961.68
194.604	1947.37
194.679	1942.42
194.755	1920.79
194.83	1931.93
194.905	1928.84
194.981	1937.44
195.056	1932.45
195.131	1940.49
195.207	1940.58
195.282	1928.55
195.357	1912.38
195.433	1925.27
195.508	1917.23
195.583	1922.84
195.659	1936.77
195.734	1946
195.809	1945.29
195.884	1955.17
195.96	1957.84
196.035	1971.81
196.11	1968.44
196.185	1982.99
196.261	1986.79
196.336	2015.84
196.411	2001.57
196.486	2008.99
196.561	2000.24
196.637	2009.84
196.712	2024.06
196.787	2024.21
196.862	2039.32
196.937	2046.5
197.013	2050.45
197.088	2056.68
197.163	2078.66
197.238	2093.23
197.313	2093.99
197.388	2105.78
197.464	2130.48
197.539	2138.47
197.614	2134
197.689	2142.56
197.764	2156.55
197.839	2173.53
197.914	2171.06
197.989	2191.61
198.065	2205.07
198.14	2251.3
198.215	2274.33
198.29	2283.56
198.365	2297.6
198.44	2307.64
198.515	2335.48
198.59	2350.9
198.665	2376.89
198.74	2382.84
198.815	2388.03
198.89	2406.78
198.965	2435.02
199.04	2430.78
199.115	2448.11
199.19	2486.43
199.265	2492.47
199.34	2500.66
199.415	2535.34
199.49	2554.1
199.565	2564.96
199.64	2586.34
199.715	2584.43
199.79	2591.57
199.865	2599.62
199.94	2599.38
200.015	2626.34
200.09	2629.44
200.165	2633.96
200.24	2639.77
200.315	2678.92
200.39	2690.4
200.464	2697.73
200.539	2698.3
200.614	2716.64
200.689	2738.65
200.764	2743.52
200.839	2760.9
200.914	2765.76
200.989	2751.69
201.063	2762.79
201.138	2747.84
201.213	2749.08
201.288	2734.17
201.363	2738.89
201.438	2738.94
201.512	2752.41
201.587	2737.21
201.662	2741.55
201.737	2752.84
201.812	2763.14
201.886	2728.19
201.961	2736
202.036	2724.76
202.111	2724.76
202.186	2694.86
202.26	2677.47
202.335	2656.84
202.41	2648.46
202.485	2631.51
202.559	2615.17
202.634	2589.69
202.709	2595.69
202.784	2576.93
202.858	2575.07
202.933	2558.07
203.008	2550.64
203.082	2531.12
203.157	2532.93
203.232	2492.99
203.306	2473.6
203.381	2441.41
203.456	2422.88
203.53	2403.59
203.605	2385.07
203.68	2361.45
203.754	2355.84
203.829	2342.56
203.904	2329.33
203.978	2320.47
204.053	2324.18
204.127	2314.43
204.202	2315.38
204.277	2298.77
204.351	2292.73
204.426	2284.21
204.5	2275.97
204.575	2245.72
204.65	2253.57
204.724	2244.28
204.799	2251.51
204.873	2248.75
204.948	2248.32
205.022	2236.91
205.097	2225
205.171	2239.42
205.246	2246.85
205.32	2245.9
205.395	2244.23
205.469	2234.81
205.544	2240.43
205.618	2224.3
205.693	2237.01
205.767	2227.68
205.842	2248.62
205.916	2243.44
205.991	2234.78
206.065	2239.73
206.14	2255.85
206.214	2255.85
206.289	2248.61
206.363	2262.55
206.438	2263.93
206.512	2267.93
206.586	2285.06
206.661	2294.87
206.735	2273.08
206.81	2277.46
206.884	2291.83
206.958	2281.36
207.033	2295.73
207.107	2300.06
207.181	2331.91
207.256	2323.53
207.33	2337.81
207.405	2349.48
207.479	2366.52
207.553	2374.13
207.628	2360.38
207.702	2368.09
207.776	2360.81
207.851	2363.66
207.925	2373.9
207.999	2371.61
208.073	2373.14
208.148	2376.71
208.222	2366.62
208.296	2394.97
208.371	2406.83
208.445	2414.74
208.519	2440.96
208.593	2451.15
208.668	2448.29
208.742	2447.77
208.816	2447.15
208.89	2460.34
208.965	2458.91
209.039	2466.25
209.113	2483.96
209.187	2504.13
209.261	2503.89
209.336	2523.85
209.41	2542.13
209.484	2543.42
209.558	2564.56
209.632	2573.51
209.707	2583.8
209.781	2605.76
209.855	2619.86
209.929	2635.35
210.003	2644.11
210.077	2644.59
210.151	2685.3
210.226	2718.04
210.3	2745.7
210.374	2768.98
210.448	2771.55
210.522	2780.37
210.596	2790.19
210.67	2801.29
210.744	2841.85
210.818	2868.33
210.892	2885.4
210.966	2882.68
211.041	2897.03
211.115	2894.02
211.189	2918.04
211.263	2933.05
211.337	2938.39
211.411	2951.88
211.485	2945.02
211.559	2959.31
211.633	2960.79
211.707	2937.14
211.781	2949.06
211.855	2917.93
211.929	2914.07
212.003	2900.07
212.077	2914.95
212.151	2932.4
212.225	2942.51
212.299	2935.4
212.373	2929.06
212.447	2929.82
212.52	2962.77
212.594	2970.88
212.668	2987.18
212.742	2980.5
212.816	2982.22
212.89	2983.6
212.964	2989.42
213.038	3003.35
213.112	3020.9
213.186	3049.41
213.26	3042.98
213.333	3009.45
213.407	3026.8
213.481	3041.53
213.555	3072.12
213.629	3073.69
213.703	3073.5
213.777	3087.57
213.85	3090.72
213.924	3140.63
213.998	3164.35
214.072	3177.86
214.146	3190.45
214.219	3212.64
214.293	3234.34
214.367	3263.35
214.441	3299.81
214.515	3320.81
214.588	3328.54
214.662	3331.64
214.736	3339.56
214.81	3378.91
214.883	3422.41
214.957	3449.66
215.031	3474.61
215.105	3490.31
215.178	3515.9
215.252	3549.13
215.326	3567.46
215.4	3592.19
215.473	3590.9
215.547	3612.87
215.621	3648.57
215.694	3697.07
215.768	3722.53
215.842	3759.93
215.915	3793.05
215.989	3820.05
216.063	3865.52
216.136	3915.02
216.21	3962.76
216.284	4029.16
216.357	4083.99
216.431	4130.6
216.504	4192.67
216.578	4272.4
216.652	4340.38
216.725	4399.74
216.799	4473.11
216.873	4538.94
216.946	4612.19
217.02	4669.97
217.093	4734.11
217.167	4778.11
217.24	4832.03
217.314	4895.83
217.387	4954.28
217.461	5020.14
217.535	5104.83
217.608	5163.23
217.682	5238.41
217.755	5320.15
217.829	5377.57
217.902	5450.86
217.976	5531.33
218.049	5597.49
218.123	5652.55
218.196	5735.46
218.27	5811.86
218.343	5865.5
218.417	5940.77
218.49	6012.34
218.563	6112.19
218.637	6190.36
218.71	6294.34
218.784	6379.74
218.857	6469.26
218.931	6563.77
219.004	6645.16
219.077	6726.24
219.151	6808.84
219.224	6887.77
219.298	6971.74
219.371	7074.04
219.444	7146.25
219.518	7226.21
219.591	7310.16
219.665	7422.79
219.738	7499.02
219.811	7570.4
219.885	7663.86
219.958	7758.44
220.031	7841.14
220.105	7927
220.178	8007.31
220.251	8071.53
220.325	8158.17
220.398	8244.33
220.471	8324.43
220.544	8412.72
220.618	8484.61
220.691	8565.21
220.764	8636.52
220.838	8716.51
220.911	8784.72
220.984	8883.97
221.057	8968.25
221.131	9050.47
221.204	9099.29
221.277	9200.26
221.35	9305.41
221.424	9378.5
221.497	9450.83
221.57	9522.38
221.643	9598.52
221.716	9687.52
221.79	9766.6
221.863	9839.87
221.936	9913.56
222.009	9989.86
222.082	10064.95
222.155	10132.63
222.229	10224.26
222.302	10311.79
222.375	10380.34
222.448	10458.68
222.521	10528.84
222.594	10596.53
222.667	10653.47
222.74	10736.69
222.814	10796.3
222.887	10859.86
222.96	10935.37
223.033	11009.77
223.106	11086.97
223.179	11158.2
223.252	11228.7
223.325	11299.4
223.398	11366.49
223.471	11434.73
223.544	11500.57
223.617	11570.84
223.69	11649.06
223.763	11701.84
223.837	11765.41
223.91	11833.18
223.983	11881.47
224.056	11933.34
224.129	11999.42
224.202	12076.01
224.275	12133.85
224.348	12186.34
224.42	12236.28
224.493	12286.99
224.566	12343.39
224.639	12406.72
224.712	12456.86
224.785	12509.59
224.858	12558.67
224.931	12611.3
225.004	12658.83
225.077	12715.38
225.15	12748.64
225.223	12798.68
225.296	12882.41
225.369	12928.35
225.442	12984.56
225.514	13046.02
225.587	13107.92
225.66	13168.27
225.733	13232.05
225.806	13290.38
225.879	13345.58
225.952	13397.64
226.025	13470.38
226.097	13541.58
226.17	13600.39
226.243	13649.76
226.316	13698.25
226.389	13765.74
226.461	13831.21
226.534	13891.46
226.607	13942.51
226.68	14020.61
226.753	14078.46
226.825	14107.62
226.898	14182.53
226.971	14234.84
227.044	14293.36
227.117	14346.62
227.189	14401.1
227.262	14458.6
227.335	14520.84
227.407	14576.37
227.48	14643.33
227.553	14691.53
227.626	14738.53
227.698	14788.66
227.771	14836.24
227.844	14892.97
227.916	14939.64
227.989	14976.51
228.062	15023.22
228.134	15096.54
228.207	15142.62
228.28	15189.67
228.352	15233.53
228.425	15266.79
228.498	15320.82
228.57	15356.54
228.643	15415.44
228.716	15470.44
228.788	15507.46
228.861	15542.12
228.934	15592.97
229.006	15625.55
229.079	15667.2
229.151	15699.83
229.224	15731.21
229.296	15779.21
229.369	15844.43
229.442	15900.82
229.514	15938.37
229.587	15994.18
229.659	16019.25
229.732	16064.07
229.804	16115.69
229.877	16182.16
229.949	16240.86
230.022	16309.78
230.094	16359.38
230.167	16399.67
230.239	16418.56
230.312	16463
230.384	16540.89
230.457	16592.99
230.529	16646.1
230.602	16689.81
230.674	16734.34
230.747	16790.35
230.819	16853.24
230.892	16857.92
230.964	16900.81
231.037	16949.54
231.109	16978.84
231.181	17025.3
231.254	17048.44
231.326	17088.15
231.399	17130.51
231.471	17164.58
231.544	17173.06
231.616	17219.67
231.688	17259.09
231.761	17300.83
231.833	17330.66
231.905	17324.92
231.978	17351.53
232.05	17374.18
232.122	17409.98
232.195	17437.84
232.267	17480.83
232.339	17495.67
232.412	17542.08
232.484	17565.55
232.556	17585.79
232.629	17650.85
232.701	17682.8
232.773	17724.2
232.846	17744.25
232.918	17767.43
232.99	17792.82
233.062	17826.46
233.135	17862.36
233.207	17872.68
233.279	17909.11
233.351	17937.73
233.424	17959.76
233.496	17969.54
233.568	18014.7
233.64	18019.18
233.713	18042.5
233.785	18059.32
233.857	18078.98
233.929	18084.48
234.001	18114.6
234.074	18147.56
234.146	18123.8
234.218	18143.61
234.29	18152.23
234.362	18156.43
234.434	18148.96
234.507	18150.35
234.579	18151.22
234.651	18148.14
234.723	18167.12
234.795	18172.04
234.867	18178.64
234.939	18206.83
235.012	18224.33
235.084	18230.2
235.156	18251.65
235.228	18255.55
235.3	18249.72
235.372	18266.3
235.444	18286.25
235.516	18277.62
235.588	18283.5
235.66	18300.37
235.732	18301.43
235.804	18361.96
235.876	18384.85
235.948	18408.41
236.02	18419.74
236.092	18420.41
236.164	18418.68
236.236	18423.69
236.308	18428.03
236.38	18441.9
236.452	18430.82
236.524	18436.56
236.596	18459.59
236.668	18476.75
236.74	18478.96
236.812	18491.83
236.884	18495.11
236.956	18494.58
237.028	18474.77
237.1	18465.47
237.172	18475.69
237.244	18476.84
237.316	18435.11
237.388	18418.05
237.46	18405.38
237.532	18408.7
237.604	18406.82
237.675	18422.48
237.747	18430.44
237.819	18421.23
237.891	18414.48
237.963	18398.97
238.035	18384.65
238.107	18338.3
238.178	18327.69
238.25	18314.35
238.322	18318.59
238.394	18291.07
238.466	18279.65
238.538	18293.62
238.609	18290.64
238.681	18266.64
238.753	18257.91
238.825	18259.46
238.897	18259.31
238.968	18270.49
239.04	18244.32
239.112	18249.48
239.184	18224.42
239.255	18198.64
239.327	18193.87
239.399	18176.76
239.471	18177.53
239.542	18174.3
239.614	18169.68
239.686	18128.18
239.758	18129.34
239.829	18104.33
239.901	18102.21
239.973	18082.31
240.044	18062.26
240.116	18043.95
240.188	18022.16
240.259	17999.76
240.331	17967.42
240.403	17952.14
240.474	17911.86
240.546	17892.39
240.618	17851.13
240.689	17822.65
240.761	17806.85
240.833	17790.65
240.904	17769.55
240.976	17746.46
241.048	17734.61
241.119	17730.75
241.191	17718.8
241.262	17704.29
241.334	17678.61
241.405	17658.42
241.477	17638.18
241.549	17612.39
241.62	17595.53
241.692	17588.63
241.763	17578.13
241.835	17559.38
241.906	17536.39
241.978	17500.92
242.049	17495.09
242.121	17488.1
242.192	17481.36
242.264	17437.02
242.335	17395.19
242.407	17379.38
242.478	17356.01
242.55	17320.05
242.621	17279.19
242.693	17248.05
242.764	17228.39
242.836	17206.46
242.907	17179.43
242.979	17161.84
243.05	17142.99
243.122	17133.06
243.193	17102.22
243.264	17055.18
243.336	17025.88
243.407	17006.75
243.479	17000.97
243.55	16977.21
243.622	16951.33
243.693	16925.01
243.764	16922.65
243.836	16898.74
243.907	16869.92
243.978	16834.55
244.05	16816.09
244.121	16773.29
244.192	16767.56
244.264	16721.87
244.335	16694.59
244.407	16654.78
244.478	16630.63
244.549	16600.03
244.62	16551.45
244.692	16521.42
244.763	16505.42
244.834	16472.5
244.906	16435.68
244.977	16415.87
245.048	16398.71
245.119	16360.39
245.191	16322.66
245.262	16272.53
245.333	16252.09
245.405	16224
245.476	16206.88
245.547	16180.38
245.618	16166.54
245.689	16135.94
245.761	16115.41
245.832	16087.31
245.903	16073.33
245.974	16050.92
246.045	16021.71
246.117	16010.72
246.188	15966.18
246.259	15924.01
246.33	15895.76
246.401	15875.37
246.473	15825.05
246.544	15791.36
246.615	15783.89
246.686	15751.21
246.757	15742.39
246.828	15706.92
246.899	15683.97
246.97	15638.04
247.042	15598.95
247.113	15574.75
247.184	15564.43
247.255	15531.61
247.326	15498.64
247.397	15467.16
247.468	15431.98
247.539	15401.85
247.61	15353.55
247.681	15343.91
247.752	15333.31
247.823	15289.3
247.894	15256.91
247.965	15219.65
248.037	15183.64
248.108	15136.79
248.179	15117.55
248.25	15079.43
248.321	15058.8
248.392	15029.39
248.463	15029.2
248.534	15004.95
248.605	14983.74
248.675	14954.68
248.746	14936.7
248.817	14913.37
248.888	14892.93
248.959	14852.78
249.03	14830.51
249.101	14810.89
249.172	14775.79
249.243	14725.42
249.314	14719.15
249.385	14688.45
249.456	14674.71
249.527	14636.77
249.598	14611.8
249.669	14585.77
249.739	14565.57
249.81	14545.76
249.881	14499.68
249.952	14474.03
250.023	14440.67
250.094	14406.35
250.165	14363.16
250.235	14328.65
250.306	14305.7
250.377	14266.94
250.448	14238.79
250.519	14195.89
250.59	14176.27
250.66	14152.02
250.731	14150.53
250.802	14124.21
250.873	14105.21
250.944	14076.34
251.014	14055.9
251.085	14057.15
251.156	14034.35
251.227	14022.64
251.297	14008.08
251.368	14001.52
251.439	13981.18
251.51	13968.98
251.58	13930.13
251.651	13903.81
251.722	13893.1
251.792	13854.44
251.863	13825.28
251.934	13828.27
252.005	13829.81
252.075	13805.51
252.146	13788.83
252.217	13771.82
252.287	13754.27
252.358	13723.76
252.429	13720.57
252.499	13689.09
252.57	13657.66
252.641	13637.56
252.711	13612.06
252.782	13568.96
252.852	13564.29
252.923	13537.58
252.994	13516.76
253.064	13501.43
253.135	13470.72
253.205	13435.14
253.276	13433.84
253.347	13422.56
253.417	13378.93
253.488	13350.59
253.558	13326.92
253.629	13305.27
253.699	13271.38
253.77	13248.29
253.841	13222.79
253.911	13203.08
253.982	13188.04
254.052	13176.51
254.123	13153.38
254.193	13128.12
254.264	13142.63
254.334	13097.5
254.405	13062.55
254.475	13029.77
254.546	13011.79
254.616	12998.2
254.687	12977.52
254.757	12950.76
254.827	12931.48
254.898	12921.55
254.968	12898.37
255.039	12868.62
255.109	12853.63
255.18	12825.62
255.25	12789.28
255.321	12779.49
255.391	12739.48
255.461	12730.95
255.532	12688.48
255.602	12667.17
255.673	12631.93
255.743	12598.53
255.813	12554.32
255.884	12543.57
255.954	12533.5
256.024	12524.58
256.095	12505.69
256.165	12474.06
256.235	12462.35
256.306	12434.05
256.376	12419.11
256.446	12402.43
256.517	12387.63
256.587	12372.79
256.657	12359.48
256.728	12345.46
256.798	12319.91
256.868	12295.28
256.938	12261.82
257.009	12242.06
257.079	12225.33
257.149	12217.62
257.219	12179.49
257.29	12172.26
257.36	12135.48
257.43	12118.42
257.5	12079.04
257.571	12044.91
257.641	12031.75
257.711	12001.72
257.781	11987.99
257.852	11968.99
257.922	11935.3
257.992	11916.36
258.062	11886.76
258.132	11879.77
258.202	11858.71
258.273	11841.36
258.343	11835.57
258.413	11817.16
258.483	11801.64
258.553	11770.94
258.623	11751.8
258.693	11735.99
258.764	11726.45
258.834	11720.81
258.904	11700.08
258.974	11676.9
259.044	11663.79
259.114	11650.1
259.184	11627.21
259.254	11604.08
259.324	11565.76
259.394	11550.43
259.464	11542.48
259.535	11524.89
259.605	11489.94
259.675	11461.41
259.745	11446.28
259.815	11422.18
259.885	11394.23
259.955	11395.48
260.025	11370.81
260.095	11348.97
260.165	11332.44
260.235	11335.38
260.305	11311.09
260.375	11286.22
260.445	11287.67
260.515	11284.06
260.585	11278.51
260.655	11262.46
260.725	11258.85
260.795	11253.55
260.865	11258.56
260.934	11233.5
261.004	11228.01
261.074	11217.64
261.144	11215.19
261.214	11208.87
261.284	11189.45
261.354	11186.17
261.424	11161.74
261.494	11162.75
261.564	11149.4
261.634	11143.04
261.703	11108.44
261.773	11091.76
261.843	11078.61
261.913	11055.29
261.983	11023.19
262.053	11011.09
262.123	10992.2
262.192	10962.38
262.262	10955.24
262.332	10917.46
262.402	10907.87
262.472	10889.18
262.541	10852.07
