Data from 20250630_urea_2M_MAYP1162681_18-52-26-942.txt Node
Date: Mon Jun 30 18:52:26 BST 2025
User: adleo
Spectrometer: MAYP116268
Trigger mode: 0
Integration Time (sec): 1.000000E0
Scans to average: 1
Electric dark correction enabled: true
Nonlinearity correction enabled: true
Boxcar width: 10
XAxis mode: Wavelengths
Number of Pixels in Spectrum: 2068
>>>>>Begin Spectral Data<<<<<
179.565	1110.79
179.642	1164.49
179.718	1203.57
179.795	1236.99
179.871	1268.21
179.948	1283.13
180.024	1302.45
180.101	1325.28
180.177	1340.3
180.254	1364.14
180.33	1384.66
180.407	1431.56
180.483	1521.49
180.56	1605.82
180.636	1682.63
180.712	1670.23
180.789	1679.73
180.865	1691.13
180.942	1699.21
181.018	1708.71
181.095	1721.35
181.171	1726.53
181.248	1726.15
181.324	1739.46
181.4	1747.35
181.477	1758.33
181.553	1769.44
181.63	1789.64
181.706	1801.67
181.782	1808.51
181.859	1806.08
181.935	1809.08
182.011	1806.27
182.088	1821.39
182.164	1838.46
182.24	1852.05
182.317	1863.03
182.393	1861.51
182.469	1874.48
182.546	1886.08
182.622	1891.6
182.698	1887.18
182.775	1897.59
182.851	1910.13
182.927	1905.95
183.003	1902.81
183.08	1896.49
183.156	1907.04
183.232	1903.81
183.308	1896.44
183.385	1901.53
183.461	1917.84
183.537	1920.31
183.613	1933
183.69	1922.21
183.766	1913.55
183.842	1921.07
183.918	1925.87
183.995	1937.61
184.071	1940.42
184.147	1936.85
184.223	1925.78
184.299	1937.71
184.375	1929.92
184.452	1936.67
184.528	1986.94
184.604	1996.44
184.68	2005.81
184.756	2012.85
184.832	2016.46
184.908	2016.94
184.985	2017.08
185.061	2000.77
185.137	2009.09
185.213	1995.97
185.289	1999.87
185.365	1992.88
185.441	1990.31
185.517	2000.73
185.593	1999.16
185.669	1997.92
185.745	2008.1
185.822	2023.64
185.898	2015.51
185.974	2024.31
186.05	2016.55
186.126	1979.36
186.202	1971.47
186.278	1969.24
186.354	1958.16
186.43	1963.86
186.506	1963.96
186.582	1963.77
186.658	1971.85
186.734	1954.4
186.81	1958.73
186.886	1960.82
186.962	1969.95
187.038	1965.67
187.114	1958.77
187.19	1967
187.266	1958.11
187.341	1957.02
187.417	1952.12
187.493	1952.97
187.569	1953.64
187.645	1947.79
187.721	1937.76
187.797	1947.27
187.873	1951.93
187.949	1949.79
188.025	1944.98
188.101	1947.45
188.176	1953.83
188.252	1946.84
188.328	1953.25
188.404	1951.11
188.48	1945.41
188.556	1938.56
188.632	1939.89
188.707	1939.37
188.783	1935.47
188.859	1931.53
188.935	1919.07
189.011	1925.77
189.086	1919.31
189.162	1913.74
189.238	1912.08
189.314	1910.46
189.39	1902.95
189.465	1895.06
189.541	1911.32
189.617	1895.21
189.693	1892.26
189.768	1895.3
189.844	1922.51
189.92	1916
189.996	1925.17
190.071	1937.49
190.147	1940.25
190.223	1949.19
190.298	1941.06
190.374	1926.32
190.45	1938.73
190.526	1950.66
190.601	1943.86
190.677	1946.67
190.753	1969.74
190.828	1975.25
190.904	1988.71
190.98	2003.97
191.055	2014.58
191.131	2003.97
191.207	2025.42
191.282	2032.69
191.358	2022.42
191.433	2005.53
191.509	2017.32
191.585	2014.84
191.66	2015.46
191.736	2019.69
191.811	2010.99
191.887	2029.92
191.963	2056.03
192.038	2062.17
192.114	2061.21
192.189	2063.31
192.265	2061.12
192.34	2040.43
192.416	2036.91
192.491	2032.82
192.567	2036.57
192.642	2039.86
192.718	2042.71
192.793	2030.49
192.869	2028.35
192.944	2029.49
193.02	2035.05
193.095	2041.71
193.171	2045.28
193.246	2042.04
193.322	2043.42
193.397	2044.85
193.473	2027.58
193.548	2008.22
193.624	2009.41
193.699	2007.56
193.775	2024.64
193.85	2023.4
193.925	2032.63
194.001	2031.06
194.076	2024.11
194.152	2011.32
194.227	2003.9
194.302	1992.58
194.378	1995.48
194.453	1992.54
194.529	2005.66
194.604	1991.63
194.679	1982.12
194.755	1967.29
194.83	1980.99
194.905	1975.33
194.981	1980.95
195.056	1976.57
195.131	1982.9
195.207	1980.99
195.282	1970.2
195.357	1952.89
195.433	1968.25
195.508	1958.31
195.583	1967.01
195.659	1981.51
195.734	1990.98
195.809	1989.93
195.884	1997.25
195.96	1995.97
196.035	2008.09
196.11	2003.67
196.185	2018.13
196.261	2022.21
196.336	2049.13
196.411	2035.29
196.486	2041.94
196.561	2039.9
196.637	2049.5
196.712	2063.63
196.787	2066.82
196.862	2082.89
196.937	2092.07
197.013	2098.68
197.088	2108.72
197.163	2131.27
197.238	2145.37
197.313	2142.56
197.388	2154.55
197.464	2183.29
197.539	2196.41
197.614	2192.75
197.689	2206.12
197.764	2220.97
197.839	2240.24
197.914	2233.81
197.989	2255.75
198.065	2268.83
198.14	2311.45
198.215	2335.34
198.29	2348.1
198.365	2359.24
198.44	2369.52
198.515	2396.08
198.59	2410.46
198.665	2433.11
198.74	2438.45
198.815	2441.35
198.89	2463.72
198.965	2492.35
199.04	2492.11
199.115	2505.15
199.19	2544.62
199.265	2548.95
199.34	2560.33
199.415	2592.3
199.49	2614.49
199.565	2621.39
199.64	2644.49
199.715	2641.97
199.79	2650.49
199.865	2655.59
199.94	2656.4
200.015	2684.22
200.09	2689.7
200.165	2693.27
200.24	2700.66
200.315	2737.51
200.39	2753.05
200.464	2758.67
200.539	2759.43
200.614	2773.48
200.689	2797.98
200.764	2802.55
200.839	2816.74
200.914	2818.41
200.989	2808.02
201.063	2818.55
201.138	2804.03
201.213	2806.08
201.288	2789.31
201.363	2794.21
201.438	2793.26
201.512	2808.07
201.587	2794.68
201.662	2798.35
201.737	2810.41
201.812	2818.41
201.886	2787.66
201.961	2795.19
202.036	2784.85
202.111	2781.95
202.186	2754.52
202.26	2736.5
202.335	2718.78
202.41	2712.63
202.485	2695.92
202.559	2676.86
202.634	2652.33
202.709	2659.47
202.784	2635.8
202.858	2638.27
202.933	2617.94
203.008	2615.03
203.082	2598.12
203.157	2595.31
203.232	2553.47
203.306	2533.22
203.381	2504.12
203.456	2483.88
203.53	2461.52
203.605	2443.68
203.68	2423.1
203.754	2416.63
203.829	2402.49
203.904	2381.4
203.978	2370.97
204.053	2378.59
204.127	2366.88
204.202	2368.5
204.277	2353.27
204.351	2348.8
204.426	2341.8
204.5	2336.28
204.575	2304.58
204.65	2312.58
204.724	2304.15
204.799	2315.28
204.873	2314.9
204.948	2313.05
205.022	2299.92
205.097	2289.68
205.171	2302.81
205.246	2308.33
205.32	2307.1
205.395	2308.1
205.469	2302.01
205.544	2310.29
205.618	2291.35
205.693	2306.01
205.767	2292.69
205.842	2309.11
205.916	2304.78
205.991	2295.92
206.065	2299.97
206.14	2311.72
206.214	2306.1
206.289	2301.48
206.363	2311.43
206.438	2312.57
206.512	2320.71
206.586	2338.93
206.661	2348.98
206.735	2325.81
206.81	2327.81
206.884	2342.9
206.958	2330.48
207.033	2344.66
207.107	2350.23
207.181	2382.37
207.256	2374.56
207.33	2392.45
207.405	2410.61
207.479	2428.22
207.553	2435.02
207.628	2422.08
207.702	2432.03
207.776	2427.65
207.851	2430.65
207.925	2444.98
207.999	2441.13
208.073	2437.37
208.148	2439.46
208.222	2428.41
208.296	2461.91
208.371	2477.3
208.445	2487.11
208.519	2516.06
208.593	2526.48
208.668	2523.48
208.742	2524.53
208.816	2523.62
208.89	2537.01
208.965	2532.01
209.039	2542.44
209.113	2558.11
209.187	2579.76
209.261	2578.05
209.336	2596.34
209.41	2615.05
209.484	2613.77
209.558	2635.49
209.632	2648.35
209.707	2660.87
209.781	2679.26
209.855	2695.27
209.929	2712.58
210.003	2721.68
210.077	2719.58
210.151	2765.4
210.226	2796.86
210.3	2823.86
210.374	2848.72
210.448	2854.58
210.522	2866.45
210.596	2875.17
210.67	2887.18
210.744	2929.14
210.818	2960.53
210.892	2980.51
210.966	2975.32
211.041	2992.48
211.115	2990.24
211.189	3017.98
211.263	3035.33
211.337	3046.39
211.411	3060.12
211.485	3057.74
211.559	3069.7
211.633	3079.52
211.707	3056.71
211.781	3072.23
211.855	3046.9
211.929	3048.66
212.003	3039.32
212.077	3059.36
212.151	3081.64
212.225	3100.29
212.299	3106.97
212.373	3111.69
212.447	3124.62
212.52	3171.37
212.594	3195.95
212.668	3229.14
212.742	3235.11
212.816	3255.86
212.89	3279.53
212.964	3311.33
213.038	3347.13
213.112	3393.16
213.186	3442.88
213.26	3461.16
213.333	3455.04
213.407	3498.28
213.481	3547.67
213.555	3613.48
213.629	3655.39
213.703	3694.71
213.777	3751.81
213.85	3793.63
213.924	3889.77
213.998	3957.84
214.072	4023.51
214.146	4083.23
214.219	4155.15
214.293	4237.39
214.367	4321.77
214.441	4418.37
214.515	4496.34
214.588	4567.7
214.662	4634.23
214.736	4712.59
214.81	4828.68
214.883	4949.24
214.957	5053.18
215.031	5157.1
215.105	5250.5
215.178	5355.02
215.252	5473.75
215.326	5577.46
215.4	5689.07
215.473	5780.67
215.547	5898.65
215.621	6023.73
215.694	6173.06
215.768	6298.81
215.842	6429.92
215.915	6568.27
215.989	6690.12
216.063	6838.01
216.136	6994
216.21	7150.47
216.284	7320.74
216.357	7480.33
216.431	7637.1
216.504	7809.09
216.578	7995.31
216.652	8171.45
216.725	8343.14
216.799	8516.99
216.873	8692.05
216.946	8874.91
217.02	9039.17
217.093	9208.48
217.167	9363.65
217.24	9514.67
217.314	9682.95
217.387	9842.62
217.461	10012.5
217.535	10209.02
217.608	10374.31
217.682	10550.16
217.755	10737.38
217.829	10898.02
217.902	11066.28
217.976	11239.47
218.049	11407.61
218.123	11561.16
218.196	11737.79
218.27	11897.36
218.343	12061.58
218.417	12231.68
218.49	12398.31
218.563	12582.43
218.637	12761.75
218.71	12949.59
218.784	13133.39
218.857	13314.69
218.931	13490.53
219.004	13652.02
219.077	13813.17
219.151	13973.74
219.224	14132.09
219.298	14288.23
219.371	14457.18
219.444	14609.17
219.518	14766.94
219.591	14922.3
219.665	15099.88
219.738	15251.91
219.811	15393.82
219.885	15549.07
219.958	15697.77
220.031	15833.84
220.105	15982.73
220.178	16117.16
220.251	16245.56
220.325	16380.56
220.398	16515.75
220.471	16653.4
220.544	16796.16
220.618	16914.19
220.691	17044.51
220.764	17163.98
220.838	17287.94
220.911	17406.83
220.984	17544.18
221.057	17665.68
221.131	17787.75
221.204	17873.39
221.277	17999.6
221.35	18146.05
221.424	18250.19
221.497	18357.23
221.57	18467.39
221.643	18566.86
221.716	18675.33
221.79	18761.79
221.863	18854.46
221.936	18948.91
222.009	19040.86
222.082	19131.6
222.155	19218.2
222.229	19317.95
222.302	19409.7
222.375	19484.83
222.448	19570.66
222.521	19642.61
222.594	19712.63
222.667	19771.28
222.74	19855.22
222.814	19929
222.887	19990.79
222.96	20069.87
223.033	20140.71
223.106	20207.26
223.179	20279.6
223.252	20348.37
223.325	20419.94
223.398	20480.32
223.471	20537.72
223.544	20602.69
223.617	20661.63
223.69	20721.53
223.763	20765.63
223.837	20824.81
223.91	20893.83
223.983	20929.78
224.056	20964.72
224.129	21017.01
224.202	21084.73
224.275	21128.68
224.348	21151.87
224.42	21178.23
224.493	21196.59
224.566	21238.96
224.639	21280.02
224.712	21307.78
224.785	21338.49
224.858	21367.45
224.931	21391.55
225.004	21407.84
225.077	21429.77
225.15	21437.97
225.223	21474.5
225.296	21526.13
225.369	21540.4
225.442	21550.18
225.514	21582.96
225.587	21624.41
225.66	21654
225.733	21673.33
225.806	21701.67
225.879	21722.98
225.952	21740.67
226.025	21778.56
226.097	21810.08
226.17	21834.23
226.243	21834.95
226.316	21840.02
226.389	21871.88
226.461	21898.92
226.534	21928.8
226.607	21948.9
226.68	21970.59
226.753	21981.34
226.825	21970.55
226.898	21999.9
226.971	22011.42
227.044	22029.4
227.117	22044.35
227.189	22062.18
227.262	22082.91
227.335	22099.45
227.407	22120.13
227.48	22142.06
227.553	22151.75
227.626	22155.41
227.698	22159.17
227.771	22171.9
227.844	22180.33
227.916	22180.91
227.989	22183.13
228.062	22180.38
228.134	22203.67
228.207	22216.06
228.28	22215.81
228.352	22216.39
228.425	22219.04
228.498	22235.1
228.57	22236.25
228.643	22244.21
228.716	22239.34
228.788	22234.28
228.861	22227.14
228.934	22241.75
229.006	22231.24
229.079	22230.18
229.151	22216.73
229.224	22208.92
229.296	22220.49
229.369	22242.91
229.442	22259.92
229.514	22253.95
229.587	22277.18
229.659	22262.05
229.732	22266.48
229.804	22268.26
229.877	22294.68
229.949	22300.9
230.022	22316.33
230.094	22297.91
230.167	22304.18
230.239	22292.95
230.312	22288.13
230.384	22306.59
230.457	22293.29
230.529	22301.77
230.602	22302.01
230.674	22310.11
230.747	22324.38
230.819	22333.93
230.892	22307.8
230.964	22297.87
231.037	22293.67
231.109	22281.48
231.181	22286.2
231.254	22276.9
231.326	22270.39
231.399	22249.66
231.471	22226.71
231.544	22192.05
231.616	22207.04
231.688	22196.58
231.761	22185.35
231.833	22171.71
231.905	22132.47
231.978	22123.65
232.05	22104.17
232.122	22090.05
232.195	22069.56
232.267	22074.52
232.339	22043.24
232.412	22041.65
232.484	22023.14
232.556	22010.36
232.629	22020
232.701	22013.74
232.773	21995.76
232.846	21977.34
232.918	21964.96
232.99	21960.67
233.062	21957.68
233.135	21948.61
233.207	21917.09
233.279	21916.13
233.351	21909.57
233.424	21897.9
233.496	21875.35
233.568	21881.56
233.64	21840.93
233.713	21831.24
233.785	21801.55
233.857	21795.72
233.929	21762.6
234.001	21758.55
234.074	21754.94
234.146	21707.22
234.218	21671.55
234.29	21654.92
234.362	21629.81
234.434	21606.33
234.507	21577.46
234.579	21542.23
234.651	21499.81
234.723	21492.77
234.795	21469.69
234.867	21454.26
234.939	21443.61
235.012	21419.65
235.084	21403.75
235.156	21403.02
235.228	21366.64
235.3	21332.65
235.372	21306.24
235.444	21289.42
235.516	21254.86
235.588	21224.21
235.66	21206.47
235.732	21179.39
235.804	21205.12
235.876	21192.45
235.948	21171.48
236.02	21150.9
236.092	21129.22
236.164	21113.02
236.236	21072.78
236.308	21043.38
236.38	21005.93
236.452	20967.18
236.524	20942.31
236.596	20919.32
236.668	20893.83
236.74	20873.34
236.812	20845.92
236.884	20826.84
236.956	20806.5
237.028	20756.81
237.1	20721.48
237.172	20711.89
237.244	20697.24
237.316	20628.13
237.388	20592.13
237.46	20563.69
237.532	20536.85
237.604	20505.76
237.675	20493.67
237.747	20475.88
237.819	20434.25
237.891	20406.39
237.963	20375.74
238.035	20336.9
238.107	20272.8
238.178	20256.17
238.25	20226.05
238.322	20226.39
238.394	20181.43
238.466	20148.8
238.538	20136.95
238.609	20118.59
238.681	20061.82
238.753	20025.87
238.825	20005.38
238.897	19977.39
238.968	19961.48
239.04	19925.44
239.112	19914.88
239.184	19864.57
239.255	19833.39
239.327	19810.55
239.399	19785.39
239.471	19766.79
239.542	19745.49
239.614	19727.66
239.686	19671.76
239.758	19648.29
239.829	19592.82
239.901	19571.52
239.973	19540.44
240.044	19505.31
240.116	19463.43
240.188	19422.81
240.259	19394.38
240.331	19350.19
240.403	19319.2
240.474	19265.13
240.546	19224.46
240.618	19173.33
240.689	19133.62
240.761	19097.67
240.833	19074.78
240.904	19038.11
240.976	18997.82
241.048	18971.75
241.119	18945.83
241.191	18920.91
241.262	18902.94
241.334	18874.51
241.405	18836.58
241.477	18790.22
241.549	18752.83
241.62	18726.18
241.692	18704.49
241.763	18682.13
241.835	18651.72
241.906	18621.89
241.978	18580.21
242.049	18559.54
242.121	18531.2
242.192	18515.15
242.264	18472.07
242.335	18428.12
242.407	18394.92
242.478	18355.26
242.55	18315.4
242.621	18281.29
242.693	18236.61
242.764	18189
242.836	18149.49
242.907	18121.49
242.979	18094.84
243.05	18067.85
243.122	18038.07
243.193	18008.53
243.264	17954.17
243.336	17909.69
243.407	17877.93
243.479	17866.12
243.55	17836.34
243.622	17811.09
243.693	17769.88
243.764	17745.21
243.836	17706.13
243.907	17668.29
243.978	17637.36
244.05	17616.3
244.121	17564.3
244.192	17545.93
244.264	17491.96
244.335	17458.8
244.407	17407.96
244.478	17381.69
244.549	17342.42
244.62	17289.02
244.692	17247.19
244.763	17223.57
244.834	17190.7
244.906	17162.65
244.977	17123.33
245.048	17102.08
245.119	17058.07
245.191	17024.97
245.262	16970.07
245.333	16957.59
245.405	16929.15
245.476	16893.63
245.547	16862.36
245.618	16833.73
245.689	16801.82
245.761	16782.4
245.832	16741.19
245.903	16719.79
245.974	16687.6
246.045	16661.91
246.117	16647.5
246.188	16601.13
246.259	16549.56
246.33	16512.21
246.401	16468.74
246.473	16421.36
246.544	16378.61
246.615	16347.77
246.686	16309.21
246.757	16295.86
246.828	16238.5
246.899	16214.6
246.97	16173.63
247.042	16123.02
247.113	16101.62
247.184	16090.39
247.255	16050.43
247.326	16022.28
247.397	15988.06
247.468	15959.96
247.539	15925.31
247.61	15889.93
247.681	15881.11
247.752	15872.96
247.823	15844.24
247.894	15815.41
247.965	15778.68
248.037	15737.86
248.108	15697.32
248.179	15664.69
248.25	15634.81
248.321	15611.19
248.392	15562.99
248.463	15551.18
248.534	15528.28
248.605	15501.48
248.675	15460.95
248.746	15444.13
248.817	15422.53
248.888	15394.38
248.959	15340.15
249.03	15319.33
249.101	15289.98
249.172	15248.52
249.243	15183.35
249.314	15158.53
249.385	15135.58
249.456	15115.43
249.527	15083.57
249.598	15065.64
249.669	15042.55
249.739	15011.32
249.81	14995.31
249.881	14961.91
249.952	14935.35
250.023	14906.52
250.094	14860.29
250.165	14818.31
250.235	14781.92
250.306	14753.09
250.377	14717.42
250.448	14699.78
250.519	14646.41
250.59	14627.61
250.66	14594.16
250.731	14590.4
250.802	14568.71
250.873	14538.58
250.944	14514.96
251.014	14480.2
251.085	14478.32
251.156	14460.39
251.227	14451.18
251.297	14437.64
251.368	14424.77
251.439	14405.92
251.51	14389.38
251.58	14361.57
251.651	14333.42
251.722	14314.71
251.792	14267.91
251.863	14237.39
251.934	14231.8
252.005	14235.75
252.075	14208.85
252.146	14206.44
252.217	14188.7
252.287	14172.89
252.358	14140.5
252.429	14130.81
252.499	14110.71
252.57	14088.44
252.641	14065.06
252.711	14030.73
252.782	13991.69
252.852	13985.08
252.923	13964.16
252.994	13943.43
253.064	13935.14
253.135	13907.37
253.205	13878.11
253.276	13875.22
253.347	13869.97
253.417	13833.47
253.488	13800.98
253.558	13774.47
253.629	13745.16
253.699	13725.1
253.77	13704.23
253.841	13685.29
253.911	13657.76
253.982	13630.81
254.052	13610.18
254.123	13585.16
254.193	13564.58
254.264	13577.79
254.334	13542.93
254.405	13499.84
254.475	13459.63
254.546	13431.72
254.616	13420.92
254.687	13408.1
254.757	13389.73
254.827	13368.33
254.898	13350.73
254.968	13331.26
255.039	13302.67
255.109	13287.82
255.18	13265.99
255.25	13222.02
255.321	13204.72
255.391	13176.37
255.461	13182.64
255.532	13128.55
255.602	13107.29
255.673	13065.93
255.743	13027.41
255.813	12986.87
255.884	12976.36
255.954	12966.77
256.024	12960.74
256.095	12934.95
256.165	12893.59
256.235	12882.55
256.306	12850.93
256.376	12835.99
256.446	12825.91
256.517	12815.02
256.587	12802
256.657	12779.59
256.728	12760.64
256.798	12741.94
256.868	12713.59
256.938	12680.57
257.009	12676.48
257.079	12664.23
257.149	12674.35
257.219	12634.01
257.29	12618.73
257.36	12582.48
257.43	12574.04
257.5	12535.28
257.571	12511.33
257.641	12504.43
257.711	12466.11
257.781	12445.58
257.852	12433.38
257.922	12388.98
257.992	12362.38
258.062	12333.98
258.132	12318.85
258.202	12294.31
258.273	12271.51
258.343	12274.84
258.413	12256.23
258.483	12231.21
258.553	12193.95
258.623	12159.58
258.693	12147.29
258.764	12143.44
258.834	12137.94
258.904	12112.78
258.974	12082.8
259.044	12068
259.114	12055.28
259.184	12041.83
259.254	12023.61
259.324	11980.37
259.394	11972.32
259.464	11973.72
259.535	11956.8
259.605	11933.61
259.675	11914.38
259.745	11901.76
259.815	11862.42
259.885	11829.6
259.955	11838.81
260.025	11816.15
260.095	11799.96
260.165	11783.81
260.235	11775.38
260.305	11754.31
260.375	11725.01
260.445	11724.48
260.515	11716.62
260.585	11705.87
260.655	11687.07
260.725	11681.92
260.795	11672.23
260.865	11668.33
260.934	11638.88
261.004	11622.05
261.074	11600.8
261.144	11595.11
261.214	11591.64
261.284	11577.66
261.354	11569.91
261.424	11536.41
261.494	11538.86
261.564	11516.69
261.634	11511.1
261.703	11476.06
261.773	11455.77
261.843	11443.29
261.913	11421.31
261.983	11389.07
262.053	11374.95
262.123	11356.49
262.192	11328.44
262.262	11321.7
