Data from 20250630_urea_2M_MAYP1162681_05-32-26-854.txt Node
Date: Tue Jul 01 05:32:26 BST 2025
User: adleo
Spectrometer: MAYP116268
Trigger mode: 0
Integration Time (sec): 1.000000E0
Scans to average: 1
Electric dark correction enabled: true
Nonlinearity correction enabled: true
Boxcar width: 10
XAxis mode: Wavelengths
Number of Pixels in Spectrum: 2068
>>>>>Begin Spectral Data<<<<<
179.565	1055.78
179.642	1107.22
179.718	1144
179.795	1176.52
179.871	1205.37
179.948	1218.77
180.024	1235.7
180.101	1252.69
180.177	1266.84
180.254	1288.65
180.33	1307.33
180.407	1349.05
180.483	1434.85
180.56	1513.43
180.636	1585.77
180.712	1574.89
180.789	1583.78
180.865	1595.41
180.942	1600.73
181.018	1607.52
181.095	1619.83
181.171	1624.24
181.248	1622.11
181.324	1634.94
181.4	1640.49
181.477	1648.52
181.553	1661.54
181.63	1678.35
181.706	1693.7
181.782	1698.36
181.859	1695.17
181.935	1701.21
182.011	1698.36
182.088	1712.09
182.164	1728.11
182.24	1740.55
182.317	1747.02
182.393	1744.59
182.469	1758.47
182.546	1774.01
182.622	1780.09
182.698	1777.05
182.775	1786.98
182.851	1800.14
182.927	1796.39
183.003	1792.63
183.08	1788.5
183.156	1795.2
183.232	1792.97
183.308	1783.51
183.385	1790.07
183.461	1805.47
183.537	1805.99
183.613	1817.87
183.69	1812.21
183.766	1804.32
183.842	1812.54
183.918	1818.77
183.995	1833.22
184.071	1833.36
184.147	1828.61
184.223	1820.2
184.299	1829.14
184.375	1819.82
184.452	1825.34
184.528	1875.74
184.604	1884
184.68	1892.89
184.756	1900.31
184.832	1904.92
184.908	1907.86
184.985	1908.01
185.061	1891.99
185.137	1900.02
185.213	1887.67
185.289	1887
185.365	1878.92
185.441	1876.45
185.517	1886.2
185.593	1881.3
185.669	1879.88
185.745	1890.62
185.822	1903.88
185.898	1895.61
185.974	1905.16
186.05	1898.07
186.126	1859.8
186.202	1855.47
186.278	1852.86
186.354	1844.82
186.43	1851.96
186.506	1852.29
186.582	1852.05
186.658	1861.74
186.734	1841.98
186.81	1843.92
186.886	1844.92
186.962	1854.95
187.038	1853.05
187.114	1849.96
187.19	1857.42
187.266	1848.01
187.341	1846.58
187.417	1840.55
187.493	1841.59
187.569	1842.78
187.645	1837.84
187.721	1828.05
187.797	1835.17
187.873	1840.74
187.949	1834.04
188.025	1828.99
188.101	1832.23
188.176	1837.45
188.252	1831.61
188.328	1840.92
188.404	1842.25
188.48	1838.92
188.556	1832.41
188.632	1829.28
188.707	1826.47
188.783	1822.52
188.859	1818.68
188.935	1807.41
189.011	1815.97
189.086	1807.03
189.162	1800.24
189.238	1799.62
189.314	1796.29
189.39	1791.87
189.465	1783.84
189.541	1799
189.617	1782.46
189.693	1776
189.768	1777.62
189.844	1800.01
189.92	1791.7
189.996	1799.4
190.071	1808.19
190.147	1809.33
190.223	1816.93
190.298	1811.28
190.374	1799.11
190.45	1810.09
190.526	1819.12
190.601	1812.51
190.677	1816.55
190.753	1842.47
190.828	1847.6
190.904	1861.24
190.98	1875.65
191.055	1885.87
191.131	1876.79
191.207	1897.23
191.282	1906.64
191.358	1897.27
191.433	1883.53
191.509	1896.26
191.585	1894.32
191.66	1893.84
191.736	1900.07
191.811	1893.36
191.887	1907.01
191.963	1930.31
192.038	1935.11
192.114	1935.44
192.189	1937.96
192.265	1934.63
192.34	1912.47
192.416	1908.81
192.491	1905.91
192.567	1908.29
192.642	1911
192.718	1914.7
192.793	1904.15
192.869	1901.16
192.944	1907.33
193.02	1915.51
193.095	1916.03
193.171	1921.26
193.246	1922.69
193.322	1919.51
193.397	1920.08
193.473	1907.14
193.548	1888.36
193.624	1894.54
193.699	1891.69
193.775	1909.48
193.85	1916.65
193.925	1926.07
194.001	1926.54
194.076	1916.42
194.152	1904.67
194.227	1896.73
194.302	1888.51
194.378	1892.17
194.453	1891.88
194.529	1903.67
194.604	1890.84
194.679	1888.84
194.755	1871.12
194.83	1881.82
194.905	1880.44
194.981	1889.23
195.056	1884.77
195.131	1891.89
195.207	1888.95
195.282	1879.44
195.357	1858.76
195.433	1870.97
195.508	1859.18
195.583	1864.94
195.659	1879.77
195.734	1887
195.809	1889.37
195.884	1894.7
195.96	1894.93
196.035	1908.67
196.11	1901.73
196.185	1913.62
196.261	1914.38
196.336	1945.23
196.411	1932.91
196.486	1938.43
196.561	1932.25
196.637	1940.71
196.712	1955.88
196.787	1958.35
196.862	1976.04
196.937	1984.74
197.013	1984.17
197.088	1995.96
197.163	2013.65
197.238	2030.12
197.313	2029.31
197.388	2038.48
197.464	2066.74
197.539	2075.25
197.614	2067.17
197.689	2078.15
197.764	2091.57
197.839	2111.93
197.914	2102.84
197.989	2120.2
198.065	2132.66
198.14	2178.45
198.215	2200.43
198.29	2211.19
198.365	2225.51
198.44	2232.88
198.515	2258.72
198.59	2274.61
198.665	2295.46
198.74	2302.98
198.815	2304.79
198.89	2324.77
198.965	2351.24
199.04	2350.24
199.115	2366.42
199.19	2404.54
199.265	2408.77
199.34	2419.25
199.415	2448.97
199.49	2470.38
199.565	2480.28
199.64	2501.85
199.715	2496.99
199.79	2503.37
199.865	2507.32
199.94	2503.18
200.015	2534.33
200.09	2537.52
200.165	2542.28
200.24	2547.71
200.315	2586.26
200.39	2599.22
200.464	2604.03
200.539	2607.41
200.614	2615.17
200.689	2636.47
200.764	2644.85
200.839	2663.14
200.914	2663.9
200.989	2655.08
201.063	2668.94
201.138	2653.19
201.213	2654.19
201.288	2638.38
201.363	2643.81
201.438	2644.48
201.512	2660.85
201.587	2643.18
201.662	2648.51
201.737	2663.04
201.812	2671.38
201.886	2641.49
201.961	2647.97
202.036	2639.73
202.111	2635.44
202.186	2613.12
202.26	2596.26
202.335	2576.01
202.41	2566.58
202.485	2552.11
202.559	2533.3
202.634	2507.92
202.709	2518.24
202.784	2501.53
202.858	2501.91
202.933	2486.29
203.008	2480.68
203.082	2461.92
203.157	2460.49
203.232	2424.03
203.306	2401.03
203.381	2372.65
203.456	2353.33
203.53	2335.37
203.605	2316.72
203.68	2293.06
203.754	2288.73
203.829	2275.31
203.904	2259.6
203.978	2250.89
204.053	2256.89
204.127	2247.8
204.202	2246.75
204.277	2231.29
204.351	2221.34
204.426	2215.97
204.5	2204.74
204.575	2174.86
204.65	2183.38
204.724	2176.86
204.799	2182.95
204.873	2181.9
204.948	2179.05
205.022	2167.63
205.097	2158.16
205.171	2172
205.246	2184.8
205.32	2184.04
205.395	2182.04
205.469	2170.11
205.544	2173.87
205.618	2159.64
205.693	2169.11
205.767	2155.84
205.842	2174.87
205.916	2170.59
205.991	2160.88
206.065	2169.54
206.14	2181.52
206.214	2176.1
206.289	2171.29
206.363	2183.57
206.438	2184.09
206.512	2192.42
206.586	2207.73
206.661	2215.35
206.735	2194.76
206.81	2192.04
206.884	2201.89
206.958	2192.28
207.033	2210.02
207.107	2216.26
207.181	2241.87
207.256	2235.63
207.33	2252.33
207.405	2260.76
207.479	2279.31
207.553	2285.78
207.628	2268.33
207.702	2279.13
207.776	2275.75
207.851	2276.18
207.925	2288.99
207.999	2284.94
208.073	2283.18
208.148	2287.32
208.222	2277.61
208.296	2307.63
208.371	2323.72
208.445	2336.91
208.519	2363.79
208.593	2372.84
208.668	2370.6
208.742	2371.89
208.816	2374.46
208.89	2387.79
208.965	2387.6
209.039	2394.5
209.113	2410.97
209.187	2429.47
209.261	2424.19
209.336	2439.33
209.41	2456.42
209.484	2453.37
209.558	2478.04
209.632	2487.84
209.707	2494.41
209.781	2513.27
209.855	2524.6
209.929	2539.57
210.003	2543.95
210.077	2543.86
210.151	2583.27
210.226	2614.05
210.3	2641.18
210.374	2663.56
210.448	2667.99
210.522	2678.71
210.596	2689.38
210.67	2696.76
210.744	2740.74
210.818	2772.83
210.892	2794.85
210.966	2790.47
211.041	2808.05
211.115	2801.28
211.189	2826.44
211.263	2845.16
211.337	2852.45
211.411	2870.85
211.485	2866.47
211.559	2880.14
211.633	2884.62
211.707	2864.06
211.781	2878.57
211.855	2848.82
211.929	2841.34
212.003	2827.82
212.077	2840.74
212.151	2857.09
212.225	2868.58
212.299	2865.52
212.373	2861.95
212.447	2864
212.52	2900.99
212.594	2912.15
212.668	2933.83
212.742	2930.59
212.816	2936.64
212.89	2942.46
212.964	2950.76
213.038	2967.79
213.112	2992.25
213.186	3018.71
213.26	3013.89
213.333	2986.52
213.407	3011.92
213.481	3036.09
213.555	3071.59
213.629	3084.33
213.703	3092.01
213.777	3119.3
213.85	3129.03
213.924	3189.16
213.998	3219.75
214.072	3241.57
214.146	3264.38
214.219	3296.17
214.293	3329.28
214.367	3368.08
214.441	3417.96
214.515	3445.46
214.588	3465.23
214.662	3480.6
214.736	3510.15
214.81	3564.78
214.883	3623.68
214.957	3660.58
215.031	3704.31
215.105	3734.86
215.178	3777.47
215.252	3828.93
215.326	3865.48
215.4	3904.79
215.473	3921.15
215.547	3964.79
215.621	4015.49
215.694	4082.87
215.768	4127.29
215.842	4179.69
215.915	4234.17
215.989	4281.73
216.063	4348.67
216.136	4423.59
216.21	4497.74
216.284	4579.96
216.357	4653.66
216.431	4720.77
216.504	4810.44
216.578	4911.93
216.652	5000.38
216.725	5083.21
216.799	5176.27
216.873	5260.25
216.946	5354.91
217.02	5433.67
217.093	5515.39
217.167	5583.08
217.24	5657.51
217.314	5747.21
217.387	5830.73
217.461	5916.01
217.535	6015.13
217.608	6095.93
217.682	6190.96
217.755	6292.13
217.829	6379.46
217.902	6474.32
217.976	6576.48
218.049	6666.91
218.123	6742.19
218.196	6850.54
218.27	6938.5
218.343	7015.63
218.417	7114.51
218.49	7208.26
218.563	7321
218.637	7424.72
218.71	7547.84
218.784	7652.22
218.857	7762.76
218.931	7875.02
219.004	7979.96
219.077	8089.02
219.151	8190.84
219.224	8283.74
219.298	8381.03
219.371	8486.02
219.444	8569.16
219.518	8658.62
219.591	8751.21
219.665	8875.16
219.738	8969.85
219.811	9060.68
219.885	9165.33
219.958	9264.17
220.031	9361.62
220.105	9458.94
220.178	9561.51
220.251	9642.08
220.325	9741.01
220.398	9833.44
220.471	9928.66
220.544	10019.65
220.618	10097.84
220.691	10194.08
220.764	10284.65
220.838	10378.35
220.911	10461.75
220.984	10577.86
221.057	10679.95
221.131	10779.5
221.204	10842.58
221.277	10945.7
221.35	11063.91
221.424	11148.92
221.497	11233.97
221.57	11315.7
221.643	11406.93
221.716	11498.75
221.79	11585.69
221.863	11669.75
221.936	11749.42
222.009	11825.96
222.082	11915.95
222.155	12003
222.229	12094.43
222.302	12175.89
222.375	12258.32
222.448	12345.9
222.521	12417.96
222.594	12492.44
222.667	12555.1
222.74	12636.42
222.814	12701.36
222.887	12762.91
222.96	12843.42
223.033	12925.94
223.106	13009.43
223.179	13089.46
223.252	13148.7
223.325	13222.6
223.398	13289.71
223.471	13358.78
223.544	13428.49
223.617	13494.73
223.69	13559.56
223.763	13618.13
223.837	13702.93
223.91	13768.1
223.983	13821.32
224.056	13885
224.129	13951
224.202	14018.1
224.275	14081.73
224.348	14129.17
224.42	14186.2
224.493	14230.21
224.566	14286.71
224.639	14352.94
224.712	14398.4
224.785	14456.63
224.858	14511.87
224.931	14565.09
225.004	14612.86
225.077	14671.33
225.15	14705.32
225.223	14758.39
225.296	14829.2
225.369	14855.57
225.442	14904.45
225.514	14953.18
225.587	15005.29
225.66	15052.24
225.733	15112.83
225.806	15161.8
225.879	15221.43
225.952	15267.08
226.025	15334.75
226.097	15404.07
226.17	15454.44
226.243	15491.5
226.316	15546.26
226.389	15588.15
226.461	15644.54
226.534	15713.42
226.607	15768.13
226.68	15847.08
226.753	15895.57
226.825	15923.28
226.898	15989.7
226.971	16037.56
227.044	16098.63
227.117	16146.68
227.189	16207.12
227.262	16268.24
227.335	16323.47
227.407	16370.13
227.48	16425.27
227.553	16476.31
227.626	16509.46
227.698	16544.55
227.771	16593.23
227.844	16631.98
227.916	16687.17
227.989	16713.96
228.062	16749.58
228.134	16800.52
228.207	16839.22
228.28	16870.84
228.352	16921.06
228.425	16961.73
228.498	17013.78
228.57	17038.99
228.643	17095.71
228.716	17135.96
228.788	17152.44
228.861	17197.93
228.934	17241.84
229.006	17273.98
229.079	17310.17
229.151	17349.16
229.224	17375.48
229.296	17417.36
229.369	17474.46
229.442	17519.09
229.514	17552.92
229.587	17601.4
229.659	17622.9
229.732	17652.34
229.804	17705.55
229.877	17758.75
229.949	17805.45
230.022	17857.49
230.094	17898.99
230.167	17923.32
230.239	17939.47
230.312	17983.32
230.384	18025.1
230.457	18060.52
230.529	18100.28
230.602	18130.01
230.674	18160.86
230.747	18206.98
230.819	18253.62
230.892	18255.12
230.964	18288.8
231.037	18330.49
231.109	18355.4
231.181	18393.81
231.254	18419.59
231.326	18446
231.399	18466.48
231.471	18483.16
231.544	18483.06
231.616	18523.3
231.688	18551.44
231.761	18585.22
231.833	18607.29
231.905	18605.61
231.978	18629.7
232.05	18650.47
232.122	18673.84
232.195	18694.61
232.267	18733.5
232.339	18749.74
232.412	18795.47
232.484	18813.83
232.556	18826.8
232.629	18861.4
232.701	18892.34
232.773	18918.94
232.846	18930.26
232.918	18946.02
232.99	18973.97
233.062	18998.84
233.135	19013.68
233.207	19023.89
233.279	19043.41
233.351	19064.52
233.424	19076.66
233.496	19086.11
233.568	19111.84
233.64	19122.2
233.713	19133.62
233.785	19141.28
233.857	19156.08
233.929	19141.38
234.001	19167.02
234.074	19204.36
234.146	19187.98
234.218	19184.46
234.29	19180.94
234.362	19188.56
234.434	19182.92
234.507	19168.46
234.579	19162.01
234.651	19161.76
234.723	19171.5
234.795	19181.38
234.867	19173.14
234.939	19192.12
235.012	19199.79
235.084	19204.8
235.156	19213.47
235.228	19212.7
235.3	19205.95
235.372	19209.71
235.444	19226.19
235.516	19194.53
235.588	19177.96
235.66	19188.75
235.732	19187.02
235.804	19233.13
235.876	19235.88
235.948	19243.83
236.02	19243.45
236.092	19239.64
236.164	19236.07
236.236	19227.21
236.308	19207.88
236.38	19217.86
236.452	19205.47
236.524	19201.38
236.596	19211.21
236.668	19215.3
236.74	19207.35
236.812	19199.93
236.884	19192.27
236.956	19183.5
237.028	19174.49
237.1	19156.85
237.172	19165.67
237.244	19175.07
237.316	19139.16
237.388	19129.72
237.46	19112.23
237.532	19116.32
237.604	19103.89
237.675	19104.52
237.747	19106.2
237.819	19097.48
237.891	19080.37
237.963	19061.92
238.035	19047.8
238.107	18999.99
238.178	18987.51
238.25	18965.2
238.322	18975.22
238.394	18943.27
238.466	18919.9
238.538	18907.85
238.609	18900.43
238.681	18864.67
238.753	18838.99
238.825	18815.28
238.897	18794.17
238.968	18796.15
239.04	18770.37
239.112	18765.31
239.184	18734.66
239.255	18701.7
239.327	18680.25
239.399	18670.13
239.471	18670.42
239.542	18646.71
239.614	18644.93
239.686	18601.9
239.758	18601.08
239.829	18566.43
239.901	18561.71
239.973	18541.08
240.044	18526.72
240.116	18504.17
240.188	18479.69
240.259	18450.68
240.331	18425.76
240.403	18416.99
240.474	18380.8
240.546	18347.93
240.618	18305.86
240.689	18273.38
240.761	18252.61
240.833	18243.31
240.904	18211.46
240.976	18181.53
241.048	18164.52
241.119	18138.02
241.191	18117.25
241.262	18098.31
241.334	18073.39
241.405	18041.78
241.477	18016.14
241.549	17990.74
241.62	17968.48
241.692	17944.72
241.763	17936.14
241.835	17913.88
241.906	17882.6
241.978	17836.82
242.049	17820.44
242.121	17813.06
242.192	17810.51
242.264	17775.81
242.335	17741.21
242.407	17728.2
242.478	17690.8
242.55	17660.68
242.621	17623.09
242.693	17589.36
242.764	17553.12
242.836	17514.75
242.907	17491.77
242.979	17471.86
243.05	17444.78
243.122	17424.78
243.193	17391
243.264	17335.33
243.336	17299.38
243.407	17273.89
243.479	17270.66
243.55	17248.63
243.622	17220.92
243.693	17178.32
243.764	17172.34
243.836	17125.84
243.907	17080.49
243.978	17048.48
244.05	17023.95
244.121	16986.6
244.192	16971.32
244.264	16934.41
244.335	16908.91
244.407	16860.96
244.478	16839.46
244.549	16819.13
244.62	16775.75
244.692	16747.27
244.763	16729.58
244.834	16690.88
244.906	16654.58
244.977	16626.34
245.048	16602.1
245.119	16564.27
245.191	16527.54
245.262	16467.92
245.333	16461.37
245.405	16436.64
245.476	16413.75
245.547	16392.49
245.618	16376.11
245.689	16349.16
245.761	16321.31
245.832	16288.77
245.903	16276.39
245.974	16246.41
246.045	16201.73
246.117	16184.62
246.188	16142.73
246.259	16094.97
246.33	16068.46
246.401	16040.41
246.473	15993.22
246.544	15958.81
246.615	15935.96
246.686	15909.45
246.757	15894.94
246.828	15850.5
246.899	15834.98
246.97	15782.25
247.042	15736.41
247.113	15711.16
247.184	15695.73
247.255	15654.18
247.326	15626.23
247.397	15590.17
247.468	15561.69
247.539	15538.79
247.61	15496.23
247.681	15481
247.752	15473.86
247.823	15441.09
247.894	15417.95
247.965	15384.21
248.037	15355
248.108	15312.87
248.179	15288.38
248.25	15255.12
248.321	15239.27
248.392	15190.58
248.463	15192.8
248.534	15166.67
248.605	15144.45
248.675	15106.47
248.746	15093.7
248.817	15072.68
248.888	15045.98
248.959	15002.21
249.03	14979.79
249.101	14948.27
249.172	14911.78
249.243	14863.52
249.314	14848.73
249.385	14818.94
249.456	14800.38
249.527	14764.27
249.598	14746.53
249.669	14707.87
249.739	14691.39
249.81	14662.9
249.881	14628.34
249.952	14597.29
250.023	14571.02
250.094	14529.37
250.165	14498.33
250.235	14468.15
250.306	14438.26
250.377	14402.21
250.448	14371.69
250.519	14316.06
250.59	14307.92
250.66	14282.27
250.731	14275.86
250.802	14249.93
250.873	14224.52
250.944	14201.82
251.014	14175.54
251.085	14166.53
251.156	14151.73
251.227	14133.08
251.297	14118.03
251.368	14100.78
251.439	14082.51
251.51	14064.86
251.58	14029.19
251.651	13997.66
251.722	13974.91
251.792	13928.54
251.863	13904.1
251.934	13892.57
252.005	13901.97
252.075	13867.89
252.146	13855.55
252.217	13832.51
252.287	13810.77
252.358	13780.88
252.429	13774.9
252.499	13748.68
252.57	13720.77
252.641	13701.77
252.711	13672.42
252.782	13633.9
252.852	13630.96
252.923	13602.32
252.994	13577.64
253.064	13560.77
253.135	13525.82
253.205	13498.63
253.276	13497.62
253.347	13491.74
253.417	13464.26
253.488	13439.05
253.558	13414.7
253.629	13385.63
253.699	13365.34
253.77	13354.93
253.841	13330.73
253.911	13310.29
253.982	13282.04
254.052	13273.41
254.123	13257.07
254.193	13233.3
254.264	13246.17
254.334	13207.03
254.405	13169.43
254.475	13134.67
254.546	13118.72
254.616	13110.47
254.687	13094.47
254.757	13082.22
254.827	13051.47
254.898	13034.64
254.968	13006.15
255.039	12983.59
255.109	12965.42
255.18	12931.19
255.25	12876.63
255.321	12867.85
255.391	12824.76
255.461	12826.39
255.532	12782.38
255.602	12745.75
255.673	12711.91
255.743	12676.33
255.813	12635.84
255.884	12628.08
255.954	12614.58
256.024	12606.1
256.095	12582.81
256.165	12549.79
256.235	12524.87
256.306	12505.49
256.376	12495.42
256.446	12485.97
256.517	12469.53
256.587	12455.12
256.657	12442.15
256.728	12438.54
256.798	12406
256.868	12379.58
256.938	12344.78
257.009	12320
257.079	12313.06
257.149	12308.48
257.219	12269.78
257.29	12260.14
257.36	12225.57
257.43	12215.5
257.5	12176.46
257.571	12156.6
257.641	12140.3
257.711	12114.71
257.781	12093.74
257.852	12072.63
257.922	12026.55
257.992	12003.75
258.062	11985.91
258.132	11972.08
258.202	11947.93
258.273	11933.81
258.343	11937.57
258.413	11915.88
258.483	11903.44
258.553	11867.39
258.623	11841.21
258.693	11823.81
258.764	11814.51
258.834	11817.6
258.904	11799.28
258.974	11766.36
259.044	11739.71
259.114	11729.15
259.184	11707.37
259.254	11688.28
259.324	11654.93
259.394	11642.49
259.464	11640.03
259.535	11621.52
259.605	11602.92
259.675	11575.59
259.745	11556.6
259.815	11527.35
259.885	11506.67
259.955	11512.31
260.025	11490.19
260.095	11471.05
260.165	11452.5
260.235	11454.33
260.305	11426.81
260.375	11399.19
260.445	11407.43
260.515	11407.87
260.585	11399.87
260.655	11381.17
260.725	11369.26
260.795	11355.34
260.865	11363.67
260.934	11328.4
261.004	11313.26
261.074	11286.03
261.144	11280.39
261.214	11279.77
261.284	11258.37
261.354	11251.77
261.424	11217.16
261.494	11223.47
261.564	11209.26
261.634	11205.88
261.703	11163.81
261.773	11144.49
261.843	11134.46
261.913	11114.46
261.983	11083.62
262.053	11069.11
262.123	11047
262.192	11020.4
262.262	11010.08
262.332	10975.34
262.402	10975.1
262.472	10957.84
262.541	10927.29
