Data from 20250630_urea_2M_MAYP1162681_19-12-26-829.txt Node
Date: Mon Jun 30 19:12:26 BST 2025
User: adleo
Spectrometer: MAYP116268
Trigger mode: 0
Integration Time (sec): 1.000000E0
Scans to average: 1
Electric dark correction enabled: true
Nonlinearity correction enabled: true
Boxcar width: 10
XAxis mode: Wavelengths
Number of Pixels in Spectrum: 2068
>>>>>Begin Spectral Data<<<<<
179.565	1112.01
179.642	1166.99
179.718	1207.83
179.795	1244.11
179.871	1275.89
179.948	1292.36
180.024	1311.87
180.101	1331.76
180.177	1344.31
180.254	1365.48
180.33	1385.26
180.407	1430.49
180.483	1519.9
180.56	1602.52
180.636	1681.09
180.712	1671.01
180.789	1683.56
180.865	1697.43
180.942	1705.84
181.018	1718.81
181.095	1729.93
181.171	1736.58
181.248	1735.63
181.324	1749.51
181.4	1754.88
181.477	1764.29
181.553	1776.21
181.63	1797.27
181.706	1813.62
181.782	1821.32
181.859	1818.32
181.935	1824.36
182.011	1821.65
182.088	1835.91
182.164	1855.69
182.24	1867.71
182.317	1874.75
182.393	1871.09
182.469	1885.02
182.546	1900.23
182.622	1905.03
182.698	1901.8
182.775	1912.59
182.851	1925.04
182.927	1917.44
183.003	1915.16
183.08	1910.35
183.156	1922
183.232	1918.96
183.308	1908.21
183.385	1915.53
183.461	1936.93
183.537	1935.5
183.613	1947.29
183.69	1939.16
183.766	1930.79
183.842	1935.59
183.918	1941.72
183.995	1953.94
184.071	1953.9
184.147	1946.57
184.223	1934.22
184.299	1943.82
184.375	1931.13
184.452	1939.31
184.528	1994.44
184.604	2004.18
184.68	2017.45
184.756	2020.4
184.832	2022.68
184.908	2027.58
184.985	2028.24
185.061	2011.12
185.137	2021.01
185.213	2010.03
185.289	2010.46
185.365	2002.52
185.441	2003.04
185.517	2017.84
185.593	2014.79
185.669	2011.42
185.745	2023.64
185.822	2039.18
185.898	2032.14
185.974	2043.46
186.05	2035.47
186.126	1996.74
186.202	1989.9
186.278	1982.48
186.354	1974.87
186.43	1978.63
186.506	1977.92
186.582	1976.4
186.658	1982.86
186.734	1965.56
186.81	1970.93
186.886	1974.82
186.962	1983.72
187.038	1980.24
187.114	1970.06
187.19	1975.1
187.266	1967.64
187.341	1967.97
187.417	1963.17
187.493	1964.46
187.569	1967.59
187.645	1962.08
187.721	1950.24
187.797	1957.08
187.873	1963.22
187.949	1958.18
188.025	1955.7
188.101	1956.56
188.176	1964.31
188.252	1958.94
188.328	1967.35
188.404	1966.59
188.48	1963.36
188.556	1958.36
188.632	1958.36
188.707	1960.51
188.783	1959.6
188.859	1957.04
188.935	1945.95
189.011	1956.18
189.086	1950
189.162	1942.58
189.238	1940.63
189.314	1939.3
189.39	1933.93
189.465	1925.13
189.541	1941.3
189.617	1925.09
189.693	1921
189.768	1922.57
189.844	1945.92
189.92	1937.08
189.996	1944.83
190.071	1955.25
190.147	1954.25
190.223	1962
190.298	1952.39
190.374	1938.56
190.45	1949.01
190.526	1956.43
190.601	1948.49
190.677	1947.87
190.753	1971.66
190.828	1980.03
190.904	1993.91
190.98	2011.13
191.055	2021.12
191.131	2014.41
191.207	2035.43
191.282	2044.08
191.358	2035.19
191.433	2024.05
191.509	2039.5
191.585	2036.27
191.66	2034.94
191.736	2041.36
191.811	2035.32
191.887	2052.15
191.963	2074.46
192.038	2079.36
192.114	2080.16
192.189	2082.59
192.265	2082.92
192.34	2062.32
192.416	2056.9
192.491	2054.62
192.567	2055.95
192.642	2057.47
192.718	2058.04
192.793	2047.53
192.869	2043.39
192.944	2045.82
193.02	2051.1
193.095	2052.95
193.171	2057.28
193.246	2055.14
193.322	2053.71
193.397	2050.53
193.473	2038.26
193.548	2020.75
193.624	2026.27
193.699	2023.42
193.775	2037.5
193.85	2038.07
193.925	2046.01
194.001	2044.68
194.076	2033.03
194.152	2022.61
194.227	2016.81
194.302	2005.68
194.378	2007.63
194.453	2005.87
194.529	2016.76
194.604	2005.4
194.679	1998.07
194.755	1980.63
194.83	1991.85
194.905	1988.86
194.981	1999.32
195.056	1989
195.131	1996.66
195.207	1996.18
195.282	1989.81
195.357	1971.22
195.433	1985.1
195.508	1974.73
195.583	1980.06
195.659	1996.66
195.734	2004.6
195.809	2006.03
195.884	2014.01
195.96	2015.25
196.035	2028.9
196.11	2024.9
196.185	2033.84
196.261	2038.55
196.336	2069.89
196.411	2058.28
196.486	2063.71
196.561	2057.57
196.637	2068.7
196.712	2082.83
196.787	2083.44
196.862	2097.24
196.937	2107.08
197.013	2114.22
197.088	2124.49
197.163	2144.81
197.238	2159.99
197.313	2160.13
197.388	2171.08
197.464	2199.63
197.539	2208.86
197.614	2203.96
197.689	2218.38
197.764	2234.7
197.839	2252.49
197.914	2245.88
197.989	2265.15
198.065	2277.85
198.14	2325.23
198.215	2350.64
198.29	2363.26
198.365	2375.4
198.44	2387.58
198.515	2416.72
198.59	2429.29
198.665	2453.71
198.74	2462.94
198.815	2462.71
198.89	2482.94
198.965	2509.94
199.04	2507.75
199.115	2523.84
199.19	2567.17
199.265	2567.13
199.34	2576.32
199.415	2606.9
199.49	2630.9
199.565	2643.57
199.64	2668.48
199.715	2668
199.79	2675.39
199.865	2678.86
199.94	2678.72
200.015	2708.02
200.09	2712.46
200.165	2718.22
200.24	2722.46
200.315	2759.22
200.39	2771.61
200.464	2775.99
200.539	2778.61
200.614	2793.81
200.689	2813.2
200.764	2816.49
200.839	2833.97
200.914	2836.54
200.989	2828.68
201.063	2838.35
201.138	2824.49
201.213	2822.97
201.288	2804.53
201.363	2805.72
201.438	2806.81
201.512	2820.72
201.587	2801.23
201.662	2802.8
201.737	2812.71
201.812	2823.34
201.886	2792.15
201.961	2803.21
202.036	2791.31
202.111	2790.12
202.186	2760.78
202.26	2747.63
202.335	2728.13
202.41	2722.8
202.485	2711.03
202.559	2690.79
202.634	2664.21
202.709	2667.3
202.784	2649.87
202.858	2647.11
202.933	2632.29
203.008	2629.53
203.082	2613.76
203.157	2611.86
203.232	2572.16
203.306	2552.29
203.381	2520.52
203.456	2499.9
203.53	2478.5
203.605	2460.65
203.68	2439.27
203.754	2432.99
203.829	2420.08
203.904	2398.61
203.978	2386.47
204.053	2386.61
204.127	2375.76
204.202	2376.43
204.277	2361.15
204.351	2354.53
204.426	2348.39
204.5	2338.87
204.575	2303.37
204.65	2311.08
204.724	2303.42
204.799	2312.74
204.873	2310.36
204.948	2307.6
205.022	2295.37
205.097	2288.13
205.171	2302.31
205.246	2308.5
205.32	2307.31
205.395	2302.94
205.469	2294.71
205.544	2300.61
205.618	2283.95
205.693	2294.66
205.767	2282.38
205.842	2306.23
205.916	2301.81
205.991	2293.62
206.065	2301.33
206.14	2315.98
206.214	2310.98
206.289	2304.89
206.363	2314.98
206.438	2318.07
206.512	2329.02
206.586	2348.39
206.661	2356.1
206.735	2334.03
206.81	2334.31
206.884	2349.35
206.958	2338.55
207.033	2353.25
207.107	2361.2
207.181	2390.53
207.256	2383.44
207.33	2401.14
207.405	2414.15
207.479	2432.57
207.553	2438.24
207.628	2420.63
207.702	2431.53
207.776	2427.44
207.851	2434.91
207.925	2450.91
207.999	2449.53
208.073	2446.25
208.148	2449.34
208.222	2437.53
208.296	2467.61
208.371	2485.14
208.445	2495.09
208.519	2525.09
208.593	2537.61
208.668	2533.8
208.742	2538.99
208.816	2542.42
208.89	2554.09
208.965	2548.46
209.039	2554.66
209.113	2574.42
209.187	2595.07
209.261	2592.22
209.336	2607.79
209.41	2621.55
209.484	2621.84
209.558	2643.95
209.632	2657.61
209.707	2668.81
209.781	2689.19
209.855	2706.16
209.929	2721.13
210.003	2727.47
210.077	2727.27
210.151	2773.67
210.226	2807.38
210.3	2834.04
210.374	2859.24
210.448	2867.67
210.522	2880.97
210.596	2889.93
210.67	2898.84
210.744	2947.09
210.818	2975.92
210.892	3000.42
210.966	2998.13
211.041	3015.87
211.115	3012.96
211.189	3035.22
211.263	3052.62
211.337	3062.92
211.411	3080.75
211.485	3079.61
211.559	3098.01
211.633	3104.44
211.707	3078.54
211.781	3092.52
211.855	3067.86
211.929	3067.39
212.003	3057.57
212.077	3074.65
212.151	3097.88
212.225	3117.67
212.299	3120.01
212.373	3127.26
212.447	3139.43
212.52	3186.85
212.594	3211.71
212.668	3246.44
212.742	3258.7
212.816	3281.94
212.89	3302.12
212.964	3329.05
213.038	3364.34
213.112	3408.55
213.186	3456.08
213.26	3478.36
213.333	3473.2
213.407	3520.45
213.481	3570.47
213.555	3632.56
213.629	3673.12
213.703	3716.64
213.777	3776.86
213.85	3817.67
213.924	3916.69
213.998	3981.28
214.072	4046.43
214.146	4102.08
214.219	4177.7
214.293	4254.45
214.367	4337.83
214.441	4438.44
214.515	4513.44
214.588	4584.37
214.662	4648.17
214.736	4731.41
214.81	4842.86
214.883	4961.32
214.957	5065.48
215.031	5167.91
215.105	5264.61
215.178	5372.63
215.252	5488.69
215.326	5593.8
215.4	5701.7
215.473	5784.95
215.547	5900.14
215.621	6021.58
215.694	6170.08
215.768	6291
215.842	6420.6
215.915	6556.57
215.989	6683.71
216.063	6839.81
216.136	6992.77
216.21	7153.67
216.284	7322.74
216.357	7483.43
216.431	7637.6
216.504	7808.11
216.578	7997.61
216.652	8174.52
216.725	8340.01
216.799	8516.46
216.873	8682.18
216.946	8864.79
217.02	9034.82
217.093	9206.18
217.167	9353.93
217.24	9515.5
217.314	9688.36
217.387	9859.31
217.461	10027.26
217.535	10212.99
217.608	10367.01
217.682	10541.16
217.755	10721.84
217.829	10883.11
217.902	11052.33
217.976	11225.75
218.049	11387.15
218.123	11540.12
218.196	11714.87
218.27	11884.67
218.343	12039.24
218.417	12205.33
218.49	12374.95
218.563	12557.25
218.637	12736.22
218.71	12925.08
218.784	13102.8
218.857	13273.98
218.931	13446.45
219.004	13606.25
219.077	13771.74
219.151	13940.74
219.224	14098.57
219.298	14257.26
219.371	14433.92
219.444	14573.14
219.518	14730.38
219.591	14878.99
219.665	15054.5
219.738	15211.64
219.811	15359.71
219.885	15517.48
219.958	15669.7
220.031	15809
220.105	15949.5
220.178	16086.77
220.251	16223.17
220.325	16354.02
220.398	16493.99
220.471	16632.6
220.544	16781.24
220.618	16905.01
220.691	17031.13
220.764	17154.99
220.838	17272.44
220.911	17378.23
220.984	17526.33
221.057	17654.47
221.131	17781.03
221.204	17874.09
221.277	18000.88
221.35	18129.45
221.424	18228.39
221.497	18339.76
221.57	18444.04
221.643	18551.03
221.716	18650.64
221.79	18741.67
221.863	18839.88
221.936	18924.41
222.009	19012.74
222.082	19096.25
222.155	19177.21
222.229	19276.39
222.302	19372.14
222.375	19454.5
222.448	19551.46
222.521	19629.04
222.594	19697.62
222.667	19764.31
222.74	19844.6
222.814	19903.87
222.887	19971.01
222.96	20047.77
223.033	20122.66
223.106	20194.28
223.179	20276.78
223.252	20345.79
223.325	20412.69
223.398	20467.43
223.471	20534.61
223.544	20588.97
223.617	20645.51
223.69	20707.77
223.763	20747.58
223.837	20800.06
223.91	20867.39
223.983	20882.86
224.056	20916.31
224.129	20971.64
224.202	21025.18
224.275	21061.86
224.348	21099.45
224.42	21130.39
224.493	21169.1
224.566	21211.99
224.639	21253.83
224.712	21269.54
224.785	21310.8
224.858	21353.46
224.931	21381.36
225.004	21391.63
225.077	21429.56
225.15	21434.81
225.223	21452.98
225.296	21511.21
225.369	21521.29
225.442	21532.52
225.514	21578.26
225.587	21611.9
225.66	21634.41
225.733	21661.98
225.806	21686.42
225.879	21706.52
225.952	21713.84
226.025	21746.48
226.097	21767.25
226.17	21791.84
226.243	21793.52
226.316	21800.9
226.389	21813.77
226.461	21845.68
226.534	21883.95
226.607	21906.22
226.68	21954.81
226.753	21981.85
226.825	21965.56
226.898	21998.63
226.971	22017.43
227.044	22041.67
227.117	22048.23
227.189	22066.98
227.262	22086.41
227.335	22108.49
227.407	22111.47
227.48	22130.42
227.553	22136.01
227.626	22138.08
227.698	22154.18
227.771	22172.6
227.844	22169.9
227.916	22172.65
227.989	22159.97
228.062	22163.68
228.134	22182.77
228.207	22185.95
228.28	22186.67
228.352	22194.15
228.425	22201.14
228.498	22217.57
228.57	22206.82
228.643	22235.41
228.716	22231.36
228.788	22218.39
228.861	22211.84
228.934	22229.67
229.006	22236.62
229.079	22228.66
229.151	22222.06
229.224	22199.93
229.296	22197.04
229.369	22230.21
229.442	22248.14
229.514	22245.73
229.587	22245.97
229.659	22225.48
229.732	22224.13
229.804	22225.92
229.877	22245.1
229.949	22246.79
230.022	22261.06
230.094	22260.82
230.167	22259.32
230.239	22252.19
230.312	22258.65
230.384	22281.6
230.457	22288.35
230.529	22276.58
230.602	22286.52
230.674	22292.54
230.747	22303.63
230.819	22319.68
230.892	22280.87
230.964	22283.38
231.037	22285.45
231.109	22280.87
231.181	22284.49
231.254	22271.04
231.326	22263.52
231.399	22261.06
231.471	22252.87
231.544	22212.66
231.616	22211.65
231.688	22199.31
231.761	22186.24
231.833	22180.6
231.905	22151.29
231.978	22139.91
232.05	22123.29
232.122	22116.39
232.195	22098.17
232.267	22094.12
232.339	22079.95
232.412	22083.61
232.484	22053.14
232.556	22036.71
232.629	22042.54
232.701	22038.49
232.773	22027.65
232.846	22013.14
232.918	21996.5
232.99	21976.5
233.062	21976.5
233.135	21966.47
233.207	21931.62
233.279	21921.6
233.351	21904.92
233.424	21883.37
233.496	21852.71
233.568	21867.37
233.64	21831.6
233.713	21822.15
233.785	21810.2
233.857	21792.89
233.929	21767.73
234.001	21774.29
234.074	21780.22
234.146	21749.51
234.218	21737.8
234.29	21715.34
234.362	21690.76
234.434	21657.64
234.507	21630.12
234.579	21596.28
234.651	21562.69
234.723	21556.47
234.795	21543.02
234.867	21526.63
234.939	21513.81
235.012	21497.33
235.084	21483.54
235.156	21471.16
235.228	21443.34
235.3	21411.92
235.372	21379.1
235.444	21360.15
235.516	21310.85
235.588	21278.6
235.66	21251.71
235.732	21201.29
235.804	21235.85
235.876	21222.31
235.948	21209.92
236.02	21187.32
236.092	21166.5
236.164	21147.99
236.236	21115.99
236.308	21080.66
236.38	21050.97
236.452	21012.8
236.524	20989.95
236.596	20970
236.668	20942.58
236.74	20907.01
236.812	20880.45
236.884	20866.43
236.956	20845.37
237.028	20809.75
237.1	20769.32
237.172	20756.02
237.244	20757.08
237.316	20685.45
237.388	20655.38
237.46	20615.62
237.532	20602.41
237.604	20564.2
237.675	20548.44
237.747	20524.39
237.819	20490.13
237.891	20455.81
237.963	20418.51
238.035	20367.48
238.107	20302.61
238.178	20286.8
238.25	20260.1
238.322	20243.72
238.394	20198.18
238.466	20156.35
238.538	20130.9
238.609	20111.24
238.681	20063.43
238.753	20016.25
238.825	19994.04
238.897	19958.62
238.968	19953.51
239.04	19906.81
239.112	19898.91
239.184	19847.68
239.255	19812.93
239.327	19798.62
239.399	19773.95
239.471	19749.8
239.542	19731.11
239.614	19713.76
239.686	19651.83
239.758	19636.12
239.829	19588.03
239.901	19574.54
239.973	19551.26
240.044	19529.96
240.116	19494.49
240.188	19451.31
240.259	19420.47
240.331	19371.17
240.403	19341.1
240.474	19283.23
240.546	19242.36
240.618	19180.82
240.689	19142.03
240.761	19114.95
240.833	19091
240.904	19053.94
240.976	19021.85
241.048	18992.79
241.119	18974.33
241.191	18951.44
241.262	18927.39
241.334	18903.2
241.405	18862.14
241.477	18820.03
241.549	18780.66
241.62	18746.25
241.692	18722.25
241.763	18691.89
241.835	18652.81
241.906	18620.38
241.978	18572.33
242.049	18557.01
242.121	18544.43
242.192	18532.53
242.264	18485.35
242.335	18427.9
242.407	18398.56
242.478	18359.28
242.55	18327.19
242.621	18274.42
242.693	18236.2
242.764	18194.86
242.836	18157.32
242.907	18125.65
242.979	18097.27
243.05	18068.36
243.122	18041.8
243.193	18014.09
243.264	17965.56
243.336	17938.72
243.407	17914.58
243.479	17903.98
243.55	17872.07
243.622	17837.52
243.693	17797.09
243.764	17779.35
243.836	17741.04
243.907	17708.37
243.978	17671.88
244.05	17639.84
244.121	17595.11
244.192	17573.38
244.264	17520.9
244.335	17483.55
244.407	17433.81
244.478	17405.86
244.549	17367.11
244.62	17320.17
244.692	17283.02
244.763	17254.29
244.834	17209.72
244.906	17172.27
244.977	17146.49
245.048	17116.85
245.119	17077.23
245.191	17030.97
245.262	16975.01
245.333	16957.9
245.405	16914.86
245.476	16895.83
245.547	16874.96
245.618	16851.54
245.689	16820.45
245.761	16797.03
245.832	16759.15
245.903	16731.24
245.974	16700.49
246.045	16668.44
246.117	16655.81
246.188	16608.68
246.259	16562.07
246.33	16534.26
246.401	16501.68
246.473	16444.71
246.544	16405.48
246.615	16375.12
246.686	16343.93
246.757	16325.67
246.828	16279.64
246.899	16270.09
246.97	16214.04
247.042	16159.24
247.113	16133.6
247.184	16120.3
247.255	16080.68
247.326	16053.2
247.397	16024.33
247.468	15990.35
247.539	15958.64
247.61	15899.35
247.681	15874.77
247.752	15860.7
247.823	15809.41
247.894	15774.9
247.965	15736.82
248.037	15705.83
248.108	15663.65
248.179	15640.23
248.25	15601.47
248.321	15585.47
248.392	15536.07
248.463	15536.07
248.534	15505.27
248.605	15484.97
248.675	15445.93
248.746	15423.18
248.817	15393.54
248.888	15369.44
248.959	15327.79
249.03	15302.2
249.101	15278.58
249.172	15246.81
249.243	15194.13
249.314	15188.68
249.385	15159.8
249.456	15139.27
249.527	15105.14
249.598	15084.7
249.669	15047.11
249.739	15032.5
249.81	15010.28
249.881	14967.47
249.952	14934.74
250.023	14906.35
250.094	14852.61
250.165	14816.84
250.235	14781.89
250.306	14757.93
250.377	14718.65
250.448	14686.49
250.519	14634.82
250.59	14625.76
250.66	14600.93
250.731	14594.38
250.802	14571.24
250.873	14545.5
250.944	14528.34
251.014	14495.85
251.085	14492.9
251.156	14473.62
251.227	14458.05
251.297	14437.28
251.368	14423.49
251.439	14405.08
251.51	14393.31
251.58	14374.18
251.651	14344
251.722	14334.89
251.792	14292.52
251.863	14264.99
251.934	14260.55
252.005	14270.44
252.075	14243.2
252.146	14226.04
252.217	14209.31
252.287	14189.21
252.358	14162.55
252.429	14149.59
252.499	14118.15
252.57	14092.12
252.641	14073.76
252.711	14046.95
252.782	14008.1
252.852	14007.81
252.923	13984.09
252.994	13962.74
253.064	13947.65
253.135	13914.44
253.205	13880.16
253.276	13879.15
253.347	13869.22
253.417	13831.04
253.488	13793
253.558	13762.59
253.629	13742.72
253.699	13720.07
253.77	13705.03
253.841	13680.25
253.911	13654.89
253.982	13642.79
254.052	13619.36
254.123	13600.18
254.193	13570.19
254.264	13576.12
254.334	13545.17
254.405	13512.92
254.475	13485.25
254.546	13461.15
254.616	13452.76
254.687	13435.17
254.757	13410.97
254.827	13391.68
254.898	13380.79
254.968	13361.94
255.039	13338.03
255.109	13316.53
255.18	13285.39
255.25	13238.29
255.321	13218.57
255.391	13181.36
255.461	13179.58
255.532	13137.01
255.602	13110.59
255.673	13068.22
255.743	13036.55
255.813	12986.99
255.884	12975.95
255.954	12959.8
256.024	12949.29
256.095	12926.98
256.165	12887.11
256.235	12866.67
256.306	12834.18
256.376	12824.92
256.446	12815.09
256.517	12792.39
256.587	12781.2
256.657	12765
256.728	12742.59
256.798	12724.75
256.868	12699.93
256.938	12665.89
257.009	12657.46
257.079	12642.9
257.149	12654.52
257.219	12616.77
257.29	12602.89
257.36	12562.21
257.43	12549.14
257.5	12509.47
257.571	12481.22
257.641	12475.97
257.711	12448.64
257.781	12434.66
257.852	12407.81
257.922	12366.59
257.992	12354.49
258.062	12330.39
258.132	12316.94
258.202	12303.69
258.273	12288.26
258.343	12284.84
258.413	12262.14
258.483	12244.06
258.553	12221.02
258.623	12187.85
258.693	12169.73
258.764	12164.19
258.834	12160.38
258.904	12141.77
258.974	12117.67
259.044	12102.1
259.114	12089.09
259.184	12069.9
259.254	12051.2
259.324	12013.8
259.394	12008.35
259.464	11998.47
259.535	11978.66
259.605	11951.81
259.675	11922.07
259.745	11904
259.815	11878.06
259.885	11846.49
259.955	11854.11
260.025	11826.2
260.095	11805.09
260.165	11791.79
260.235	11784.12
260.305	11756.31
260.375	11729.85
260.445	11730.57
260.515	11720.89
260.585	11707.68
260.655	11692.45
260.725	11682.42
260.795	11680.64
260.865	11673.94
260.934	11648.59
261.004	11636.44
261.074	11624.44
261.144	11619.57
261.214	11609.35
261.284	11594.41
261.354	11593.5
261.424	11563.52
261.494	11562.46
261.564	11551.18
261.634	11544.77
261.703	11514.21
261.773	11504.19
261.843	11491.08
261.913	11473.73
261.983	11441.82
262.053	11433.53
262.123	11414.64
262.192	11382.78
262.262	11368.37
262.332	11333.09
