Data from 20250630_urea_2M_MAYP1162681_04-22-27-186.txt Node
Date: Tue Jul 01 04:22:27 BST 2025
User: adleo
Spectrometer: MAYP116268
Trigger mode: 0
Integration Time (sec): 1.000000E0
Scans to average: 1
Electric dark correction enabled: true
Nonlinearity correction enabled: true
Boxcar width: 10
XAxis mode: Wavelengths
Number of Pixels in Spectrum: 2068
>>>>>Begin Spectral Data<<<<<
179.565	1066.42
179.642	1114.37
179.718	1147.66
179.795	1178.9
179.871	1207.1
179.948	1223.43
180.024	1240.88
180.101	1261.66
180.177	1272.01
180.254	1291.55
180.33	1310.94
180.407	1352.28
180.483	1435.27
180.56	1512.76
180.636	1585.3
180.712	1574.27
180.789	1580.69
180.865	1591.89
180.942	1602.63
181.018	1611.22
181.095	1623.63
181.171	1629.76
181.248	1631.32
181.324	1646.05
181.4	1653.89
181.477	1662.21
181.553	1672.75
181.63	1690.95
181.706	1702.78
181.782	1711.23
181.859	1710.28
181.935	1714.7
182.011	1710.95
182.088	1727.77
182.164	1747.45
182.24	1759.8
182.317	1765.6
182.393	1763.13
182.469	1773.91
182.546	1784.13
182.622	1791.26
182.698	1783.75
182.775	1792.21
182.851	1804.66
182.927	1800.57
183.003	1796.49
183.08	1791.31
183.156	1799.05
183.232	1798.05
183.308	1788.6
183.385	1796.3
183.461	1814.26
183.537	1816.07
183.613	1830.28
183.69	1822.25
183.766	1811.83
183.842	1817.06
183.918	1825.38
183.995	1838.92
184.071	1843.2
184.147	1837.83
184.223	1826.05
184.299	1838.83
184.375	1829.8
184.452	1835.23
184.528	1886.82
184.604	1896.94
184.68	1907.54
184.756	1916.62
184.832	1920.47
184.908	1924.98
184.985	1922.65
185.061	1904.31
185.137	1911.53
185.213	1897.99
185.289	1897.8
185.365	1890.34
185.441	1890.81
185.517	1900.04
185.593	1894.33
185.669	1891.91
185.745	1899.51
185.822	1913.77
185.898	1907.44
185.974	1915.14
186.05	1907.2
186.126	1866.97
186.202	1860.89
186.278	1857.85
186.354	1847.25
186.43	1850.91
186.506	1849.34
186.582	1852.57
186.658	1860.6
186.734	1843.3
186.81	1845.82
186.886	1848.29
186.962	1858.99
187.038	1856.99
187.114	1849.81
187.19	1857.89
187.266	1849.52
187.341	1851.38
187.417	1845.68
187.493	1845.25
187.569	1846.86
187.645	1843.63
187.721	1834.22
187.797	1842.35
187.873	1848.24
187.949	1845.53
188.025	1840.82
188.101	1842.39
188.176	1845.72
188.252	1844.34
188.328	1851.18
188.404	1854.22
188.48	1851.18
188.556	1843.06
188.632	1839.97
188.707	1841.16
188.783	1838.97
188.859	1833.74
188.935	1823.62
189.011	1830.94
189.086	1824
189.162	1819.82
189.238	1814.83
189.314	1813.78
189.39	1806.56
189.465	1797.24
189.541	1810.26
189.617	1796.24
189.693	1793.58
189.768	1796.58
189.844	1815.08
189.92	1807.14
189.996	1813.84
190.071	1823.64
190.147	1825.16
190.223	1833.33
190.298	1825.44
190.374	1813.13
190.45	1824.68
190.526	1833.09
190.601	1826.77
190.677	1827.39
190.753	1851.69
190.828	1856.35
190.904	1869.23
190.98	1884.92
191.055	1895.19
191.131	1886.87
191.207	1904.26
191.282	1912.91
191.358	1902.93
191.433	1891.23
191.509	1905.87
191.585	1901.59
191.66	1901.83
191.736	1910
191.811	1901.87
191.887	1915.76
191.963	1937.06
192.038	1941.52
192.114	1942
192.189	1945.56
192.265	1943.09
192.34	1922.59
192.416	1920.45
192.491	1914.46
192.567	1917.55
192.642	1920.07
192.718	1919.74
192.793	1910.33
192.869	1907.43
192.944	1909.85
193.02	1913.7
193.095	1915.18
193.171	1923.64
193.246	1922.55
193.322	1916.18
193.397	1918.89
193.473	1908.57
193.548	1894.59
193.624	1899.15
193.699	1896.25
193.775	1911.47
193.85	1913.99
193.925	1919.6
194.001	1918.55
194.076	1914.56
194.152	1905.57
194.227	1900.63
194.302	1892.12
194.378	1895.83
194.453	1892.07
194.529	1904.24
194.604	1895.21
194.679	1886.85
194.755	1867.93
194.83	1881.01
194.905	1879.63
194.981	1886.81
195.056	1880.01
195.131	1883.58
195.207	1883.34
195.282	1876.59
195.357	1857.48
195.433	1871.88
195.508	1862.13
195.583	1870.74
195.659	1880.72
195.734	1882.58
195.809	1879.63
195.884	1889.18
195.96	1888.47
196.035	1904.96
196.11	1900.45
196.185	1909.62
196.261	1916.94
196.336	1943.71
196.411	1929.11
196.486	1936.57
196.561	1929.29
196.637	1939.09
196.712	1953.26
196.787	1955.26
196.862	1969.23
196.937	1983.4
197.013	1989.78
197.088	2002.76
197.163	2023.35
197.238	2041.82
197.313	2043.96
197.388	2059.46
197.464	2089.15
197.539	2098.99
197.614	2090.57
197.689	2104.65
197.764	2119.3
197.839	2137.05
197.914	2132.81
197.989	2150.74
198.065	2164.82
198.14	2213.52
198.215	2234.64
198.29	2244.35
198.365	2259.43
198.44	2267.81
198.515	2288.84
198.59	2299.64
198.665	2321.3
198.74	2325.68
198.815	2326.2
198.89	2344.52
198.965	2370.14
199.04	2362.33
199.115	2376.51
199.19	2416.39
199.265	2416.49
199.34	2429.72
199.415	2461.73
199.49	2482.15
199.565	2493.81
199.64	2512.43
199.715	2509.57
199.79	2516.38
199.865	2524.57
199.94	2519.9
200.015	2550.48
200.09	2554.53
200.165	2561.19
200.24	2566.1
200.315	2604.99
200.39	2619.76
200.464	2626.71
200.539	2629.61
200.614	2643.23
200.689	2666.48
200.764	2670.34
200.839	2687.95
200.914	2687.67
200.989	2675.61
201.063	2689.19
201.138	2672.95
201.213	2672.34
201.288	2653.33
201.363	2654.43
201.438	2653.47
201.512	2669.42
201.587	2653.37
201.662	2658.99
201.737	2666.9
201.812	2676.66
201.886	2646.01
201.961	2652.06
202.036	2642.78
202.111	2638.3
202.186	2615.26
202.26	2598.44
202.335	2581.82
202.41	2575.63
202.485	2561.34
202.559	2545.06
202.634	2516.87
202.709	2526
202.784	2510.91
202.858	2512.81
202.933	2500.01
203.008	2493.63
203.082	2475.39
203.157	2472.3
203.232	2432.27
203.306	2416.42
203.381	2386.08
203.456	2364.14
203.53	2344.94
203.605	2325.34
203.68	2303.62
203.754	2297.11
203.829	2284.49
203.904	2265.22
203.978	2252.37
204.053	2254.84
204.127	2241.28
204.202	2243.52
204.277	2228.44
204.351	2221.92
204.426	2214.06
204.5	2203.74
204.575	2172.11
204.65	2181.1
204.724	2175.44
204.799	2183.66
204.873	2179.33
204.948	2177
205.022	2166.68
205.097	2160.73
205.171	2174.29
205.246	2182.24
205.32	2181.86
205.395	2180.76
205.469	2174.39
205.544	2181.77
205.618	2167.68
205.693	2179.39
205.767	2165.74
205.842	2185.96
205.916	2180.01
205.991	2169.02
206.065	2177.45
206.14	2190.14
206.214	2184.57
206.289	2177.29
206.363	2187.37
206.438	2191.28
206.512	2199.46
206.586	2217.92
206.661	2223.63
206.735	2203.28
206.81	2201.99
206.884	2214.12
206.958	2204.18
207.033	2215.64
207.107	2219.59
207.181	2247.39
207.256	2239.49
207.33	2258
207.405	2267.09
207.479	2284.89
207.553	2293.02
207.628	2278.61
207.702	2291.79
207.776	2287.79
207.851	2291.45
207.925	2305.59
207.999	2301.22
208.073	2298.45
208.148	2299.98
208.222	2287.51
208.296	2316.48
208.371	2332.19
208.445	2342.62
208.519	2368.55
208.593	2379.69
208.668	2378.36
208.742	2380.64
208.816	2383.21
208.89	2396.93
208.965	2392.83
209.039	2403.83
209.113	2420.16
209.187	2440.95
209.261	2439.33
209.336	2455.99
209.41	2475.37
209.484	2478.09
209.558	2497.66
209.632	2508.65
209.707	2517.13
209.781	2538.89
209.855	2552.46
209.929	2568.86
210.003	2573.81
210.077	2568.52
210.151	2613.57
210.226	2645.35
210.3	2671.95
210.374	2697.38
210.448	2700.38
210.522	2712.19
210.596	2719.44
210.67	2728.25
210.744	2769.38
210.818	2798.48
210.892	2817.78
210.966	2814.06
211.041	2825.93
211.115	2825.35
211.189	2849.03
211.263	2868.9
211.337	2875.72
211.411	2892.35
211.485	2890.45
211.559	2904.22
211.633	2910.79
211.707	2882.7
211.781	2891.91
211.855	2861.49
211.929	2856.21
212.003	2845.77
212.077	2859.89
212.151	2876.05
212.225	2892.49
212.299	2887.39
212.373	2881.81
212.447	2885.2
212.52	2919.34
212.594	2932.3
212.668	2953.75
212.742	2953.94
212.816	2959.24
212.89	2967.39
212.964	2979.84
213.038	2994.34
213.112	3023.63
213.186	3057.9
213.26	3059.76
213.333	3039.88
213.407	3067.71
213.481	3093.69
213.555	3126.34
213.629	3140.6
213.703	3153.25
213.777	3177.06
213.85	3191.95
213.924	3256.43
213.998	3292.47
214.072	3320.45
214.146	3344.07
214.219	3378.49
214.293	3418.15
214.367	3461.45
214.441	3513.06
214.515	3548.79
214.588	3575.14
214.662	3593.58
214.736	3624.04
214.81	3680.6
214.883	3741.71
214.957	3785.64
215.031	3834.35
215.105	3873.79
215.178	3919.76
215.252	3973.28
215.326	4020.08
215.4	4070.6
215.473	4094.13
215.547	4143.87
215.621	4203.25
215.694	4281.23
215.768	4334.94
215.842	4394.17
215.915	4459.06
215.989	4516.64
216.063	4589.89
216.136	4677.45
216.21	4757.33
216.284	4854.06
216.357	4943.17
216.431	5022.38
216.504	5119.48
216.578	5229.55
216.652	5328.45
216.725	5420.18
216.799	5524.5
216.873	5616.2
216.946	5713.71
217.02	5808.63
217.093	5907.11
217.167	5985.06
217.24	6073.99
217.314	6172.19
217.387	6268.2
217.461	6360.35
217.535	6471.82
217.608	6559.74
217.682	6655.4
217.755	6769.03
217.829	6859.05
217.902	6966.81
217.976	7078.89
218.049	7173.07
218.123	7260.12
218.196	7373.73
218.27	7479.34
218.343	7571.08
218.417	7682.05
218.49	7791.91
218.563	7908.53
218.637	8014.92
218.71	8145.33
218.784	8255.99
218.857	8368.61
218.931	8477.67
219.004	8590.6
219.077	8696.34
219.151	8806.01
219.224	8909.35
219.298	9010.06
219.371	9125.64
219.444	9209.31
219.518	9310.27
219.591	9423.52
219.665	9552.35
219.738	9654.49
219.811	9745.26
219.885	9859.75
219.958	9966.82
220.031	10067.44
220.105	10181.57
220.178	10287.6
220.251	10375.14
220.325	10478.01
220.398	10580.53
220.471	10680.5
220.544	10780.24
220.618	10874.3
220.691	10971.16
220.764	11067.63
220.838	11168.68
220.911	11251.09
220.984	11370.31
221.057	11471.23
221.131	11561.64
221.204	11627.39
221.277	11728.79
221.35	11851.55
221.424	11931.37
221.497	12024.16
221.57	12109.33
221.643	12190.84
221.716	12281.65
221.79	12365.67
221.863	12442.99
221.936	12523.39
222.009	12603.99
222.082	12693.31
222.155	12772.46
222.229	12868.97
222.302	12951.4
222.375	13020.86
222.448	13110.91
222.521	13180.66
222.594	13250.22
222.667	13319.79
222.74	13406.46
222.814	13482
222.887	13547.7
222.96	13625.99
223.033	13703.36
223.106	13784.2
223.179	13858.15
223.252	13926.46
223.325	13995.11
223.398	14068.72
223.471	14149.7
223.544	14220.23
223.617	14294.9
223.69	14365.04
223.763	14420.81
223.837	14497.07
223.91	14566.73
223.983	14619.8
224.056	14673.4
224.129	14743.35
224.202	14812.28
224.275	14866.17
224.348	14921.85
224.42	14969.04
224.493	15017.15
224.566	15065.06
224.639	15119.96
224.712	15179.06
224.785	15235.31
224.858	15300.91
224.931	15347.53
225.004	15386.71
225.077	15446.39
225.15	15465.09
225.223	15526.26
225.296	15595.76
225.369	15630.75
225.442	15686.38
225.514	15746.05
225.587	15804.71
225.66	15856.14
225.733	15916.29
225.806	15970.56
225.879	16008.59
225.952	16051.59
226.025	16118.29
226.097	16187.75
226.17	16248.62
226.243	16270.5
226.316	16311.47
226.389	16351.76
226.461	16412.25
226.534	16473.75
226.607	16526.43
226.68	16600.41
226.753	16634.49
226.825	16663.21
226.898	16726.2
226.971	16768.76
227.044	16818.83
227.117	16871.08
227.189	16917.78
227.262	16968.57
227.335	17019.03
227.407	17067.18
227.48	17128.1
227.553	17168.1
227.626	17201.59
227.698	17231.76
227.771	17276.34
227.844	17318.99
227.916	17366.13
227.989	17394.18
228.062	17421.55
228.134	17481.93
228.207	17523.96
228.28	17567.14
228.352	17607.77
228.425	17642.61
228.498	17691.09
228.57	17724.53
228.643	17763.28
228.716	17799.81
228.788	17827.33
228.861	17855.9
228.934	17908.58
229.006	17930.02
229.079	17964
229.151	17983.47
229.224	18008.19
229.296	18052.53
229.369	18112.04
229.442	18166.06
229.514	18189.77
229.587	18231.84
229.659	18245.91
229.732	18282.68
229.804	18323.69
229.877	18380.32
229.949	18420.7
230.022	18464.22
230.094	18489.71
230.167	18534.77
230.239	18559.73
230.312	18588.31
230.384	18641.84
230.457	18670.9
230.529	18713.74
230.602	18750.32
230.674	18787.14
230.747	18826.51
230.819	18868.24
230.892	18865.88
230.964	18884
231.037	18927.66
231.109	18954.11
231.181	18979.75
231.254	18987.46
231.326	19008.71
231.399	19024.28
231.471	19042.88
231.544	19044.18
231.616	19081.34
231.688	19099.41
231.761	19120.27
231.833	19142.92
231.905	19137.53
231.978	19162.73
232.05	19176.46
232.122	19194.58
232.195	19218
232.267	19250.72
232.339	19263.25
232.412	19294.86
232.484	19299.78
232.556	19296.65
232.629	19336.89
232.701	19365.46
232.773	19390.96
232.846	19406.38
232.918	19421.7
232.99	19432.78
233.062	19453.89
233.135	19468.44
233.207	19468.01
233.279	19488.78
233.351	19504.78
233.424	19514.42
233.496	19510.51
233.568	19543.91
233.64	19538.56
233.713	19541.4
233.785	19529.84
233.857	19540.78
233.929	19533.36
234.001	19566.56
234.074	19598.8
234.146	19571.67
234.218	19562.37
234.29	19559.09
234.362	19552.3
234.434	19543.14
234.507	19537.4
234.579	19539.48
234.651	19527.81
234.723	19533.6
234.795	19532.73
234.867	19521.45
234.939	19533.31
235.012	19530.71
235.084	19533.41
235.156	19537.65
235.228	19531.43
235.3	19532.15
235.372	19521.36
235.444	19525.5
235.516	19497.5
235.588	19491.19
235.66	19498.61
235.732	19493.02
235.804	19548.3
235.876	19559.67
235.948	19567.67
236.02	19566.18
236.092	19549.84
236.164	19547.09
236.236	19536.25
236.308	19521.46
236.38	19523.77
236.452	19505.5
236.524	19497.65
236.596	19492.25
236.668	19484.88
236.74	19482.04
236.812	19476.35
236.884	19483
236.956	19476.83
237.028	19453.75
237.1	19429.22
237.172	19431.73
237.244	19433.99
237.316	19381.03
237.388	19357.99
237.46	19336.65
237.532	19334.48
237.604	19316.65
237.675	19318.38
237.747	19312.98
237.819	19295.64
237.891	19276.5
237.963	19257.04
238.035	19244.22
238.107	19193.14
238.178	19197.86
238.25	19174.73
238.322	19186.1
238.394	19146.68
238.466	19127.69
238.538	19130.2
238.609	19125.82
238.681	19086.73
238.753	19051.51
238.825	19034.16
238.897	19012.28
238.968	19012.09
239.04	18979.8
239.112	18988.81
239.184	18952.43
239.255	18931.22
239.327	18919.18
239.399	18898.26
239.471	18885.54
239.542	18870.12
239.614	18860.24
239.686	18808.2
239.758	18796.73
239.829	18755.09
239.901	18749.45
239.973	18719.77
240.044	18690.08
240.116	18669.07
240.188	18652.54
240.259	18638.47
240.331	18604.21
240.403	18584.31
240.474	18542.48
240.546	18517.08
240.618	18464.8
240.689	18432.75
240.761	18413.71
240.833	18403.06
240.904	18372.27
240.976	18337.57
241.048	18303.79
241.119	18285.72
241.191	18267.46
241.262	18257.43
241.334	18225.63
241.405	18190.78
241.477	18161.87
241.549	18132.71
241.62	18104.33
241.692	18074.79
241.763	18061.39
241.835	18041.2
241.906	18012.29
241.978	17959.32
242.049	17942.5
242.121	17927.81
242.192	17921.64
242.264	17872.77
242.335	17825.88
242.407	17808.29
242.478	17780.15
242.55	17753.74
242.621	17719.86
242.693	17691.38
242.764	17652.05
242.836	17623.48
242.907	17600.1
242.979	17573.79
243.05	17544.39
243.122	17514.8
243.193	17486.85
243.264	17427.57
243.336	17387.33
243.407	17363.77
243.479	17364.63
243.55	17336.63
243.622	17310.71
243.693	17270.71
243.764	17264.83
243.836	17217.74
243.907	17183.28
243.978	17157.31
244.05	17128.39
244.121	17079.66
244.192	17053.35
244.264	17006.8
244.335	16976.34
244.407	16934.7
244.478	16910.5
244.549	16882.07
244.62	16840.67
244.692	16804.28
244.763	16792.18
244.834	16754.01
244.906	16720.13
244.977	16688.08
245.048	16672.32
245.119	16631.64
245.191	16598.05
245.262	16538.96
245.333	16534.48
245.405	16513.03
245.476	16481.85
245.547	16455.01
245.618	16436.26
245.689	16410.86
245.761	16384.06
245.832	16350.85
245.903	16329.4
245.974	16306.17
246.045	16270.51
246.117	16261.06
246.188	16225.92
246.259	16175.65
246.33	16147.41
246.401	16114.01
246.473	16061.9
246.544	16017.32
246.615	16003.87
246.686	15963.53
246.757	15950.08
246.828	15900.87
246.899	15879.76
246.97	15835.66
247.042	15800.08
247.113	15770.63
247.184	15752.99
247.255	15717.08
247.326	15693.9
247.397	15657.61
247.468	15618.03
247.539	15587.33
247.61	15534.89
247.681	15515.9
247.752	15506.98
247.823	15470.39
247.894	15445.86
247.965	15409.85
248.037	15381.17
248.108	15335.53
248.179	15304.1
248.25	15271.9
248.321	15256.71
248.392	15209.14
248.463	15203.84
248.534	15170.63
248.605	15157.71
248.675	15131.44
248.746	15106.95
248.817	15081.79
248.888	15055.42
248.959	15015.51
249.03	14989.62
249.101	14968.8
249.172	14937.18
249.243	14876.78
249.314	14865.45
249.385	14838.17
249.456	14824.19
249.527	14786.16
249.598	14763.21
249.669	14737.86
249.739	14720.07
249.81	14696.11
249.881	14658.66
249.952	14626.02
250.023	14600.57
250.094	14557.04
250.165	14515.63
250.235	14492.78
250.306	14464.87
250.377	14428.86
250.448	14410.35
250.519	14371.4
250.59	14354.05
250.66	14317.32
250.731	14317.12
250.802	14287.53
250.873	14255.86
250.944	14233.05
251.014	14208.85
251.085	14201.43
251.156	14183.06
251.227	14154.91
251.297	14136.93
251.368	14126.57
251.439	14111.05
251.51	14100.87
251.58	14066.21
251.651	14041.19
251.722	14028.61
251.792	13985.37
251.863	13964.84
251.934	13958.67
252.005	13957.89
252.075	13927.77
252.146	13912.87
252.217	13898.55
252.287	13884.14
252.358	13868.23
252.429	13855.02
252.499	13825.62
252.57	13798.76
252.641	13785.07
252.711	13763.91
252.782	13719.37
252.852	13706.59
252.923	13682.97
252.994	13657.66
253.064	13644.17
253.135	13604.01
253.205	13572.1
253.276	13565.06
253.347	13552.09
253.417	13511.21
253.488	13483.88
253.558	13455.97
253.629	13431.38
253.699	13413.4
253.77	13385.63
253.841	13356.08
253.911	13335.64
253.982	13315.16
254.052	13299.59
254.123	13273.7
254.193	13247.38
254.264	13262.76
254.334	13229.49
254.405	13201.29
254.475	13171.6
254.546	13151.78
254.616	13149.42
254.687	13125.66
254.757	13104.88
254.827	13079.19
254.898	13066.65
254.968	13038.16
255.039	13014.45
255.109	13002.54
255.18	12964.07
255.25	12925.26
255.321	12902.7
255.391	12864.62
255.461	12859.8
255.532	12813.67
255.602	12788.65
255.673	12749.84
255.743	12721.88
255.813	12679.18
255.884	12666.11
255.954	12645.91
256.024	12633.81
256.095	12601.42
256.165	12573.12
256.235	12558.57
256.306	12533.74
256.376	12518.89
256.446	12514.12
256.517	12502.89
256.587	12495.08
256.657	12474.83
256.728	12462.83
256.798	12448.37
256.868	12425.38
256.938	12390.48
257.009	12380.89
257.079	12365.85
257.149	12375.49
257.219	12334.46
257.29	12324.63
257.36	12277.25
257.43	12261.92
257.5	12224.56
257.571	12200.94
257.641	12192.17
257.711	12165.08
257.781	12149.08
257.852	12131.48
257.922	12087.96
257.992	12065.93
258.062	12039.8
258.132	12030.69
258.202	12007.75
258.273	11988.61
258.343	11984.76
258.413	11965.28
258.483	11945.28
258.553	11917.95
258.623	11883.92
258.693	11866.23
258.764	11859.77
258.834	11859.14
258.904	11845.89
258.974	11818.42
259.044	11801.74
259.114	11776.87
259.184	11755.56
259.254	11728.53
259.324	11689.44
259.394	11680.04
259.464	11670.83
259.535	11643.26
259.605	11613.96
259.675	11592.36
259.745	11573.18
259.815	11544.36
259.885	11518.57
259.955	11520.65
260.025	11495.3
260.095	11476.45
260.165	11459.97
260.235	11448.88
260.305	11422.57
260.375	11392.59
260.445	11398.42
260.515	11394.9
260.585	11389.02
260.655	11370.27
260.725	11368.97
260.795	11357.41
260.865	11353.36
260.934	11325.5
261.004	11315.19
261.074	11301.79
261.144	11287.09
261.214	11279.14
261.284	11264.87
261.354	11255.48
261.424	11225.35
261.494	11221.55
261.564	11202.17
261.634	11188.58
261.703	11158.51
261.773	11147.47
261.843	11138.46
261.913	11117.02
261.983	11083.24
262.053	11069.98
262.123	11047.91
262.192	11016.2
262.262	11008.44
262.332	10979.34
262.402	10971.43
