Data from 20250630_urea_2M_MAYP1162681_06-12-26-648.txt Node
Date: Tue Jul 01 06:12:26 BST 2025
User: adleo
Spectrometer: MAYP116268
Trigger mode: 0
Integration Time (sec): 1.000000E0
Scans to average: 1
Electric dark correction enabled: true
Nonlinearity correction enabled: true
Boxcar width: 10
XAxis mode: Wavelengths
Number of Pixels in Spectrum: 2068
>>>>>Begin Spectral Data<<<<<
179.565	1065.85
179.642	1112.2
179.718	1152.19
179.795	1184.76
179.871	1210.85
179.948	1226.52
180.024	1244.39
180.101	1265.54
180.177	1279.32
180.254	1299.5
180.33	1318.47
180.407	1360.28
180.483	1442.85
180.56	1521.81
180.636	1596.2
180.712	1584.03
180.789	1592.63
180.865	1605.55
180.942	1612.2
181.018	1621.08
181.095	1632.53
181.171	1637.19
181.248	1638.23
181.324	1651.16
181.4	1658.62
181.477	1669.07
181.553	1680.99
181.63	1701.33
181.706	1714.4
181.782	1722.04
181.859	1722.09
181.935	1727.08
182.011	1724.8
182.088	1742.48
182.164	1761.82
182.24	1773.65
182.317	1782.68
182.393	1780.5
182.469	1793.23
182.546	1803.5
182.622	1808.01
182.698	1804.87
182.775	1815.04
182.851	1829.02
182.927	1820.89
183.003	1815.47
183.08	1810.25
183.156	1818.37
183.232	1813.81
183.308	1804.87
183.385	1809.86
183.461	1825.74
183.537	1825.5
183.613	1835.39
183.69	1826.59
183.766	1814.9
183.842	1821.46
183.918	1827.11
183.995	1837.38
184.071	1837.62
184.147	1835.62
184.223	1825.79
184.299	1836.96
184.375	1827.31
184.452	1833.87
184.528	1885.55
184.604	1896.43
184.68	1908.22
184.756	1912.78
184.832	1918.44
184.908	1920.29
184.985	1921.53
185.061	1906.18
185.137	1914.73
185.213	1906.7
185.289	1906.75
185.365	1900.14
185.441	1897.15
185.517	1908.61
185.593	1907.94
185.669	1905.57
185.745	1913.32
185.822	1930.09
185.898	1921.1
185.974	1929.23
186.05	1920.05
186.126	1882.44
186.202	1876.22
186.278	1875.5
186.354	1868.09
186.43	1871.56
186.506	1871.61
186.582	1871.04
186.658	1877.74
186.734	1859.77
186.81	1861.77
186.886	1863.53
186.962	1875.6
187.038	1875.17
187.114	1867.56
187.19	1873.03
187.266	1863.53
187.341	1863.43
187.417	1856.11
187.493	1860.06
187.569	1862.15
187.645	1856.68
187.721	1846.7
187.797	1851.88
187.873	1851.59
187.949	1847.08
188.025	1843.61
188.101	1844.18
188.176	1848.27
188.252	1843.18
188.328	1849.26
188.404	1848.6
188.48	1845.51
188.556	1837.43
188.632	1836
188.707	1838.28
188.783	1837.9
188.859	1833.01
188.935	1822.08
189.011	1829.06
189.086	1823.55
189.162	1816.66
189.238	1815.61
189.314	1813.38
189.39	1808.77
189.465	1803.59
189.541	1818.37
189.617	1803.3
189.693	1800.79
189.768	1803.07
189.844	1825.41
189.92	1820.24
189.996	1827.98
190.071	1838.16
190.147	1837.25
190.223	1843.34
190.298	1837.54
190.374	1824.99
190.45	1839.05
190.526	1849.37
190.601	1845.47
190.677	1844.66
190.753	1869.39
190.828	1873
190.904	1886.51
190.98	1904.91
191.055	1914.56
191.131	1905.76
191.207	1924.39
191.282	1933.66
191.358	1924.2
191.433	1910.74
191.509	1922.81
191.585	1919.87
191.66	1921.29
191.736	1930.28
191.811	1925.47
191.887	1935.6
191.963	1957
192.038	1959.33
192.114	1957.52
192.189	1959.99
192.265	1955.95
192.34	1937.5
192.416	1935.79
192.491	1932.08
192.567	1931.08
192.642	1933.74
192.718	1934.55
192.793	1924.09
192.869	1918.67
192.944	1922.33
193.02	1928.75
193.095	1932.17
193.171	1938.36
193.246	1937.97
193.322	1934.22
193.397	1933.17
193.473	1923.66
193.548	1905.55
193.624	1909.68
193.699	1907.73
193.775	1922.38
193.85	1927.51
193.925	1934.98
194.001	1934.03
194.076	1927.23
194.152	1916.58
194.227	1910.59
194.302	1899.94
194.378	1904.98
194.453	1903.08
194.529	1912.21
194.604	1900.18
194.679	1891.1
194.755	1873.99
194.83	1884.26
194.905	1882.69
194.981	1892.2
195.056	1883.98
195.131	1890.59
195.207	1892.78
195.282	1886.6
195.357	1870
195.433	1882.6
195.508	1872.71
195.583	1881.17
195.659	1894.15
195.734	1904.04
195.809	1901.71
195.884	1911.55
195.96	1909.31
196.035	1924.43
196.11	1924.24
196.185	1934.8
196.261	1941.07
196.336	1969.26
196.411	1955.61
196.486	1960.7
196.561	1954.52
196.637	1962.74
196.712	1976.39
196.787	1977.34
196.862	1991.23
196.937	1999.69
197.013	2003.59
197.088	2010.44
197.163	2030.37
197.238	2045.6
197.313	2044.41
197.388	2057.48
197.464	2084.98
197.539	2093.73
197.614	2087.6
197.689	2096.3
197.764	2112.81
197.839	2131.64
197.914	2126.7
197.989	2147.53
198.065	2160.75
198.14	2205.26
198.215	2228.43
198.29	2239.61
198.365	2251.56
198.44	2260.93
198.515	2288.2
198.59	2303.14
198.665	2328.22
198.74	2332.51
198.815	2332.46
198.89	2349.87
198.965	2376.92
199.04	2371.49
199.115	2385.53
199.19	2424.08
199.265	2430.27
199.34	2434.93
199.415	2461.51
199.49	2481.74
199.565	2491.97
199.64	2514.06
199.715	2513.92
199.79	2522.87
199.865	2529.78
199.94	2528.92
200.015	2557.97
200.09	2561.55
200.165	2566.02
200.24	2570.5
200.315	2611.44
200.39	2627.87
200.464	2636.02
200.539	2635.83
200.614	2653.16
200.689	2674.97
200.764	2680.79
200.839	2695.79
200.914	2705.88
200.989	2701.12
201.063	2712.98
201.138	2698.46
201.213	2698.94
201.288	2678.22
201.363	2682.03
201.438	2679.22
201.512	2693.41
201.587	2677.16
201.662	2678.35
201.737	2690.4
201.812	2699.93
201.886	2666.13
201.961	2673.33
202.036	2661.43
202.111	2661.33
202.186	2633.96
202.26	2621.38
202.335	2601.61
202.41	2595.09
202.485	2577.37
202.559	2558.47
202.634	2534.46
202.709	2542.08
202.784	2524.41
202.858	2525.32
202.933	2507.13
203.008	2501.84
203.082	2483.99
203.157	2481.23
203.232	2442.35
203.306	2423.63
203.381	2393.35
203.456	2373.4
203.53	2353.25
203.605	2337.16
203.68	2315.26
203.754	2310.17
203.829	2295.8
203.904	2277.09
203.978	2264.24
204.053	2266.1
204.127	2255.87
204.202	2255.3
204.277	2239.31
204.351	2231.46
204.426	2223.17
204.5	2218.8
204.575	2188.64
204.65	2198.11
204.724	2193.26
204.799	2203.38
204.873	2199
204.948	2199.43
205.022	2188.64
205.097	2180.83
205.171	2191.44
205.246	2197.48
205.32	2197.53
205.395	2194.44
205.469	2186.5
205.544	2190.64
205.618	2175.32
205.693	2186.4
205.767	2176.74
205.842	2194.26
205.916	2188.83
205.991	2184.03
206.065	2188.07
206.14	2201.29
206.214	2198.2
206.289	2190.87
206.363	2203.38
206.438	2205.38
206.512	2211.47
206.586	2231.5
206.661	2241.5
206.735	2221.57
206.81	2221.57
206.884	2234.79
206.958	2224.38
207.033	2239.12
207.107	2251.07
207.181	2279.58
207.256	2272.73
207.33	2287.72
207.405	2298.43
207.479	2317.42
207.553	2320.89
207.628	2304.24
207.702	2316.8
207.776	2308.33
207.851	2311
207.925	2322.95
207.999	2318.05
208.073	2316.52
208.148	2318.19
208.222	2305.34
208.296	2336.21
208.371	2351.02
208.445	2361.16
208.519	2388.86
208.593	2401.71
208.668	2396.85
208.742	2401.09
208.816	2402.85
208.89	2416
208.965	2416.71
209.039	2422.76
209.113	2441.66
209.187	2460.45
209.261	2456.26
209.336	2476.83
209.41	2497.49
209.484	2497.44
209.558	2521.01
209.632	2531.77
209.707	2539.15
209.781	2559.25
209.855	2569.44
209.929	2585.26
210.003	2591.98
210.077	2590.17
210.151	2634.27
210.226	2663.86
210.3	2687.79
210.374	2707.74
210.448	2707.74
210.522	2717.32
210.596	2728.32
210.67	2736.57
210.744	2780.17
210.818	2808.98
210.892	2824.66
210.966	2818.46
211.041	2832.43
211.115	2827.33
211.189	2853.59
211.263	2868.21
211.337	2877.27
211.411	2896.24
211.485	2892.8
211.559	2905.67
211.633	2909.05
211.707	2880.1
211.781	2889.64
211.855	2862.28
211.929	2859.19
212.003	2848.66
212.077	2860.68
212.151	2875.36
212.225	2886.47
212.299	2881.98
212.373	2877.84
212.447	2879.79
212.52	2912.87
212.594	2921.07
212.668	2941.95
212.742	2933.08
212.816	2943.09
212.89	2947.05
212.964	2954.92
213.038	2970.9
213.112	2995.85
213.186	3025.35
213.26	3023.49
213.333	2998.84
213.407	3021.96
213.481	3044.55
213.555	3076.67
213.629	3086.16
213.703	3091.5
213.777	3111.59
213.85	3116.12
213.924	3172
213.998	3200.39
214.072	3222.59
214.146	3243.25
214.219	3268.83
214.293	3302.13
214.367	3337.4
214.441	3379.55
214.515	3406.85
214.588	3425.62
214.662	3434.07
214.736	3459.51
214.81	3507.65
214.883	3561.57
214.957	3596.27
215.031	3628.97
215.105	3656.32
215.178	3694.72
215.252	3742.29
215.326	3772.81
215.4	3809.44
215.473	3821.87
215.547	3861.82
215.621	3907.49
215.694	3973.52
215.768	4017.3
215.842	4067.21
215.915	4114.36
215.989	4153.96
216.063	4212.04
216.136	4277.76
216.21	4344.47
216.284	4421.36
216.357	4495.43
216.431	4562.9
216.504	4642.98
216.578	4742.26
216.652	4827.1
216.725	4905.64
216.799	4991
216.873	5078.54
216.946	5170.3
217.02	5252.29
217.093	5331.55
217.167	5394.09
217.24	5459.28
217.314	5538.93
217.387	5615.71
217.461	5698.72
217.535	5801.05
217.608	5873.66
217.682	5967.46
217.755	6065.62
217.829	6142.88
217.902	6229.12
217.976	6318.15
218.049	6403.26
218.123	6476.2
218.196	6572.12
218.27	6655.2
218.343	6736
218.417	6827.65
218.49	6916.56
218.563	7021.35
218.637	7121.58
218.71	7238.6
218.784	7343.38
218.857	7450.51
218.931	7551.24
219.004	7646.29
219.077	7745.98
219.151	7845.21
219.224	7930.97
219.298	8021.78
219.371	8133.09
219.444	8219.72
219.518	8316.46
219.591	8404.45
219.665	8528.81
219.738	8622.5
219.811	8708.63
219.885	8807.54
219.958	8910.07
220.031	9003.97
220.105	9097.85
220.178	9188.27
220.251	9270.41
220.325	9368.74
220.398	9462.6
220.471	9559.76
220.544	9660.18
220.618	9733.81
220.691	9831.2
220.764	9919.58
220.838	10007.53
220.911	10080.99
220.984	10191.25
221.057	10277.53
221.131	10371.61
221.204	10425.09
221.277	10523.91
221.35	10635.64
221.424	10717.17
221.497	10795.61
221.57	10877.62
221.643	10964.65
221.716	11058.29
221.79	11137.65
221.863	11214.86
221.936	11291.1
222.009	11364.21
222.082	11449.08
222.155	11535.25
222.229	11629.72
222.302	11711.41
222.375	11793.93
222.448	11883.24
222.521	11949.23
222.594	12029
222.667	12095.9
222.74	12186.52
222.814	12255.88
222.887	12330.21
222.96	12414.33
223.033	12493.33
223.106	12570.26
223.179	12647.63
223.252	12713.58
223.325	12791.72
223.398	12858
223.471	12935.8
223.544	13016.69
223.617	13079.98
223.69	13143.47
223.763	13192.69
223.837	13266.83
223.91	13338.51
223.983	13381.95
224.056	13431.17
224.129	13492.39
224.202	13564.55
224.275	13619.7
224.348	13682.76
224.42	13729.08
224.493	13764.85
224.566	13820.67
224.639	13880.5
224.712	13928.95
224.785	13986.12
224.858	14040.16
224.931	14093.04
225.004	14139.07
225.077	14188.1
225.15	14219.48
225.223	14278.78
225.296	14354.07
225.369	14387.77
225.442	14433.85
225.514	14496.52
225.587	14562.41
225.66	14631.3
225.733	14693.24
225.806	14756.48
225.879	14805.84
225.952	14856.84
226.025	14930.5
226.097	15000.15
226.17	15056.89
226.243	15088.94
226.316	15139.56
226.389	15192.1
226.461	15256.98
226.534	15309.66
226.607	15355.79
226.68	15433.25
226.753	15490.27
226.825	15519.68
226.898	15588.32
226.971	15635.75
227.044	15687.8
227.117	15746.03
227.189	15797.07
227.262	15853.37
227.335	15898.92
227.407	15937.23
227.48	15993.39
227.553	16038.74
227.626	16075.95
227.698	16122.03
227.771	16183.19
227.844	16220.84
227.916	16262.09
227.989	16291.69
228.062	16336.75
228.134	16405.34
228.207	16447.61
228.28	16478.79
228.352	16516.96
228.425	16563.13
228.498	16618.22
228.57	16651.38
228.643	16705.21
228.716	16747.63
228.788	16780.11
228.861	16817.89
228.934	16872.31
229.006	16906.67
229.079	16945.71
229.151	16976.07
229.224	17005.81
229.296	17050.72
229.369	17121.13
229.442	17175.98
229.514	17209.47
229.587	17256.85
229.659	17273.81
229.732	17310.68
229.804	17363.84
229.877	17440.13
229.949	17488.75
230.022	17540.9
230.094	17594.25
230.167	17628.94
230.239	17646.87
230.312	17681.57
230.384	17736.75
230.457	17775.4
230.529	17815.45
230.602	17857.47
230.674	17902.19
230.747	17946.82
230.819	17981.71
230.892	17973.85
230.964	18010.77
231.037	18048.5
231.109	18080.36
231.181	18128.69
231.254	18156.88
231.326	18178.18
231.399	18194.76
231.471	18215.14
231.544	18218.71
231.616	18249.26
231.688	18265.07
231.761	18294.8
231.833	18317.74
231.905	18319.77
231.978	18343.96
232.05	18368.34
232.122	18383.72
232.195	18393.11
232.267	18427.28
232.339	18441.21
232.412	18492.19
232.484	18498.31
232.556	18516.14
232.629	18550.26
232.701	18580.09
232.773	18600.62
232.846	18617.44
232.918	18635.17
232.99	18653.29
233.062	18677.14
233.135	18699.36
233.207	18704.52
233.279	18722.35
233.351	18749.33
233.424	18764.32
233.496	18764.99
233.568	18792.8
233.64	18807.5
233.713	18830.53
233.785	18844.22
233.857	18863.11
233.929	18855.01
234.001	18889.81
234.074	18908.89
234.146	18908.5
234.218	18907.64
234.29	18911.06
234.362	18920.6
234.434	18915.15
234.507	18912.17
234.579	18913.23
234.651	18906.82
234.723	18933.22
234.795	18946.48
234.867	18947.97
234.939	18969.13
235.012	18980.31
235.084	18993.03
235.156	18999.63
235.228	18995.1
235.3	18991.2
235.372	19001.75
235.444	19014.81
235.516	18990.09
235.588	19004.74
235.66	19005.08
235.732	19000.45
235.804	19058.08
235.876	19067.92
235.948	19084.16
236.02	19077.41
236.092	19071.58
236.164	19077.79
236.236	19072.69
236.308	19059.82
236.38	19053.65
236.452	19033.7
236.524	19037.12
236.596	19038.52
236.668	19040.83
236.74	19030.81
236.812	19022.42
236.884	19031.58
236.956	19028.74
237.028	19015.92
237.1	18995.78
237.172	19001.85
237.244	19010.62
237.316	18965.95
237.388	18943.34
237.46	18924.7
237.532	18941.61
237.604	18934.77
237.675	18939.63
237.747	18934.19
237.819	18930.04
237.891	18918.67
237.963	18904.79
238.035	18884.7
238.107	18834
238.178	18830.19
238.25	18820.8
238.322	18829.42
238.394	18792.51
238.466	18779.93
238.538	18776.7
238.609	18766.58
238.681	18732.42
238.753	18709.29
238.825	18687.84
238.897	18679.07
238.968	18675.02
239.04	18647.31
239.112	18653.68
239.184	18626.55
239.255	18602.59
239.327	18580.96
239.399	18564.77
239.471	18557.83
239.542	18544.33
239.614	18544.48
239.686	18502.31
239.758	18494.02
239.829	18464.87
239.901	18461.25
239.973	18431.09
240.044	18420.05
240.116	18398.22
240.188	18376.78
240.259	18353.26
240.331	18323.09
240.403	18302.76
240.474	18266.56
240.546	18229.7
240.618	18175.48
240.689	18141.22
240.761	18126.52
240.833	18120.5
240.904	18100.6
240.976	18076.07
241.048	18059.34
241.119	18045.32
241.191	18032.5
241.262	18024.94
241.334	18000.74
241.405	17965.57
241.477	17934.67
241.549	17896.7
241.62	17875.01
241.692	17851.98
241.763	17841.18
241.835	17813.14
241.906	17786.44
241.978	17749.18
242.049	17739.11
242.121	17741.86
242.192	17729.28
242.264	17684.61
242.335	17633.96
242.407	17604.37
242.478	17567.69
242.55	17540.46
242.621	17501.04
242.693	17462.3
242.764	17424.32
242.836	17386.97
242.907	17367.45
242.979	17346.44
243.05	17323.98
243.122	17300.9
243.193	17275.26
243.264	17223.69
243.336	17201.86
243.407	17183.89
243.479	17178.15
243.55	17155.45
243.622	17120.22
243.693	17086.44
243.764	17071.31
243.836	17042.58
243.907	17014.24
243.978	16988.31
244.05	16958.82
244.121	16918.82
244.192	16910.91
244.264	16867.49
244.335	16847.44
244.407	16799.63
244.478	16777.85
244.549	16746.81
244.62	16702.37
244.692	16672.44
244.763	16654.42
244.834	16627.23
244.906	16591.67
244.977	16558.7
245.048	16541.74
245.119	16511.13
245.191	16472.86
245.262	16423.07
245.333	16412.66
245.405	16388.37
245.476	16367.84
245.547	16342.63
245.618	16328.37
245.689	16292.51
245.761	16273.71
245.832	16243.93
245.903	16220.69
245.974	16195.92
246.045	16172.21
246.117	16166.81
246.188	16135.62
246.259	16093.35
246.33	16054.94
246.401	16028.24
246.473	15993.39
246.544	15951.07
246.615	15924.85
246.686	15894.77
246.757	15884.65
246.828	15835.83
246.899	15819.25
246.97	15769.84
247.042	15731.91
247.113	15699.71
247.184	15681.06
247.255	15648.76
247.326	15616.8
247.397	15590.29
247.468	15564.84
247.539	15533.47
247.61	15479.72
247.681	15449.4
247.752	15433.4
247.823	15398.98
247.894	15363.07
247.965	15323.4
248.037	15294.58
248.108	15253.37
248.179	15232.69
248.25	15195.81
248.321	15174.55
248.392	15129.53
248.463	15120.81
248.534	15091.94
248.605	15073.52
248.675	15048.07
248.746	15024.65
248.817	15000.16
248.888	14977.65
248.959	14935.32
249.03	14911.95
249.101	14887.55
249.172	14859.6
249.243	14803.15
249.314	14793.03
249.385	14767
249.456	14746.75
249.527	14714.16
249.598	14691.85
249.669	14663.16
249.739	14644.41
249.81	14627.35
249.881	14588.54
249.952	14565.74
250.023	14534.94
250.094	14494.49
250.165	14454.39
250.235	14417.7
250.306	14389.99
250.377	14353.35
250.448	14327.9
250.519	14285.72
250.59	14270.29
250.66	14236.4
250.731	14230.04
250.802	14207.14
250.873	14190.95
250.944	14167.04
251.014	14132.23
251.085	14130.06
251.156	14100.37
251.227	14087.69
251.297	14070.87
251.368	14054.52
251.439	14039.43
251.51	14032.88
251.58	13999.62
251.651	13971.75
251.722	13962.98
251.792	13923.64
251.863	13889.95
251.934	13882.62
252.005	13884.69
252.075	13864.16
252.146	13851.67
252.217	13840.2
252.287	13820.29
252.358	13789.05
252.429	13775.02
252.499	13755.02
252.57	13731.3
252.641	13721.37
252.711	13691.58
252.782	13650.6
252.852	13650.12
252.923	13619.94
252.994	13589.38
253.064	13580.41
253.135	13549.08
253.205	13513.41
253.276	13504.39
253.347	13500.39
253.417	13464.14
253.488	13434.06
253.558	13405.62
253.629	13372.45
253.699	13350.85
253.77	13327.33
253.841	13300.62
253.911	13285.53
253.982	13256.22
254.052	13235.74
254.123	13213.66
254.193	13192.3
254.264	13204.31
254.334	13166.17
254.405	13133.97
254.475	13106.21
254.546	13071.4
254.616	13060.31
254.687	13049.9
254.757	13034.96
254.827	13013.17
254.898	12998.03
254.968	12972.19
255.039	12939.36
255.109	12931.17
255.18	12900.7
255.25	12854.72
255.321	12843.19
255.391	12805.55
255.461	12804.53
255.532	12757.82
255.602	12725.48
255.673	12684.89
255.743	12646.32
255.813	12605.35
255.884	12596.14
255.954	12573.97
256.024	12574.79
256.095	12552.28
256.165	12523.06
256.235	12498.82
256.306	12467.53
256.376	12445.89
256.446	12429.16
256.517	12419.62
256.587	12411.37
256.657	12393.39
256.728	12384.04
256.798	12358.88
256.868	12339.74
256.938	12305.71
257.009	12296.7
257.079	12285.56
257.149	12290.24
257.219	12259.34
257.29	12245.99
257.36	12209.88
257.43	12201.74
257.5	12160.62
257.571	12139.17
257.641	12118.83
257.711	12089.14
257.781	12079.01
257.852	12066.87
257.922	12036.64
257.992	12011.29
258.062	11984.92
258.132	11971.38
258.202	11948.58
258.273	11932.96
258.343	11926.41
258.413	11912.91
258.483	11891.8
258.553	11855.94
258.623	11825.19
258.693	11813.38
258.764	11810.92
258.834	11804.22
258.904	11787.49
258.974	11762.24
259.044	11739.59
259.114	11721.32
259.184	11706.57
259.254	11683.1
259.324	11645.31
259.394	11623.43
259.464	11622.37
259.535	11604.92
259.605	11582.94
259.675	11556.82
259.745	11546.26
259.815	11518.21
259.885	11490.79
259.955	11498.84
260.025	11476.91
260.095	11460.81
260.165	11444.33
260.235	11435.27
260.305	11408.81
260.375	11379.75
260.445	11382.98
260.515	11376.61
260.585	11370.06
260.655	11356.08
260.725	11351.94
260.795	11345.67
260.865	11355.84
260.934	11325.19
261.004	11307.21
261.074	11285
261.144	11283.31
261.214	11270.2
261.284	11247.6
261.354	11236.95
261.424	11206.73
261.494	11209.86
261.564	11191.31
261.634	11180.08
261.703	11144.7
261.773	11132.99
261.843	11116.9
261.913	11095.69
261.983	11064.18
262.053	11054.64
262.123	11033.72
262.192	10999.99
262.262	10988.71
262.332	10949.34
262.402	10947.41
262.472	10930.26
262.541	10898.6
262.611	10889.35
