Data from 20250630_urea_2M_MAYP1162681_22-12-26-955.txt Node
Date: Mon Jun 30 22:12:26 BST 2025
User: adleo
Spectrometer: MAYP116268
Trigger mode: 0
Integration Time (sec): 1.000000E0
Scans to average: 1
Electric dark correction enabled: true
Nonlinearity correction enabled: true
Boxcar width: 10
XAxis mode: Wavelengths
Number of Pixels in Spectrum: 2068
>>>>>Begin Spectral Data<<<<<
179.565	1136.03
179.642	1186.86
179.718	1223.65
179.795	1257.68
179.871	1288.1
179.948	1302.94
180.024	1321.25
180.101	1339.47
180.177	1355.29
180.254	1376.62
180.33	1397.58
180.407	1445.86
180.483	1534.7
180.56	1617.98
180.636	1696.17
180.712	1685.86
180.789	1694.88
180.865	1704.34
180.942	1710.8
181.018	1718.16
181.095	1731.76
181.171	1734.99
181.248	1735.61
181.324	1750.53
181.4	1757.09
181.477	1767.12
181.553	1781.13
181.63	1800.95
181.706	1817.78
181.782	1821.25
181.859	1819.77
181.935	1825.29
182.011	1820.96
182.088	1839.98
182.164	1856.67
182.24	1868.31
182.317	1876.96
182.393	1875.44
182.469	1888.65
182.546	1900.2
182.622	1903.43
182.698	1896.11
182.775	1909.04
182.851	1921.93
182.927	1916.08
183.003	1912.75
183.08	1908.71
183.156	1918.41
183.232	1917.36
183.308	1908.05
183.385	1916.22
183.461	1933.24
183.537	1933.38
183.613	1946.51
183.69	1934.57
183.766	1925.2
183.842	1932.9
183.918	1938.09
183.995	1952.49
184.071	1954.58
184.147	1952.35
184.223	1944.27
184.299	1958.63
184.375	1947.6
184.452	1954.83
184.528	2007.87
184.604	2016.99
184.68	2025.93
184.756	2029.54
184.832	2034.44
184.908	2037.2
184.985	2038.44
185.061	2022.32
185.137	2031.59
185.213	2019.66
185.289	2020.61
185.365	2015.48
185.441	2015
185.517	2029.08
185.593	2022.85
185.669	2021.57
185.745	2028.46
185.822	2044.43
185.898	2034.87
185.974	2044.62
186.05	2037.67
186.126	2001.05
186.202	1996.15
186.278	1994.11
186.354	1988.16
186.43	1991.92
186.506	1992.78
186.582	1993.39
186.658	2000.62
186.734	1979.42
186.81	1983.31
186.886	1986.79
186.962	1997.1
187.038	1992.78
187.114	1982.07
187.19	1992.58
187.266	1981.5
187.341	1982.17
187.417	1974.47
187.493	1973.85
187.569	1975.13
187.645	1968.81
187.721	1955.4
187.797	1960.72
187.873	1963.34
187.949	1956.16
188.025	1948.36
188.101	1950.02
188.176	1953.26
188.252	1948.41
188.328	1958.15
188.404	1958.62
188.48	1951.64
188.556	1945.93
188.632	1943.32
188.707	1943.84
188.783	1938.42
188.859	1934.33
188.935	1922.21
189.011	1930.76
189.086	1926.77
189.162	1918.02
189.238	1914.36
189.314	1910.61
189.39	1905.95
189.465	1901.14
189.541	1916.03
189.617	1901.29
189.693	1896.92
189.768	1898.63
189.844	1924.55
189.92	1917.71
189.996	1921.18
190.071	1934.78
190.147	1934.44
190.223	1947.71
190.298	1942.2
190.374	1931.59
190.45	1946.09
190.526	1957.79
190.601	1952.13
190.677	1952.89
190.753	1982.44
190.828	1986.86
190.904	2003.07
190.98	2019
191.055	2026.66
191.131	2019.72
191.207	2041.68
191.282	2050.33
191.358	2042.2
191.433	2025.22
191.509	2036.39
191.585	2034.82
191.66	2037.77
191.736	2045.71
191.811	2035.68
191.887	2051.18
191.963	2071.16
192.038	2072.58
192.114	2070.78
192.189	2075.48
192.265	2071.78
192.34	2047.22
192.416	2046.56
192.491	2045.46
192.567	2048.46
192.642	2052.6
192.718	2052.65
192.793	2040.09
192.869	2034.96
192.944	2039.47
193.02	2047.46
193.095	2048.75
193.171	2057.12
193.246	2054.07
193.322	2050.79
193.397	2049.94
193.473	2037.71
193.548	2021.35
193.624	2031.96
193.699	2029.3
193.775	2045.8
193.85	2047.28
193.925	2055.65
194.001	2054.37
194.076	2044.85
194.152	2031.87
194.227	2024.4
194.302	2015.46
194.378	2020.83
194.453	2019.5
194.529	2030.35
194.604	2014.84
194.679	2011.33
194.755	1992.74
194.83	2005.77
194.905	2002.06
194.981	2009.91
195.056	2002.92
195.131	2010.62
195.207	2004.63
195.282	2000.45
195.357	1977.71
195.433	1990.17
195.508	1978.89
195.583	1987.6
195.659	2002.44
195.734	2013.38
195.809	2012.66
195.884	2022.74
195.96	2022.03
196.035	2035.06
196.11	2030.44
196.185	2043.9
196.261	2047.09
196.336	2078.53
196.411	2063.73
196.486	2069.96
196.561	2063.54
196.637	2071.72
196.712	2089.18
196.787	2093.37
196.862	2107.63
196.937	2119.57
197.013	2128.09
197.088	2137.17
197.163	2156.63
197.238	2172.63
197.313	2167.49
197.388	2179.76
197.464	2206.56
197.539	2217.07
197.614	2208.65
197.689	2221.4
197.764	2239.73
197.839	2258.95
197.914	2249.43
197.989	2271.28
198.065	2284.07
198.14	2334.45
198.215	2356.34
198.29	2362.82
198.365	2374.53
198.44	2382.09
198.515	2409.42
198.59	2423.46
198.665	2451.22
198.74	2458.65
198.815	2458.84
198.89	2480.45
198.965	2511.12
199.04	2508.17
199.115	2526.54
199.19	2569.82
199.265	2573.67
199.34	2578.68
199.415	2611.79
199.49	2633.55
199.565	2644.03
199.64	2665.36
199.715	2661.17
199.79	2669.22
199.865	2679.41
199.94	2680.55
200.015	2713.33
200.09	2719.38
200.165	2725.43
200.24	2732.72
200.315	2770.11
200.39	2784.78
200.464	2792.5
200.539	2791.74
200.614	2806.89
200.689	2825.19
200.764	2834.48
200.839	2851.58
200.914	2858.54
200.989	2848.19
201.063	2860.11
201.138	2842.06
201.213	2844.92
201.288	2825.14
201.363	2830.96
201.438	2827.34
201.512	2842.1
201.587	2823.66
201.662	2823.71
201.737	2836.57
201.812	2843.77
201.886	2814.06
201.961	2821.5
202.036	2811.73
202.111	2808.02
202.186	2777.78
202.26	2761.05
202.335	2738.13
202.41	2729.22
202.485	2712.02
202.559	2693.49
202.634	2667.86
202.709	2674.86
202.784	2657.28
202.858	2659
202.933	2645.18
203.008	2640.9
203.082	2621.8
203.157	2623.51
203.232	2583.9
203.306	2559.36
203.381	2529.3
203.456	2507.02
203.53	2487.05
203.605	2466.63
203.68	2443.91
203.754	2439.68
203.829	2425.49
203.904	2403.92
203.978	2393.59
204.053	2397.92
204.127	2384.98
204.202	2383.45
204.277	2369.7
204.351	2363.6
204.426	2357.22
204.5	2346.61
204.575	2314.96
204.65	2323.96
204.724	2313.86
204.799	2323.04
204.873	2324.52
204.948	2322.61
205.022	2311.67
205.097	2302.34
205.171	2315.57
205.246	2327.42
205.32	2328.23
205.395	2328.33
205.469	2321.9
205.544	2328.28
205.618	2312.86
205.693	2322.57
205.767	2313.72
205.842	2330.81
205.916	2324.58
205.991	2314.53
206.065	2319.39
206.14	2329.09
206.214	2322.52
206.289	2316.14
206.363	2325.52
206.438	2327.71
206.512	2333.04
206.586	2348.88
206.661	2355.12
206.735	2335.71
206.81	2336.52
206.884	2349.23
206.958	2338.28
207.033	2351.84
207.107	2355.89
207.181	2386.51
207.256	2381.51
207.33	2398.31
207.405	2413.6
207.479	2429.07
207.553	2436.78
207.628	2417.94
207.702	2432.12
207.776	2426.89
207.851	2429.17
207.925	2444.36
207.999	2440.37
208.073	2440.27
208.148	2442.65
208.222	2434.17
208.296	2467.25
208.371	2481.98
208.445	2492.55
208.519	2518.49
208.593	2530.63
208.668	2527.96
208.742	2528.63
208.816	2529.44
208.89	2544.83
208.965	2543.49
209.039	2552.16
209.113	2569.02
209.187	2592.96
209.261	2589.91
209.336	2606.15
209.41	2623.63
209.484	2625.49
209.558	2646.45
209.632	2658.31
209.707	2672.93
209.781	2693.17
209.855	2706.13
209.929	2720.58
210.003	2728.02
210.077	2730.26
210.151	2779.23
210.226	2814.17
210.3	2841.83
210.374	2866.22
210.448	2869.51
210.522	2876.28
210.596	2886.9
210.67	2896.2
210.744	2941.35
210.818	2972.7
210.892	2997.2
210.966	3000.25
211.041	3018.41
211.115	3016.41
211.189	3038.2
211.263	3056.26
211.337	3062.94
211.411	3079.87
211.485	3079.11
211.559	3093.22
211.633	3098.46
211.707	3072.12
211.781	3085.24
211.855	3058.92
211.929	3058.15
212.003	3047.19
212.077	3066.8
212.151	3088.12
212.225	3109.3
212.299	3108.58
212.373	3109.3
212.447	3119.8
212.52	3162.98
212.594	3182.87
212.668	3212.45
212.742	3220.89
212.816	3236.97
212.89	3260.16
212.964	3286.13
213.038	3315.11
213.112	3356.5
213.186	3401.49
213.26	3419.05
213.333	3411.79
213.407	3454.59
213.481	3499.87
213.555	3560.66
213.629	3598.5
213.703	3631.36
213.777	3681.29
213.85	3720.23
213.924	3811.94
213.998	3872.45
214.072	3923
214.146	3971.42
214.219	4037.49
214.293	4108.28
214.367	4184.61
214.441	4270.6
214.515	4340.47
214.588	4404.57
214.662	4459.69
214.736	4532.13
214.81	4632.39
214.883	4735.73
214.957	4827.2
215.031	4920.49
215.105	5003.84
215.178	5100.62
215.252	5206.83
215.326	5298.02
215.4	5393.32
215.473	5465.01
215.547	5566.2
215.621	5680.9
215.694	5812.04
215.768	5922.62
215.842	6040.36
215.915	6158.19
215.989	6266.34
216.063	6389.88
216.136	6528.79
216.21	6669.56
216.284	6823.75
216.357	6964.89
216.431	7112.01
216.504	7262.99
216.578	7436.34
216.652	7594.84
216.725	7741.88
216.799	7900
216.873	8055.68
216.946	8222.13
217.02	8378.69
217.093	8533.86
217.167	8670.63
217.24	8813
217.314	8963.01
217.387	9117.95
217.461	9271.33
217.535	9450.2
217.608	9593.54
217.682	9756.76
217.755	9925.51
217.829	10069.2
217.902	10232.83
217.976	10388.34
218.049	10544.29
218.123	10681.47
218.196	10843.6
218.27	11004.01
218.343	11147.04
218.417	11312.47
218.49	11471.8
218.563	11639.95
218.637	11797.98
218.71	11974.48
218.784	12131.46
218.857	12300.3
218.931	12453.53
219.004	12609.56
219.077	12758.12
219.151	12922.15
219.224	13063.2
219.298	13209.02
219.371	13363.27
219.444	13497.24
219.518	13646.14
219.591	13790.37
219.665	13958.46
219.738	14093.73
219.811	14221.04
219.885	14369.75
219.958	14499.37
220.031	14625.86
220.105	14756.3
220.178	14889.63
220.251	15011
220.325	15150.94
220.398	15272.89
220.471	15405.01
220.544	15541.32
220.618	15654.59
220.691	15775.62
220.764	15900.08
220.838	16021.3
220.911	16140.93
220.984	16273.71
221.057	16387.07
221.131	16492.58
221.204	16566.46
221.277	16692.69
221.35	16827.25
221.424	16924.61
221.497	17031.02
221.57	17130.26
221.643	17236.43
221.716	17345.63
221.79	17433.35
221.863	17524.72
221.936	17619.32
222.009	17697.2
222.082	17780.24
222.155	17866.26
222.229	17962.84
222.302	18047.03
222.375	18122.69
222.448	18212.08
222.521	18286.68
222.594	18361.37
222.667	18436.31
222.74	18524.89
222.814	18595.05
222.887	18655
222.96	18737.65
223.033	18818.99
223.106	18888.43
223.179	18960.19
223.252	19016.76
223.325	19086.44
223.398	19146.49
223.471	19203.16
223.544	19273.23
223.617	19337.66
223.69	19397.7
223.763	19451.24
223.837	19509.7
223.91	19571.48
223.983	19603.57
224.056	19644.24
224.129	19696
224.202	19754.12
224.275	19799.27
224.348	19831.7
224.42	19871.9
224.493	19895.8
224.566	19931.65
224.639	19983.31
224.712	20017.34
224.785	20061.72
224.858	20108.66
224.931	20156.37
225.004	20193.62
225.077	20240.51
225.15	20245.43
225.223	20280.94
225.296	20335.11
225.369	20359.11
225.442	20385.28
225.514	20417.04
225.587	20460.13
225.66	20501.52
225.733	20537.09
225.806	20576.75
225.879	20608.56
225.952	20619.36
226.025	20677.62
226.097	20716.52
226.17	20743.02
226.243	20755.55
226.316	20779.51
226.389	20796.95
226.461	20816.04
226.534	20847.75
226.607	20857.73
226.68	20903.85
226.753	20932.48
226.825	20934.45
226.898	20969.59
226.971	20996.62
227.044	21029.45
227.117	21047.33
227.189	21074.75
227.262	21106.42
227.335	21136.44
227.407	21155.53
227.48	21199.24
227.553	21212.93
227.626	21221.66
227.698	21239.44
227.771	21266.86
227.844	21275.92
227.916	21302.39
227.989	21304.51
228.062	21312.75
228.134	21354.15
228.207	21374.01
228.28	21390.35
228.352	21406.35
228.425	21415.12
228.498	21437.73
228.57	21438.4
228.643	21463.08
228.716	21469.2
228.788	21474.65
228.861	21466.79
228.934	21484
229.006	21486.26
229.079	21497.2
229.151	21497.93
229.224	21490.94
229.296	21493.4
229.369	21534.46
229.442	21549.26
229.514	21558.71
229.587	21582.62
229.659	21570.33
229.732	21577.41
229.804	21582.18
229.877	21602.23
229.949	21624.94
230.022	21646.87
230.094	21664.7
230.167	21671.5
230.239	21663.6
230.312	21666.2
230.384	21701.97
230.457	21712.14
230.529	21708.57
230.602	21712.67
230.674	21724.86
230.747	21749.97
230.819	21775.28
230.892	21747.32
230.964	21751.22
231.037	21765.06
231.109	21765.73
231.181	21776.82
231.254	21770.46
231.326	21764.38
231.399	21764.24
231.471	21754.79
231.544	21730.45
231.616	21739.56
231.688	21741.05
231.761	21729.73
231.833	21716.9
231.905	21687.5
231.978	21684.37
232.05	21694.15
232.122	21692.99
232.195	21683.31
232.267	21691.69
232.339	21675.26
232.412	21683.35
232.484	21673.96
232.556	21657.52
232.629	21676.9
232.701	21689.82
232.773	21691.26
232.846	21683.12
232.918	21676.56
232.99	21673.28
233.062	21672.85
233.135	21664.75
233.207	21645.76
233.279	21659.4
233.351	21660.94
233.424	21648.8
233.496	21639.3
233.568	21648.65
233.64	21620.55
233.713	21611.54
233.785	21587.2
233.857	21585.22
233.929	21556.78
234.001	21563.96
234.074	21570.42
234.146	21526.42
234.218	21500.1
234.29	21477.35
234.362	21462.74
234.434	21432.19
234.507	21402.64
234.579	21376.18
234.651	21347.69
234.723	21329.09
234.795	21310.82
234.867	21295.64
234.939	21297.9
235.012	21277.61
235.084	21247.87
235.156	21236.98
235.228	21217.03
235.3	21203.29
235.372	21183.1
235.444	21174.23
235.516	21123.67
235.588	21100.58
235.66	21083.47
235.732	21043.28
235.804	21075.38
235.876	21050.6
235.948	21038.51
236.02	21018.84
236.092	20993.25
236.164	20974.12
236.236	20949.93
236.308	20923.23
236.38	20891.9
236.452	20856.28
236.524	20832.28
236.596	20824.47
236.668	20809.05
236.74	20781.87
236.812	20758.64
236.884	20740.13
236.956	20723.65
237.028	20694.01
237.1	20656.95
237.172	20650.49
237.244	20652.56
237.316	20596.22
237.388	20576.94
237.46	20547.21
237.532	20530.58
237.604	20500.46
237.675	20488.99
237.747	20467.84
237.819	20430.25
237.891	20410.87
237.963	20380.51
238.035	20339.69
238.107	20283.16
238.178	20262.78
238.25	20236.66
238.322	20236.71
238.394	20186.15
238.466	20146.39
238.538	20135.65
238.609	20113.53
238.681	20060.71
238.753	20015.55
238.825	19982.83
238.897	19956.66
238.968	19937.77
239.04	19896.18
239.112	19891.32
239.184	19856.04
239.255	19826.5
239.327	19797.54
239.399	19763.76
239.471	19736.09
239.542	19718.6
239.614	19694.99
239.686	19641.02
239.758	19625.79
239.829	19566.85
239.901	19550.8
239.973	19519.33
240.044	19485.31
240.116	19449.17
240.188	19409.94
240.259	19379.2
240.331	19344.69
240.403	19312.98
240.474	19265.37
240.546	19231.35
240.618	19179.59
240.689	19134.39
240.761	19091.55
240.833	19087.65
240.904	19055.89
240.976	19021.29
241.048	18994.5
241.119	18971.42
241.191	18947.95
241.262	18918.21
241.334	18887.28
241.405	18849.45
241.477	18804.2
241.549	18762.95
241.62	18733.41
241.692	18713.46
241.763	18696.25
241.835	18658.81
241.906	18631.58
241.978	18584.64
242.049	18562.72
242.121	18534.53
242.192	18517.47
242.264	18481.85
242.335	18416.89
242.407	18388.22
242.478	18350.44
242.55	18312.18
242.621	18271.55
242.693	18223.41
242.764	18183.03
242.836	18148.91
242.907	18124.43
242.979	18102.16
243.05	18065.25
243.122	18043.51
243.193	18005.83
243.264	17946.36
243.336	17903.9
243.407	17874.07
243.479	17862.8
243.55	17818.56
243.622	17788.58
243.693	17751.19
243.764	17738.08
243.836	17699.04
243.907	17657.21
243.978	17615.57
244.05	17591.72
244.121	17544.54
244.192	17525.5
244.264	17472.2
244.335	17434.56
244.407	17384.2
244.478	17351.09
244.549	17321.26
244.62	17259.28
244.692	17227.19
244.763	17206.32
244.834	17174.03
244.906	17128.82
244.977	17096.29
245.048	17083.52
245.119	17046.12
245.191	17002.46
245.262	16948.87
245.333	16936.58
245.405	16905.73
245.476	16881.01
245.547	16854.84
245.618	16828.48
245.689	16804.86
245.761	16788.62
245.832	16754.98
245.903	16727.7
245.974	16698.88
246.045	16663.45
246.117	16653.57
246.188	16606.92
246.259	16563.64
246.33	16528.79
246.401	16498.62
246.473	16448.79
246.544	16406.37
246.615	16378.47
246.686	16340.63
246.757	16322.03
246.828	16271.85
246.899	16257.97
246.97	16205.82
247.042	16153.05
247.113	16134.83
247.184	16113.38
247.255	16071.54
247.326	16045.37
247.397	16012.45
247.468	15982.76
247.539	15951.29
247.61	15910.51
247.681	15890.12
247.752	15874.89
247.823	15834.5
247.894	15808.09
247.965	15769.77
248.037	15737.23
248.108	15696.12
248.179	15667.1
248.25	15628.59
248.321	15610.51
248.392	15566.8
248.463	15567.86
248.534	15540.14
248.605	15513
248.675	15471.94
248.746	15446.68
248.817	15418
248.888	15406.91
248.959	15356.74
249.03	15330.76
249.101	15304.2
249.172	15273.25
249.243	15218.73
249.314	15209.91
249.385	15180.75
249.456	15158.24
249.527	15128.79
249.598	15098.56
249.669	15072.1
249.739	15050.21
249.81	15023.12
249.881	14980.56
249.952	14947.88
250.023	14915.25
250.094	14866.95
250.165	14834.79
250.235	14808.81
250.306	14788.76
250.377	14731.4
250.448	14714
250.519	14667.91
250.59	14648.63
250.66	14616.86
250.731	14600.67
250.802	14568.56
250.873	14539.25
250.944	14517.22
251.014	14480.88
251.085	14492.25
251.156	14466.75
251.227	14447.09
251.297	14429.3
251.368	14410.16
251.439	14386.59
251.51	14371.74
251.58	14337.27
251.651	14300.44
251.722	14277.88
251.792	14225.87
251.863	14200.85
251.934	14186.29
252.005	14188.08
252.075	14163.35
252.146	14143.78
252.217	14132.98
252.287	14117.94
252.358	14088.63
252.429	14080.82
252.499	14054.55
252.57	14022.15
252.641	14002.44
252.711	13979.15
252.782	13942.08
252.852	13932.25
252.923	13910.12
252.994	13888.67
253.064	13876.43
253.135	13845.48
253.205	13813.52
253.276	13804.94
253.347	13791.49
253.417	13765.79
253.488	13739.37
253.558	13707.03
253.629	13685.72
253.699	13670.2
253.77	13652.41
253.841	13628.02
253.911	13601.84
253.982	13580.39
254.052	13552.62
254.123	13542.4
254.193	13515.5
254.264	13536.81
254.334	13500.8
254.405	13466.62
254.475	13432.49
254.546	13412.24
254.616	13405.83
254.687	13393.01
254.757	13371.61
254.827	13353.72
254.898	13333.86
254.968	13308.02
255.039	13277.27
255.109	13266.66
255.18	13228.72
255.25	13185.48
255.321	13172.56
255.391	13137.08
255.461	13133.27
255.532	13094.95
255.602	13058.94
255.673	13018.93
255.743	12976.41
255.813	12936.64
255.884	12924.59
255.954	12920.01
256.024	12913.07
256.095	12892.53
256.165	12853.87
256.235	12839.36
256.306	12812.8
256.376	12796.36
256.446	12787.01
256.517	12771.39
256.587	12753.7
256.657	12736.64
256.728	12722.17
256.798	12697.93
256.868	12677.05
256.938	12650.11
257.009	12634.58
257.079	12625.23
257.149	12630.49
257.219	12589.47
257.29	12579.05
257.36	12546.47
257.43	12529.26
257.5	12482.79
257.571	12455.89
257.641	12448.47
257.711	12415.45
257.781	12397.52
257.852	12383.15
257.922	12339.62
257.992	12323.76
258.062	12296.53
258.132	12283.08
258.202	12255.27
258.273	12236.13
258.343	12235.41
258.413	12205.18
258.483	12189.47
258.553	12155.97
258.623	12124.93
258.693	12114.08
258.764	12110.13
258.834	12101.21
258.904	12076.48
258.974	12055.03
259.044	12031.75
259.114	12019.51
259.184	12000.76
259.254	11979.7
259.324	11941.42
259.394	11932.8
259.464	11930.29
259.535	11911.73
259.605	11883.44
259.675	11856.93
259.745	11843.91
259.815	11810.85
259.885	11792.1
259.955	11794.85
260.025	11771.95
260.095	11758.12
260.165	11741.54
260.235	11734.55
260.305	11712.28
260.375	11683.07
260.445	11686.88
260.515	11684.76
260.585	11674.16
260.655	11662.25
260.725	11658.73
260.795	11646.01
260.865	11643.26
260.934	11619.84
261.004	11610.34
261.074	11594.15
261.144	11593.38
261.214	11585.62
261.284	11566.87
261.354	11555.3
261.424	11528.45
261.494	11530
261.564	11506.43
261.634	11501.42
261.703	11465.07
261.773	11445.27
261.843	11433.03
261.913	11409.51
261.983	11380.06
262.053	11363.48
262.123	11337.79
262.192	11300.25
262.262	11290.9
262.332	11258.66
262.402	11243.38
