Data from 20250630_urea_2M_MAYP1162681_01-52-26-914.txt Node
Date: Tue Jul 01 01:52:26 BST 2025
User: adleo
Spectrometer: MAYP116268
Trigger mode: 0
Integration Time (sec): 1.000000E0
Scans to average: 1
Electric dark correction enabled: true
Nonlinearity correction enabled: true
Boxcar width: 10
XAxis mode: Wavelengths
Number of Pixels in Spectrum: 2068
>>>>>Begin Spectral Data<<<<<
179.565	1087.83
179.642	1134.65
179.718	1171.43
179.795	1205.02
179.871	1233.6
179.948	1249.44
180.024	1269.93
180.101	1290.7
180.177	1302.45
180.254	1321.01
180.33	1338.66
180.407	1382.56
180.483	1469.4
180.56	1548.12
180.636	1622.75
180.712	1609.11
180.789	1617.71
180.865	1624.6
180.942	1633.76
181.018	1645.31
181.095	1657.57
181.171	1661.56
181.248	1663.17
181.324	1678.57
181.4	1686.32
181.477	1694.82
181.553	1705.84
181.63	1723.95
181.706	1736.97
181.782	1746.33
181.859	1744.62
181.935	1753.22
182.011	1748.27
182.088	1762.68
182.164	1782.12
182.24	1792.38
182.317	1802.74
182.393	1800.36
182.469	1813.67
182.546	1823.22
182.622	1826.17
182.698	1820.13
182.775	1830.97
182.851	1842.42
182.927	1834.58
183.003	1829.54
183.08	1825.93
183.156	1832.68
183.232	1826.78
183.308	1816.23
183.385	1822.03
183.461	1841.85
183.537	1839.05
183.613	1852.88
183.69	1844.61
183.766	1833.91
183.842	1841.23
183.918	1842.89
183.995	1855.63
184.071	1858.81
184.147	1856.87
184.223	1845.32
184.299	1858.96
184.375	1848.27
184.452	1853.79
184.528	1905.42
184.604	1914.69
184.68	1925.39
184.756	1935.13
184.832	1939.03
184.908	1943.45
184.985	1943.12
185.061	1926.05
185.137	1935.89
185.213	1924.06
185.289	1924.58
185.365	1916.5
185.441	1914.22
185.517	1929.67
185.593	1925.92
185.669	1923.83
185.745	1932.39
185.822	1948.54
185.898	1940.51
185.974	1947.44
186.05	1942.64
186.126	1906.55
186.202	1901.75
186.278	1895.86
186.354	1886.35
186.43	1892.81
186.506	1891.43
186.582	1890.63
186.658	1899.04
186.734	1881.78
186.81	1884.59
186.886	1886.68
186.962	1898.7
187.038	1896.47
187.114	1888.72
187.19	1896.37
187.266	1887.82
187.341	1889.43
187.417	1882.07
187.493	1882.02
187.569	1885.58
187.645	1879.78
187.721	1867.18
187.797	1875.27
187.873	1879.97
187.949	1874.03
188.025	1868.42
188.101	1870.75
188.176	1875.12
188.252	1867.95
188.328	1873.5
188.404	1871.94
188.48	1868.85
188.556	1863.47
188.632	1864.62
188.707	1864.71
188.783	1860.38
188.859	1856.49
188.935	1843.84
189.011	1852.63
189.086	1846.5
189.162	1840.42
189.238	1840.75
189.314	1839.28
189.39	1832.15
189.465	1827.68
189.541	1841.99
189.617	1827.87
189.693	1822.88
189.768	1826.69
189.844	1851.03
189.92	1845.24
189.996	1854.79
190.071	1863.39
190.147	1863.77
190.223	1870.38
190.298	1864.34
190.374	1853.93
190.45	1864.53
190.526	1875.09
190.601	1868.34
190.677	1869.24
190.753	1895.4
190.828	1896.35
190.904	1906.43
190.98	1921.78
191.055	1928.06
191.131	1921.78
191.207	1941.65
191.282	1953.2
191.358	1943.51
191.433	1929.81
191.509	1941.69
191.585	1937.65
191.66	1939.07
191.736	1945.06
191.811	1938.31
191.887	1953.25
191.963	1975.93
192.038	1979.54
192.114	1978.35
192.189	1982.34
192.265	1979.83
192.34	1960.61
192.416	1960.08
192.491	1960.89
192.567	1963.6
192.642	1967.12
192.718	1965.74
192.793	1954.38
192.869	1948.72
192.944	1953.24
193.02	1961.13
193.095	1964.03
193.171	1967.6
193.246	1966.46
193.322	1964.94
193.397	1963.89
193.473	1949
193.548	1931.03
193.624	1938.21
193.699	1935.21
193.775	1950.2
193.85	1951
193.925	1958.47
194.001	1956.66
194.076	1948.39
194.152	1935.64
194.227	1930.65
194.302	1921.53
194.378	1923.57
194.453	1921.29
194.529	1933.65
194.604	1917.44
194.679	1910.88
194.755	1896.05
194.83	1909.13
194.905	1906.9
194.981	1918.26
195.056	1914.27
195.131	1920.31
195.207	1915.84
195.282	1908.42
195.357	1889.59
195.433	1902.85
195.508	1892.2
195.583	1898.81
195.659	1912.6
195.734	1919.63
195.809	1918.45
195.884	1929.28
195.96	1932.61
196.035	1945.02
196.11	1938.26
196.185	1951.81
196.261	1954.86
196.336	1984.91
196.411	1970.83
196.486	1976.1
196.561	1967.4
196.637	1971.59
196.712	1986.76
196.787	1989.71
196.862	2003.97
196.937	2015.91
197.013	2021.95
197.088	2029.51
197.163	2049.34
197.238	2061.91
197.313	2062.86
197.388	2075.98
197.464	2103.44
197.539	2115.23
197.614	2111.71
197.689	2122.04
197.764	2135.4
197.839	2156.05
197.914	2151.15
197.989	2171.7
198.065	2183.83
198.14	2231
198.215	2257.98
198.29	2268.74
198.365	2279.97
198.44	2290.77
198.515	2315.18
198.59	2328.55
198.665	2354.83
198.74	2360.97
198.815	2366.54
198.89	2385.81
198.965	2411.14
199.04	2406.38
199.115	2416.85
199.19	2455.79
199.265	2460.79
199.34	2470.21
199.415	2501.65
199.49	2520.17
199.565	2528.21
199.64	2549.88
199.715	2548.02
199.79	2554.59
199.865	2557.93
199.94	2559.35
200.015	2587.17
200.09	2591.41
200.165	2597.6
200.24	2602.17
200.315	2640.59
200.39	2652.64
200.464	2659.64
200.539	2662.69
200.614	2678.6
200.689	2698.65
200.764	2703.61
200.839	2718.27
200.914	2723.51
200.989	2712.07
201.063	2723.56
201.138	2710.23
201.213	2711.66
201.288	2694.36
201.363	2700.65
201.438	2702.99
201.512	2715.7
201.587	2699.64
201.662	2705.07
201.737	2715.41
201.812	2724.32
201.886	2691.86
201.961	2699.86
202.036	2689.01
202.111	2685.24
202.186	2656.77
202.26	2644.39
202.335	2626.52
202.41	2621.09
202.485	2605.76
202.559	2586.23
202.634	2563.75
202.709	2569.85
202.784	2549.32
202.858	2547.47
202.933	2528.89
203.008	2523.27
203.082	2509.13
203.157	2508.94
203.232	2465.72
203.306	2450.01
203.381	2417.2
203.456	2397.06
203.53	2379.19
203.605	2359.97
203.68	2337.07
203.754	2331.36
203.829	2317.79
203.904	2298.56
203.978	2289.28
204.053	2292.18
204.127	2282.62
204.202	2278.86
204.277	2261.68
204.351	2257.73
204.426	2251.26
204.5	2243.27
204.575	2208.54
204.65	2217.25
204.724	2204.87
204.799	2215.33
204.873	2212.57
204.948	2213.24
205.022	2203.82
205.097	2191.82
205.171	2206.29
205.246	2214.52
205.32	2216.33
205.395	2214.09
205.469	2205.01
205.544	2210.1
205.618	2193.02
205.693	2205.06
205.767	2197.07
205.842	2219.38
205.916	2212.91
205.991	2205.68
206.065	2210.82
206.14	2226.94
206.214	2223.03
206.289	2221.46
206.363	2231.46
206.438	2231.65
206.512	2237.5
206.586	2256.58
206.661	2264.91
206.735	2244.6
206.81	2243.41
206.884	2254.3
206.958	2245.07
207.033	2260.01
207.107	2265.58
207.181	2297.42
207.256	2289.81
207.33	2307.37
207.405	2320.13
207.479	2338.45
207.553	2342.07
207.628	2327.23
207.702	2336.55
207.776	2328.89
207.851	2333.6
207.925	2347.12
207.999	2341.46
208.073	2343.03
208.148	2343.17
208.222	2331.7
208.296	2360.53
208.371	2378.54
208.445	2388.68
208.519	2415.23
208.593	2426.47
208.668	2422.56
208.742	2425.61
208.816	2427.8
208.89	2437.23
208.965	2434.8
209.039	2444.66
209.113	2461.7
209.187	2481.35
209.261	2480.4
209.336	2498.4
209.41	2516.49
209.484	2515.87
209.558	2538.3
209.632	2544.92
209.707	2553.73
209.781	2576.06
209.855	2590.21
209.929	2603.98
210.003	2609.08
210.077	2607.08
210.151	2652.37
210.226	2687.16
210.3	2710.47
210.374	2733.38
210.448	2738.57
210.522	2748.72
210.596	2757.01
210.67	2766.16
210.744	2808.38
210.818	2837.48
210.892	2859.89
210.966	2856.12
211.041	2875.04
211.115	2876.52
211.189	2904.16
211.263	2921.69
211.337	2928.79
211.411	2944.81
211.485	2946.77
211.559	2961.92
211.633	2968.73
211.707	2941.45
211.781	2949.13
211.855	2921.29
211.929	2919.72
212.003	2909.24
212.077	2922.4
212.151	2938.47
212.225	2958.01
212.299	2957.68
212.373	2957.92
212.447	2959.83
212.52	2997.35
212.594	3012.38
212.668	3033.79
212.742	3033.88
212.816	3048.52
212.89	3059.11
212.964	3075.71
213.038	3094.94
213.112	3131.35
213.186	3165.92
213.26	3173.26
213.333	3159.05
213.407	3190.47
213.481	3219.93
213.555	3266.14
213.629	3291.44
213.703	3311.67
213.777	3344.33
213.85	3367.1
213.924	3436.67
213.998	3484.38
214.072	3521.41
214.146	3557.18
214.219	3605.13
214.293	3654.07
214.367	3709.63
214.441	3777.37
214.515	3826.02
214.588	3867.59
214.662	3898.61
214.736	3946.88
214.81	4026.42
214.883	4104.06
214.957	4171.26
215.031	4239.8
215.105	4291.42
215.178	4353.7
215.252	4428.51
215.326	4489.37
215.4	4553.56
215.473	4598.52
215.547	4670.2
215.621	4752.87
215.694	4849.76
215.768	4922.84
215.842	5008.76
215.915	5091.89
215.989	5165.88
216.063	5256.95
216.136	5359.18
216.21	5462.7
216.284	5581.94
216.357	5685.09
216.431	5792.66
216.504	5907.64
216.578	6040.17
216.652	6168.63
216.725	6288.14
216.799	6417.67
216.873	6540.9
216.946	6672.53
217.02	6784.2
217.093	6898.18
217.167	6997.29
217.24	7094.49
217.314	7215.32
217.387	7331.41
217.461	7445.51
217.535	7580.2
217.608	7696.5
217.682	7822.2
217.755	7954.06
217.829	8058.49
217.902	8186.69
217.976	8316.92
218.049	8434.7
218.123	8545.15
218.196	8668.59
218.27	8789.44
218.343	8901.37
218.417	9025.33
218.49	9147.66
218.563	9285.06
218.637	9413.86
218.71	9560.16
218.784	9699.23
218.857	9837.74
218.931	9968.49
219.004	10098.4
219.077	10223.45
219.151	10355.35
219.224	10477.14
219.298	10599.91
219.371	10739.29
219.444	10838.02
219.518	10951.45
219.591	11067.48
219.665	11205.11
219.738	11324.24
219.811	11430.84
219.885	11547.95
219.958	11667.86
220.031	11778.96
220.105	11904.47
220.178	12023.76
220.251	12123.01
220.325	12240.09
220.398	12349.89
220.471	12456.52
220.544	12575.1
220.618	12678.73
220.691	12783.68
220.764	12887.22
220.838	12993.95
220.911	13093.73
220.984	13218.97
221.057	13327.72
221.131	13430.69
221.204	13504.25
221.277	13617.92
221.35	13746.77
221.424	13839.23
221.497	13937.09
221.57	14034.27
221.643	14130.44
221.716	14224.83
221.79	14316.76
221.863	14400.82
221.936	14482.1
222.009	14563.76
222.082	14646.43
222.155	14732.43
222.229	14829.56
222.302	14922.54
222.375	15006.46
222.448	15092.6
222.521	15173.15
222.594	15258.9
222.667	15329.32
222.74	15417.1
222.814	15489.31
222.887	15546.52
222.96	15637.04
223.033	15722.69
223.106	15794.32
223.179	15870.76
223.252	15941.08
223.325	16008.85
223.398	16084.24
223.471	16159.91
223.544	16244.4
223.617	16310.05
223.69	16379.74
223.763	16432.42
223.837	16498.3
223.91	16562.98
223.983	16605.69
224.056	16653.74
224.129	16701.79
224.202	16778.18
224.275	16839
224.348	16885.03
224.42	16940.36
224.493	16968.26
224.566	17010.24
224.639	17071.06
224.712	17105.14
224.785	17154
224.858	17205.23
224.931	17248.22
225.004	17290.87
225.077	17331.16
225.15	17357.52
225.223	17398.92
225.296	17465.23
225.369	17492.08
225.442	17529.09
225.514	17588.03
225.587	17643.64
225.66	17700.46
225.733	17741.95
225.806	17783.35
225.879	17824.99
225.952	17865.71
226.025	17934.91
226.097	17990.28
226.17	18027.1
226.243	18059.63
226.316	18097.99
226.389	18144.4
226.461	18197.02
226.534	18241.6
226.607	18286.37
226.68	18359.33
226.753	18401.88
226.825	18420.15
226.898	18471.08
226.971	18508.05
227.044	18544.72
227.117	18574.69
227.189	18615.17
227.262	18661.43
227.335	18706.78
227.407	18744.75
227.48	18784.41
227.553	18814.68
227.626	18845.28
227.698	18883.11
227.771	18929.8
227.844	18960.84
227.916	18997.8
227.989	19015.73
228.062	19043.77
228.134	19091.34
228.207	19120.39
228.28	19150.27
228.352	19176.25
228.425	19210.65
228.498	19253.16
228.57	19278.07
228.643	19331.66
228.716	19346.36
228.788	19371.61
228.861	19395.85
228.934	19435.27
229.006	19457.77
229.079	19486.93
229.151	19507.45
229.224	19515.7
229.296	19535.07
229.369	19584.41
229.442	19619.45
229.514	19627.21
229.587	19657.28
229.659	19661.86
229.732	19678.05
229.804	19702.34
229.877	19755.68
229.949	19783.01
230.022	19816.6
230.094	19839.97
230.167	19857.41
230.239	19885.32
230.312	19907.48
230.384	19943.68
230.457	19971.39
230.529	19992.98
230.602	20008.25
230.674	20034.37
230.747	20073.84
230.819	20116.97
230.892	20110.95
230.964	20132.73
231.037	20170.42
231.109	20184.54
231.181	20210.7
231.254	20225.31
231.326	20238.51
231.399	20240.58
231.471	20253.11
231.544	20248.73
231.616	20273.83
231.688	20283.71
231.761	20285.88
231.833	20282.03
231.905	20268.63
231.978	20269.55
232.05	20283.91
232.122	20290.17
232.195	20291.09
232.267	20315.57
232.339	20314.56
232.412	20333.98
232.484	20330.41
232.556	20325.01
232.629	20362.22
232.701	20375.67
232.773	20376.29
232.846	20388.63
232.918	20393.64
232.99	20400.77
233.062	20419.86
233.135	20425.59
233.207	20421.64
233.279	20432.77
233.351	20453.54
233.424	20451.57
233.496	20450.8
233.568	20469.98
233.64	20463.91
233.713	20458.8
233.785	20442.46
233.857	20444.15
233.929	20425.21
234.001	20436.87
234.074	20448.97
234.146	20419.38
234.218	20411.86
234.29	20414.65
234.362	20407.28
234.434	20391.09
234.507	20374.99
234.579	20354.75
234.651	20337.5
234.723	20338.03
234.795	20331.42
234.867	20317.88
234.939	20328.1
235.012	20312.15
235.084	20302.17
235.156	20304.05
235.228	20297.64
235.3	20295.81
235.372	20282.17
235.444	20285.98
235.516	20255.33
235.588	20244.1
235.66	20235.47
235.732	20215.81
235.804	20253.64
235.876	20237.5
235.948	20236.34
236.02	20219.43
236.092	20200.58
236.164	20188.83
236.236	20163.14
236.308	20142.18
236.38	20130.42
236.452	20104.92
236.524	20094.95
236.596	20091.48
236.668	20075.96
236.74	20057.07
236.812	20036.2
236.884	20021.84
236.956	20001.8
237.028	19976.4
237.1	19945.75
237.172	19943.39
237.244	19947.44
237.316	19890.13
237.388	19869.7
237.46	19841.37
237.532	19842.33
237.604	19816.74
237.675	19806.48
237.747	19795.59
237.819	19773.08
237.891	19753.23
237.963	19730.82
238.035	19708.51
238.107	19659.74
238.178	19650.87
238.25	19627.69
238.322	19626.15
238.394	19590.39
238.466	19569.76
238.538	19553.91
238.609	19545.86
238.681	19497.43
238.753	19461.77
238.825	19436.37
238.897	19402.98
238.968	19395.22
239.04	19356.48
239.112	19361.63
239.184	19333.49
239.255	19308.14
239.327	19280.87
239.399	19259.57
239.471	19241.4
239.542	19224.44
239.614	19203.09
239.686	19151.33
239.758	19134.66
239.829	19093.46
239.901	19080.16
239.973	19040.3
240.044	19026.71
240.116	18996.21
240.188	18973.13
240.259	18939.01
240.331	18910.24
240.403	18905.61
240.474	18860.65
240.546	18824.89
240.618	18775.35
240.689	18737.43
240.761	18715.74
240.833	18707.89
240.904	18667.17
240.976	18623.7
241.048	18595.12
241.119	18576.28
241.191	18560.91
241.262	18546.55
241.334	18508.96
241.405	18476.58
241.477	18452.15
241.549	18408.58
241.62	18385.31
241.692	18362.08
241.763	18350.99
241.835	18314.85
241.906	18282.23
241.978	18245.6
242.049	18231.1
242.121	18213.84
242.192	18194.42
242.264	18143.2
242.335	18090.09
242.407	18066.33
242.478	18048.6
242.55	18019.06
242.621	17982.96
242.693	17946.38
242.764	17906.67
242.836	17880.6
242.907	17849.57
242.979	17827.54
243.05	17811.4
243.122	17791.45
243.193	17753.86
243.264	17688.37
243.336	17658.73
243.407	17634.83
243.479	17622.63
243.55	17590.3
243.622	17553.24
243.693	17524.27
243.764	17515.69
243.836	17484.32
243.907	17447.5
243.978	17414.25
244.05	17381.96
244.121	17326.78
244.192	17302.73
244.264	17252.03
244.335	17225.57
244.407	17173.09
244.478	17140.22
244.549	17091.78
244.62	17031.35
244.692	16996.36
244.763	16986.29
244.834	16954
244.906	16906.77
244.977	16881.9
245.048	16868.4
245.119	16831.97
245.191	16786.09
245.262	16722.52
245.333	16709.7
245.405	16691.29
245.476	16654.95
245.547	16621.69
245.618	16604.63
245.689	16570.56
245.761	16549.45
245.832	16509.59
245.903	16503.37
245.974	16470.45
246.045	16435.65
246.117	16422.98
246.188	16384.47
246.259	16337.72
246.33	16295.93
246.401	16259.78
246.473	16211.97
246.544	16169.03
246.615	16148.3
246.686	16116.3
246.757	16105.74
246.828	16057.83
246.899	16032.82
246.97	15987.75
247.042	15945.91
247.113	15919.4
247.184	15903.59
247.255	15862.29
247.326	15828.98
247.397	15785.51
247.468	15759.24
247.539	15738.99
247.61	15706.12
247.681	15681.63
247.752	15663.17
247.823	15626.44
247.894	15597.48
247.965	15555.01
248.037	15512.45
248.108	15460.49
248.179	15437.4
248.25	15400.24
248.321	15377.87
248.392	15331.02
248.463	15312.7
248.534	15288.94
248.605	15269.71
248.675	15241.8
248.746	15214.52
248.817	15196.44
248.888	15174.94
248.959	15132.23
249.03	15111.99
249.101	15071.6
249.172	15038.05
249.243	14988.78
249.314	14974.95
249.385	14957.21
249.456	14937.15
249.527	14904.67
249.598	14890.4
249.669	14852.22
249.739	14828.07
249.81	14803.1
249.881	14763.23
249.952	14740.48
250.023	14714.26
250.094	14661.33
250.165	14612.07
250.235	14584.78
250.306	14560.83
250.377	14518.26
250.448	14492.42
250.519	14443.54
250.59	14433.28
250.66	14407.24
250.731	14402.04
250.802	14375.09
250.873	14352.58
250.944	14331.22
251.014	14304.18
251.085	14290.97
251.156	14269.71
251.227	14259.16
251.297	14243.25
251.368	14227.97
251.439	14209.84
251.51	14189.79
251.58	14166.84
251.651	14145.63
251.722	14128.71
251.792	14077.18
251.863	14056.74
251.934	14051.97
252.005	14045.03
252.075	14021.5
252.146	14009.64
252.217	13997.3
252.287	13983.23
252.358	13948.13
252.429	13936.95
252.499	13908.07
252.57	13882.19
252.641	13865.07
252.711	13833.5
252.782	13791.7
252.852	13794.35
252.923	13774.93
252.994	13754.97
253.064	13737.95
253.135	13699.44
253.205	13671.19
253.276	13660.63
253.347	13652.43
253.417	13607.79
253.488	13579.93
253.558	13541.22
253.629	13519.96
253.699	13488.77
253.77	13467.61
253.841	13445.53
253.911	13424.75
253.982	13399.64
254.052	13383.97
254.123	13365.32
254.193	13346.61
254.264	13358.23
254.334	13317.78
254.405	13279.75
254.475	13238.97
254.546	13216.6
254.616	13211.01
254.687	13190.23
254.757	13174.27
254.827	13143.42
254.898	13129.25
254.968	13104.28
255.039	13080.99
255.109	13055.16
255.18	13023.1
255.25	12981.26
255.321	12965.54
255.391	12927.75
255.461	12925.67
255.532	12881.42
255.602	12854.09
255.673	12812.53
255.743	12776.62
255.813	12738.92
255.884	12724.17
255.954	12715.4
256.024	12710.48
256.095	12687.87
256.165	12659.72
256.235	12641.84
256.306	12612.39
256.376	12597.92
256.446	12586.55
256.517	12573.44
256.587	12568.95
256.657	12547.6
256.728	12532.8
256.798	12512.22
256.868	12485.66
256.938	12456.83
257.009	12447.14
257.079	12431.47
257.149	12435.19
257.219	12400.62
257.29	12381.05
257.36	12352.85
257.43	12343.36
257.5	12296.12
257.571	12271.87
257.641	12258.57
257.711	12227.33
257.781	12228.25
257.852	12216.49
257.922	12182.46
257.992	12166.07
258.062	12138.64
258.132	12132.76
258.202	12107.26
258.273	12088.32
258.343	12085.62
258.413	12059.4
258.483	12040.26
258.553	12010.18
258.623	11984.25
258.693	11971.09
258.764	11966.56
258.834	11957.5
258.904	11934.26
258.974	11913.73
259.044	11898.74
259.114	11889.63
259.184	11874.21
259.254	11840.27
259.324	11798.39
259.394	11786.29
259.464	11780.27
259.535	11759.06
259.605	11729.75
259.675	11701.85
259.745	11685.41
259.815	11652.97
259.885	11637.94
259.955	11645.7
260.025	11621.6
260.095	11600.1
260.165	11586.12
260.235	11586.22
260.305	11557.16
260.375	11530.07
260.445	11530.99
260.515	11527.61
260.585	11521.11
260.655	11508.04
260.725	11501.83
260.795	11498.36
260.865	11495.32
260.934	11462.6
261.004	11449.34
261.074	11440.09
261.144	11442.64
261.214	11431.46
261.284	11415.32
261.354	11397.39
261.424	11366.49
261.494	11371.5
261.564	11354.83
261.634	11338.15
261.703	11294.2
261.773	11281.96
261.843	11271.16
261.913	11250.34
261.983	11214.2
262.053	11195.07
262.123	11168.08
262.192	11142.49
262.262	11131.02
262.332	11100.13
262.402	11096.56
