Data from 20250630_urea_2M_MAYP1162681_21-02-27-326.txt Node
Date: Mon Jun 30 21:02:27 BST 2025
User: adleo
Spectrometer: MAYP116268
Trigger mode: 0
Integration Time (sec): 1.000000E0
Scans to average: 1
Electric dark correction enabled: true
Nonlinearity correction enabled: true
Boxcar width: 10
XAxis mode: Wavelengths
Number of Pixels in Spectrum: 2068
>>>>>Begin Spectral Data<<<<<
179.565	1137.84
179.642	1193.34
179.718	1235.31
179.795	1265.73
179.871	1296.15
179.948	1311.67
180.024	1329.82
180.101	1351.72
180.177	1365.43
180.254	1387.2
180.33	1407.99
180.407	1455.79
180.483	1546.63
180.56	1630.24
180.636	1707.62
180.712	1696.79
180.789	1706.43
180.865	1718.69
180.942	1726.2
181.018	1734.89
181.095	1746.82
181.171	1751.81
181.248	1750.1
181.324	1763.55
181.4	1772.87
181.477	1781.57
181.553	1794.3
181.63	1816.26
181.706	1830.09
181.782	1835.55
181.859	1833.27
181.935	1838.64
182.011	1835.46
182.088	1852.53
182.164	1874.45
182.24	1887.37
182.317	1896.21
182.393	1894.6
182.469	1906.44
182.546	1918.56
182.622	1923.69
182.698	1918.32
182.775	1931.82
182.851	1945.23
182.927	1938.48
183.003	1936.29
183.08	1930.25
183.156	1936.19
183.232	1931.53
183.308	1922.22
183.385	1933.24
183.461	1951.12
183.537	1954.45
183.613	1966.9
183.69	1955.92
183.766	1941.27
183.842	1948.93
183.918	1953.2
183.995	1965.52
184.071	1967.9
184.147	1964.57
184.223	1956.01
184.299	1967.52
184.375	1955.59
184.452	1961.68
184.528	2014.05
184.604	2022.65
184.68	2038.91
184.756	2048.37
184.832	2051.51
184.908	2056.79
184.985	2055.55
185.061	2041.29
185.137	2044.47
185.213	2033.44
185.289	2036.53
185.365	2030.64
185.441	2032.3
185.517	2046.15
185.593	2040.68
185.669	2038.4
185.745	2047.57
185.822	2059.84
185.898	2051.18
185.974	2059.55
186.05	2051.42
186.126	2010.98
186.202	2007.51
186.278	2001.61
186.354	1993.34
186.43	1999.67
186.506	1998.05
186.582	1996.48
186.658	2002.85
186.734	1987.49
186.81	1992.53
186.886	1993.25
186.962	2005.66
187.038	2000.52
187.114	1992.1
187.19	2000.56
187.266	1990.53
187.341	1991.53
187.417	1986.45
187.493	1988.78
187.569	1992.39
187.645	1988.35
187.721	1980.45
187.797	1985.68
187.873	1990.25
187.949	1984.31
188.025	1980.22
188.101	1980.03
188.176	1984.92
188.252	1979.03
188.328	1985.49
188.404	1981.74
188.48	1976.51
188.556	1968.99
188.632	1967.71
188.707	1969.71
188.783	1967.66
188.859	1963.39
188.935	1951.54
189.011	1957.58
189.086	1951.07
189.162	1941.8
189.238	1940.75
189.314	1939.99
189.39	1934.38
189.465	1926.96
189.541	1944.37
189.617	1930.86
189.693	1929.2
189.768	1932.01
189.844	1953.6
189.92	1946.99
189.996	1957.17
190.071	1969.67
190.147	1968.86
190.223	1976.71
190.298	1968.06
190.374	1952.03
190.45	1967.1
190.526	1978.51
190.601	1974.14
190.677	1975.71
190.753	2002.21
190.828	2002.21
190.904	2013.29
190.98	2027.46
191.055	2035.55
191.131	2024.56
191.207	2042.63
191.282	2050.71
191.358	2041.44
191.433	2029.83
191.509	2042.71
191.585	2039.38
191.66	2038.48
191.736	2048.09
191.811	2041.71
191.887	2056.89
191.963	2083.24
192.038	2085.66
192.114	2082.76
192.189	2086.52
192.265	2083.57
192.34	2064.73
192.416	2065.96
192.491	2061.39
192.567	2064.11
192.642	2067.53
192.718	2069.39
192.793	2056.83
192.869	2053.36
192.944	2056.21
193.02	2063.68
193.095	2064.68
193.171	2070.77
193.246	2071
193.322	2064.39
193.397	2062.68
193.473	2051.31
193.548	2034.14
193.624	2039.23
193.699	2039.32
193.775	2051.6
193.85	2053.55
193.925	2061.3
194.001	2058.73
194.076	2054.45
194.152	2042.23
194.227	2037.18
194.302	2025.92
194.378	2032.58
194.453	2031.53
194.529	2043.99
194.604	2031.29
194.679	2028.34
194.755	2009.71
194.83	2023.31
194.905	2025.36
194.981	2033.82
195.056	2024.55
195.131	2028.69
195.207	2028.74
195.282	2018.56
195.357	2002.15
195.433	2014.61
195.508	2003.67
195.583	2012.66
195.659	2024.88
195.734	2033.78
195.809	2032.07
195.884	2042.05
195.96	2039.62
196.035	2051.89
196.11	2050.13
196.185	2059.12
196.261	2061.31
196.336	2090.94
196.411	2075.43
196.486	2081.71
196.561	2076.81
196.637	2086.6
196.712	2101.11
196.787	2102.73
196.862	2117.9
196.937	2128.41
197.013	2133.12
197.088	2142.59
197.163	2164.14
197.238	2181.62
197.313	2180.33
197.388	2193.32
197.464	2224.02
197.539	2235.86
197.614	2228.06
197.689	2238.05
197.764	2255.76
197.839	2276.51
197.914	2271.37
197.989	2293.97
198.065	2306.3
198.14	2353.49
198.215	2380.81
198.29	2394.38
198.365	2407.94
198.44	2416.75
198.515	2442.5
198.59	2458.97
198.665	2482.44
198.74	2487.44
198.815	2487.68
198.89	2512.15
198.965	2540.59
199.04	2534.3
199.115	2549.01
199.19	2591.39
199.265	2594.77
199.34	2605.58
199.415	2635.89
199.49	2656.69
199.565	2667.27
199.64	2688.61
199.715	2685.13
199.79	2690.32
199.865	2697.52
199.94	2694.61
200.015	2724.43
200.09	2730.2
200.165	2735.39
200.24	2743.06
200.315	2780.64
200.39	2794.31
200.464	2797.17
200.539	2798.31
200.614	2816.85
200.689	2839.24
200.764	2843.01
200.839	2862.11
200.914	2866.45
200.989	2855.77
201.063	2867.87
201.138	2851.44
201.213	2853.54
201.288	2835.05
201.363	2837.15
201.438	2835.58
201.512	2853.63
201.587	2841.14
201.662	2843.24
201.737	2856.01
201.812	2865.59
201.886	2837.17
201.961	2846.28
202.036	2836.42
202.111	2835.65
202.186	2805.08
202.26	2787.92
202.335	2767.76
202.41	2759.09
202.485	2740.61
202.559	2722.89
202.634	2695.11
202.709	2699.97
202.784	2681.72
202.858	2682.87
202.933	2665.48
203.008	2661.29
203.082	2639.52
203.157	2635.19
203.232	2596.91
203.306	2577.94
203.381	2546.02
203.456	2521.97
203.53	2499
203.605	2481.58
203.68	2455.24
203.754	2451.62
203.829	2436.91
203.904	2419.67
203.978	2406.44
204.053	2412.58
204.127	2399.96
204.202	2398.58
204.277	2384.16
204.351	2376.88
204.426	2371.21
204.5	2366.17
204.575	2330.9
204.65	2341.85
204.724	2335.57
204.799	2343.99
204.873	2338.03
204.948	2333.23
205.022	2323.57
205.097	2311.81
205.171	2323.51
205.246	2332.85
205.32	2334.75
205.395	2333.08
205.469	2324.33
205.544	2334.66
205.618	2317.53
205.693	2330.38
205.767	2321.91
205.842	2341.85
205.916	2334.15
205.991	2325.43
206.065	2331.24
206.14	2345.65
206.214	2341.27
206.289	2334.89
206.363	2345.03
206.438	2347.41
206.512	2357.07
206.586	2379.78
206.661	2391.44
206.735	2372.22
206.81	2373.55
206.884	2384.55
206.958	2375.08
207.033	2390.02
207.107	2396.54
207.181	2423.68
207.256	2416.92
207.33	2431.77
207.405	2442.11
207.479	2463.39
207.553	2467.91
207.628	2450.36
207.702	2462.68
207.776	2455.78
207.851	2460.3
207.925	2474.78
207.999	2470.26
208.073	2466.74
208.148	2465.78
208.222	2456.69
208.296	2484.48
208.371	2502.64
208.445	2513.45
208.519	2541.3
208.593	2553.3
208.668	2547.29
208.742	2553.39
208.816	2558.96
208.89	2575.35
208.965	2574.97
209.039	2583.74
209.113	2602.64
209.187	2625.01
209.261	2619.06
209.336	2641.11
209.41	2660.79
209.484	2660.74
209.558	2686.04
209.632	2699.66
209.707	2708.18
209.781	2727.62
209.855	2745.96
209.929	2758.65
210.003	2766.08
210.077	2767.56
210.151	2814.25
210.226	2849.1
210.3	2875.71
210.374	2892.77
210.448	2900.06
210.522	2910.26
210.596	2918.46
210.67	2928.52
210.744	2974.82
210.818	3008.79
210.892	3027.15
210.966	3023.43
211.041	3042.78
211.115	3039.16
211.189	3063.57
211.263	3083.78
211.337	3095.99
211.411	3108.19
211.485	3107.24
211.559	3118.92
211.633	3124.64
211.707	3101.97
211.781	3110.8
211.855	3083.76
211.929	3088.05
212.003	3075.61
212.077	3094.88
212.151	3116.02
212.225	3138.05
212.299	3138.2
212.373	3145.92
212.447	3158.09
212.52	3202.13
212.594	3225.99
212.668	3256.85
212.742	3266.45
212.816	3287.78
212.89	3307.58
212.964	3337.37
213.038	3370.94
213.112	3417.92
213.186	3469.03
213.26	3483.49
213.333	3482.72
213.407	3527.92
213.481	3574.36
213.555	3636.35
213.629	3677.91
213.703	3715.13
213.777	3768.71
213.85	3807.84
213.924	3897.87
213.998	3966.29
214.072	4026.65
214.146	4082.26
214.219	4158.63
214.293	4233.5
214.367	4313.34
214.441	4406.34
214.515	4481
214.588	4555.33
214.662	4614.49
214.736	4684.8
214.81	4792.59
214.883	4903.43
214.957	5000.76
215.031	5095.56
215.105	5183.05
215.178	5282.58
215.252	5401.59
215.326	5496.22
215.4	5601.28
215.473	5686.05
215.547	5797.31
215.621	5915.94
215.694	6051.99
215.768	6165.07
215.842	6291.63
215.915	6411.27
215.989	6527.1
216.063	6658.94
216.136	6802.09
216.21	6950.17
216.284	7113.43
216.357	7267.06
216.431	7419.09
216.504	7584.8
216.578	7769.68
216.652	7943.33
216.725	8104.6
216.799	8266.7
216.873	8431.41
216.946	8602.29
217.02	8758.58
217.093	8912.74
217.167	9057.92
217.24	9208.42
217.314	9365.94
217.387	9522.75
217.461	9689.02
217.535	9868.56
217.608	10028.94
217.682	10193.54
217.755	10371.15
217.829	10530.37
217.902	10691.77
217.976	10856.75
218.049	11010.22
218.123	11155.08
218.196	11320.81
218.27	11485.15
218.343	11639.81
218.417	11810.13
218.49	11978.29
218.563	12156.82
218.637	12327.26
218.71	12507.91
218.784	12677.29
218.857	12844.31
218.931	13005.65
219.004	13169.64
219.077	13335.8
219.151	13497.57
219.224	13647.78
219.298	13797.79
219.371	13966.41
219.444	14108.67
219.518	14257.67
219.591	14406.33
219.665	14582.08
219.738	14720.29
219.811	14842.68
219.885	14991
219.958	15128.52
220.031	15259
220.105	15393.15
220.178	15534.09
220.251	15660.9
220.325	15791.81
220.398	15932.75
220.471	16068.43
220.544	16188.4
220.618	16300.84
220.691	16417.77
220.764	16528.05
220.838	16652.68
220.911	16754.96
220.984	16896.46
221.057	17008.22
221.131	17128.47
221.204	17202.11
221.277	17319.99
221.35	17454.89
221.424	17559.75
221.497	17667.75
221.57	17776.14
221.643	17885.82
221.716	17985.58
221.79	18073.72
221.863	18168.95
221.936	18257.38
222.009	18344.27
222.082	18444.02
222.155	18523.82
222.229	18639.48
222.302	18746.99
222.375	18826.46
222.448	18912.19
222.521	18990.16
222.594	19071.36
222.667	19124.61
222.74	19218.39
222.814	19294.34
222.887	19368.89
222.96	19437.17
223.033	19508.98
223.106	19578.27
223.179	19651.38
223.252	19705.83
223.325	19779.03
223.398	19838.7
223.471	19901.73
223.544	19962.4
223.617	20024.04
223.69	20086.35
223.763	20119.99
223.837	20169.14
223.91	20220.08
223.983	20247.74
224.056	20282.3
224.129	20337.19
224.202	20403.84
224.275	20445.28
224.348	20479.74
224.42	20511.74
224.493	20545.09
224.566	20575.84
224.639	20611.98
224.712	20637.14
224.785	20670.06
224.858	20693.24
224.931	20726.92
225.004	20746.73
225.077	20794.83
225.15	20798.35
225.223	20832.13
225.296	20887.46
225.369	20905.01
225.442	20930.6
225.514	20971.76
225.587	21007.85
225.66	21042.41
225.733	21073.64
225.806	21096.2
225.879	21126.85
225.952	21138.76
226.025	21175.34
226.097	21224.31
226.17	21252.07
226.243	21255.93
226.316	21283.54
226.389	21313.62
226.461	21349.09
226.534	21383.46
226.607	21394.4
226.68	21447.56
226.753	21468.67
226.825	21472.19
226.898	21499.18
226.971	21515.18
227.044	21539.96
227.117	21560.59
227.189	21575.92
227.262	21597.22
227.335	21611.63
227.407	21629.32
227.48	21657.66
227.553	21674.63
227.626	21676.8
227.698	21690.63
227.771	21717.58
227.844	21723.36
227.916	21740.23
227.989	21738.01
228.062	21741.63
228.134	21770.31
228.207	21778.02
228.28	21775.42
228.352	21774.7
228.425	21783.95
228.498	21803.42
228.57	21809.69
228.643	21826.37
228.716	21830.9
228.788	21829.74
228.861	21836.15
228.934	21850.66
229.006	21851.1
229.079	21857.03
229.151	21855.77
229.224	21856.74
229.296	21863.1
229.369	21902.87
229.442	21930.06
229.514	21929.62
229.587	21946.3
229.659	21933.05
229.732	21931.65
229.804	21953.29
229.877	21987.23
229.949	22005.69
230.022	22035.38
230.094	22043.48
230.167	22049.65
230.239	22039.43
230.312	22045.56
230.384	22072.5
230.457	22078.19
230.529	22088.41
230.602	22093.66
230.674	22100.61
230.747	22102.24
230.819	22108.75
230.892	22070.14
230.964	22064.6
231.037	22066.77
231.109	22063.34
231.181	22072.45
231.254	22070.19
231.326	22063.2
231.399	22048.4
231.471	22031.57
231.544	22006.41
231.616	22004.43
231.688	21989.35
231.761	21990.26
231.833	21984.53
231.905	21951.79
231.978	21941.86
232.05	21928.61
232.122	21912.65
232.195	21900.02
232.267	21904.41
232.339	21893.9
232.412	21909.33
232.484	21888.41
232.556	21870.04
232.629	21879.2
232.701	21877.71
232.773	21860.88
232.846	21851.29
232.918	21837.7
232.99	21836.68
233.062	21833.7
233.135	21814.9
233.207	21797.35
233.279	21786.31
233.351	21779.76
233.424	21776.82
233.496	21759.8
233.568	21768.58
233.64	21749.92
233.713	21736.14
233.785	21725.58
233.857	21716.28
233.929	21689.72
234.001	21692.03
234.074	21689.96
234.146	21656.75
234.218	21640.99
234.29	21631.49
234.362	21602.09
234.434	21577.12
234.507	21545.79
234.579	21500.1
234.651	21482.99
234.723	21467.42
234.795	21465.25
234.867	21439.85
234.939	21425.05
235.012	21404.62
235.084	21382.68
235.156	21364.95
235.228	21337.19
235.3	21309.47
235.372	21272.75
235.444	21259.2
235.516	21208.74
235.588	21195.53
235.66	21183.1
235.732	21147.82
235.804	21176.06
235.876	21171.68
235.948	21159.91
236.02	21142.81
236.092	21131.24
236.164	21110.08
236.236	21084.54
236.308	21043.91
236.38	21024.77
236.452	20984.05
236.524	20955.57
236.596	20945.44
236.668	20931.27
236.74	20908.96
236.812	20880.96
236.884	20874.21
236.956	20851.42
237.028	20817.92
237.1	20777.05
237.172	20759.46
237.244	20738.69
237.316	20663.98
237.388	20620.95
237.46	20588.95
237.532	20566.73
237.604	20525.23
237.675	20518.25
237.747	20501.28
237.819	20463.79
237.891	20428.13
237.963	20398.63
238.035	20365.91
238.107	20304.37
238.178	20287.74
238.25	20261.09
238.322	20250.25
238.394	20206.2
238.466	20161.04
238.538	20143.21
238.609	20118.78
238.681	20053.87
238.753	20016.32
238.825	19993.63
238.897	19960.71
238.968	19938.64
239.04	19902.74
239.112	19903.32
239.184	19854.35
239.255	19812.04
239.327	19790.74
239.399	19760.53
239.471	19734.02
239.542	19709.06
239.614	19691.04
239.686	19627.18
239.758	19603.47
239.829	19557.5
239.901	19540.78
239.973	19509.41
240.044	19483.87
240.116	19444.35
240.188	19433.84
240.259	19399.87
240.331	19360.93
240.403	19342.86
240.474	19293.37
240.546	19252.51
240.618	19200.36
240.689	19157.28
240.761	19132.13
240.833	19109.43
240.904	19071.94
240.976	19038.01
241.048	19014.21
241.119	18983.94
241.191	18957.87
241.262	18935.75
241.334	18906.7
241.405	18869.2
241.477	18835.95
241.549	18798.99
241.62	18785.64
241.692	18741.98
241.763	18733.26
241.835	18694.28
241.906	18657.22
241.978	18614.23
242.049	18605.9
242.121	18577.51
242.192	18563.2
242.264	18508.5
242.335	18466.1
242.407	18445.28
242.478	18414
242.55	18375.3
242.621	18330.68
242.693	18295.41
242.764	18250.93
242.836	18210.16
242.907	18173.1
242.979	18141.1
243.05	18109.34
243.122	18065.63
243.193	18036.81
243.264	17971.08
243.336	17935.95
243.407	17905.01
243.479	17884.82
243.55	17838.46
243.622	17809.88
243.693	17770.51
243.764	17761.02
243.836	17711.19
243.907	17673.74
243.978	17635.91
244.05	17598.75
244.121	17553.21
244.192	17525.31
244.264	17480.68
244.335	17446.22
244.407	17405.07
244.478	17376.87
244.549	17337.74
244.62	17293.16
244.692	17253.69
244.763	17233.69
244.834	17199.52
244.906	17165.26
244.977	17136.44
245.048	17114.51
245.119	17068.73
245.191	17024.97
245.262	16967.52
245.333	16951.03
245.405	16922.21
245.476	16893.83
245.547	16872.86
245.618	16849.25
245.689	16818.31
245.761	16793.34
245.832	16758.35
245.903	16726.4
245.974	16691.12
246.045	16651.89
246.117	16640.51
246.188	16602.92
246.259	16557.57
246.33	16524.26
246.401	16481.37
246.473	16439.82
246.544	16395.72
246.615	16373.6
246.686	16335.96
246.757	16316.34
246.828	16272.58
246.899	16253.11
246.97	16206.74
247.042	16160.13
247.113	16135.02
247.184	16124.9
247.255	16079.98
247.326	16050.34
247.397	16019.73
247.468	15990.28
247.539	15970.13
247.61	15917.26
247.681	15895.28
247.752	15878.02
247.823	15838.21
247.894	15818.06
247.965	15774.54
248.037	15753.14
248.108	15711.01
248.179	15680.07
248.25	15642.81
248.321	15624.88
248.392	15582.03
248.463	15580.39
248.534	15558.7
248.605	15535.8
248.675	15498.83
248.746	15477
248.817	15455.65
248.888	15424.07
248.959	15377.56
249.03	15346.57
249.101	15325.4
249.172	15285.4
249.243	15231.79
249.314	15221.96
249.385	15191.74
249.456	15173.08
249.527	15139.2
249.598	15116.35
249.669	15089.31
249.739	15077.79
249.81	15049.35
249.881	15001.63
249.952	14963.79
250.023	14926.91
250.094	14885.65
250.165	14839.62
250.235	14805.54
250.306	14771.89
250.377	14737.71
250.448	14715.44
250.519	14677.02
250.59	14663.77
250.66	14638.56
250.731	14630.55
250.802	14600.09
250.873	14580.76
250.944	14549.38
251.014	14504.59
251.085	14498.76
251.156	14473.21
251.227	14445.21
251.297	14429.39
251.368	14412.81
251.439	14400.76
251.51	14386.78
251.58	14344.89
251.651	14315.97
251.722	14313.89
251.792	14273.4
251.863	14251.32
251.934	14239.85
252.005	14235.27
252.075	14206.88
252.146	14188.03
252.217	14174.48
252.287	14153.95
252.358	14122.08
252.429	14121.31
252.499	14093.4
252.57	14065.25
252.641	14055.46
252.711	14036.61
252.782	13997.18
252.852	13998.44
252.923	13967.44
252.994	13943.62
253.064	13933.36
253.135	13900.87
253.205	13864.66
253.276	13863.94
253.347	13852.47
253.417	13825.33
253.488	13797.37
253.558	13765.45
253.629	13742.7
253.699	13724.72
253.77	13700.23
253.841	13674.87
253.911	13652.6
253.982	13632.02
254.052	13622.18
254.123	13599.04
254.193	13571.9
254.264	13587.72
254.334	13547.61
254.405	13509.48
254.475	13477.76
254.546	13460.79
254.616	13451.1
254.687	13431
254.757	13405.83
254.827	13380.62
254.898	13360.52
254.968	13334.78
255.039	13309.18
255.109	13290.81
255.18	13257.84
255.25	13220.33
255.321	13206.5
255.391	13167.84
255.461	13170.3
255.532	13117.41
255.602	13093.94
255.673	13046.6
255.743	13010.2
255.813	12965.76
255.884	12966.09
255.954	12950.91
256.024	12944.64
256.095	12928.83
256.165	12897.93
256.235	12890.36
256.306	12867.75
256.376	12864.24
256.446	12852.67
256.517	12834.93
256.587	12823.55
256.657	12799.88
256.728	12784.5
256.798	12760.45
256.868	12735.62
256.938	12708.97
257.009	12703.37
257.079	12689.88
257.149	12703.04
257.219	12659.41
257.29	12644.85
257.36	12600.75
257.43	12588.7
257.5	12540.1
257.571	12511.09
257.641	12494.55
257.711	12453.82
257.781	12432.08
257.852	12406.34
257.922	12363.77
257.992	12343.53
258.062	12320.63
258.132	12313.3
258.202	12289.97
258.273	12266.4
258.343	12265.53
258.413	12232.08
258.483	12201.76
258.553	12166.91
258.623	12140.25
258.693	12125.5
258.764	12122.56
258.834	12119.19
258.904	12100.15
258.974	12076
259.044	12065.3
259.114	12055.56
259.184	12038.89
259.254	12017
259.324	11974.92
259.394	11968.71
259.464	11961.91
259.535	11938.58
259.605	11909.51
259.675	11886.28
259.745	11881.03
259.815	11848.83
259.885	11820.73
259.955	11834.61
260.025	11804.1
260.095	11781.55
260.165	11770.56
260.235	11765.35
260.305	11737.88
260.375	11701.82
260.445	11707.95
260.515	11699.37
260.585	11689.05
260.655	11672.18
260.725	11667.51
260.795	11664.9
260.865	11663.65
260.934	11632.95
261.004	11621.91
261.074	11601.09
261.144	11601.91
261.214	11580.8
261.284	11563.54
261.354	11559.06
261.424	11527.2
261.494	11535.59
261.564	11510.33
261.634	11497.66
261.703	11456.5
261.773	11443.87
261.843	11435.48
261.913	11414.76
261.983	11376.4
262.053	11357.36
262.123	11338.13
262.192	11306.23
262.262	11296.63
262.332	11261.45
