Data from 20250630_urea_2M_MAYP1162681_18-02-27-180.txt Node
Date: Mon Jun 30 18:02:27 BST 2025
User: adleo
Spectrometer: MAYP116268
Trigger mode: 0
Integration Time (sec): 1.000000E0
Scans to average: 1
Electric dark correction enabled: true
Nonlinearity correction enabled: true
Boxcar width: 10
XAxis mode: Wavelengths
Number of Pixels in Spectrum: 2068
>>>>>Begin Spectral Data<<<<<
179.565	1094.24
179.642	1145.95
179.718	1184.34
179.795	1219.03
179.871	1249.62
179.948	1264.86
180.024	1284.7
180.101	1304.16
180.177	1318.32
180.254	1340.29
180.33	1361.65
180.407	1406.55
180.483	1492.87
180.56	1573.4
180.636	1650.59
180.712	1637.09
180.789	1645.22
180.865	1655.76
180.942	1661.46
181.018	1674.1
181.095	1686.98
181.171	1694.77
181.248	1694.77
181.324	1712.92
181.4	1720.57
181.477	1728.46
181.553	1742.81
181.63	1762.34
181.706	1778.55
181.782	1785.86
181.859	1784.77
181.935	1789.14
182.011	1785.91
182.088	1802.21
182.164	1821.28
182.24	1833.06
182.317	1843.75
182.393	1843.9
182.469	1854.07
182.546	1866.42
182.622	1870.8
182.698	1868.75
182.775	1877.5
182.851	1889.72
182.927	1878.54
183.003	1872.41
183.08	1869.04
183.156	1878.21
183.232	1875.65
183.308	1864
183.385	1869.51
183.461	1884.77
183.537	1884.63
183.613	1895.71
183.69	1887.58
183.766	1879.11
183.842	1885.53
183.918	1888.14
183.995	1901.55
184.071	1907.4
184.147	1902.26
184.223	1891
184.299	1902.46
184.375	1893.81
184.452	1900.09
184.528	1952.92
184.604	1964.42
184.68	1976.02
184.756	1978.92
184.832	1979.3
184.908	1983.77
184.985	1986.34
185.061	1972.55
185.137	1981.3
185.213	1971.17
185.289	1972.55
185.365	1964.71
185.441	1963
185.517	1975.98
185.593	1973.17
185.669	1970.42
185.745	1979.4
185.822	1992.66
185.898	1984.24
185.974	1990.76
186.05	1986.09
186.126	1948.81
186.202	1943.87
186.278	1938.97
186.354	1933.98
186.43	1940.92
186.506	1937.45
186.582	1933.79
186.658	1939.02
186.734	1920.95
186.81	1922.86
186.886	1927.42
186.962	1939.16
187.038	1935.64
187.114	1928.75
187.19	1934.26
187.266	1924.8
187.341	1926.56
187.417	1921.29
187.493	1918.77
187.569	1922.9
187.645	1915.63
187.721	1904.03
187.797	1911.02
187.873	1915.1
187.949	1907.78
188.025	1903.17
188.101	1908.54
188.176	1915.01
188.252	1910.02
188.328	1919.09
188.404	1918.85
188.48	1911.53
188.556	1901.36
188.632	1901.41
188.707	1903.03
188.783	1900.12
188.859	1897.99
188.935	1887.34
189.011	1893.42
189.086	1890.76
189.162	1885.39
189.238	1883.1
189.314	1880.63
189.39	1872.69
189.465	1864.99
189.541	1881.06
189.617	1866.99
189.693	1861.43
189.768	1864.38
189.844	1889.4
189.92	1880.79
189.996	1887.69
190.071	1898.67
190.147	1901.52
190.223	1910.22
190.298	1901.04
190.374	1887.31
190.45	1896.57
190.526	1904.42
190.601	1900.76
190.677	1899.71
190.753	1922.78
190.828	1926.49
190.904	1940.04
190.98	1956.11
191.055	1965.43
191.131	1955.92
191.207	1973.56
191.282	1982.78
191.358	1972.99
191.433	1959.43
191.509	1971.93
191.585	1970.55
191.66	1971.22
191.736	1976.35
191.811	1969.07
191.887	1985.43
191.963	2009.3
192.038	2015.91
192.114	2017.48
192.189	2021.1
192.265	2018.82
192.34	1998.88
192.416	1998.64
192.491	1996.6
192.567	1999.64
192.642	2003.88
192.718	2004.59
192.793	1995.56
192.869	1991.9
192.944	1995.84
193.02	2002.88
193.095	2004.69
193.171	2008.06
193.246	2007.16
193.322	2006.68
193.397	2004.69
193.473	1991.8
193.548	1975.39
193.624	1979.96
193.699	1980.34
193.775	1993.27
193.85	1992.18
193.925	2001.22
194.001	2000.69
194.076	1992.9
194.152	1980.34
194.227	1971.83
194.302	1961.08
194.378	1964.36
194.453	1963.32
194.529	1974.59
194.604	1961.18
194.679	1958.71
194.755	1942.4
194.83	1950.78
194.905	1947.4
194.981	1958.15
195.056	1952.82
195.131	1956.91
195.207	1953.77
195.282	1941.93
195.357	1923.15
195.433	1939.31
195.508	1929.8
195.583	1934.93
195.659	1948.58
195.734	1955.57
195.809	1957.19
195.884	1966.08
195.96	1967.36
196.035	1979.39
196.11	1973.68
196.185	1983.96
196.261	1983.29
196.336	2016.1
196.411	2004.26
196.486	2010.01
196.561	2000.79
196.637	2006.4
196.712	2022.19
196.787	2025.76
196.862	2041.45
196.937	2054.33
197.013	2063.04
197.088	2070.36
197.163	2091.39
197.238	2105
197.313	2108.43
197.388	2118.8
197.464	2146.16
197.539	2155.34
197.614	2150.25
197.689	2163.19
197.764	2179.51
197.839	2197.92
197.914	2189.78
197.989	2211.52
198.065	2226.13
198.14	2273.87
198.215	2299.33
198.29	2310.14
198.365	2324.7
198.44	2335.88
198.515	2360.68
198.59	2372.87
198.665	2398.86
198.74	2407.24
198.815	2411.29
198.89	2431.71
198.965	2460.66
199.04	2458.99
199.115	2470.8
199.19	2511.88
199.265	2515.64
199.34	2523.12
199.415	2559.94
199.49	2581.13
199.565	2593.22
199.64	2612.94
199.715	2612.03
199.79	2621.04
199.865	2626.13
199.94	2623.42
200.015	2653.19
200.09	2657.91
200.165	2665.34
200.24	2669.77
200.315	2706.62
200.39	2720.06
200.464	2722.34
200.539	2720.72
200.614	2734.01
200.689	2757.31
200.764	2760.02
200.839	2776.12
200.914	2781.41
200.989	2768.11
201.063	2778.16
201.138	2761.31
201.213	2763.55
201.288	2744.44
201.363	2747.73
201.438	2748.35
201.512	2762.4
201.587	2745.05
201.662	2748.67
201.737	2758.73
201.812	2769.45
201.886	2734.17
201.961	2742.08
202.036	2733.22
202.111	2732.75
202.186	2707.32
202.26	2694.36
202.335	2677.06
202.41	2670.87
202.485	2653.68
202.559	2636.15
202.634	2613.86
202.709	2620.38
202.784	2600.67
202.858	2602.38
202.933	2585.19
203.008	2581.52
203.082	2563.76
203.157	2562.71
203.232	2524.58
203.306	2504.76
203.381	2471.7
203.456	2457.04
203.53	2437.88
203.605	2420.8
203.68	2400.41
203.754	2395.28
203.829	2378.94
203.904	2359.24
203.978	2347.1
204.053	2353.76
204.127	2341.1
204.202	2339.58
204.277	2325.02
204.351	2319.5
204.426	2309.41
204.5	2302.46
204.575	2269.34
204.65	2276.53
204.724	2267.91
204.799	2271.52
204.873	2265.57
204.948	2264.57
205.022	2250.87
205.097	2238.54
205.171	2252.29
205.246	2258.34
205.32	2258.24
205.395	2258.62
205.469	2250.63
205.544	2254.44
205.618	2236.88
205.693	2250.02
205.767	2237.65
205.842	2255.21
205.916	2250.55
205.991	2241.08
206.065	2246.6
206.14	2260.15
206.214	2255.82
206.289	2253.01
206.363	2267.95
206.438	2270.14
206.512	2276.52
206.586	2297.65
206.661	2309.31
206.735	2284.67
206.81	2285.29
206.884	2298.42
206.958	2286.05
207.033	2298.51
207.107	2309.66
207.181	2339.79
207.256	2332.6
207.33	2352.07
207.405	2366.93
207.479	2385.49
207.553	2395.72
207.628	2379.83
207.702	2389.54
207.776	2385.45
207.851	2388.83
207.925	2402.97
207.999	2400.31
208.073	2399.73
208.148	2397.97
208.222	2385.78
208.296	2416.95
208.371	2432.86
208.445	2441.52
208.519	2468.23
208.593	2483.32
208.668	2480.36
208.742	2484.22
208.816	2484.32
208.89	2497.51
208.965	2496.27
209.039	2502.18
209.113	2517.46
209.187	2534.54
209.261	2531.55
209.336	2550.12
209.41	2566.6
209.484	2567.41
209.558	2591.98
209.632	2604.84
209.707	2615.32
209.781	2635.65
209.855	2652.18
209.929	2668.82
210.003	2675.92
210.077	2676.59
210.151	2719.93
210.226	2747.66
210.3	2773.89
210.374	2795.56
210.448	2797.28
210.522	2806.38
210.596	2815.63
210.67	2826.73
210.744	2873.92
210.818	2906.59
210.892	2929.19
210.966	2925.38
211.041	2940.39
211.115	2940.63
211.189	2966.94
211.263	2985.58
211.337	2994.54
211.411	3010.13
211.485	3008.65
211.559	3025.95
211.633	3033.2
211.707	3014.49
211.781	3028.57
211.855	3000.67
211.929	3005.39
212.003	2997.72
212.077	3016.99
212.151	3042.84
212.225	3062.35
212.299	3067.74
212.373	3071.74
212.447	3085.1
212.52	3130.99
212.594	3149.84
212.668	3179.55
212.742	3188.52
212.816	3208.42
212.89	3231.98
212.964	3261.05
213.038	3294.9
213.112	3335.57
213.186	3386.34
213.26	3400.84
213.333	3401.94
213.407	3446.55
213.481	3492.12
213.555	3554.24
213.629	3592.74
213.703	3630.43
213.777	3688.11
213.85	3728.82
213.924	3824.08
213.998	3886.22
214.072	3949.69
214.146	4016.47
214.219	4091.78
214.293	4169.81
214.367	4258.88
214.441	4355.75
214.515	4430.88
214.588	4500.93
214.662	4570.8
214.736	4650.11
214.81	4761.15
214.883	4877.02
214.957	4982.68
215.031	5088.59
215.105	5184.75
215.178	5293.18
215.252	5410.99
215.326	5517.66
215.4	5630.45
215.473	5718.15
215.547	5834.33
215.621	5955.99
215.694	6103.01
215.768	6226.51
215.842	6356.58
215.915	6484.99
215.989	6606.21
216.063	6752.38
216.136	6907.1
216.21	7062.89
216.284	7236.23
216.357	7399.88
216.431	7551.97
216.504	7727.61
216.578	7912.52
216.652	8088.5
216.725	8261.2
216.799	8440.82
216.873	8612.8
216.946	8792.95
217.02	8960.61
217.093	9139.53
217.167	9292.58
217.24	9450.14
217.314	9615.28
217.387	9781.45
217.461	9950.01
217.535	10139.2
217.608	10304.72
217.682	10481.66
217.755	10665.85
217.829	10832.52
217.902	11006.08
217.976	11186.72
218.049	11343.2
218.123	11503.25
218.196	11679.54
218.27	11840.76
218.343	11987.33
218.417	12154.34
218.49	12315.04
218.563	12495.16
218.637	12666.76
218.71	12854.46
218.784	13023.7
218.857	13195.36
218.931	13360.55
219.004	13532.59
219.077	13705.41
219.151	13878.17
219.224	14037.44
219.298	14193.82
219.371	14365.42
219.444	14501.46
219.518	14651.37
219.591	14805.91
219.665	14975.2
219.738	15137.11
219.811	15280.23
219.885	15443.63
219.958	15601.44
220.031	15750.38
220.105	15890.93
220.178	16028.3
220.251	16157.86
220.325	16302.69
220.398	16447.96
220.471	16594.14
220.544	16730.68
220.618	16840.04
220.691	16959.81
220.764	17085.4
220.838	17213.12
220.911	17312.93
220.984	17458.71
221.057	17578.18
221.131	17697.85
221.204	17789.32
221.277	17903.15
221.35	18049.41
221.424	18158.99
221.497	18263.86
221.57	18372.53
221.643	18497.97
221.716	18609.19
221.79	18704.95
221.863	18797.13
221.936	18885.71
222.009	18983.1
222.082	19082.57
222.155	19174.08
222.229	19284.58
222.302	19381.92
222.375	19458.59
222.448	19555.75
222.521	19634.49
222.594	19727.98
222.667	19797.03
222.74	19886.86
222.814	19964.84
222.887	20022.52
222.96	20086.81
223.033	20169.02
223.106	20234.28
223.179	20289.5
223.252	20343.82
223.325	20419.67
223.398	20480.49
223.471	20547.38
223.544	20598.32
223.617	20649.99
223.69	20711.58
223.763	20753.94
223.837	20807.15
223.91	20873.8
223.983	20913.42
224.056	20954.19
224.129	20997.86
224.202	21063.02
224.275	21096.17
224.348	21130.2
224.42	21164.47
224.493	21203.32
224.566	21233.73
224.639	21274.36
224.712	21305.59
224.785	21346.03
224.858	21372.68
224.931	21402.08
225.004	21431.58
225.077	21472.02
225.15	21478.09
225.223	21510.82
225.296	21555.31
225.369	21561.05
225.442	21576.42
225.514	21606.93
225.587	21644.82
225.66	21672.01
225.733	21690.32
225.806	21724.69
225.879	21736.26
225.952	21745.08
226.025	21778.14
226.097	21812.61
226.17	21838.79
226.243	21839.46
226.316	21854.89
226.389	21873.15
226.461	21916.3
226.534	21933.94
226.607	21941.99
226.68	21975.92
226.753	21986.67
226.825	21977.18
226.898	22001.66
226.971	22026.73
227.044	22036.9
227.117	22043.36
227.189	22061.05
227.262	22084.48
227.335	22096.58
227.407	22112.92
227.48	22139.39
227.553	22149.17
227.626	22142.13
227.698	22145.99
227.771	22174.04
227.844	22171.54
227.916	22180.94
227.989	22146.52
228.062	22150.57
228.134	22182.91
228.207	22191.98
228.28	22196.56
228.352	22199.5
228.425	22206.97
228.498	22208.37
228.57	22206.05
228.643	22226.59
228.716	22224.03
228.788	22214.25
228.861	22208.61
228.934	22223.31
229.006	22219.65
229.079	22212.8
229.151	22205.09
229.224	22192.94
229.296	22187.54
229.369	22217.87
229.442	22237.25
229.514	22234.35
229.587	22243.95
229.659	22209.91
229.732	22210.49
229.804	22218.97
229.877	22250.74
229.949	22259.86
230.022	22276.15
230.094	22270.85
230.167	22257.69
230.239	22245.01
230.312	22247.23
230.384	22271.72
230.457	22270.85
230.529	22268.82
230.602	22268.97
230.674	22274.37
230.747	22280.78
230.819	22292.3
230.892	22257.11
230.964	22250.7
231.037	22251.85
231.109	22246.07
231.181	22254.51
231.254	22242.74
231.326	22227.12
231.399	22199.36
231.471	22175.25
231.544	22141.89
231.616	22149.75
231.688	22144.88
231.761	22127.48
231.833	22110.9
231.905	22074.31
231.978	22053.68
232.05	22042.59
232.122	22031.5
232.195	22010.68
232.267	22006.63
232.339	21981.22
232.412	21985.75
232.484	21961.55
232.556	21947.91
232.629	21949.99
232.701	21945.84
232.773	21923.96
232.846	21903.23
232.918	21882.89
232.99	21885.64
233.062	21880.19
233.135	21871.61
233.207	21838.11
233.279	21831.6
233.351	21823.02
233.424	21797.09
233.496	21774.72
233.568	21776.65
233.64	21750.33
233.713	21740.36
233.785	21724.59
233.857	21713.02
233.929	21672.63
234.001	21667.19
234.074	21665.55
234.146	21616.62
234.218	21598.79
234.29	21587.27
234.362	21566.74
234.434	21536.9
234.507	21502.82
234.579	21462.33
234.651	21430.86
234.723	21429.51
234.795	21417.36
234.867	21394.76
234.939	21391.92
235.012	21380.25
235.084	21364.73
235.156	21352.54
235.228	21322.22
235.3	21299.81
235.372	21280.33
235.444	21279.9
235.516	21238.21
235.588	21218.74
235.66	21206.69
235.732	21172.95
235.804	21194.4
235.876	21187.27
235.948	21175.6
236.02	21148.81
236.092	21127.94
236.164	21101.86
236.236	21068.7
236.308	21029.57
236.38	21001.81
236.452	20965.57
236.524	20939.54
236.596	20921.9
236.668	20904.6
236.74	20879.73
236.812	20849.56
236.884	20819.24
236.956	20789.6
237.028	20756.25
237.1	20712.21
237.172	20693.6
237.244	20683.72
237.316	20623.19
237.388	20575.57
237.46	20547.47
237.532	20533.55
237.604	20494.7
237.675	20487.23
237.747	20456.25
237.819	20431.04
237.891	20410.22
237.963	20366.13
238.035	20321.98
238.107	20254.51
238.178	20234.13
238.25	20191.67
238.322	20178.61
238.394	20139.09
238.466	20099.53
238.538	20082.28
238.609	20067.05
238.681	20022.28
238.753	19978.04
238.825	19944.35
238.897	19927.39
238.968	19914.23
239.04	19875.49
239.112	19873.7
239.184	19818.19
239.255	19786.57
239.327	19752.98
239.399	19711.49
239.471	19698.24
239.542	19684.46
239.614	19655.54
239.686	19592.56
239.758	19581.91
239.829	19545.14
239.901	19521.96
239.973	19494.68
240.044	19466.3
240.116	19431.94
240.188	19392.91
240.259	19360.48
240.331	19319.47
240.403	19290.17
240.474	19231.76
240.546	19193.11
240.618	19138.08
240.689	19100.15
240.761	19062.9
240.833	19048.49
240.904	19017.46
240.976	18978.76
241.048	18939.92
241.119	18925.42
241.191	18902.05
241.262	18879.88
241.334	18832.75
241.405	18796.08
241.477	18750.49
241.549	18700.71
241.62	18669.53
241.692	18643.46
241.763	18620.86
241.835	18586.26
241.906	18544.24
241.978	18506.94
242.049	18478.41
242.121	18459.57
242.192	18442.41
242.264	18405.93
242.335	18356.73
242.407	18328.3
242.478	18284.01
242.55	18253.7
242.621	18208.45
242.693	18169.65
242.764	18127.2
242.836	18091.44
242.907	18057.32
242.979	18033.85
243.05	18016.41
243.122	17987.68
243.193	17958.24
243.264	17896.51
243.336	17865.18
243.407	17844.75
243.479	17834.39
243.55	17808.51
243.622	17773.28
243.693	17734.05
243.764	17708.66
243.836	17662.97
243.907	17623.89
243.978	17595.74
244.05	17565.19
244.121	17515.31
244.192	17490.49
244.264	17441.62
244.335	17413.96
244.407	17370.25
244.478	17341.57
244.549	17297.23
244.62	17247.74
244.692	17215.64
244.763	17194.1
244.834	17153.33
244.906	17105.04
244.977	17069.42
245.048	17048.56
245.119	17007.35
245.191	16967.69
245.262	16905.8
245.333	16892.16
245.405	16852.93
245.476	16824.59
245.547	16783.63
245.618	16762.18
245.689	16723.58
245.761	16695.38
245.832	16656.73
245.903	16630.75
245.974	16593.79
246.045	16557.16
246.117	16546.6
246.188	16494.69
246.259	16447.65
246.33	16410.06
246.401	16379.41
246.473	16335.11
246.544	16289.42
246.615	16267.73
246.686	16231.1
246.757	16222.04
246.828	16172.88
246.899	16155.82
246.97	16115.09
247.042	16084.73
247.113	16062.36
247.184	16057.59
247.255	16029.54
247.326	15998.98
247.397	15964.57
247.468	15939.5
247.539	15907.98
247.61	15852.79
247.681	15825.61
247.752	15818.23
247.823	15788.25
247.894	15758.32
247.965	15713.78
248.037	15674.89
248.108	15627.46
248.179	15599.5
248.25	15568.22
248.321	15542.57
248.392	15510.09
248.463	15501.02
248.534	15463.14
248.605	15437.06
248.675	15400.72
248.746	15371.08
248.817	15349.82
248.888	15325.14
248.959	15277.61
249.03	15256.55
249.101	15233.41
249.172	15212.2
249.243	15155.85
249.314	15144.48
249.385	15115.02
249.456	15094.35
249.527	15072.03
249.598	15055.25
249.669	15028.93
249.739	15001.46
249.81	14984.39
249.881	14937.88
249.952	14909.29
250.023	14882.73
250.094	14834.67
250.165	14791
250.235	14749.79
250.306	14722.36
250.377	14691.27
250.448	14668.9
250.519	14629.61
250.59	14614.96
250.66	14579
250.731	14574.13
250.802	14537.25
250.873	14513.92
250.944	14487.31
251.014	14454
251.085	14445.33
251.156	14419.92
251.227	14403.87
251.297	14388.01
251.368	14376.06
251.439	14355.23
251.51	14341.69
251.58	14314.35
251.651	14290.88
251.722	14293.24
251.792	14250.82
251.863	14220.01
251.934	14207.58
252.005	14202.66
252.075	14181.59
252.146	14165.06
252.217	14145.97
252.287	14133.97
252.358	14103.98
252.429	14096.7
252.499	14063.3
252.57	14045.51
252.641	14025.45
252.711	14004.58
252.782	13965.58
252.852	13958.45
252.923	13929.96
252.994	13908.22
253.064	13895.06
253.135	13855.05
253.205	13814.94
253.276	13810.98
253.347	13801.34
253.417	13771.99
253.488	13744.7
253.558	13708.79
253.629	13691.05
253.699	13670.75
253.77	13658.22
253.841	13635.66
253.911	13616.71
253.982	13597.29
254.052	13569.08
254.123	13552.45
254.193	13533.99
254.264	13550.81
254.334	13512.1
254.405	13471.27
254.475	13431.12
254.546	13407.16
254.616	13403.64
254.687	13385.61
254.757	13370.62
254.827	13349.6
254.898	13327.18
254.968	13295.95
255.039	13266.64
255.109	13250.29
255.18	13216.36
255.25	13164.44
255.321	13149.16
255.391	13113.24
255.461	13113
255.532	13068.22
255.602	13037.37
255.673	12993.6
255.743	12956.53
255.813	12919.21
255.884	12918.88
255.954	12914.63
256.024	12912.37
256.095	12889.66
256.165	12856.02
256.235	12832.59
256.306	12800.77
256.376	12785.4
256.446	12783.08
256.517	12763.37
256.587	12751.27
256.657	12737.67
256.728	12721.23
256.798	12698
256.868	12679.39
256.938	12650.56
257.009	12642.23
257.079	12635.96
257.149	12640.15
257.219	12596.53
257.29	12580.38
257.36	12540.18
257.43	12528.27
257.5	12481.56
257.571	12463.05
257.641	12450.13
257.711	12415.81
257.781	12405.98
257.852	12398.65
257.922	12354.78
257.992	12338.35
258.062	12316.41
258.132	12294.82
258.202	12277.18
258.273	12265.37
258.343	12261.51
258.413	12234.13
258.483	12210.46
258.553	12177.54
258.623	12147.7
258.693	12133.14
258.764	12126.11
258.834	12121.96
258.904	12092.9
258.974	12065.18
259.044	12041.32
259.114	12030.14
259.184	12015.48
259.254	11990.23
259.324	11946.36
259.394	11929.4
259.464	11925.78
259.535	11902.94
259.605	11886.31
259.675	11861.15
259.745	11844.42
259.815	11810.39
259.885	11784.65
259.955	11792.85
260.025	11762.1
260.095	11741.85
260.165	11731.39
260.235	11735.49
260.305	11703.1
260.375	11677.12
260.445	11689.32
260.515	11683.39
260.585	11675.39
260.655	11656.64
260.725	11647.96
260.795	11635.91
260.865	11643.72
260.934	11613.16
261.004	11596.63
261.074	11575.81
261.144	11571.47
261.214	11560.77
261.284	11541.73
261.354	11536.1
261.424	11509.83
261.494	11517.39
261.564	11494.11
261.634	11483.51
261.703	11440.18
261.773	11437.77
261.843	11426.54
261.913	11400.08
261.983	11360.28
262.053	11340.66
262.123	11317.38
262.192	11290.63
262.262	11285.96
