Data from 20250630_urea_2M_MAYP1162681_03-22-27-470.txt Node
Date: Tue Jul 01 03:22:27 BST 2025
User: adleo
Spectrometer: MAYP116268
Trigger mode: 0
Integration Time (sec): 1.000000E0
Scans to average: 1
Electric dark correction enabled: true
Nonlinearity correction enabled: true
Boxcar width: 10
XAxis mode: Wavelengths
Number of Pixels in Spectrum: 2068
>>>>>Begin Spectral Data<<<<<
179.565	1064.96
179.642	1114.37
179.718	1152.49
179.795	1184.73
179.871	1214.34
179.948	1230.34
180.024	1245.46
180.101	1267.03
180.177	1280.57
180.254	1299.18
180.33	1319.58
180.407	1363.91
180.483	1448.05
180.56	1528.2
180.636	1603.11
180.712	1593.18
180.789	1604.39
180.865	1612.51
180.942	1621.25
181.018	1630.99
181.095	1643.01
181.171	1646.57
181.248	1646.24
181.324	1658.64
181.4	1663.15
181.477	1674.13
181.553	1682.16
181.63	1703.11
181.706	1716.08
181.782	1721.73
181.859	1723.35
181.935	1725.82
182.011	1719.45
182.088	1734.57
182.164	1751.3
182.24	1763.98
182.317	1771.35
182.393	1770.11
182.469	1784.27
182.546	1794.78
182.622	1798.53
182.698	1795.11
182.775	1808.23
182.851	1821.2
182.927	1815.26
183.003	1814.26
183.08	1808.04
183.156	1817.97
183.232	1814.69
183.308	1806.61
183.385	1816.44
183.461	1831.84
183.537	1834.88
183.613	1847.43
183.69	1839.3
183.766	1828.42
183.842	1831.93
183.918	1839.73
183.995	1851.23
184.071	1852.9
184.147	1850.61
184.223	1841.54
184.299	1851.47
184.375	1838.4
184.452	1844.59
184.528	1897.51
184.604	1906.77
184.68	1916.61
184.756	1925.69
184.832	1930.16
184.908	1932.21
184.985	1929.88
185.061	1911.44
185.137	1920.61
185.213	1909.97
185.289	1910.16
185.365	1905.17
185.441	1905.02
185.517	1913.39
185.593	1909.78
185.669	1909.49
185.745	1920.1
185.822	1934.35
185.898	1929.12
185.974	1939.91
186.05	1933.21
186.126	1894.36
186.202	1889.98
186.278	1887.51
186.354	1877.05
186.43	1882.28
186.506	1880.52
186.582	1880.57
186.658	1890.98
186.734	1870.16
186.81	1873.25
186.886	1877.72
186.962	1887.84
187.038	1885.84
187.114	1879.76
187.19	1885.22
187.266	1874.86
187.341	1874.82
187.417	1869.4
187.493	1866.74
187.569	1867.21
187.645	1860.94
187.721	1850.14
187.797	1855.14
187.873	1860.13
187.949	1856.18
188.025	1850.62
188.101	1855.75
188.176	1857.8
188.252	1854.37
188.328	1863.07
188.404	1861.36
188.48	1856.46
188.556	1851
188.632	1849.28
188.707	1849.28
188.783	1847.95
188.859	1844.34
188.935	1831.74
189.011	1836.83
189.086	1833.5
189.162	1825.95
189.238	1825.23
189.314	1823.43
189.39	1819.05
189.465	1809.17
189.541	1826
189.617	1814.02
189.693	1808.65
189.768	1813.4
189.844	1837.37
189.92	1829.44
189.996	1838.47
190.071	1848.12
190.147	1848.64
190.223	1858.81
190.298	1851.92
190.374	1839.61
190.45	1849.16
190.526	1856.67
190.601	1851.54
190.677	1852.39
190.753	1876.69
190.828	1879.26
190.904	1894.71
190.98	1911.69
191.055	1924.95
191.131	1914.01
191.207	1931.46
191.282	1939.54
191.358	1929.37
191.433	1912.96
191.509	1926.69
191.585	1925.6
191.66	1926.41
191.736	1933.44
191.811	1923.79
191.887	1939.24
191.963	1963.4
192.038	1970.91
192.114	1972.29
192.189	1976.04
192.265	1973.86
192.34	1953.07
192.416	1953.79
192.491	1948.65
192.567	1949.7
192.642	1947.65
192.718	1948.08
192.793	1937.57
192.869	1931.82
192.944	1936.81
193.02	1943.13
193.095	1945.23
193.171	1949.27
193.246	1950.88
193.322	1945.89
193.397	1946.18
193.473	1934.34
193.548	1914.89
193.624	1918.26
193.699	1916.84
193.775	1932.48
193.85	1934.34
193.925	1944.51
194.001	1944.37
194.076	1938.05
194.152	1926.39
194.227	1920.36
194.302	1911.9
194.378	1914.7
194.453	1913.18
194.529	1925.02
194.604	1912.37
194.679	1905.15
194.755	1887.09
194.83	1895.27
194.905	1895.13
194.981	1904.25
195.056	1898.31
195.131	1904.21
195.207	1904.54
195.282	1894.42
195.357	1875.06
195.433	1887.47
195.508	1876.53
195.583	1880.34
195.659	1891.46
195.734	1899.26
195.809	1900.45
195.884	1907.96
195.96	1909.67
196.035	1924.55
196.11	1918.61
196.185	1930.16
196.261	1935.58
196.336	1967.05
196.411	1955.02
196.486	1961.96
196.561	1954.26
196.637	1959.01
196.712	1973.76
196.787	1974.76
196.862	1989.83
196.937	2002.14
197.013	2007.23
197.088	2018.64
197.163	2038.67
197.238	2052.32
197.313	2050.04
197.388	2059.03
197.464	2087.57
197.539	2097.89
197.614	2090.81
197.689	2102.51
197.764	2116.97
197.839	2137.8
197.914	2130.57
197.989	2151.36
198.065	2158.88
198.14	2208.14
198.215	2233.79
198.29	2244.26
198.365	2256.53
198.44	2267.38
198.515	2291.56
198.59	2305.79
198.665	2324.73
198.74	2332.77
198.815	2337.25
198.89	2356.47
198.965	2386.22
199.04	2383.18
199.115	2394.74
199.19	2434.34
199.265	2437.48
199.34	2449.24
199.415	2476.54
199.49	2496.67
199.565	2503.34
199.64	2527
199.715	2522.47
199.79	2530.52
199.865	2535.99
199.94	2534.47
200.015	2562
200.09	2565.47
200.165	2573.57
200.24	2584.76
200.315	2621.46
200.39	2636.23
200.464	2645.57
200.539	2647.42
200.614	2661.52
200.689	2684.72
200.764	2691.29
200.839	2709.58
200.914	2711.86
200.989	2703.38
201.063	2715.1
201.138	2700.82
201.213	2700.58
201.288	2683.58
201.363	2687.67
201.438	2689.44
201.512	2704.1
201.587	2690.86
201.662	2694.33
201.737	2699.57
201.812	2705.82
201.886	2674.35
201.961	2679.31
202.036	2667.97
202.111	2662.11
202.186	2635.98
202.26	2621.3
202.335	2602.11
202.41	2595.29
202.485	2578.63
202.559	2561.25
202.634	2538.15
202.709	2548.62
202.784	2531.1
202.858	2532.29
202.933	2515.1
203.008	2509.38
203.082	2493.81
203.157	2488.24
203.232	2450.22
203.306	2433.69
203.381	2402.88
203.456	2383.17
203.53	2362.07
203.605	2343.32
203.68	2326.23
203.754	2318.62
203.829	2304.15
203.904	2283.21
203.978	2274.36
204.053	2280.16
204.127	2267.65
204.202	2263.79
204.277	2247.14
204.351	2242.48
204.426	2234.34
204.5	2226.82
204.575	2194.8
204.65	2202.75
204.724	2197.99
204.799	2206.45
204.873	2203.74
204.948	2203.98
205.022	2193.51
205.097	2185.9
205.171	2198.98
205.246	2204.5
205.32	2205.74
205.395	2203.64
205.469	2197.18
205.544	2201.08
205.618	2183.57
205.693	2192.9
205.767	2181.81
205.842	2201.28
205.916	2195.62
205.991	2186.01
206.065	2189.95
206.14	2201.13
206.214	2194.13
206.289	2186.61
206.363	2199.55
206.438	2203.03
206.512	2210.88
206.586	2226.91
206.661	2235.29
206.735	2216.07
206.81	2214.6
206.884	2228.25
206.958	2217.31
207.033	2233.96
207.107	2238.57
207.181	2266.8
207.256	2264.99
207.33	2281.36
207.405	2294.69
207.479	2311.59
207.553	2319.1
207.628	2304.22
207.702	2317.82
207.776	2315.3
207.851	2320.16
207.925	2330.87
207.999	2327.16
208.073	2327.11
208.148	2330.2
208.222	2320.06
208.296	2346.66
208.371	2366.95
208.445	2378.56
208.519	2404.93
208.593	2415.68
208.668	2414.54
208.742	2415.97
208.816	2418.21
208.89	2433.4
208.965	2428.06
209.039	2434.82
209.113	2452.82
209.187	2475.04
209.261	2470.99
209.336	2488.84
209.41	2506.03
209.484	2506.08
209.558	2528.56
209.632	2540.08
209.707	2549.51
209.781	2569.79
209.855	2586.46
209.929	2596.95
210.003	2600.48
210.077	2601.95
210.151	2645.29
210.226	2675.45
210.3	2701.62
210.374	2720.24
210.448	2722.53
210.522	2733.11
210.596	2743.02
210.67	2748.78
210.744	2793.39
210.818	2824.92
210.892	2843.03
210.966	2839.22
211.041	2857.66
211.115	2852.85
211.189	2873.39
211.263	2893.02
211.337	2900.12
211.411	2914.95
211.485	2912.28
211.559	2925.14
211.633	2930.29
211.707	2904.2
211.781	2910.3
211.855	2882.18
211.929	2880.51
212.003	2870.22
212.077	2886.34
212.151	2905.6
212.225	2923.81
212.299	2917.28
212.373	2911.65
212.447	2918.57
212.52	2953.8
212.594	2967.44
212.668	2990.04
212.742	2990.66
212.816	2997.33
212.89	3010.01
212.964	3022.61
213.038	3042.79
213.112	3073.41
213.186	3107.6
213.26	3111.51
213.333	3097.39
213.407	3128.05
213.481	3155.32
213.555	3195.98
213.629	3212.16
213.703	3224.9
213.777	3253.39
213.85	3272
213.924	3340.94
213.998	3378.56
214.072	3413.38
214.146	3440.78
214.219	3480.36
214.293	3519.65
214.367	3571.8
214.441	3629.25
214.515	3674.02
214.588	3705.59
214.662	3728.9
214.736	3764.92
214.81	3830.38
214.883	3901.4
214.957	3953.61
215.031	4009.99
215.105	4058.91
215.178	4112.69
215.252	4176.18
215.326	4224.52
215.4	4280.27
215.473	4312.42
215.547	4368.21
215.621	4434.37
215.694	4517.65
215.768	4580.39
215.842	4650.35
215.915	4720.36
215.989	4782.95
216.063	4857.43
216.136	4949.29
216.21	5041.38
216.284	5145.54
216.357	5236.72
216.431	5323.12
216.504	5424.77
216.578	5541.76
216.652	5646.87
216.725	5748.15
216.799	5857.52
216.873	5962.94
216.946	6073.89
217.02	6169.63
217.093	6271.6
217.167	6352.86
217.24	6442.45
217.314	6549.99
217.387	6661.27
217.461	6758.33
217.535	6876.01
217.608	6977.94
217.682	7084.61
217.755	7206.09
217.829	7300.49
217.902	7413.44
217.976	7527.51
218.049	7625.43
218.123	7726.05
218.196	7837.41
218.27	7944.66
218.343	8046.4
218.417	8160.65
218.49	8269.32
218.563	8397.63
218.637	8516.53
218.71	8646.5
218.784	8770.48
218.857	8879.25
218.931	8987.69
219.004	9106.68
219.077	9227.78
219.151	9341.21
219.224	9454.56
219.298	9559.01
219.371	9679.6
219.444	9777.84
219.518	9888.86
219.591	10009.94
219.665	10142
219.738	10262.52
219.811	10361.9
219.885	10472.66
219.958	10585.16
220.031	10689.57
220.105	10800.68
220.178	10905.34
220.251	11011.21
220.325	11115.69
220.398	11226.04
220.471	11330.9
220.544	11443.67
220.618	11536.07
220.691	11647.01
220.764	11748.9
220.838	11853.78
220.911	11950.66
220.984	12067.5
221.057	12169.49
221.131	12265.51
221.204	12324.12
221.277	12424.67
221.35	12550.68
221.424	12639.37
221.497	12731.83
221.57	12828.62
221.643	12927.1
221.716	13024.09
221.79	13101.22
221.863	13184.81
221.936	13269.32
222.009	13360.91
222.082	13442.52
222.155	13519.31
222.229	13613.6
222.302	13696.18
222.375	13775.09
222.448	13856.85
222.521	13933.6
222.594	14011.16
222.667	14082.7
222.74	14180.75
222.814	14252.28
222.887	14318.37
222.96	14407.55
223.033	14490.66
223.106	14569.71
223.179	14640.91
223.252	14710.57
223.325	14790.01
223.398	14870.12
223.471	14949.85
223.544	15017.82
223.617	15091.52
223.69	15168.84
223.763	15221.04
223.837	15287.7
223.91	15355.96
223.983	15410.24
224.056	15470.97
224.129	15531.22
224.202	15598.8
224.275	15645.31
224.348	15692.84
224.42	15737.76
224.493	15777.29
224.566	15829.73
224.639	15885.83
224.712	15930.32
224.785	15989.17
224.858	16042.96
224.931	16082.58
225.004	16124.46
225.077	16177.77
225.15	16201.58
225.223	16245.73
225.296	16314.99
225.369	16351.52
225.442	16391.77
225.514	16448.93
225.587	16500.84
225.66	16557.52
225.733	16614.24
225.806	16671.02
225.879	16727.65
225.952	16772.95
226.025	16833.53
226.097	16887.85
226.17	16932.38
226.243	16972.82
226.316	17010.5
226.389	17060.43
226.461	17114.46
226.534	17164.77
226.607	17202.94
226.68	17268.92
226.753	17317.6
226.825	17345.36
226.898	17408.1
226.971	17461.79
227.044	17506.75
227.117	17541.02
227.189	17590.8
227.262	17642.61
227.335	17685.21
227.407	17723.38
227.48	17777.01
227.553	17823.47
227.626	17862.6
227.698	17907.18
227.771	17944.58
227.844	17972.09
227.916	18011.42
227.989	18046.84
228.062	18089.49
228.134	18158.79
228.207	18190.59
228.28	18222.06
228.352	18261.34
228.425	18299.55
228.498	18340.08
228.57	18364.17
228.643	18413.09
228.716	18438.77
228.788	18458.96
228.861	18492.65
228.934	18531.3
229.006	18552.98
229.079	18575.58
229.151	18597.99
229.224	18610.57
229.296	18648.98
229.369	18703.14
229.442	18747.33
229.514	18762.51
229.587	18795.62
229.659	18795.38
229.732	18828.24
229.804	18863.08
229.877	18900.72
229.949	18934.16
230.022	18978.5
230.094	19013.63
230.167	19048.04
230.239	19070.2
230.312	19099.02
230.384	19136.95
230.457	19163.16
230.529	19197.62
230.602	19227.54
230.674	19256.75
230.747	19297.18
230.819	19329.9
230.892	19330.77
230.964	19349.66
231.037	19379.34
231.109	19396.35
231.181	19434.76
231.254	19463
231.326	19485.74
231.399	19507
231.471	19518.47
231.544	19513.84
231.616	19537.26
231.688	19555.09
231.761	19570.75
231.833	19579.52
231.905	19576.87
231.978	19590.61
232.05	19597.11
232.122	19616.77
232.195	19629.83
232.267	19655.9
232.339	19668.72
232.412	19709.3
232.484	19715.8
232.556	19731.37
232.629	19770.41
232.701	19790.31
232.773	19793.05
232.846	19807.17
232.918	19818.79
232.99	19828.33
233.062	19842.64
233.135	19852.86
233.207	19843.61
233.279	19859.85
233.351	19876.95
233.424	19888.66
233.496	19887.36
233.568	19921.24
233.64	19915.46
233.713	19916.47
233.785	19916.81
233.857	19925.77
233.929	19902.35
234.001	19922.11
234.074	19938.11
234.146	19919.07
234.218	19921.68
234.29	19921.24
234.362	19911.89
234.434	19901.77
234.507	19900.62
234.579	19892.62
234.651	19890.74
234.723	19907.46
234.795	19906.01
234.867	19894.06
234.939	19906.69
235.012	19909.72
235.084	19906.16
235.156	19902.5
235.228	19892.18
235.3	19878.5
235.372	19869.58
235.444	19883.46
235.516	19852.23
235.588	19845.24
235.66	19838.16
235.732	19810.5
235.804	19853.58
235.876	19855.03
235.948	19858.02
236.02	19841.34
236.092	19836.33
236.164	19826.74
236.236	19796.28
236.308	19771.51
236.38	19763.42
236.452	19735.52
236.524	19727.81
236.596	19726.07
236.668	19720.96
236.74	19707.57
236.812	19701.83
236.884	19699.57
236.956	19684.39
237.028	19665.98
237.1	19640.15
237.172	19642.56
237.244	19643.09
237.316	19578.37
237.388	19552.3
237.46	19518.32
237.532	19515.91
237.604	19477.89
237.675	19472.69
237.747	19476.78
237.819	19466.85
237.891	19456.88
237.963	19441.22
238.035	19416.83
238.107	19365.61
238.178	19370.47
238.25	19355.1
238.322	19361.17
238.394	19315.06
238.466	19284.89
238.538	19281.81
238.609	19260.26
238.681	19213.81
238.753	19186.39
238.825	19178.49
238.897	19157.67
238.968	19161.38
239.04	19139.89
239.112	19146.92
239.184	19115.26
239.255	19081.91
239.327	19051.7
239.399	19030.69
239.471	19009.68
239.542	18989.05
239.614	18976.72
239.686	18916
239.758	18898.36
239.829	18865.06
239.901	18860.96
239.973	18845.4
240.044	18813.64
240.116	18805.64
240.188	18784.01
240.259	18760.01
240.331	18735.72
240.403	18724.68
240.474	18683.92
240.546	18646.38
240.618	18610.47
240.689	18578.67
240.761	18551.63
240.833	18546.57
240.904	18511.49
240.976	18483.35
241.048	18463.01
241.119	18442.19
241.191	18430.72
241.262	18419.21
241.334	18379.93
241.405	18345.14
241.477	18307.45
241.549	18280.71
241.62	18244.23
241.692	18222.35
241.763	18204.23
241.835	18171.22
241.906	18142.69
241.978	18094.89
242.049	18072.72
242.121	18046.31
242.192	18034.12
242.264	17992.43
242.335	17942.41
242.407	17926.99
242.478	17901.64
242.55	17876.1
242.621	17839.23
242.693	17802.56
242.764	17767.57
242.836	17731.72
242.907	17710.27
242.979	17689.26
243.05	17661.79
243.122	17636.49
243.193	17605.98
243.264	17553.26
243.336	17518.66
243.407	17482.75
243.479	17472.35
243.55	17445.55
243.622	17418.9
243.693	17388.59
243.764	17383.14
243.836	17353.84
243.907	17313.26
243.978	17275.04
244.05	17245.98
244.121	17198.99
244.192	17180.58
244.264	17134.85
244.335	17103.96
244.407	17056.24
244.478	17027.66
244.549	16995.08
244.62	16942.31
244.692	16909.68
244.763	16894.98
244.834	16866.31
244.906	16831.9
244.977	16812.96
245.048	16796.86
245.119	16758.01
245.191	16707.6
245.262	16653.28
245.333	16639.45
245.405	16610.82
245.476	16588.32
245.547	16563.16
245.618	16542.87
245.689	16513.52
245.761	16482
245.832	16448.98
245.903	16427.44
245.974	16405.02
246.045	16378.71
246.117	16373.65
246.188	16329.31
246.259	16282.99
246.33	16245.49
246.401	16214.55
246.473	16160.57
246.544	16116.18
246.615	16090.34
246.686	16061.95
246.757	16046.58
246.828	15999.78
246.899	15982.91
246.97	15938.03
247.042	15889.45
247.113	15864.43
247.184	15841.83
247.255	15808.81
247.326	15775.99
247.397	15744.56
247.468	15705.13
247.539	15667.92
247.61	15621.55
247.681	15603.53
247.752	15585.5
247.823	15548.62
247.894	15521.25
247.965	15484.9
248.037	15451.4
248.108	15411.54
248.179	15379.73
248.25	15352.78
248.321	15324.54
248.392	15287.42
248.463	15273.54
248.534	15245.92
248.605	15230.69
248.675	15204.13
248.746	15184.03
248.817	15168.7
248.888	15139.63
248.959	15096.4
249.03	15078.46
249.101	15046.84
249.172	15012.52
249.243	14958.92
249.314	14948.84
249.385	14918.09
249.456	14906.28
249.527	14875.29
249.598	14848
249.669	14820.28
249.739	14784.37
249.81	14766.25
249.881	14720.89
249.952	14691.1
250.023	14658.85
250.094	14612.52
250.165	14568.13
250.235	14536.94
250.306	14504.26
250.377	14464.58
250.448	14445.98
250.519	14396.52
250.59	14386.35
250.66	14354.34
250.731	14345.37
250.802	14313.12
250.873	14295.38
250.944	14264.58
251.014	14239.51
251.085	14242.89
251.156	14215.03
251.227	14199.31
251.297	14186.05
251.368	14179.45
251.439	14167.83
251.51	14156.41
251.58	14119.91
251.651	14095.57
251.722	14082.41
251.792	14034.83
251.863	14016.46
251.934	14005.33
252.005	14001.71
252.075	13975.59
252.146	13959.58
252.217	13949.75
252.287	13932.97
252.358	13907.86
252.429	13899.56
252.499	13868.28
252.57	13841.23
252.641	13825.42
252.711	13802.14
252.782	13762.03
252.852	13744.48
252.923	13713.78
252.994	13691.6
253.064	13677.72
253.135	13641.08
253.205	13605.75
253.276	13609.41
253.347	13596.59
253.417	13559.47
253.488	13532.38
253.558	13498.53
253.629	13479.69
253.699	13455.2
253.77	13441.51
253.841	13409.26
253.911	13386.5
253.982	13359.75
254.052	13350.44
254.123	13334.73
254.193	13310.19
254.264	13326.44
254.334	13295.92
254.405	13261.79
254.475	13225.15
254.546	13209.34
254.616	13213.92
254.687	13193.72
254.757	13171.4
254.827	13147.25
254.898	13131.97
254.968	13104.4
255.039	13076.68
255.109	13059.47
255.18	13031.9
255.25	12982.92
255.321	12966.58
255.391	12921.55
255.461	12926.71
255.532	12873.97
255.602	12846.54
255.673	12805.09
255.743	12761.85
255.813	12722.51
255.884	12714.08
255.954	12700.92
256.024	12686.36
256.095	12653.77
256.165	12624.75
256.235	12604.79
256.306	12575.39
256.376	12563.82
256.446	12551.67
256.517	12540.2
256.587	12524.48
256.657	12499.56
256.728	12483.22
256.798	12463.41
256.868	12445.57
256.938	12407.35
257.009	12394.04
257.079	12381.85
257.149	12394.09
257.219	12357.02
257.29	12336.68
257.36	12291.66
257.43	12280.48
257.5	12244.42
257.571	12223.69
257.641	12208.03
257.711	12175.93
257.781	12162.28
257.852	12144.98
257.922	12105.84
257.992	12089.11
258.062	12066.27
258.132	12055.85
258.202	12033.68
258.273	12015.46
258.343	12012.62
258.413	11991.5
258.483	11974.59
258.553	11941.38
258.623	11907.92
258.693	11889.85
258.764	11885.61
258.834	11879.24
258.904	11862.61
258.974	11836.92
259.044	11805.6
259.114	11795.18
259.184	11781.59
259.254	11761.78
259.324	11720.91
259.394	11714.5
259.464	11713.73
259.535	11691.03
259.605	11675.89
259.675	11658.44
259.745	11640.75
259.815	11611.55
259.885	11587.35
259.955	11587.93
260.025	11564.75
260.095	11539.01
260.165	11531.35
260.235	11524.31
260.305	11495.3
260.375	11460.64
260.445	11465.03
260.515	11460.11
260.585	11447.63
260.655	11427.29
260.725	11420.64
260.795	11413.41
260.865	11418.91
260.934	11389.89
261.004	11382.9
261.074	11358.42
261.144	11350.08
261.214	11347.48
261.284	11333.79
261.354	11331.29
261.424	11301.69
261.494	11301.11
261.564	11286.56
261.634	11271.96
261.703	11242.7
261.773	11241.21
261.843	11231.38
261.913	11209.69
261.983	11182.8
262.053	11173.45
262.123	11153.93
262.192	11122.03
262.262	11113.36
262.332	11073.31
262.402	11056.63
