Data from 20250630_urea_2M_MAYP1162681_07-52-27-169.txt Node
Date: Tue Jul 01 07:52:27 BST 2025
User: adleo
Spectrometer: MAYP116268
Trigger mode: 0
Integration Time (sec): 1.000000E0
Scans to average: 1
Electric dark correction enabled: true
Nonlinearity correction enabled: true
Boxcar width: 10
XAxis mode: Wavelengths
Number of Pixels in Spectrum: 2068
>>>>>Begin Spectral Data<<<<<
179.565	1084.85
179.642	1137.23
179.718	1174.79
179.795	1208.56
179.871	1238.68
179.948	1255.57
180.024	1274.34
180.101	1293.19
180.177	1304.8
180.254	1326.18
180.33	1344.85
180.407	1389.61
180.483	1473.65
180.56	1554.75
180.636	1630.57
180.712	1617.26
180.789	1624.1
180.865	1633.41
180.942	1642.63
181.018	1656.83
181.095	1667.66
181.171	1671.84
181.248	1670.75
181.324	1685.86
181.4	1691.04
181.477	1701.07
181.553	1712.66
181.63	1730.43
181.706	1746.68
181.782	1755.9
181.859	1755.33
181.935	1761.22
182.011	1757.47
182.088	1775.67
182.164	1795.45
182.24	1807.14
182.317	1817.21
182.393	1813.27
182.469	1828.62
182.546	1840.59
182.622	1844.63
182.698	1841.5
182.775	1851.38
182.851	1865.88
182.927	1856.75
183.003	1853.57
183.08	1847.49
183.156	1854.33
183.232	1851.53
183.308	1841.54
183.385	1849.67
183.461	1863.79
183.537	1864.6
183.613	1880.19
183.69	1871.11
183.766	1859.03
183.842	1865.78
183.918	1871.49
183.995	1885.32
184.071	1886.51
184.147	1878.9
184.223	1869.16
184.299	1879.67
184.375	1870.59
184.452	1875.63
184.528	1930.03
184.604	1940.29
184.68	1950.66
184.756	1958.64
184.832	1962.11
184.908	1965.11
184.985	1963.73
185.061	1950.61
185.137	1958.74
185.213	1945.24
185.289	1947.38
185.365	1938.58
185.441	1937.78
185.517	1947.91
185.593	1944.29
185.669	1942.63
185.745	1953.9
185.822	1967.54
185.898	1962.26
185.974	1970.29
186.05	1962.49
186.126	1924.54
186.202	1918.22
186.278	1913.56
186.354	1904.1
186.43	1909
186.506	1909.04
186.582	1906.19
186.658	1912.56
186.734	1896.45
186.81	1896.45
186.886	1899.2
186.962	1911.42
187.038	1909.42
187.114	1902.81
187.19	1912.27
187.266	1902.24
187.341	1902.58
187.417	1896.16
187.493	1893.5
187.569	1895.02
187.645	1888.98
187.721	1877.9
187.797	1883.27
187.873	1891.26
187.949	1885.27
188.025	1880.8
188.101	1882.8
188.176	1889.31
188.252	1883.56
188.328	1889.03
188.404	1891.02
188.48	1884.79
188.556	1878.66
188.632	1876.52
188.707	1877.81
188.783	1872.77
188.859	1869.3
188.935	1858.41
189.011	1863.88
189.086	1858.36
189.162	1854.08
189.238	1851.14
189.314	1849.24
189.39	1846.39
189.465	1835.93
189.541	1850.71
189.617	1836.93
189.693	1831.79
189.768	1834.36
189.844	1859.28
189.92	1852.06
189.996	1861.47
190.071	1871.5
190.147	1871.55
190.223	1879.87
190.298	1871.03
190.374	1860.14
190.45	1870.79
190.526	1879.96
190.601	1875.73
190.677	1880.96
190.753	1904.17
190.828	1909.78
190.904	1921.09
190.98	1934.41
191.055	1945.2
191.131	1938.64
191.207	1957.08
191.282	1966.59
191.358	1958.74
191.433	1944.66
191.509	1957.26
191.585	1952.03
191.66	1952.69
191.736	1958.87
191.811	1949.32
191.887	1964.96
191.963	1987.21
192.038	1992.82
192.114	1991.83
192.189	1994.01
192.265	1989.16
192.34	1969.28
192.416	1968.66
192.491	1965.33
192.567	1967.67
192.642	1971.85
192.718	1972.99
192.793	1960.63
192.869	1956.92
192.944	1958.4
193.02	1965.05
193.095	1968.86
193.171	1974.37
193.246	1975.37
193.322	1974.52
193.397	1975.89
193.473	1963.34
193.548	1945.17
193.624	1949.6
193.699	1952.59
193.775	1972.04
193.85	1972.85
193.925	1982.55
194.001	1979.13
194.076	1970.91
194.152	1961.39
194.227	1953.83
194.302	1943.52
194.378	1949.18
194.453	1944.28
194.529	1955.74
194.604	1942.05
194.679	1934.72
194.755	1917.04
194.83	1927.27
194.905	1924.32
194.981	1928.79
195.056	1922.61
195.131	1927.79
195.207	1927.36
195.282	1914.34
195.357	1893.56
195.433	1906.96
195.508	1894.84
195.583	1902.06
195.659	1916.99
195.734	1925.41
195.809	1922.7
195.884	1930.35
195.96	1931.45
196.035	1945.42
196.11	1940.86
196.185	1952.12
196.261	1955.64
196.336	1983.03
196.411	1969.52
196.486	1975.65
196.561	1974.56
196.637	1982.74
196.712	1999.19
196.787	1998.77
196.862	2012.55
196.937	2023.58
197.013	2029.82
197.088	2041.85
197.163	2061.11
197.238	2077.58
197.313	2077.25
197.388	2092.61
197.464	2122.68
197.539	2130.38
197.614	2124.63
197.689	2136.8
197.764	2153.94
197.839	2173.11
197.914	2169.39
197.989	2188.9
198.065	2200.03
198.14	2244.59
198.215	2268.33
198.29	2278.09
198.365	2290.27
198.44	2302.74
198.515	2327.53
198.59	2341.34
198.665	2365.8
198.74	2378.56
198.815	2381.04
198.89	2398.89
198.965	2425.46
199.04	2418.89
199.115	2436.07
199.19	2477.62
199.265	2479.15
199.34	2487.67
199.415	2519.92
199.49	2540.48
199.565	2552.48
199.64	2575
199.715	2574.67
199.79	2580.81
199.865	2585.77
199.94	2585.58
200.015	2614.73
200.09	2620.63
200.165	2627.3
200.24	2630.35
200.315	2667.64
200.39	2680.07
200.464	2686.31
200.539	2687.5
200.614	2706.03
200.689	2727.85
200.764	2735.09
200.839	2755.66
200.914	2757.42
200.989	2747.79
201.063	2761.71
201.138	2745.09
201.213	2747.24
201.288	2729.8
201.363	2737.09
201.438	2736.8
201.512	2753.52
201.587	2732.93
201.662	2736.51
201.737	2745.66
201.812	2754.52
201.886	2720.24
201.961	2728.43
202.036	2717.91
202.111	2715.24
202.186	2687.67
202.26	2667.52
202.335	2646.46
202.41	2637.12
202.485	2620.51
202.559	2599.98
202.634	2574.78
202.709	2582.87
202.784	2563.92
202.858	2560.44
202.933	2541.63
203.008	2535.82
203.082	2515.2
203.157	2517.25
203.232	2477.41
203.306	2458.03
203.381	2428.83
203.456	2406.07
203.53	2385.16
203.605	2369.74
203.68	2347.88
203.754	2340.89
203.829	2330.32
203.904	2311
203.978	2300
204.053	2307.67
204.127	2295.34
204.202	2293.68
204.277	2275.69
204.351	2267.93
204.426	2263.41
204.5	2256.08
204.575	2226.21
204.65	2236.49
204.724	2228.39
204.799	2235.81
204.873	2233.76
204.948	2230.39
205.022	2221.02
205.097	2211.45
205.171	2222.77
205.246	2230.34
205.32	2228.2
205.395	2228.06
205.469	2218.02
205.544	2225.5
205.618	2206.46
205.693	2219.93
205.767	2208.75
205.842	2228.59
205.916	2223.17
205.991	2215.89
206.065	2221.98
206.14	2235.48
206.214	2229.15
206.289	2222.87
206.363	2234.76
206.438	2235.86
206.512	2242
206.586	2258.31
206.661	2267.93
206.735	2248.33
206.81	2249.05
206.884	2264.89
206.958	2253.66
207.033	2270.45
207.107	2276.12
207.181	2307.06
207.256	2301.02
207.33	2318.57
207.405	2332.86
207.479	2353.38
207.553	2355.8
207.628	2339.63
207.702	2348.76
207.776	2348.05
207.851	2354.14
207.925	2366.14
207.999	2365.28
208.073	2365.19
208.148	2371.71
208.222	2362.76
208.296	2391.31
208.371	2405.93
208.445	2413.93
208.519	2442.25
208.593	2453.48
208.668	2449.06
208.742	2450.58
208.816	2453.06
208.89	2465.3
208.965	2463.25
209.039	2469.63
209.113	2491.15
209.187	2513.08
209.261	2513.75
209.336	2528.18
209.41	2546.13
209.484	2545.8
209.558	2561.37
209.632	2573.23
209.707	2581.27
209.781	2600.23
209.855	2613.09
209.929	2629.92
210.003	2637.82
210.077	2632.87
210.151	2677.06
210.226	2709.47
210.3	2737.51
210.374	2755.74
210.448	2759.51
210.522	2767.61
210.596	2774.23
210.67	2781.71
210.744	2823.13
210.818	2850.14
210.892	2871.73
210.966	2868.21
211.041	2885.36
211.115	2882.74
211.189	2907.05
211.263	2922.3
211.337	2925.01
211.411	2943.46
211.485	2937.22
211.559	2948.32
211.633	2952.8
211.707	2926.47
211.781	2932.19
211.855	2901.96
211.929	2897.39
212.003	2884.67
212.077	2896.5
212.151	2912.18
212.225	2922
212.299	2917.85
212.373	2914.66
212.447	2915.75
212.52	2947.94
212.594	2955.19
212.668	2979.78
212.742	2973.44
212.816	2978.35
212.89	2984.21
212.964	2988.32
213.038	3001.53
213.112	3025.52
213.186	3052.55
213.26	3047.21
213.333	3019.89
213.407	3037.15
213.481	3057.11
213.555	3083.08
213.629	3091.58
213.703	3093.2
213.777	3113.33
213.85	3114.67
213.924	3168.31
213.998	3192.27
214.072	3207.11
214.146	3223.57
214.219	3243.67
214.293	3270.19
214.367	3298.3
214.441	3334.99
214.515	3357.57
214.588	3370.7
214.662	3371.65
214.736	3388.97
214.81	3430.43
214.883	3480.76
214.957	3510.63
215.031	3538.5
215.105	3561.64
215.178	3591.05
215.252	3627.15
215.326	3649.21
215.4	3677.91
215.473	3677
215.547	3705.86
215.621	3743.33
215.694	3796.62
215.768	3828.02
215.842	3868.44
215.915	3905.53
215.989	3939.47
216.063	3983.46
216.136	4042.89
216.21	4103.02
216.284	4169.68
216.357	4230.36
216.431	4282.68
216.504	4351.61
216.578	4440.94
216.652	4516.6
216.725	4584.75
216.799	4663.01
216.873	4732.31
216.946	4808.79
217.02	4877.9
217.093	4947.04
217.167	5000.01
217.24	5061.05
217.314	5137.11
217.387	5202.29
217.461	5274.63
217.535	5364.58
217.608	5434.64
217.682	5507.13
217.755	5593.18
217.829	5662.57
217.902	5746.83
217.976	5830.75
218.049	5900.54
218.123	5962.68
218.196	6044.66
218.27	6116.88
218.343	6184.12
218.417	6269.17
218.49	6348.31
218.563	6442.49
218.637	6527.34
218.71	6632.6
218.784	6723.43
218.857	6812.52
218.931	6903.09
219.004	6991.76
219.077	7079.17
219.151	7167.44
219.224	7249.22
219.298	7333.92
219.371	7436.21
219.444	7503.41
219.518	7589.99
219.591	7681.38
219.665	7791.9
219.738	7876.38
219.811	7958.23
219.885	8053.12
219.958	8139.7
220.031	8222.19
220.105	8313.27
220.178	8400.31
220.251	8475.43
220.325	8563.45
220.398	8646.95
220.471	8734.43
220.544	8820.63
220.618	8895.44
220.691	8979.38
220.764	9067.48
220.838	9149.71
220.911	9228.77
220.984	9334.93
221.057	9415.63
221.131	9499.8
221.204	9550.28
221.277	9647.75
221.35	9757.08
221.424	9830.14
221.497	9913.9
221.57	9996.36
221.643	10080.61
221.716	10166.89
221.79	10237.56
221.863	10306.84
221.936	10379.15
222.009	10452.71
222.082	10537.17
222.155	10612.24
222.229	10703.59
222.302	10779.34
222.375	10858.7
222.448	10939.33
222.521	11010.79
222.594	11089.87
222.667	11152.03
222.74	11237.71
222.814	11303.79
222.887	11364.18
222.96	11448.66
223.033	11523.56
223.106	11600.05
223.179	11677.17
223.252	11743.54
223.325	11821.47
223.398	11897.24
223.471	11977.88
223.544	12049.84
223.617	12114.82
223.69	12181.57
223.763	12237.83
223.837	12305.6
223.91	12374.82
223.983	12419.41
224.056	12470.26
224.129	12536.78
224.202	12615.26
224.275	12669.05
224.348	12724.15
224.42	12778.19
224.493	12819.84
224.566	12876.29
224.639	12941.41
224.712	12988.85
224.785	13046.84
224.858	13100.49
224.931	13144.51
225.004	13194.93
225.077	13257.7
225.15	13294.48
225.223	13347.7
225.296	13423.86
225.369	13470.77
225.442	13517.24
225.514	13570.41
225.587	13637.66
225.66	13690.88
225.733	13746.85
225.806	13817.08
225.879	13868.04
225.952	13911.37
226.025	13989.66
226.097	14066.11
226.17	14110.03
226.243	14148.3
226.316	14204.66
226.389	14260.82
226.461	14332.02
226.534	14387.45
226.607	14440.09
226.68	14524.21
226.753	14583.12
226.825	14621.58
226.898	14684.68
226.971	14735.68
227.044	14796.33
227.117	14849.01
227.189	14911.53
227.262	14973.18
227.335	15018.49
227.407	15072.43
227.48	15129.7
227.553	15174.05
227.626	15207.06
227.698	15261.44
227.771	15317.06
227.844	15359.43
227.916	15410.72
227.989	15444.7
228.062	15485.48
228.134	15548.38
228.207	15585.88
228.28	15627.96
228.352	15667.53
228.425	15715.69
228.498	15770.25
228.57	15806.3
228.643	15861.73
228.716	15904.87
228.788	15933.36
228.861	15981.6
228.934	16039.59
229.006	16088.36
229.079	16123.93
229.151	16159.36
229.224	16195.17
229.296	16241.59
229.369	16303.66
229.442	16362.42
229.514	16397.79
229.587	16452.45
229.659	16477.7
229.732	16528.65
229.804	16581.9
229.877	16648.27
229.949	16693.43
230.022	16744.76
230.094	16789.24
230.167	16823.7
230.239	16848.04
230.312	16895.37
230.384	16955.13
230.457	16992.29
230.529	17035.61
230.602	17086.99
230.674	17141.69
230.747	17191.52
230.819	17240.78
230.892	17253.74
230.964	17286.7
231.037	17333.69
231.109	17376.1
231.181	17420.25
231.254	17438.8
231.326	17475.33
231.399	17497.31
231.471	17528.25
231.544	17539.96
231.616	17586.66
231.688	17618.66
231.761	17650.27
231.833	17670.95
231.905	17671.24
231.978	17700.15
232.05	17730.27
232.122	17758.85
232.195	17777.98
232.267	17816.63
232.339	17833.64
232.412	17877.93
232.484	17901.59
232.556	17914.02
232.629	17958.65
232.701	17984.09
232.773	18014.41
232.846	18035.13
232.918	18061.58
232.99	18082.64
233.062	18118.5
233.135	18147.75
233.207	18155.46
233.279	18184.33
233.351	18223.12
233.424	18241.96
233.496	18249.1
233.568	18279.36
233.64	18279.21
233.713	18294.2
233.785	18303.98
233.857	18326.68
233.929	18330.44
234.001	18359.26
234.074	18399.59
234.146	18388.22
234.218	18408.36
234.29	18422.58
234.362	18422.87
234.434	18422.05
234.507	18434.58
234.579	18431.88
234.651	18431.01
234.723	18453.62
234.795	18463.88
234.867	18460.02
234.939	18492.46
235.012	18519.68
235.084	18533.32
235.156	18553.95
235.228	18560.74
235.3	18565.37
235.372	18578.81
235.444	18598.09
235.516	18581.42
235.588	18588.79
235.66	18590.72
235.732	18596.35
235.804	18651.1
235.876	18670.66
235.948	18688.01
236.02	18679.14
236.092	18678.28
236.164	18680.11
236.236	18681.02
236.308	18682.18
236.38	18688.3
236.452	18678.71
236.524	18671.53
236.596	18682.28
236.668	18689.55
236.74	18684.01
236.812	18680.69
236.884	18674.81
236.956	18666.9
237.028	18654.13
237.1	18637.46
237.172	18653.8
237.244	18651.87
237.316	18603.78
237.388	18591.05
237.46	18576.5
237.532	18595.63
237.604	18585.85
237.675	18595.15
237.747	18591.53
237.819	18582.09
237.891	18582.43
237.963	18560.6
238.035	18549.75
238.107	18507.4
238.178	18517.03
238.25	18500.65
238.322	18518.86
238.394	18493.23
238.466	18481.23
238.538	18486.05
238.609	18480.79
238.681	18451.83
238.753	18434.1
238.825	18421.52
238.897	18405.47
238.968	18401.38
239.04	18373.14
239.112	18394.2
239.184	18360.99
239.255	18344.37
239.327	18328.8
239.399	18302.15
239.471	18295.07
239.542	18278.68
239.614	18278.49
239.686	18224.42
239.758	18222.2
239.829	18192.38
239.901	18194.5
239.973	18180.91
240.044	18166.64
240.116	18147.8
240.188	18129.78
240.259	18103.17
240.331	18081.78
240.403	18080.72
240.474	18048.72
240.546	18023.85
240.618	17980
240.689	17963.32
240.761	17952.77
240.833	17942.02
240.904	17917.45
240.976	17894.27
241.048	17877.16
241.119	17865.45
241.191	17851.91
241.262	17849.69
241.334	17826.75
241.405	17803.43
241.477	17771.19
241.549	17744.78
241.62	17727.72
241.692	17704.68
241.763	17696.2
241.835	17678.22
241.906	17644.39
241.978	17608.97
242.049	17600.25
242.121	17588.73
242.192	17577.89
242.264	17528.87
242.335	17493.45
242.407	17482.71
242.478	17458.61
242.55	17438.37
242.621	17397.84
242.693	17364.59
242.764	17335.43
242.836	17299.43
242.907	17270.75
242.979	17251.77
243.05	17223.48
243.122	17195.81
243.193	17171.14
243.264	17120.39
243.336	17085.11
243.407	17073.35
243.479	17074.36
243.55	17041.45
243.622	17015.86
243.693	16987.57
243.764	16980.29
243.836	16949.73
243.907	16912.77
243.978	16882.12
244.05	16849.34
244.121	16804.09
244.192	16800.18
244.264	16758.25
244.335	16738.01
244.407	16694.88
244.478	16666.39
244.549	16642.78
244.62	16601.91
244.692	16569.62
244.763	16556.02
244.834	16529.76
244.906	16487.73
244.977	16462.62
245.048	16451.49
245.119	16411.19
245.191	16367.38
245.262	16327.19
245.333	16313.79
245.405	16300.63
245.476	16281.98
245.547	16262.07
245.618	16248.34
245.689	16210.45
245.761	16180.42
245.832	16146.16
245.903	16126.06
245.974	16105.48
246.045	16066.87
246.117	16066.34
246.188	16025.32
246.259	15976.49
246.33	15944.39
246.401	15910.22
246.473	15863.13
246.544	15827.85
246.615	15812.52
246.686	15782.01
246.757	15757.38
246.828	15715.73
246.899	15685.66
246.97	15635.96
247.042	15592.78
247.113	15561.11
247.184	15543.37
247.255	15504.95
247.326	15475.84
247.397	15450.15
247.468	15412.17
247.539	15390.19
247.61	15336.3
247.681	15323.04
247.752	15318.42
247.823	15283.42
247.894	15262.69
247.965	15221.43
248.037	15189.52
248.108	15142.38
248.179	15118.47
248.25	15088.63
248.321	15068.39
248.392	15023.7
248.463	15022.93
248.534	14998.45
248.605	14990.44
248.675	14964.37
248.746	14944.36
248.817	14922.86
248.888	14901.12
248.959	14865.36
249.03	14844.48
249.101	14818.41
249.172	14786.83
249.243	14740.27
249.314	14724.99
249.385	14689.7
249.456	14672.54
249.527	14640.1
249.598	14621.78
249.669	14595.75
249.739	14576.66
249.81	14551.98
249.881	14524.6
249.952	14490.9
250.023	14461.84
250.094	14418.6
250.165	14384.52
250.235	14360.65
250.306	14337.03
250.377	14295.34
250.448	14271.57
250.519	14217.92
250.59	14207.26
250.66	14177.18
250.731	14163.11
250.802	14136.98
250.873	14117.6
250.944	14094.99
251.014	14062.84
251.085	14064
251.156	14041.68
251.227	14022.97
251.297	14002
251.368	13983.78
251.439	13970.67
251.51	13954.86
251.58	13914.51
251.651	13888.48
251.722	13874.79
251.792	13835.06
251.863	13810.38
251.934	13800.45
252.005	13809.42
252.075	13786.18
252.146	13770.85
252.217	13759.57
252.287	13743.91
252.358	13727.37
252.429	13719.75
252.499	13692.9
252.57	13656.8
252.641	13641.08
252.711	13616.64
252.782	13584.05
252.852	13579.04
252.923	13557.78
252.994	13540.47
253.064	13530.78
253.135	13491.16
253.205	13458.72
253.276	13458.86
253.347	13452.69
253.417	13419.86
253.488	13389.15
253.558	13357.48
253.629	13336.27
253.699	13313.23
253.77	13298.09
253.841	13265.89
253.911	13247.28
253.982	13225.83
254.052	13216.62
254.123	13188.95
254.193	13168.42
254.264	13178.83
254.334	13145.42
254.405	13107.48
254.475	13074.46
254.546	13050.36
254.616	13049.25
254.687	13031.75
254.757	13005.43
254.827	12979.21
254.898	12958.72
254.968	12936.21
255.039	12903.76
255.109	12885.21
255.18	12855.41
255.25	12805.38
255.321	12794.82
255.391	12759.29
255.461	12765.94
255.532	12718.03
255.602	12687.76
255.673	12644.32
255.743	12612.07
255.813	12566.04
255.884	12551.29
255.954	12538.27
256.024	12540.92
256.095	12514.6
256.165	12483.9
256.235	12467.94
256.306	12444.95
256.376	12435.98
256.446	12425.57
256.517	12409.81
256.587	12400.07
256.657	12387.49
256.728	12375.82
256.798	12347.38
256.868	12319.14
256.938	12281.25
257.009	12272.43
257.079	12269.97
257.149	12277.25
257.219	12238.97
257.29	12228.47
257.36	12189.86
257.43	12169.32
257.5	12123.34
257.571	12093.93
257.641	12077.93
257.711	12036.57
257.781	12013.1
257.852	11998.01
257.922	11957.91
257.992	11941.47
258.062	11912.55
258.132	11899.68
258.202	11879.29
258.273	11871.39
258.343	11867.92
258.413	11841.41
258.483	11818.56
258.553	11787.04
258.623	11757.06
258.693	11741.97
258.764	11736.48
258.834	11734.98
258.904	11723.75
258.974	11699.32
259.044	11688.9
259.114	11671.75
259.184	11661
259.254	11648.56
259.324	11603.69
259.394	11597.18
259.464	11593.18
259.535	11575.5
259.605	11543.25
259.675	11514.14
259.745	11493.99
259.815	11461.27
259.885	11438.76
259.955	11452.4
260.025	11427.25
260.095	11406.81
260.165	11385.75
260.235	11382.42
260.305	11354.08
260.375	11316.49
260.445	11320.54
260.515	11308.25
260.585	11302.9
260.655	11289.12
260.725	11280.44
260.795	11274.9
260.865	11268.44
260.934	11242.95
261.004	11229.12
261.074	11216.92
261.144	11219.57
261.214	11209.26
261.284	11197.4
261.354	11193.93
261.424	11161.79
261.494	11163.18
261.564	11144
261.634	11141.84
261.703	11105.79
261.773	11102.94
261.843	11104.25
261.913	11084.25
261.983	11053.98
262.053	11042.27
262.123	11016.78
262.192	10982.95
262.262	10974.62
262.332	10941.12
262.402	10932.11
262.472	10918.28
262.541	10880.79
