Data from 20250630_urea_2M_MAYP1162681_04-12-27-243.txt Node
Date: Tue Jul 01 04:12:27 BST 2025
User: adleo
Spectrometer: MAYP116268
Trigger mode: 0
Integration Time (sec): 1.000000E0
Scans to average: 1
Electric dark correction enabled: true
Nonlinearity correction enabled: true
Boxcar width: 10
XAxis mode: Wavelengths
Number of Pixels in Spectrum: 2068
>>>>>Begin Spectral Data<<<<<
179.565	1060.75
179.642	1108.88
179.718	1145.31
179.795	1178.39
179.871	1203.6
179.948	1217.63
180.024	1236.33
180.101	1255.67
180.177	1269.57
180.254	1291.9
180.33	1311.3
180.407	1355.2
180.483	1438.81
180.56	1516.06
180.636	1589.55
180.712	1579.1
180.789	1589.69
180.865	1597.57
180.942	1604.22
181.018	1613.01
181.095	1625.79
181.171	1630.06
181.248	1629.16
181.324	1642.51
181.4	1647.69
181.477	1658.1
181.553	1672.3
181.63	1690.02
181.706	1707.41
181.782	1716.49
181.859	1711.97
181.935	1716.72
182.011	1711.21
182.088	1730.13
182.164	1747.29
182.24	1760.54
182.317	1770.09
182.393	1767.43
182.469	1782.97
182.546	1797.51
182.622	1801.41
182.698	1796.08
182.775	1809.44
182.851	1823.5
182.927	1819.37
183.003	1816.66
183.08	1812.43
183.156	1822.27
183.232	1819.8
183.308	1806.21
183.385	1809.39
183.461	1829.21
183.537	1829.02
183.613	1842.47
183.69	1832.58
183.766	1823.45
183.842	1828.54
183.918	1834.1
183.995	1846.51
184.071	1848.46
184.147	1841.33
184.223	1832.35
184.299	1842.9
184.375	1833.06
184.452	1837.48
184.528	1887.5
184.604	1895.77
184.68	1907.08
184.756	1911.03
184.832	1915.02
184.908	1919.91
184.985	1921.44
185.061	1905.42
185.137	1915.83
185.213	1903.99
185.289	1904.85
185.365	1901.52
185.441	1899.86
185.517	1910.13
185.593	1904.66
185.669	1901.48
185.745	1914.84
185.822	1930.57
185.898	1922.63
185.974	1930.9
186.05	1925.19
186.126	1888.72
186.202	1883.97
186.278	1880.64
186.354	1871.85
186.43	1877.27
186.506	1874.18
186.582	1872.47
186.658	1875.6
186.734	1855.45
186.81	1856.36
186.886	1858.49
186.962	1866.1
187.038	1863.58
187.114	1855.68
187.19	1865
187.266	1857.73
187.341	1855.45
187.417	1850.41
187.493	1849.89
187.569	1850.93
187.645	1845.85
187.721	1833.63
187.797	1841.57
187.873	1847.22
187.949	1842.09
188.025	1836.57
188.101	1840.09
188.176	1843.94
188.252	1842.9
188.328	1850.26
188.404	1852.92
188.48	1846.22
188.556	1841.13
188.632	1841.8
188.707	1843.51
188.783	1838.47
188.859	1834.86
188.935	1823.78
189.011	1826.83
189.086	1823.59
189.162	1816.18
189.238	1814.47
189.314	1811.52
189.39	1806.63
189.465	1798.92
189.541	1812.71
189.617	1801.59
189.693	1799.64
189.768	1805.11
189.844	1824.7
189.92	1817.85
189.996	1825.13
190.071	1835.87
190.147	1834.73
190.223	1841.86
190.298	1834.49
190.374	1824.56
190.45	1835.2
190.526	1843.66
190.601	1841.57
190.677	1844.04
190.753	1868.15
190.828	1871.34
190.904	1887.88
190.98	1901.38
191.055	1910.56
191.131	1902.52
191.207	1920.11
191.282	1926.15
191.358	1916.88
191.433	1906.13
191.509	1920.15
191.585	1915.77
191.66	1915.77
191.736	1921.91
191.811	1915.06
191.887	1930.14
191.963	1950.48
192.038	1953.38
192.114	1951.15
192.189	1954.43
192.265	1949.11
192.34	1930.89
192.416	1929.37
192.491	1924.19
192.567	1923.76
192.642	1926.33
192.718	1928.27
192.793	1916.06
192.869	1912.73
192.944	1915.58
193.02	1922.52
193.095	1924.9
193.171	1931.46
193.246	1932.17
193.322	1931.6
193.397	1930.51
193.473	1915.96
193.548	1899.17
193.624	1908.64
193.699	1909.59
193.775	1925.57
193.85	1926.99
193.925	1935.7
194.001	1933.98
194.076	1928.66
194.152	1919.1
194.227	1911.4
194.302	1900.71
194.378	1903.89
194.453	1902.13
194.529	1912.21
194.604	1898.85
194.679	1892.63
194.755	1875.47
194.83	1888.12
194.905	1886.84
194.981	1895.92
195.056	1890.02
195.131	1896.92
195.207	1894.16
195.282	1885.98
195.357	1865.72
195.433	1879.03
195.508	1869.38
195.583	1877.65
195.659	1889.63
195.734	1897.96
195.809	1898.62
195.884	1907.7
195.96	1907.46
196.035	1921.34
196.11	1917.96
196.185	1928.61
196.261	1932.32
196.336	1960.13
196.411	1945.06
196.486	1951.57
196.561	1946.15
196.637	1954.52
196.712	1968.78
196.787	1967.83
196.862	1982.57
196.937	1991.37
197.013	1998.45
197.088	2007.2
197.163	2027.47
197.238	2041.79
197.313	2042.5
197.388	2053.2
197.464	2081.41
197.539	2092.44
197.614	2086.55
197.689	2097.82
197.764	2111.43
197.839	2128.79
197.914	2124.22
197.989	2143.63
198.065	2155.61
198.14	2201.74
198.215	2223.2
198.29	2232.24
198.365	2247.94
198.44	2256.69
198.515	2285.3
198.59	2299.05
198.665	2320.08
198.74	2327.89
198.815	2329.7
198.89	2348.88
198.965	2375.06
199.04	2373.87
199.115	2385.72
199.19	2425.13
199.265	2427.56
199.34	2441.22
199.415	2467.98
199.49	2487.07
199.565	2498.45
199.64	2516.54
199.715	2512.34
199.79	2522.01
199.865	2531.53
199.94	2529.06
200.015	2557.4
200.09	2562.06
200.165	2564.92
200.24	2572.06
200.315	2609.39
200.39	2622.2
200.464	2629.77
200.539	2633.15
200.614	2643.34
200.689	2667.45
200.764	2672.69
200.839	2689.11
200.914	2691.78
200.989	2685.92
201.063	2696.07
201.138	2681.17
201.213	2682.69
201.288	2662.5
201.363	2667.31
201.438	2665.78
201.512	2679.64
201.587	2663.3
201.662	2665.3
201.737	2675.3
201.812	2684.55
201.886	2653.32
201.961	2661.33
202.036	2649.8
202.111	2646.51
202.186	2622.05
202.26	2607.61
202.335	2589.22
202.41	2583.03
202.485	2565.32
202.559	2547.13
202.634	2525.75
202.709	2531.56
202.784	2513.75
202.858	2517.56
202.933	2499.32
203.008	2493.56
203.082	2475.42
203.157	2475.28
203.232	2435.54
203.306	2420.63
203.381	2390.11
203.456	2367.07
203.53	2346.01
203.605	2328.07
203.68	2306.22
203.754	2300.42
203.829	2288.23
203.904	2269.62
203.978	2260.81
204.053	2264.34
204.127	2253.01
204.202	2251.11
204.277	2237.45
204.351	2229.22
204.426	2220.46
204.5	2213.18
204.575	2181.69
204.65	2191.5
204.724	2184.21
204.799	2191.3
204.873	2188.54
204.948	2185.92
205.022	2175.65
205.097	2168.32
205.171	2179.5
205.246	2188.97
205.32	2188.44
205.395	2186.83
205.469	2178.93
205.544	2181.69
205.618	2166.23
205.693	2177.84
205.767	2168.8
205.842	2187.07
205.916	2182.75
205.991	2176.75
206.065	2182.65
206.14	2195.77
206.214	2190.49
206.289	2186.21
206.363	2200.43
206.438	2197.67
206.512	2206.28
206.586	2224.08
206.661	2235.31
206.735	2216.33
206.81	2217.05
206.884	2230.27
206.958	2218.76
207.033	2234.08
207.107	2241.6
207.181	2269.34
207.256	2264.92
207.33	2279.1
207.405	2289.72
207.479	2308.56
207.553	2313.08
207.628	2298.57
207.702	2308.47
207.776	2303.76
207.851	2307.9
207.925	2319.09
207.999	2320.56
208.073	2317.99
208.148	2321.61
208.222	2310.37
208.296	2338.39
208.371	2350.49
208.445	2361.91
208.519	2386.61
208.593	2396.99
208.668	2390.61
208.742	2392.56
208.816	2393.42
208.89	2406.32
208.965	2405.18
209.039	2411.32
209.113	2426.79
209.187	2442.59
209.261	2441.97
209.336	2461.68
209.41	2478.35
209.484	2479.92
209.558	2498.15
209.632	2512.63
209.707	2522.53
209.781	2541.39
209.855	2555.34
209.929	2568.45
210.003	2571.59
210.077	2572.12
210.151	2615.35
210.226	2651.37
210.3	2674.39
210.374	2695.87
210.448	2701.82
210.522	2711.69
210.596	2723.07
210.67	2732.22
210.744	2778.78
210.818	2806.97
210.892	2824.32
210.966	2819.13
211.041	2831.75
211.115	2831.71
211.189	2854.48
211.263	2869.06
211.337	2877.02
211.411	2892.56
211.485	2890.27
211.559	2904.76
211.633	2908.52
211.707	2881.39
211.781	2888.73
211.855	2865.52
211.929	2863.99
212.003	2851.04
212.077	2865.34
212.151	2880.26
212.225	2895.37
212.299	2891.18
212.373	2885.08
212.447	2890.61
212.52	2925.03
212.594	2938.76
212.668	2959.93
212.742	2955.49
212.816	2964.74
212.89	2971.94
212.964	2984.48
213.038	3007.09
213.112	3034.66
213.186	3065.65
213.26	3068.18
213.333	3046.62
213.407	3070.12
213.481	3093.67
213.555	3131.18
213.629	3144.11
213.703	3155.75
213.777	3181.85
213.85	3197.7
213.924	3261.75
213.998	3294.54
214.072	3325.87
214.146	3354.32
214.219	3389.83
214.293	3426.86
214.367	3467.73
214.441	3519.2
214.515	3560.23
214.588	3584.25
214.662	3601.06
214.736	3633.15
214.81	3693.82
214.883	3757.26
214.957	3807.59
215.031	3854.87
215.105	3895.04
215.178	3946.27
215.252	4006.39
215.326	4048.98
215.4	4098.01
215.473	4130.16
215.547	4179.33
215.621	4236.32
215.694	4307.94
215.768	4364.15
215.842	4435.58
215.915	4501.57
215.989	4556.85
216.063	4623.31
216.136	4706.36
216.21	4795.68
216.284	4890.5
216.357	4976.51
216.431	5061.67
216.504	5160.08
216.578	5277.82
216.652	5374.25
216.725	5466.18
216.799	5572.1
216.873	5676.18
216.946	5777.82
217.02	5870.32
217.093	5973.07
217.167	6054.39
217.24	6144.13
217.314	6241.53
217.387	6333.14
217.461	6430.53
217.535	6545.99
217.608	6640.29
217.682	6744.79
217.755	6858.54
217.829	6952.36
217.902	7059.64
217.976	7165.83
218.049	7260.26
218.123	7347.9
218.196	7458.77
218.27	7559.43
218.343	7646.28
218.417	7752.31
218.49	7862.63
218.563	7982.09
218.637	8088.5
218.71	8217.76
218.784	8331.11
218.857	8441.81
218.931	8551.41
219.004	8665.79
219.077	8784.4
219.151	8896.83
219.224	9001.14
219.298	9101.08
219.371	9219.85
219.444	9307.96
219.518	9413.26
219.591	9517.26
219.665	9647.11
219.738	9753.78
219.811	9850.33
219.885	9962.8
219.958	10066.12
220.031	10159.37
220.105	10274.47
220.178	10384.51
220.251	10477.35
220.325	10584.37
220.398	10690.75
220.471	10800.31
220.544	10908.2
220.618	10988.25
220.691	11096.38
220.764	11195.17
220.838	11299.51
220.911	11385.58
220.984	11503.17
221.057	11597.78
221.131	11699.66
221.204	11767.04
221.277	11881.04
221.35	12003.03
221.424	12091.38
221.497	12187.73
221.57	12283.89
221.643	12364.53
221.716	12456.17
221.79	12539.13
221.863	12612.74
221.936	12699.02
222.009	12776.58
222.082	12856.36
222.155	12940.62
222.229	13030.53
222.302	13111.95
222.375	13185.7
222.448	13271.85
222.521	13351.29
222.594	13436.32
222.667	13504.87
222.74	13587.11
222.814	13648.72
222.887	13713.17
222.96	13792.28
223.033	13875.39
223.106	13944.85
223.179	14016.92
223.252	14084.7
223.325	14159.13
223.398	14237.07
223.471	14308.66
223.544	14377.4
223.617	14445.32
223.69	14510.69
223.763	14565.69
223.837	14636.41
223.91	14711.99
223.983	14763.43
224.056	14819.92
224.129	14887.5
224.202	14956.29
224.275	15013.41
224.348	15061.81
224.42	15113.63
224.493	15166.5
224.566	15213.69
224.639	15281.32
224.712	15335.26
224.785	15386.98
224.858	15435.86
224.931	15490.95
225.004	15527.87
225.077	15586.58
225.15	15629.05
225.223	15685.59
225.296	15754.65
225.369	15789.89
225.442	15830.62
225.514	15890.14
225.587	15948.51
225.66	15992.33
225.733	16048.67
225.806	16103.62
225.879	16163.43
225.952	16207.68
226.025	16268.45
226.097	16336.32
226.17	16382.92
226.243	16410.92
226.316	16461
226.389	16519.08
226.461	16563.71
226.534	16619.71
226.607	16666.7
226.68	16723
226.753	16777.12
226.825	16803.87
226.898	16874.67
226.971	16918.72
227.044	16972.99
227.117	17010.58
227.189	17064.89
227.262	17118
227.335	17163.98
227.407	17200.99
227.48	17248.08
227.553	17288.95
227.626	17315.55
227.698	17361.23
227.771	17410.68
227.844	17441.81
227.916	17478.44
227.989	17514.01
228.062	17552.13
228.134	17609.86
228.207	17648.56
228.28	17680.22
228.352	17710.2
228.425	17740.41
228.498	17791.5
228.57	17812.27
228.643	17856.51
228.716	17890.43
228.788	17912.12
228.861	17942.67
228.934	17991.25
229.006	18019.68
229.079	18046.38
229.151	18080.93
229.224	18102.76
229.296	18144.06
229.369	18200.59
229.442	18243.38
229.514	18263.43
229.587	18312.92
229.659	18318.27
229.732	18349.16
229.804	18387.86
229.877	18454.75
229.949	18497.54
230.022	18542.55
230.094	18577.34
230.167	18611.08
230.239	18623.8
230.312	18664.61
230.384	18712.71
230.457	18741.62
230.529	18784.61
230.602	18814.24
230.674	18851.54
230.747	18880.79
230.819	18922.38
230.892	18921.03
230.964	18946.67
231.037	18989.51
231.109	19012.4
231.181	19045.36
231.254	19069.26
231.326	19088.06
231.399	19105.07
231.471	19118.47
231.544	19117.07
231.616	19152.25
231.688	19178.9
231.761	19202.12
231.833	19210.89
231.905	19210.6
231.978	19235.47
232.05	19245.88
232.122	19269.4
232.195	19280.67
232.267	19309.68
232.339	19322.16
232.412	19363.41
232.484	19385.68
232.556	19394.06
232.629	19433.1
232.701	19464.95
232.773	19468.76
232.846	19486.93
232.918	19504.42
232.99	19523.89
233.062	19550.73
233.135	19559.21
233.207	19553.72
233.279	19575.93
233.351	19600.08
233.424	19608.12
233.496	19599.31
233.568	19627.45
233.64	19627.11
233.713	19625.76
233.785	19638.68
233.857	19641.86
233.929	19624.07
234.001	19635.98
234.074	19658.05
234.146	19631.45
234.218	19628.32
234.29	19639.74
234.362	19633.09
234.434	19619.16
234.507	19604.27
234.579	19585.19
234.651	19583.5
234.723	19588.9
234.795	19587.31
234.867	19575.74
234.939	19584.51
235.012	19590.97
235.084	19588.32
235.156	19593.96
235.228	19590.29
235.3	19573.76
235.372	19577.14
235.444	19586.2
235.516	19562.58
235.588	19548.22
235.66	19553.57
235.732	19538.54
235.804	19587.11
235.876	19584.37
235.948	19584.22
236.02	19575.89
236.092	19572.13
236.164	19562.39
236.236	19565.09
236.308	19551.89
236.38	19542.54
236.452	19522.44
236.524	19509.14
236.596	19518.3
236.668	19511.6
236.74	19499.79
236.812	19490.88
236.884	19481.48
236.956	19474.16
237.028	19456.04
237.1	19450.35
237.172	19449.53
237.244	19460.23
237.316	19410.54
237.388	19401.82
237.46	19378.84
237.532	19381.53
237.604	19359.08
237.675	19362.84
237.747	19341.58
237.819	19328.33
237.891	19321.2
237.963	19305.39
238.035	19285.78
238.107	19232.53
238.178	19229.83
238.25	19223.42
238.322	19237.11
238.394	19200.15
238.466	19186.03
238.538	19178.17
238.609	19155.23
238.681	19118.03
238.753	19089.17
238.825	19073.07
238.897	19048.83
238.968	19047
239.04	19025.32
239.112	19035.92
239.184	19003.92
239.255	18986.43
239.327	18969.95
239.399	18948.21
239.471	18933.32
239.542	18926.43
239.614	18922.43
239.686	18877.95
239.758	18857.76
239.829	18820.7
239.901	18818.2
239.973	18792.13
240.044	18775.26
240.116	18742.97
240.188	18718.97
240.259	18692.47
240.331	18661.43
240.403	18647.94
240.474	18602.74
240.546	18572.48
240.618	18527.76
240.689	18497.15
240.761	18466.79
240.833	18450.51
240.904	18418.46
240.976	18393.4
241.048	18369.69
241.119	18355.23
241.191	18339.62
241.262	18326.37
241.334	18291.53
241.405	18255
241.477	18215.92
241.549	18175.73
241.62	18170.62
241.692	18146.86
241.763	18124.21
241.835	18095.68
241.906	18056.6
241.978	18027.49
242.049	18000.17
242.121	17979.93
242.192	17962.87
242.264	17931.93
242.335	17889.57
242.407	17865.76
242.478	17835.83
242.55	17802.87
242.621	17769.09
242.693	17729.76
242.764	17687.07
242.836	17654.54
242.907	17628.03
242.979	17604.75
243.05	17584.37
243.122	17551.6
243.193	17524.37
243.264	17474.06
243.336	17441.19
243.407	17422.68
243.479	17408.23
243.55	17388.37
243.622	17356.37
243.693	17330.35
243.764	17317.62
243.836	17280.95
243.907	17246.49
243.978	17217.81
244.05	17190.68
244.121	17134.82
244.192	17112.61
244.264	17074.48
244.335	17038
244.407	16995.2
244.478	16971.83
244.549	16931.83
244.62	16887.01
244.692	16849.41
244.763	16832.45
244.834	16793.17
244.906	16761.75
244.977	16729.41
245.048	16706.61
245.119	16675.09
245.191	16626.46
245.262	16572.29
245.333	16555.42
245.405	16533.64
245.476	16501.97
245.547	16478.5
245.618	16458.69
245.689	16426.83
245.761	16401.92
245.832	16381.05
245.903	16354.88
245.974	16330.83
246.045	16302.92
246.117	16285.28
246.188	16237.03
246.259	16197.03
246.33	16164.25
246.401	16129.4
246.473	16087.04
246.544	16048.24
246.615	16022.6
246.686	15987.46
246.757	15968.28
246.828	15932.08
246.899	15914.29
246.97	15862.19
247.042	15818.96
247.113	15794.28
247.184	15784.4
247.255	15741.93
247.326	15715.08
247.397	15683.03
247.468	15643.12
247.539	15616.13
247.61	15571.54
247.681	15564.8
247.752	15546.96
247.823	15515.05
247.894	15483.67
247.965	15447.67
248.037	15417.25
248.108	15371.56
248.179	15347.31
248.25	15315.4
248.321	15288.55
248.392	15246.76
248.463	15248.64
248.534	15212.68
248.605	15193.21
248.675	15157.35
248.746	15148.14
248.817	15122.64
248.888	15106.45
248.959	15066.58
249.03	15043.69
249.101	15019.58
249.172	14980.25
249.243	14928.09
249.314	14917.92
249.385	14895.41
249.456	14878.11
249.527	14849.14
249.598	14832.65
249.669	14804.88
249.739	14779
249.81	14760.97
249.881	14714.6
249.952	14687.46
250.023	14667.26
250.094	14616.89
250.165	14579.72
250.235	14537.59
250.306	14506.64
250.377	14468.42
250.448	14448.17
250.519	14404.11
250.59	14392.88
250.66	14362.17
250.731	14356.29
250.802	14319.17
250.873	14291.21
250.944	14263.3
251.014	14226.91
251.085	14215.34
251.156	14192.25
251.227	14181.69
251.297	14161.16
251.368	14145.3
251.439	14120.18
251.51	14106.83
251.58	14077.08
251.651	14044.83
251.722	14030.47
251.792	13988.14
251.863	13961.39
251.934	13945.91
252.005	13946.78
252.075	13924.17
252.146	13908.46
252.217	13899.11
252.287	13887.1
252.358	13860.4
252.429	13849.36
252.499	13820.29
252.57	13802.79
252.641	13788.33
252.711	13762.92
252.782	13724.02
252.852	13722
252.923	13695
252.994	13667.23
253.064	13653.35
253.135	13627.9
253.205	13606.83
253.276	13602.54
253.347	13590.68
253.417	13556.89
253.488	13523.67
253.558	13489.54
253.629	13467.08
253.699	13433.72
253.77	13415.26
253.841	13394.72
253.911	13372.79
253.982	13352.88
254.052	13325.45
254.123	13304.53
254.193	13281.19
254.264	13294.64
254.334	13261.29
254.405	13231.45
254.475	13195.39
254.546	13176.06
254.616	13163.96
254.687	13146.02
254.757	13120.81
254.827	13092.13
254.898	13081.72
254.968	13057.28
255.039	13023
255.109	13009.02
255.18	12979.67
255.25	12940.47
255.321	12915.45
255.391	12882.63
255.461	12877.56
255.532	12835.43
255.602	12806.7
255.673	12761
255.743	12720.41
255.813	12675.82
255.884	12663.44
255.954	12657.22
256.024	12645.5
256.095	12625.21
256.165	12585.25
256.235	12578.98
256.306	12557.48
256.376	12537.57
256.446	12517.62
256.517	12500.7
256.587	12491.59
256.657	12466.09
256.728	12440.92
256.798	12421.64
256.868	12395.52
256.938	12372.86
257.009	12360.42
257.079	12347.89
257.149	12355.51
257.219	12321.28
257.29	12312.75
257.36	12278
257.43	12257.94
257.5	12224.92
257.571	12198.94
257.641	12191.57
257.711	12153.39
257.781	12133.19
257.852	12118.11
257.922	12084.85
257.992	12066.39
258.062	12038.28
258.132	12038.67
258.202	12017.85
258.273	11996.88
258.343	11988.93
258.413	11957.84
258.483	11936.19
258.553	11900.24
258.623	11870.5
258.693	11857.96
258.764	11848.76
258.834	11845.19
258.904	11829.24
258.974	11802.73
259.044	11783.45
259.114	11764.99
259.184	11754.33
259.254	11737.27
259.324	11702.57
259.394	11694.13
259.464	11695.29
259.535	11675.77
259.605	11650.61
259.675	11629.89
259.745	11622.61
259.815	11597.16
259.885	11572.19
259.955	11585.3
260.025	11565.16
260.095	11542.31
260.165	11527.56
260.235	11520.19
260.305	11486.69
260.375	11453.53
260.445	11462.02
260.515	11458.31
260.585	11448.67
260.655	11427.27
260.725	11420.76
260.795	11410.74
260.865	11406.06
260.934	11382.59
261.004	11374.54
261.074	11355.7
261.144	11350.4
261.214	11339.07
261.284	11322.64
261.354	11313.77
261.424	11289.04
261.494	11285.86
261.564	11265.86
261.634	11253.96
261.703	11216.08
261.773	11208.85
261.843	11199.69
261.913	11172.95
261.983	11136.8
262.053	11121.91
262.123	11104.13
262.192	11070.54
262.262	11062.11
262.332	11035.02
262.402	11021.72
262.472	11005.77
