Data from 20250630_urea_2M_MAYP1162681_04-52-27-039.txt Node
Date: Tue Jul 01 04:52:27 BST 2025
User: adleo
Spectrometer: MAYP116268
Trigger mode: 0
Integration Time (sec): 1.000000E0
Scans to average: 1
Electric dark correction enabled: true
Nonlinearity correction enabled: true
Boxcar width: 10
XAxis mode: Wavelengths
Number of Pixels in Spectrum: 2068
>>>>>Begin Spectral Data<<<<<
179.565	1056.14
179.642	1103.73
179.718	1141.77
179.795	1173.17
179.871	1201.71
179.948	1216.65
180.024	1232.53
180.101	1252.07
180.177	1265.83
180.254	1285.95
180.33	1306.67
180.407	1347.95
180.483	1431.19
180.56	1509.91
180.636	1582.87
180.712	1573.37
180.789	1581.45
180.865	1592.23
180.942	1600.25
181.018	1608.71
181.095	1619.44
181.171	1621.11
181.248	1620.73
181.324	1634.22
181.4	1642.49
181.477	1650.95
181.553	1662.39
181.63	1682.01
181.706	1697.5
181.782	1702.97
181.859	1700.5
181.935	1702.4
182.011	1699.4
182.088	1715.7
182.164	1731.96
182.24	1742.84
182.317	1751.63
182.393	1750.72
182.469	1761.41
182.546	1774.2
182.622	1776.95
182.698	1772.15
182.775	1784.75
182.851	1799.81
182.927	1790.5
183.003	1782.85
183.08	1777.05
183.156	1784.04
183.232	1779.71
183.308	1768.73
183.385	1778.05
183.461	1797.72
183.537	1801.14
183.613	1813.64
183.69	1801.95
183.766	1791.21
183.842	1799.29
183.918	1803.33
183.995	1814.02
184.071	1816.97
184.147	1813.64
184.223	1805.52
184.299	1816.02
184.375	1803.81
184.452	1808.85
184.528	1862.43
184.604	1876.21
184.68	1887.62
184.756	1896.13
184.832	1900.83
184.908	1904.06
184.985	1903.16
185.061	1883.39
185.137	1889.23
185.213	1877.21
185.289	1884
185.365	1878.3
185.441	1877.26
185.517	1890.86
185.593	1886.86
185.669	1887.34
185.745	1895.37
185.822	1910.77
185.898	1905.87
185.974	1918.51
186.05	1911.67
186.126	1875.39
186.202	1868.31
186.278	1863.93
186.354	1851.77
186.43	1860.28
186.506	1860.51
186.582	1859.8
186.658	1867.74
186.734	1852.2
186.81	1855.66
186.886	1856.66
186.962	1866.93
187.038	1864.46
187.114	1858.94
187.19	1866.12
187.266	1855.9
187.341	1856.99
187.417	1849.39
187.493	1850.29
187.569	1851.53
187.645	1844.87
187.721	1834.65
187.797	1840.45
187.873	1848.91
187.949	1846.54
188.025	1840.26
188.101	1840.02
188.176	1844.63
188.252	1841.54
188.328	1848.05
188.404	1848.72
188.48	1844.3
188.556	1841.25
188.632	1841.02
188.707	1836.93
188.783	1834.17
188.859	1829.94
188.935	1817.87
189.011	1826.56
189.086	1821.67
189.162	1812.26
189.238	1812.64
189.314	1810.4
189.39	1806.7
189.465	1797.05
189.541	1812.16
189.617	1797.72
189.693	1795.67
189.768	1799.38
189.844	1821.2
189.92	1815.45
189.996	1823.01
190.071	1832.33
190.147	1829.57
190.223	1837.94
190.298	1829.91
190.374	1817.79
190.45	1829.33
190.526	1838.46
190.601	1833.75
190.677	1835.99
190.753	1863.1
190.828	1864.71
190.904	1877.74
190.98	1892.14
191.055	1904.84
191.131	1897.9
191.207	1915.39
191.282	1924.18
191.358	1914.34
191.433	1902.54
191.509	1914.33
191.585	1912.43
191.66	1912.52
191.736	1921.41
191.811	1911.52
191.887	1927.78
191.963	1949.75
192.038	1952.12
192.114	1953.69
192.189	1958.64
192.265	1953.22
192.34	1930.29
192.416	1929.15
192.491	1926.82
192.567	1927.06
192.642	1927.87
192.718	1928.34
192.793	1918.03
192.869	1914.89
192.944	1916.7
193.02	1924.4
193.095	1922.74
193.171	1925.21
193.246	1923.59
193.322	1919.41
193.397	1921.17
193.473	1911.51
193.548	1897.01
193.624	1902.1
193.699	1899.1
193.775	1914.13
193.85	1917.6
193.925	1927.73
194.001	1926.11
194.076	1916.84
194.152	1907.57
194.227	1898.77
194.302	1888.08
194.378	1891.46
194.453	1887.42
194.529	1897.92
194.604	1883.42
194.679	1881.09
194.755	1864.13
194.83	1876.21
194.905	1873.17
194.981	1880.63
195.056	1872.83
195.131	1876.02
195.207	1877.16
195.282	1869.7
195.357	1847.35
195.433	1856.52
195.508	1844.5
195.583	1850.34
195.659	1864.7
195.734	1869.46
195.809	1870.07
195.884	1878.34
195.96	1880.77
196.035	1895.55
196.11	1892.7
196.185	1901.97
196.261	1904.68
196.336	1933.82
196.411	1921.4
196.486	1927.3
196.561	1920.64
196.637	1927.87
196.712	1942.99
196.787	1945.37
196.862	1958.68
196.937	1972.28
197.013	1982.03
197.088	1991.87
197.163	2017.22
197.238	2031.83
197.313	2033.92
197.388	2043.81
197.464	2071.83
197.539	2077.59
197.614	2070.03
197.689	2083.15
197.764	2100.99
197.839	2121.73
197.914	2119.83
197.989	2139.04
198.065	2154.6
198.14	2199.43
198.215	2225.41
198.29	2235.02
198.365	2246.78
198.44	2256.77
198.515	2279.61
198.59	2291.46
198.665	2316.77
198.74	2319.68
198.815	2318.58
198.89	2336.19
198.965	2368.52
199.04	2366.28
199.115	2381.36
199.19	2423.39
199.265	2425.67
199.34	2430.43
199.415	2459.39
199.49	2475.81
199.565	2484.71
199.64	2506.14
199.715	2505
199.79	2509.38
199.865	2516.14
199.94	2514.95
200.015	2543.14
200.09	2549.14
200.165	2556.19
200.24	2560.67
200.315	2596.79
200.39	2612.94
200.464	2622.8
200.539	2620.08
200.614	2633.94
200.689	2654.61
200.764	2657.23
200.839	2672.03
200.914	2683.23
200.989	2670.74
201.063	2683.22
201.138	2666.85
201.213	2665.23
201.288	2648.13
201.363	2652.32
201.438	2653.8
201.512	2667.89
201.587	2649.08
201.662	2651.74
201.737	2661.08
201.812	2667.04
201.886	2638.34
201.961	2645.34
202.036	2635.77
202.111	2632.91
202.186	2606.4
202.26	2592.3
202.335	2572.2
202.41	2565.53
202.485	2545.06
202.559	2529.39
202.634	2506.92
202.709	2516.58
202.784	2497.05
202.858	2497.01
202.933	2481.1
203.008	2473.58
203.082	2455.92
203.157	2458.87
203.232	2420.84
203.306	2401.03
203.381	2374.04
203.456	2352.28
203.53	2332.61
203.605	2313.43
203.68	2292.63
203.754	2286.87
203.829	2271.88
203.904	2255.08
203.978	2244.9
204.053	2247.23
204.127	2234.62
204.202	2231.24
204.277	2217.16
204.351	2213.07
204.426	2204.97
204.5	2197.5
204.575	2167.39
204.65	2177.53
204.724	2168.68
204.799	2177
204.873	2175.48
204.948	2173.05
205.022	2161.26
205.097	2153.97
205.171	2166.48
205.246	2175.05
205.32	2174.19
205.395	2177.19
205.469	2169.92
205.544	2175.91
205.618	2162.78
205.693	2176.87
205.767	2162.5
205.842	2180.2
205.916	2173.59
205.991	2165.79
206.065	2170.26
206.14	2183.15
206.214	2174.72
206.289	2169.96
206.363	2180.14
206.438	2181.38
206.512	2186.71
206.586	2205.07
206.661	2213.5
206.735	2193.38
206.81	2191.76
206.884	2209.08
206.958	2196.95
207.033	2212.17
207.107	2218.12
207.181	2247.44
207.256	2240.49
207.33	2260.33
207.405	2272.95
207.479	2290.74
207.553	2297.45
207.628	2284.75
207.702	2294.98
207.776	2293.17
207.851	2294.07
207.925	2307.21
207.999	2304.36
208.073	2303.79
208.148	2308.45
208.222	2296.98
208.296	2324.52
208.371	2343.76
208.445	2350.76
208.519	2377.03
208.593	2385.22
208.668	2381.5
208.742	2380.74
208.816	2381.74
208.89	2394.45
208.965	2393.79
209.039	2400.4
209.113	2413.87
209.187	2432.24
209.261	2431
209.336	2447.28
209.41	2466.75
209.484	2466.42
209.558	2487.56
209.632	2501.51
209.707	2509.84
209.781	2526.79
209.855	2543.51
209.929	2556.38
210.003	2558.76
210.077	2558.24
210.151	2606.09
210.226	2638.78
210.3	2664.43
210.374	2685.99
210.448	2693.76
210.522	2698.29
210.596	2709
210.67	2719.96
210.744	2762.71
210.818	2793.33
210.892	2813.53
210.966	2811.96
211.041	2826.4
211.115	2821.25
211.189	2844.13
211.263	2862.57
211.337	2871.67
211.411	2884.54
211.485	2883.63
211.559	2898.64
211.633	2903.35
211.707	2875.93
211.781	2882.56
211.855	2857.34
211.929	2850.44
212.003	2835.15
212.077	2851.83
212.151	2867.66
212.225	2882.63
212.299	2877.57
212.373	2872.33
212.447	2878.81
212.52	2911.23
212.594	2923.92
212.668	2944.31
212.742	2940.45
212.816	2945.41
212.89	2951.22
212.964	2965.49
213.038	2976.08
213.112	3003.02
213.186	3032.39
213.26	3030.05
213.333	3011.55
213.407	3034.53
213.481	3061.07
213.555	3096.48
213.629	3111.61
213.703	3120.38
213.777	3145.01
213.85	3155.93
213.924	3217.41
213.998	3245.28
214.072	3269.68
214.146	3291.29
214.219	3328.43
214.293	3362.16
214.367	3404.03
214.441	3456.68
214.515	3487.96
214.588	3513.21
214.662	3527.06
214.736	3558.05
214.81	3616.8
214.883	3676.03
214.957	3721.49
215.031	3765.7
215.105	3803.09
215.178	3849.39
215.252	3905.29
215.326	3945.2
215.4	3988.62
215.473	4008.18
215.547	4061.74
215.621	4122.12
215.694	4195.58
215.768	4242.07
215.842	4305.48
215.915	4362.04
215.989	4415.1
216.063	4483.46
216.136	4562.99
216.21	4644.57
216.284	4736.35
216.357	4818.22
216.431	4899.82
216.504	4986.5
216.578	5095.14
216.652	5190.1
216.725	5276.74
216.799	5378.75
216.873	5471.72
216.946	5574.56
217.02	5665.29
217.093	5752.86
217.167	5823.02
217.24	5903.95
217.314	6001.07
217.387	6086.83
217.461	6183.38
217.535	6289.82
217.608	6377.62
217.682	6479.59
217.755	6586.66
217.829	6670.66
217.902	6768.63
217.976	6860.51
218.049	6956.44
218.123	7038.27
218.196	7141.76
218.27	7236.05
218.343	7322.73
218.417	7422.18
218.49	7522.31
218.563	7634.61
218.637	7737.13
218.71	7859.56
218.784	7973.12
218.857	8081.91
218.931	8196.14
219.004	8296.3
219.077	8401.68
219.151	8505.94
219.224	8595.26
219.298	8690.83
219.371	8805.1
219.444	8894.09
219.518	9003.16
219.591	9104.34
219.665	9233.63
219.738	9329.92
219.811	9422.4
219.885	9524.3
219.958	9626.29
220.031	9727.91
220.105	9834.79
220.178	9936.71
220.251	10026.11
220.325	10120.53
220.398	10223.96
220.471	10323.59
220.544	10425.38
220.618	10511.24
220.691	10609.62
220.764	10716.88
220.838	10819.12
220.911	10903.74
220.984	11011.82
221.057	11108.29
221.131	11201.92
221.204	11266.6
221.277	11375.52
221.35	11496.49
221.424	11583.14
221.497	11676.64
221.57	11761.61
221.643	11845.87
221.716	11939.71
221.79	12017.7
221.863	12101.37
221.936	12181.44
222.009	12262.32
222.082	12351.06
222.155	12428.38
222.229	12522.95
222.302	12596.03
222.375	12668.72
222.448	12754.43
222.521	12840.96
222.594	12913.41
222.667	12978.92
222.74	13057.11
222.814	13128.17
222.887	13189.39
222.96	13272.83
223.033	13359.89
223.106	13438.95
223.179	13518.88
223.252	13585.84
223.325	13667.35
223.398	13741.4
223.471	13815.15
223.544	13881.2
223.617	13953.55
223.69	14032.42
223.763	14087.42
223.837	14158.14
223.91	14232.76
223.983	14278.41
224.056	14332.02
224.129	14396.95
224.202	14469.64
224.275	14529.71
224.348	14580.27
224.42	14635.13
224.493	14676.06
224.566	14721.37
224.639	14784.37
224.712	14834.31
224.785	14888.01
224.858	14940.7
224.931	14987.55
225.004	15028.52
225.077	15091.86
225.15	15117.89
225.223	15166.43
225.296	15238.44
225.369	15279.61
225.442	15319.57
225.514	15388.88
225.587	15437.71
225.66	15498.88
225.733	15553.25
225.806	15608.58
225.879	15664.54
225.952	15696.69
226.025	15765.38
226.097	15827.46
226.17	15871.56
226.243	15899.71
226.316	15948.73
226.389	16001.75
226.461	16066.09
226.534	16122.82
226.607	16167.36
226.68	16245.01
226.753	16296.67
226.825	16328.29
226.898	16392.1
226.971	16444.3
227.044	16488.02
227.117	16536.89
227.189	16580.36
227.262	16638.34
227.335	16690.92
227.407	16729.19
227.48	16788.95
227.553	16834.64
227.626	16871.27
227.698	16912.04
227.771	16971.61
227.844	17009.35
227.916	17053.21
227.989	17071.86
228.062	17106.41
228.134	17165.31
228.207	17199.57
228.28	17228.15
228.352	17262.8
228.425	17305.98
228.498	17355.19
228.57	17391.04
228.643	17445.79
228.716	17476.92
228.788	17510.27
228.861	17545.36
228.934	17603.57
229.006	17646.66
229.079	17677.11
229.151	17708.53
229.224	17734.7
229.296	17774.51
229.369	17837.88
229.442	17883.42
229.514	17922.02
229.587	17970.17
229.659	17989.97
229.732	18025.15
229.804	18079.61
229.877	18137.34
229.949	18182.01
230.022	18228.52
230.094	18267.55
230.167	18291.45
230.239	18314.92
230.312	18342.49
230.384	18391.02
230.457	18416.31
230.529	18448.12
230.602	18483.44
230.674	18519.97
230.747	18572.74
230.819	18617.17
230.892	18614.76
230.964	18641.41
231.037	18674.42
231.109	18696.88
231.181	18732.49
231.254	18749.4
231.326	18763.77
231.399	18782.8
231.471	18791.33
231.544	18797.11
231.616	18827.81
231.688	18857.93
231.761	18885.64
231.833	18903.08
231.905	18901.2
231.978	18925.35
232.05	18945.44
232.122	18971.56
232.195	18985.97
232.267	19004.23
232.339	19006.98
232.412	19049.53
232.484	19066.69
232.556	19080.85
232.629	19125.96
232.701	19144.99
232.773	19166.97
232.846	19183.35
232.918	19206.15
232.99	19230.48
233.062	19255.3
233.135	19267.78
233.207	19265.42
233.279	19290.91
233.351	19317.37
233.424	19334.48
233.496	19335.15
233.568	19361.32
233.64	19358.19
233.713	19369.41
233.785	19379.58
233.857	19394.86
233.929	19382.52
234.001	19405.17
234.074	19428.59
234.146	19410.95
234.218	19407.39
234.29	19406.52
234.362	19402.33
234.434	19383.44
234.507	19365.9
234.579	19351.05
234.651	19348.74
234.723	19372.88
234.795	19373.9
234.867	19364.74
234.939	19368.35
235.012	19380.02
235.084	19382.23
235.156	19388.98
235.228	19380.69
235.3	19369.46
235.372	19362.67
235.444	19366.72
235.516	19341.9
235.588	19333.95
235.66	19336.07
235.732	19338.14
235.804	19391.49
235.876	19397.8
235.948	19414.18
236.02	19416.54
236.092	19419.24
236.164	19419.34
236.236	19401.94
236.308	19391.05
236.38	19384.64
236.452	19381.51
236.524	19369.22
236.596	19380.64
236.668	19378.38
236.74	19378.14
236.812	19372.55
236.884	19369.22
236.956	19368.4
237.028	19357.46
237.1	19339.01
237.172	19340.98
237.244	19346
237.316	19290.91
237.388	19275.4
237.46	19249.95
237.532	19259.3
237.604	19234.58
237.675	19231.98
237.747	19223.06
237.819	19204.56
237.891	19191.59
237.963	19153.77
238.035	19131.94
238.107	19076.18
238.178	19071.31
238.25	19049.39
238.322	19056.52
238.394	19029.82
238.466	19015.03
238.538	19001.34
238.609	18993.63
238.681	18948.04
238.753	18910.6
238.825	18901.3
238.897	18892
238.968	18896.62
239.04	18862.75
239.112	18873.73
239.184	18846.12
239.255	18823.33
239.327	18808.34
239.399	18793.16
239.471	18797.5
239.542	18786.13
239.614	18779.62
239.686	18732.73
239.758	18723.38
239.829	18694.56
239.901	18685.55
239.973	18662.9
240.044	18641.8
240.116	18620.98
240.188	18597.27
240.259	18584.45
240.331	18554.24
240.403	18534.72
240.474	18487.97
240.546	18460.84
240.618	18419.4
240.689	18381.76
240.761	18367.6
240.833	18362.39
240.904	18327.84
240.976	18292.66
241.048	18271.21
241.119	18256.37
241.191	18229.77
241.262	18218.06
241.334	18188.71
241.405	18154.93
241.477	18110.35
241.549	18083.99
241.62	18056.04
241.692	18045.54
241.763	18025.88
241.835	18003.66
241.906	17973.64
241.978	17943.9
242.049	17925.45
242.121	17896.19
242.192	17888.39
242.264	17835.91
242.335	17787.67
242.407	17774.17
242.478	17744.68
242.55	17709.21
242.621	17675.43
242.693	17655.19
242.764	17620.44
242.836	17589.45
242.907	17571.57
242.979	17552.01
243.05	17524.39
243.122	17497.98
243.193	17467.57
243.264	17417.65
243.336	17384.01
243.407	17368.44
243.479	17352.35
243.55	17327.09
243.622	17310.18
243.693	17273.55
243.764	17263.57
243.836	17225.64
243.907	17201.6
243.978	17174.8
244.05	17149.88
244.121	17102.03
244.192	17078.07
244.264	17026.89
244.335	16998.22
244.407	16951.95
244.478	16930.5
244.549	16903.61
244.62	16854.93
244.692	16819.27
244.763	16796.04
244.834	16760.04
244.906	16712.85
244.977	16678.73
245.048	16658.78
245.119	16624.17
245.191	16585.47
245.262	16537.61
245.333	16530.72
245.405	16497.27
245.476	16472.89
245.547	16441.8
245.618	16418.18
245.689	16397.55
245.761	16375.58
245.832	16343.91
245.903	16317.98
245.974	16289.06
246.045	16255.76
246.117	16255.18
246.188	16216.48
246.259	16176.95
246.33	16143.99
246.401	16106.78
246.473	16063.2
246.544	16028.98
246.615	16001.94
246.686	15969.46
246.757	15951.09
246.828	15896.29
246.899	15866.22
246.97	15814.59
247.042	15784.47
247.113	15759.89
247.184	15740.51
247.255	15704.99
247.326	15668.5
247.397	15650.28
247.468	15624.59
247.539	15594.42
247.61	15547.71
247.681	15533.97
247.752	15516.38
247.823	15481.14
247.894	15463.89
247.965	15427.2
248.037	15384.5
248.108	15340.15
248.179	15309.21
248.25	15277.1
248.321	15251.36
248.392	15218.88
248.463	15218.83
248.534	15184.41
248.605	15164.6
248.675	15120.5
248.746	15095.82
248.817	15071.81
248.888	15038.89
248.959	14994.06
249.03	14966.44
249.101	14934.38
249.172	14900.55
249.243	14855.67
249.314	14844.48
249.385	14813.01
249.456	14797.87
249.527	14767.6
249.598	14745.18
249.669	14721.71
249.739	14699.44
249.81	14686.28
249.881	14642.85
249.952	14609.05
250.023	14578.73
250.094	14531.69
250.165	14494.28
250.235	14470.32
250.306	14446.65
250.377	14404.86
250.448	14379.5
250.519	14339.73
250.59	14328.93
250.66	14301.12
250.731	14286.47
250.802	14252.34
250.873	14231.7
250.944	14199.84
251.014	14175.11
251.085	14172.65
251.156	14146.09
251.227	14132.35
251.297	14117.5
251.368	14109.6
251.439	14093.64
251.51	14077.16
251.58	14049.05
251.651	14023.84
251.722	14005.38
251.792	13953.89
251.863	13931.38
251.934	13919.81
252.005	13921.93
252.075	13891.27
252.146	13874.88
252.217	13858.88
252.287	13842.15
252.358	13814.14
252.429	13807.2
252.499	13777.94
252.57	13753.31
252.641	13739.95
252.711	13706.3
252.782	13662.15
252.852	13655.16
252.923	13626.09
252.994	13610.61
253.064	13594.71
253.135	13564.67
253.205	13540.96
253.276	13547.85
253.347	13537.77
253.417	13504.95
253.488	13475.25
253.558	13452.93
253.629	13423.33
253.699	13397.01
253.77	13387.23
253.841	13357.63
253.911	13345.29
253.982	13323.06
254.052	13298.96
254.123	13273.89
254.193	13254.22
254.264	13268.78
254.334	13232.58
254.405	13201.49
254.475	13162.05
254.546	13142.38
254.616	13134.29
254.687	13113.08
254.757	13090.95
254.827	13070.56
254.898	13046.12
254.968	13019.41
255.039	12989.62
255.109	12977.66
255.18	12952.93
255.25	12901.69
255.321	12888.53
255.391	12841.92
255.461	12837.43
255.532	12790.58
255.602	12764.84
255.673	12724.58
255.743	12692.33
255.813	12649.29
255.884	12642.06
255.954	12630.97
256.024	12620.56
256.095	12597.42
256.165	12558.18
256.235	12537.98
256.306	12500.67
256.376	12493.3
256.446	12483.17
256.517	12467.51
256.587	12456.95
256.657	12441.67
256.728	12427.84
256.798	12406.63
256.868	12387.73
256.938	12360.74
257.009	12355.29
257.079	12341.55
257.149	12352.3
257.219	12307.23
257.29	12289.54
257.36	12252.66
257.43	12241.67
257.5	12203.74
257.571	12178.34
257.641	12171.06
257.711	12134.95
257.781	12128.64
257.852	12106.08
257.922	12070.22
257.992	12043.18
258.062	12017.92
258.132	12000.52
258.202	11980.9
258.273	11967.07
258.343	11966.54
258.413	11940.12
258.483	11921.56
258.553	11893.08
258.623	11854.85
258.693	11843.67
258.764	11847.53
258.834	11834.08
258.904	11812.2
258.974	11782.89
259.044	11762.07
259.114	11747.56
259.184	11741.83
259.254	11719.8
259.324	11687.8
259.394	11671.22
259.464	11673.29
259.535	11654.25
259.605	11630.39
259.675	11604.56
259.745	11588.17
259.815	11554.96
259.885	11530.72
259.955	11534
260.025	11508.36
260.095	11489.8
260.165	11481.03
260.235	11474.67
260.305	11451.1
260.375	11423.77
260.445	11433.32
260.515	11430.42
260.585	11422.95
260.655	11400.3
260.725	11390.9
260.795	11379.58
260.865	11376.64
260.934	11345.12
261.004	11324.92
261.074	11309.89
261.144	11302.03
261.214	11287.62
261.284	11267.96
261.354	11259.67
261.424	11234.56
261.494	11239.04
261.564	11224.68
261.634	11212.34
261.703	11176
261.773	11164.44
261.843	11152.44
261.913	11128.58
261.983	11094.08
262.053	11081.93
262.123	11060.59
262.192	11026.95
262.262	11022.37
262.332	10994.08
262.402	10987.82
262.472	10971.92
