Data from 20250630_reference_H2O_MAYP1162681_16-18-42-687.txt Node
Date: Mon Jun 30 16:18:42 BST 2025
User: adleo
Spectrometer: MAYP116268
Trigger mode: 0
Integration Time (sec): 1.000000E0
Scans to average: 1
Electric dark correction enabled: true
Nonlinearity correction enabled: true
Boxcar width: 10
XAxis mode: Wavelengths
Number of Pixels in Spectrum: 2068
>>>>>Begin Spectral Data<<<<<
179.565	999.46
179.642	1045.39
179.718	1080.11
179.795	1114.07
179.871	1140.31
179.948	1153.8
180.024	1170.11
180.101	1190.74
180.177	1202.65
180.254	1220.85
180.33	1238.54
180.407	1277.03
180.483	1354.66
180.56	1427.97
180.636	1497.56
180.712	1487.96
180.789	1493.76
180.865	1507.19
180.942	1512.56
181.018	1522.15
181.095	1533.36
181.171	1534.88
181.248	1535.16
181.324	1545.19
181.4	1549.7
181.477	1558.58
181.553	1570.78
181.63	1588.83
181.706	1597.53
181.782	1605.31
181.859	1604.51
181.935	1610.4
182.011	1607.64
182.088	1627.17
182.164	1645.51
182.24	1659.52
182.317	1667.88
182.393	1668.41
182.469	1678.38
182.546	1689.55
182.622	1693.06
182.698	1688.26
182.775	1699.19
182.851	1710.35
182.927	1706.93
183.003	1701.09
183.08	1693.77
183.156	1700.57
183.232	1699.62
183.308	1694.72
183.385	1701.23
183.461	1719.67
183.537	1718.1
183.613	1728.27
183.69	1717.72
183.766	1706.12
183.842	1711.49
183.918	1716.44
183.995	1726.75
184.071	1729.41
184.147	1729.22
184.223	1721.33
184.299	1734.64
184.375	1726.61
184.452	1732.69
184.528	1784.17
184.604	1797.38
184.68	1811.35
184.756	1818.62
184.832	1821.09
184.908	1822.7
184.985	1823.04
185.061	1809.11
185.137	1819.85
185.213	1812.39
185.289	1814.05
185.365	1809.64
185.441	1809.97
185.517	1823.57
185.593	1823.19
185.669	1822
185.745	1832.07
185.822	1848.32
185.898	1841.76
185.974	1854.26
186.05	1852.83
186.126	1821.65
186.202	1822.51
186.278	1825.6
186.354	1822.89
186.43	1835.68
186.506	1845.18
186.582	1854.21
186.658	1870.18
186.734	1862.96
186.81	1874.79
186.886	1890.29
186.962	1913.39
187.038	1922.66
187.114	1926.51
187.19	1947.39
187.266	1954
187.341	1968.13
187.417	1978.35
187.493	1993.85
187.569	2013.49
187.645	2025.33
187.721	2032.71
187.797	2057.34
187.873	2083.89
187.949	2101.68
188.025	2122.33
188.101	2156.59
188.176	2193.33
188.252	2223.88
188.328	2264.66
188.404	2301.54
188.48	2337.67
188.556	2373.24
188.632	2416.72
188.707	2463.16
188.783	2506.13
188.859	2551.4
188.935	2590.66
189.011	2645.05
189.086	2687.63
189.162	2726.79
189.238	2770.9
189.314	2816.49
189.39	2857.85
189.465	2896.27
189.541	2959.42
189.617	2993.22
189.693	3028.88
189.768	3078.15
189.844	3142.76
189.92	3187.59
189.996	3250.29
190.071	3315.02
190.147	3375.93
190.223	3444.03
190.298	3503.73
190.374	3564.26
190.45	3649.95
190.526	3732.86
190.601	3809.47
190.677	3895.53
190.753	4006.7
190.828	4099.23
190.904	4200.79
190.98	4304.61
191.055	4408.01
191.131	4496.33
191.207	4607.3
191.282	4706.88
191.358	4779.55
191.433	4847.99
191.509	4939.95
191.585	5014.77
191.66	5089.33
191.736	5163.26
191.811	5228.54
191.887	5307.35
191.963	5389.86
192.038	5456.67
192.114	5526.28
192.189	5599.01
192.265	5670.87
192.34	5730.8
192.416	5817.86
192.491	5901.65
192.567	5993.57
192.642	6093.57
192.718	6190.88
192.793	6284.46
192.869	6385.71
192.944	6500.01
193.02	6619.62
193.095	6737.72
193.171	6851.73
193.246	6970.2
193.322	7086.2
193.397	7196.74
193.473	7300.76
193.548	7393.4
193.624	7502.97
193.699	7602.51
193.775	7719.14
193.85	7816.85
193.925	7910.03
194.001	7987.97
194.076	8058.52
194.152	8129.71
194.227	8192.92
194.302	8252.04
194.378	8321.75
194.453	8395.27
194.529	8483.72
194.604	8548.64
194.679	8621.94
194.755	8686.63
194.83	8777.67
194.905	8863.26
194.981	8967.93
195.056	9051.31
195.131	9158.87
195.207	9257.68
195.282	9347.72
195.357	9431.95
195.433	9545.65
195.508	9647.13
195.583	9758.91
195.659	9881
195.734	9985.57
195.809	10087.35
195.884	10203.14
195.96	10301.55
196.035	10405.36
196.11	10493.14
196.185	10595.13
196.261	10685.71
196.336	10800.96
196.411	10872.76
196.486	10959.83
196.561	11018.86
196.637	11105.89
196.712	11189.5
196.787	11275.09
196.862	11364.92
196.937	11451.48
197.013	11528.74
197.088	11605.95
197.163	11710.5
197.238	11799.77
197.313	11877.22
197.388	11974.39
197.464	12080.39
197.539	12180.17
197.614	12266.54
197.689	12357.79
197.764	12453.62
197.839	12550.36
197.914	12622.38
197.989	12718.89
198.065	12804.74
198.14	12935.76
198.215	13041.66
198.29	13150.85
198.365	13237.33
198.44	13333.02
198.515	13429.09
198.59	13527.72
198.665	13628.28
198.74	13705.31
198.815	13785.91
198.89	13887.87
198.965	13988.72
199.04	14063.15
199.115	14148.28
199.19	14254.14
199.265	14332.95
199.34	14415.43
199.415	14523.84
199.49	14619.34
199.565	14709.67
199.64	14805.21
199.715	14882.39
199.79	14963.76
199.865	15034.66
199.94	15111.5
200.015	15214.7
200.09	15301.99
200.165	15383.89
200.24	15474.02
200.315	15589.41
200.39	15684.7
200.464	15768.53
200.539	15846.51
200.614	15934.91
200.689	16035.31
200.764	16122.06
200.839	16217.84
200.914	16311.58
200.989	16376.31
201.063	16477.96
201.138	16539.84
201.213	16625.97
201.288	16686.55
201.363	16772.3
201.438	16852.54
201.512	16948.45
201.587	17001.71
201.662	17087.4
201.737	17169.42
201.812	17257.95
201.886	17306.82
201.961	17392.8
202.036	17460.36
202.111	17537.04
202.186	17583.16
202.26	17650.92
202.335	17711.83
202.41	17781.71
202.485	17837.42
202.559	17905.22
202.634	17961.37
202.709	18050.09
202.784	18105.65
202.858	18193.94
202.933	18259.72
203.008	18332.34
203.082	18385.98
203.157	18469.83
203.232	18506.98
203.306	18575.9
203.381	18623.8
203.456	18680.76
203.53	18742.73
203.605	18805.33
203.68	18864.12
203.754	18947.54
203.829	19006.04
203.904	19060.78
203.978	19132.01
204.053	19213.79
204.127	19278.65
204.202	19349.1
204.277	19415.37
204.351	19500.66
204.426	19563.55
204.5	19635.21
204.575	19683.69
204.65	19775.45
204.724	19848.84
204.799	19944.55
204.873	20012.88
204.948	20098.86
205.022	20169.51
205.097	20232.74
205.171	20327.68
205.246	20410.67
205.32	20492.26
205.395	20571.25
205.469	20642.67
205.544	20729.52
205.618	20796.7
205.693	20890.78
205.767	20963.6
205.842	21064.14
205.916	21126.36
205.991	21198.22
206.065	21286.09
206.14	21378.34
206.214	21454.98
206.289	21525.78
206.363	21600.3
206.438	21687.79
206.512	21759.37
206.586	21842.37
206.661	21924.51
206.735	21976.33
206.81	22052.01
206.884	22139.07
206.958	22215.53
207.033	22313.15
207.107	22392.12
207.181	22496.44
207.256	22571.17
207.33	22667.93
207.405	22753.43
207.479	22847.05
207.553	22938.85
207.628	22994.88
207.702	23084.42
207.776	23159.16
207.851	23241.42
207.925	23338.68
207.999	23409.52
208.073	23483.25
208.148	23571.16
208.222	23643.07
208.296	23747.86
208.371	23850.69
208.445	23940.02
208.519	24037.79
208.593	24121.18
208.668	24203.23
208.742	24278.29
208.816	24353.06
208.89	24429.91
208.965	24497.83
209.039	24590.17
209.113	24674.84
209.187	24769.2
209.261	24835.97
209.336	24925.91
209.41	25028.4
209.484	25106.96
209.558	25207.04
209.632	25299.49
209.707	25386.69
209.781	25486.83
209.855	25575.73
209.929	25656.83
210.003	25730.2
210.077	25792.41
210.151	25911.7
210.226	26004.68
210.3	26100.46
210.374	26199.52
210.448	26277.63
210.522	26351.21
210.596	26431.94
210.67	26503.92
210.744	26615.08
210.818	26726.86
210.892	26813.26
210.966	26883.33
211.041	26974.42
211.115	27044.89
211.189	27136.41
211.263	27221.47
211.337	27294.16
211.411	27373.91
211.485	27431.02
211.559	27511.11
211.633	27586.31
211.707	27638.6
211.781	27719.48
211.855	27765.34
211.929	27824.57
212.003	27889.31
212.077	27981.27
212.151	28065.5
212.225	28151.23
212.299	28206.81
212.373	28251.42
212.447	28312.12
212.52	28391.83
212.594	28450.32
212.668	28522.39
212.742	28582.48
212.816	28651.27
212.89	28698.49
212.964	28765.55
213.038	28843.82
213.112	28913.25
213.186	28988.86
213.26	29021.01
213.333	29045.47
213.407	29108.23
213.481	29165.38
213.555	29224.7
213.629	29262.57
213.703	29306.38
213.777	29364.86
213.85	29406.54
213.924	29485.76
213.998	29547.96
214.072	29594.74
214.146	29644.22
214.219	29694.58
214.293	29744.84
214.367	29787.31
214.441	29869.36
214.515	29915.12
214.588	29939.99
214.662	29963.02
214.736	30007.23
214.81	30059.42
214.883	30116.36
214.957	30164.26
215.031	30209.88
215.105	30245.82
215.178	30283.85
215.252	30314.14
215.326	30330.5
215.4	30362.52
215.473	30376.27
215.547	30404.58
215.621	30438.75
215.694	30482.93
215.768	30510.52
215.842	30535.69
215.915	30561.33
215.989	30575.18
216.063	30599.18
216.136	30643.86
216.21	30680.29
216.284	30717.61
216.357	30764.56
216.431	30798.68
216.504	30831.74
216.578	30882.43
216.652	30927.82
216.725	30967.42
216.799	31022.99
216.873	31058.28
216.946	31091.82
217.02	31124.25
217.093	31147.2
217.167	31148.84
217.24	31163.32
217.314	31180.6
217.387	31204.23
217.461	31229.16
217.535	31256.32
217.608	31281.4
217.682	31306.43
217.755	31337.75
217.829	31358.67
217.902	31379.39
217.976	31400.99
218.049	31417.45
218.123	31429.07
218.196	31447.28
218.27	31463.5
218.343	31458.75
218.417	31478.17
218.49	31503.01
218.563	31534.96
218.637	31565.86
218.71	31615.01
218.784	31638.93
218.857	31669.29
218.931	31684.69
219.004	31691.13
219.077	31718.15
219.151	31745.27
219.224	31752.92
219.298	31772.88
219.371	31786.14
219.444	31779.61
219.518	31798.54
219.591	31807.41
219.665	31842.04
219.738	31862.91
219.811	31859.47
219.885	31874
219.958	31895.5
220.031	31906.16
220.105	31922.43
220.178	31932.07
220.251	31934.98
220.325	31948.59
220.398	31973.34
220.471	32001.48
220.544	32034.07
220.618	32028.84
220.691	32027.39
220.764	32045.7
220.838	32053.83
220.911	32047.3
220.984	32092.44
221.057	32099.51
221.131	32115.98
221.204	32091.61
221.277	32099.41
221.35	32137.82
221.424	32137.04
221.497	32132.05
221.57	32137.28
221.643	32132.68
221.716	32125.9
221.79	32126.68
221.863	32117.86
221.936	32104.2
222.009	32081.44
222.082	32072.77
222.155	32074.51
222.229	32083.32
222.302	32067.63
222.375	32049.32
222.448	32053.68
222.521	32032.66
222.594	32016.19
222.667	31998.32
222.74	31988.15
222.814	31979.58
222.887	31960.35
222.96	31964.03
223.033	31966.89
223.106	31939.19
223.179	31923.49
223.252	31914.34
223.325	31891.19
223.398	31876.66
223.471	31853.22
223.544	31846.49
223.617	31836.9
223.69	31821.98
223.763	31789.82
223.837	31768.47
223.91	31767.45
223.983	31747.35
224.056	31712.97
224.129	31702.08
224.202	31680.67
224.275	31653.66
224.348	31608.67
224.42	31580.92
224.493	31549.88
224.566	31525.72
224.639	31523.25
224.712	31502.43
224.785	31478.31
224.858	31449.6
224.931	31416.14
225.004	31387.97
225.077	31358.38
225.15	31307.45
225.223	31266.69
225.296	31261.6
225.369	31228.68
225.442	31192.52
225.514	31154.08
225.587	31133.89
225.66	31102.76
225.733	31086.93
225.806	31075.51
225.879	31063.12
225.952	31024.2
226.025	31008.56
226.097	30990.16
226.17	30965.86
226.243	30905.02
226.316	30872.68
226.389	30847.37
226.461	30834.11
226.534	30819.83
226.607	30787.6
226.68	30775.79
226.753	30749.9
226.825	30697.81
226.898	30692.49
226.971	30659
227.044	30641.63
227.117	30613.94
227.189	30582.29
227.262	30568.64
227.335	30540.72
227.407	30495.28
227.48	30479.12
227.553	30438.27
227.626	30396.41
227.698	30355.81
227.771	30336.75
227.844	30301.52
227.916	30272.06
227.989	30216.56
228.062	30168.95
228.134	30162.51
228.207	30136.92
228.28	30099.13
228.352	30072.76
228.425	30026.37
228.498	30002.08
228.57	29960.19
228.643	29940.74
228.716	29913.21
228.788	29871.26
228.861	29829.8
228.934	29818.63
229.006	29778.52
229.079	29754.53
229.151	29715.73
229.224	29671.72
229.296	29660.21
229.369	29659.72
229.442	29649.37
229.514	29624.61
229.587	29603.14
229.659	29562.55
229.732	29532.51
229.804	29521.73
229.877	29509.54
229.949	29491.02
230.022	29490.48
230.094	29472.88
230.167	29448.02
230.239	29393.67
230.312	29358.37
230.384	29350.43
230.457	29330.12
230.529	29304.06
230.602	29260.59
230.674	29245.26
230.747	29227.08
230.819	29200.29
230.892	29138.87
230.964	29103.38
231.037	29073.98
231.109	29047.15
231.181	29021.57
231.254	28974.58
231.326	28944.89
231.399	28906.16
231.471	28868.4
231.544	28818.01
231.616	28793.5
231.688	28757.43
231.761	28741.29
231.833	28707.4
231.905	28652.86
231.978	28616.9
232.05	28588.28
232.122	28569.18
232.195	28522.15
232.267	28502.38
232.339	28465.64
232.412	28440.8
232.484	28401.45
232.556	28369.02
232.629	28345.97
232.701	28307.3
232.773	28285.89
232.846	28239.88
232.918	28203.15
232.99	28175.46
233.062	28139.93
233.135	28103.64
233.207	28065.22
233.279	28040.57
233.351	28013.12
233.424	27977.56
233.496	27930.98
233.568	27910.1
233.64	27861.44
233.713	27824.97
233.785	27778.97
233.857	27747.8
233.929	27708.13
234.001	27686.92
234.074	27662.28
234.146	27617.78
234.218	27576.43
234.29	27543.58
234.362	27507.63
234.434	27462.71
234.507	27417.92
234.579	27369.13
234.651	27333.43
234.723	27301.74
234.795	27271.45
234.867	27235.32
234.939	27220.25
235.012	27189
235.084	27162.67
235.156	27141.37
235.228	27115.34
235.3	27081.38
235.372	27049.17
235.444	27016.86
235.516	26951.9
235.588	26925.04
235.66	26890.71
235.732	26850.72
235.804	26854.49
235.876	26827.88
235.948	26805.23
236.02	26775.58
236.092	26742.36
236.164	26703.54
236.236	26656.07
236.308	26605.32
236.38	26570.7
236.452	26524.01
236.524	26487.36
236.596	26448.29
236.668	26411.25
236.74	26367.22
236.812	26341.15
236.884	26304.65
236.956	26281.33
237.028	26252.46
237.1	26197.18
237.172	26172.61
237.244	26149.49
237.316	26074.26
237.388	26029.85
237.46	25983.65
237.532	25952.66
237.604	25902.7
237.675	25876.88
237.747	25850.38
237.819	25817.41
237.891	25776.19
237.963	25725.51
238.035	25678.89
238.107	25614.84
238.178	25593.6
238.25	25553.83
238.322	25527.72
238.394	25468.84
238.466	25415.71
238.538	25372.76
238.609	25343.23
238.681	25282.56
238.753	25231.02
238.825	25202.31
238.897	25161.44
238.968	25140.16
239.04	25086.5
239.112	25083.46
239.184	25033.9
239.255	24977.26
239.327	24931.52
239.399	24890.84
239.471	24864.4
239.542	24838.93
239.614	24812.15
239.686	24741.27
239.758	24706.83
239.829	24647.05
239.901	24628.18
239.973	24592.58
240.044	24564.07
240.116	24526.01
240.188	24495.47
240.259	24476.66
240.331	24424.6
240.403	24395.37
240.474	24340.66
240.546	24303.38
240.618	24236.57
240.689	24185.49
240.761	24154.33
240.833	24129.2
240.904	24083.67
240.976	24039.1
241.048	23993.95
241.119	23956.23
241.191	23927.34
241.262	23899.13
241.334	23862.23
241.405	23812.7
241.477	23767.99
241.549	23724.97
241.62	23684.85
241.692	23638.84
241.763	23592.3
241.835	23547.4
241.906	23505.78
241.978	23453.7
242.049	23420.33
242.121	23389.04
242.192	23368.3
242.264	23318.39
242.335	23263.09
242.407	23231.26
242.478	23178.95
242.55	23144.85
242.621	23096.06
242.693	23046.34
242.764	23000.58
242.836	22960.76
242.907	22922.76
242.979	22885.68
243.05	22851.69
243.122	22816.64
243.193	22780.96
243.264	22718
243.336	22676.15
243.407	22639.84
243.479	22626.25
243.55	22591.44
243.622	22553.79
243.693	22508.85
243.764	22486.87
243.836	22432.73
243.907	22391.18
243.978	22359.17
244.05	22317.95
244.121	22268.68
244.192	22237.44
244.264	22194.35
244.335	22147.54
244.407	22099.62
244.478	22058.99
244.549	22011.46
244.62	21960.55
244.692	21911
244.763	21891.33
244.834	21857.83
244.906	21820.95
244.977	21779.11
245.048	21752.79
245.119	21707.15
245.191	21663.14
245.262	21604.38
245.333	21596.19
245.405	21556.81
245.476	21522.97
245.547	21486.77
245.618	21460.65
245.689	21432.84
245.761	21396.49
245.832	21366.51
245.903	21338.99
245.974	21307.52
246.045	21279.81
246.117	21258.79
246.188	21222.16
246.259	21181.73
246.33	21143.12
246.401	21098.49
246.473	21043.59
246.544	20994.82
246.615	20968.65
246.686	20924.11
246.757	20899.44
246.828	20847.15
246.899	20822.66
246.97	20776.78
247.042	20739.14
247.113	20714.61
247.184	20690.8
247.255	20647.57
247.326	20612.1
247.397	20574.7
247.468	20545.6
247.539	20517.16
247.61	20468.73
247.681	20445.02
247.752	20418.37
247.823	20376.92
247.894	20345.06
247.965	20312.87
248.037	20284.39
248.108	20232.44
248.179	20200.25
248.25	20166.03
248.321	20143.48
248.392	20098.37
248.463	20089.21
248.534	20053.7
248.605	20021.31
248.675	19989.07
248.746	19966.81
248.817	19944.3
248.888	19912.69
248.959	19860.55
249.03	19823.82
249.101	19790.28
249.172	19748.02
249.243	19693.81
249.314	19685.28
249.385	19651.59
249.456	19629.71
249.527	19599.5
249.598	19575.84
249.669	19553.62
249.739	19530.92
249.81	19505.82
249.881	19465.43
249.952	19429.44
250.023	19400.18
250.094	19352.57
250.165	19300.05
250.235	19267.04
250.306	19229.16
250.377	19193.3
250.448	19168.15
250.519	19125.89
250.59	19113.79
250.66	19087.34
250.731	19074.08
250.802	19040.3
250.873	19018.86
250.944	18983.63
251.014	18944.55
251.085	18944.21
251.156	18911.3
251.227	18887.3
251.297	18869.76
251.368	18857.33
251.439	18836.56
251.51	18815.55
251.58	18777.96
251.651	18744.32
251.722	18722.64
251.792	18684.66
251.863	18657.15
251.934	18640.04
252.005	18630.11
252.075	18599.46
252.146	18582.31
252.217	18564.77
252.287	18535.13
252.358	18500.24
252.429	18489.01
252.499	18451.28
252.57	18409.74
252.641	18394.08
252.711	18370.51
252.782	18325.16
252.852	18315.09
252.923	18283.62
252.994	18261.41
253.064	18247.05
253.135	18221.12
253.205	18189.07
253.276	18182.86
253.347	18166.42
253.417	18140.02
253.488	18102.52
253.558	18067.44
253.629	18040.55
253.699	18019.1
253.77	18004.26
253.841	17976.84
253.911	17950.53
253.982	17929.52
254.052	17920.07
254.123	17895.45
254.193	17864.22
254.264	17871.01
254.334	17831.26
254.405	17789.52
254.475	17752.03
254.546	17733.19
254.616	17726.05
254.687	17710.39
254.757	17681.09
254.827	17654.87
254.898	17636.08
254.968	17617.43
255.039	17590.92
255.109	17577.14
255.18	17541.09
255.25	17505.28
255.321	17491.45
255.391	17452.75
255.461	17452.95
255.532	17402.97
255.602	17374.3
255.673	17334.87
255.743	17304.37
255.813	17263.55
255.884	17259.26
255.954	17243.07
256.024	17221.33
256.095	17192.66
256.165	17150.87
256.235	17134.78
256.306	17100.99
256.376	17087.3
256.446	17072.75
256.517	17055.45
256.587	17030.34
256.657	17015.74
256.728	16991.11
256.798	16964.31
256.868	16937.61
256.938	16899.15
257.009	16889.95
257.079	16872.26
257.149	16873.22
257.219	16821.22
257.29	16801.8
257.36	16761.41
257.43	16742.13
257.5	16708.44
257.571	16685.41
257.641	16677.17
257.711	16639.57
257.781	16629.07
257.852	16604.87
257.922	16565.79
257.992	16541.78
258.062	16517.83
258.132	16494.84
258.202	16467.8
258.273	16451.56
258.343	16445.78
258.413	16419.51
258.483	16394.3
258.553	16364.18
258.623	16330.01
258.693	16321.14
258.764	16318.39
258.834	16309.67
258.904	16292.17
258.974	16263.3
259.044	16237.27
259.114	16220.79
259.184	16198.72
259.254	16175.39
259.324	16132.68
259.394	16115.28
259.464	16110.9
259.535	16079.67
259.605	16055.18
259.675	16023.47
259.745	15999.56
259.815	15964.33
259.885	15936.8
259.955	15945.82
260.025	15916.85
260.095	15888.7
260.165	15865.52
260.235	15846.04
260.305	15819.1
260.375	15793.02
260.445	15793.7
260.515	15788.25
260.585	15772.25
260.655	15752.1
260.725	15742.8
260.795	15733.4
260.865	15732.73
260.934	15697.73
261.004	15692.43
261.074	15666.64
261.144	15661.92
