Data from 20250630_urea_2M_MAYP1162681_04-42-27-088.txt Node
Date: Tue Jul 01 04:42:27 BST 2025
User: adleo
Spectrometer: MAYP116268
Trigger mode: 0
Integration Time (sec): 1.000000E0
Scans to average: 1
Electric dark correction enabled: true
Nonlinearity correction enabled: true
Boxcar width: 10
XAxis mode: Wavelengths
Number of Pixels in Spectrum: 2068
>>>>>Begin Spectral Data<<<<<
179.565	1044.77
179.642	1092.27
179.718	1129.7
179.795	1163.77
179.871	1194.17
179.948	1210.42
180.024	1229.51
180.101	1249.2
180.177	1259.93
180.254	1277.63
180.33	1297.86
180.407	1339.39
180.483	1424.14
180.56	1502.38
180.636	1577.87
180.712	1564.09
180.789	1570.21
180.865	1582.37
180.942	1592.06
181.018	1600.84
181.095	1617.43
181.171	1623.32
181.248	1626.12
181.324	1639.71
181.4	1647.31
181.477	1656.81
181.553	1669.16
181.63	1689.17
181.706	1704.85
181.782	1715.01
181.859	1717.48
181.935	1722.14
182.011	1719.91
182.088	1733.12
182.164	1751.75
182.24	1760.54
182.317	1769.47
182.393	1771.13
182.469	1781.87
182.546	1794.04
182.622	1800.45
182.698	1793.94
182.775	1807.25
182.851	1816.94
182.927	1809.67
183.003	1804.59
183.08	1798.08
183.156	1806.16
183.232	1801.78
183.308	1789.09
183.385	1793.56
183.461	1808.48
183.537	1809.24
183.613	1818.94
183.69	1811.48
183.766	1800.12
183.842	1808.1
183.918	1815.99
183.995	1824.59
184.071	1829.96
184.147	1824.97
184.223	1813.14
184.299	1824.27
184.375	1811.29
184.452	1819.19
184.528	1871.05
184.604	1879.89
184.68	1892.49
184.756	1899.38
184.832	1901.81
184.908	1907.65
184.985	1909.98
185.061	1896
185.137	1901
185.213	1891.78
185.289	1895.2
185.365	1890.02
185.441	1888.78
185.517	1899.29
185.593	1899.05
185.669	1893.92
185.745	1902.52
185.822	1918.34
185.898	1909.46
185.974	1918.77
186.05	1913.44
186.126	1874.31
186.202	1869.18
186.278	1864.1
186.354	1854.49
186.43	1860.24
186.506	1859.63
186.582	1857.58
186.658	1864.24
186.734	1848.41
186.81	1848.65
186.886	1850.79
186.962	1861.48
187.038	1857.2
187.114	1848.55
187.19	1855.73
187.266	1847.6
187.341	1851.88
187.417	1843.66
187.493	1844.04
187.569	1846.23
187.645	1839.14
187.721	1830.64
187.797	1837.53
187.873	1841.38
187.949	1835.91
188.025	1830.97
188.101	1832.11
188.176	1838.52
188.252	1833.3
188.328	1840.57
188.404	1841.85
188.48	1837.48
188.556	1830.16
188.632	1830.25
188.707	1830.68
188.783	1825.78
188.859	1821.17
188.935	1808.15
189.011	1818.56
189.086	1816.65
189.162	1810.48
189.238	1809.34
189.314	1808.43
189.39	1802.02
189.465	1796.45
189.541	1812
189.617	1800.12
189.693	1793.89
189.768	1795.6
189.844	1819.47
189.92	1812.77
189.996	1819.29
190.071	1827.13
190.147	1827.79
190.223	1839.44
190.298	1831.36
190.374	1819.43
190.45	1831.79
190.526	1839.2
190.601	1831.07
190.677	1830.03
190.753	1854.04
190.828	1854.66
190.904	1865.41
190.98	1878.62
191.055	1887.46
191.131	1879.33
191.207	1894.97
191.282	1906.61
191.358	1898.44
191.433	1885.07
191.509	1897.05
191.585	1896.38
191.66	1897.24
191.736	1905.7
191.811	1891.58
191.887	1907.79
191.963	1930.66
192.038	1935.56
192.114	1935.51
192.189	1942.12
192.265	1938.84
192.34	1917.86
192.416	1918.48
192.491	1915.44
192.567	1919.38
192.642	1920.81
192.718	1920.57
192.793	1909.88
192.869	1904.79
192.944	1906.31
193.02	1912.3
193.095	1915.11
193.171	1919.05
193.246	1919.62
193.322	1913.54
193.397	1916.72
193.473	1906.64
193.548	1888.15
193.624	1894.42
193.699	1895.09
193.775	1907.22
193.85	1909.73
193.925	1918.86
194.001	1918.58
194.076	1911.97
194.152	1901.65
194.227	1895.76
194.302	1886.25
194.378	1891.05
194.453	1889.39
194.529	1900.09
194.604	1887.77
194.679	1884.82
194.755	1868.05
194.83	1878.13
194.905	1877.18
194.981	1886.88
195.056	1878.13
195.131	1885.17
195.207	1882.6
195.282	1873.47
195.357	1855.41
195.433	1869.14
195.508	1858.21
195.583	1863.58
195.659	1876.85
195.734	1883.26
195.809	1884.5
195.884	1893.91
195.96	1892.96
196.035	1906.7
196.11	1902.61
196.185	1911.83
196.261	1913.87
196.336	1944.44
196.411	1931.79
196.486	1938.35
196.561	1931.98
196.637	1941.16
196.712	1955.19
196.787	1956.71
196.862	1968.21
196.937	1981.1
197.013	1985.04
197.088	1993.69
197.163	2016.1
197.238	2031.9
197.313	2031.42
197.388	2041.6
197.464	2071.81
197.539	2082.84
197.614	2074.95
197.689	2087.55
197.764	2102.63
197.839	2121.8
197.914	2115.09
197.989	2133.88
198.065	2145.77
198.14	2188.99
198.215	2211.64
198.29	2222.39
198.365	2234.86
198.44	2246.28
198.515	2270.12
198.59	2286.39
198.665	2311.14
198.74	2318.57
198.815	2318.85
198.89	2340.6
198.965	2368.83
199.04	2363.31
199.115	2378.2
199.19	2417.18
199.265	2420.79
199.34	2430.74
199.415	2458.75
199.49	2478.5
199.565	2490.21
199.64	2510.06
199.715	2510.44
199.79	2517.2
199.865	2521.58
199.94	2519.59
200.015	2549.78
200.09	2553.59
200.165	2558.4
200.24	2565.26
200.315	2599.29
200.39	2614.63
200.464	2620.24
200.539	2620.58
200.614	2634.48
200.689	2654.44
200.764	2659.3
200.839	2675.58
200.914	2679.82
200.989	2670.01
201.063	2682.06
201.138	2666.83
201.213	2668.68
201.288	2650.63
201.363	2654.2
201.438	2656.15
201.512	2670.82
201.587	2655
201.662	2657.62
201.737	2668.53
201.812	2677.54
201.886	2645.74
201.961	2653.94
202.036	2644.18
202.111	2639.7
202.186	2614.33
202.26	2598.37
202.335	2579.79
202.41	2572.36
202.485	2554.32
202.559	2538.18
202.634	2514.7
202.709	2520.94
202.784	2504.32
202.858	2502.98
202.933	2487.56
203.008	2482.7
203.082	2462.37
203.157	2461.23
203.232	2424.54
203.306	2403.2
203.381	2371.01
203.456	2352.97
203.53	2331.58
203.605	2312.98
203.68	2292.17
203.754	2285.94
203.829	2273.47
203.904	2257.68
203.978	2249.15
204.053	2255.67
204.127	2243.02
204.202	2240.21
204.277	2223.85
204.351	2214.9
204.426	2205.67
204.5	2197.86
204.575	2166.28
204.65	2180.08
204.724	2172.65
204.799	2179.07
204.873	2176.83
204.948	2175.26
205.022	2163.37
205.097	2155.62
205.171	2167.79
205.246	2176.64
205.32	2174.98
205.395	2174.6
205.469	2165.14
205.544	2165.52
205.618	2150.82
205.693	2161.76
205.767	2152.29
205.842	2171.9
205.916	2168.8
205.991	2162.19
206.065	2167.47
206.14	2180.31
206.214	2171.84
206.289	2163.27
206.363	2175.45
206.438	2177.78
206.512	2186.82
206.586	2204.33
206.661	2213.04
206.735	2193.4
206.81	2193.21
206.884	2206.53
206.958	2195.92
207.033	2212.61
207.107	2219.75
207.181	2247.26
207.256	2241.7
207.33	2258.21
207.405	2272.11
207.479	2288.15
207.553	2296.14
207.628	2280.02
207.702	2291.1
207.776	2288.25
207.851	2294.62
207.925	2306.48
207.999	2304.29
208.073	2302.67
208.148	2305.53
208.222	2290.1
208.296	2319.55
208.371	2335.03
208.445	2342.88
208.519	2367.15
208.593	2376.19
208.668	2375.53
208.742	2377.05
208.816	2379.62
208.89	2390.91
208.965	2387.95
209.039	2393.86
209.113	2408.38
209.187	2428.45
209.261	2423.45
209.336	2440.69
209.41	2457.45
209.484	2459.45
209.558	2478.25
209.632	2488.87
209.707	2498.63
209.781	2522.48
209.855	2537.01
209.929	2551.69
210.003	2559.5
210.077	2561.55
210.151	2607.35
210.226	2636.42
210.3	2663.64
210.374	2686.45
210.448	2691.35
210.522	2699.41
210.596	2712.89
210.67	2723.08
210.744	2767.4
210.818	2798.54
210.892	2817.27
210.966	2814.27
211.041	2827.66
211.115	2827.85
211.189	2848.86
211.263	2867.45
211.337	2873.88
211.411	2887.27
211.485	2884.27
211.559	2899.42
211.633	2904.23
211.707	2877.67
211.781	2889.11
211.855	2858.65
211.929	2853.99
212.003	2841.89
212.077	2856.05
212.151	2871.07
212.225	2883.55
212.299	2880.26
212.373	2874.64
212.447	2880.6
212.52	2914.73
212.594	2928.42
212.668	2949.87
212.742	2947.68
212.816	2954.83
212.89	2962.31
212.964	2973.28
213.038	2992.84
213.112	3014.06
213.186	3043.19
213.26	3044.19
213.333	3022.21
213.407	3046.85
213.481	3068.35
213.555	3102.23
213.629	3118.12
213.703	3128.14
213.777	3155.38
213.85	3166.59
213.924	3229.11
213.998	3260.47
214.072	3282.58
214.146	3305.15
214.219	3342.15
214.293	3375.36
214.367	3414.02
214.441	3465.25
214.515	3501.01
214.588	3522.26
214.662	3541.12
214.736	3569.86
214.81	3624.32
214.883	3688.14
214.957	3735.37
215.031	3786.17
215.105	3823.17
215.178	3868.81
215.252	3924.76
215.326	3962.52
215.4	4010.54
215.473	4034.88
215.547	4084.76
215.621	4144.51
215.694	4217.79
215.768	4263.33
215.842	4332.05
215.915	4392.15
215.989	4445.94
216.063	4517.02
216.136	4601.31
216.21	4683.95
216.284	4780.04
216.357	4861.05
216.431	4935.84
216.504	5024.54
216.578	5134.99
216.652	5233.54
216.725	5326.66
216.799	5426.27
216.873	5521.5
216.946	5619.32
217.02	5708.62
217.093	5799.69
217.167	5877.92
217.24	5958.52
217.314	6054.16
217.387	6140.99
217.461	6233.46
217.535	6342.07
217.608	6426.56
217.682	6521.34
217.755	6630.15
217.829	6720.83
217.902	6824.33
217.976	6928.75
218.049	7023.25
218.123	7106.54
218.196	7208.69
218.27	7303.28
218.343	7389.33
218.417	7498.84
218.49	7598.54
218.563	7716.92
218.637	7820.74
218.71	7942.37
218.784	8054.87
218.857	8167.86
218.931	8276.37
219.004	8383.84
219.077	8495.44
219.151	8605.58
219.224	8708.67
219.298	8810.13
219.371	8919.01
219.444	9009.55
219.518	9111.56
219.591	9209.95
219.665	9334.62
219.738	9442.76
219.811	9535.79
219.885	9641.01
219.958	9739.26
220.031	9838.61
220.105	9936.39
220.178	10037.69
220.251	10125.08
220.325	10230.77
220.398	10332.81
220.471	10434.02
220.544	10536.16
220.618	10622.32
220.691	10717.24
220.764	10812.21
220.838	10908.2
220.911	10992.72
220.984	11105.86
221.057	11205.13
221.131	11303.73
221.204	11375.25
221.277	11477.81
221.35	11604.23
221.424	11695.76
221.497	11781.84
221.57	11870.86
221.643	11962.49
221.716	12058.16
221.79	12148.97
221.863	12230.15
221.936	12306.64
222.009	12386.61
222.082	12471.93
222.155	12544.91
222.229	12630.09
222.302	12709.09
222.375	12787.96
222.448	12874.48
222.521	12952.77
222.594	13025.56
222.667	13093.43
222.74	13163.04
222.814	13233.76
222.887	13285.63
222.96	13367.44
223.033	13452.96
223.106	13527.05
223.179	13606.73
223.252	13678.13
223.325	13746.15
223.398	13817.97
223.471	13895.97
223.544	13969.92
223.617	14040.15
223.69	14116.27
223.763	14183.62
223.837	14258.38
223.91	14333.1
223.983	14383.76
224.056	14436.12
224.129	14499.7
224.202	14583.29
224.275	14650.77
224.348	14699.07
224.42	14750.32
224.493	14797.65
224.566	14849.47
224.639	14918.69
224.712	14959.86
224.785	15011.05
224.858	15064.36
224.931	15110.4
225.004	15154.12
225.077	15215.96
225.15	15251.44
225.223	15309.71
225.296	15389.58
225.369	15430.55
225.442	15464.82
225.514	15526.28
225.587	15582.96
225.66	15651.26
225.733	15701.49
225.806	15755.62
225.879	15808.54
225.952	15863.68
226.025	15921.38
226.097	15989.05
226.17	16037.2
226.243	16080.24
226.316	16135.47
226.389	16193.51
226.461	16249.66
226.534	16305.28
226.607	16345.04
226.68	16412.9
226.753	16458.93
226.825	16483.17
226.898	16538.65
226.971	16591.18
227.044	16640.78
227.117	16691
227.189	16733.36
227.262	16793.6
227.335	16847.49
227.407	16893.85
227.48	16934.09
227.553	16980.79
227.626	17014.38
227.698	17058.82
227.771	17110.58
227.844	17134.68
227.916	17175.16
227.989	17203.02
228.062	17237.38
228.134	17304.66
228.207	17336.03
228.28	17368.56
228.352	17398.06
228.425	17442.92
228.498	17487.79
228.57	17515.16
228.643	17560.46
228.716	17587.79
228.788	17604.51
228.861	17632.61
228.934	17677.57
229.006	17719.4
229.079	17751.5
229.151	17785.86
229.224	17799.11
229.296	17838.63
229.369	17906.43
229.442	17952.02
229.514	17975.97
229.587	18024.02
229.659	18038.72
229.732	18077.85
229.804	18126.38
229.877	18185.65
229.949	18230.61
230.022	18282.95
230.094	18328.05
230.167	18368.39
230.239	18393.59
230.312	18430.51
230.384	18481.68
230.457	18514.65
230.529	18540.81
230.602	18575.51
230.674	18605.2
230.747	18658.16
230.819	18691.36
230.892	18684.18
230.964	18711.02
231.037	18754.87
231.109	18771.93
231.181	18802.82
231.254	18828.56
231.326	18856.07
231.399	18876.41
231.471	18885.28
231.544	18888.07
231.616	18915.54
231.688	18939.1
231.761	18966.04
231.833	18981.66
231.905	18981.17
231.978	18995.24
232.05	19020.26
232.122	19044.3
232.195	19062.57
232.267	19096.4
232.339	19115.38
232.412	19158.9
232.484	19179.43
232.556	19194.17
232.629	19239.57
232.701	19262.22
232.773	19279.23
232.846	19284.14
232.918	19294.7
232.99	19311.71
233.062	19334.36
233.135	19341.05
233.207	19335.18
233.279	19356.81
233.351	19367.46
233.424	19371.22
233.496	19381.34
233.568	19419.89
233.64	19416.04
233.713	19419.94
233.785	19423.03
233.857	19431.99
233.929	19417.63
234.001	19422.35
234.074	19437.39
234.146	19427.12
234.218	19436.66
234.29	19433.82
234.362	19432.23
234.434	19420.76
234.507	19414.69
234.579	19394.02
234.651	19400.95
234.723	19408.18
234.795	19403.75
234.867	19413.15
234.939	19428.52
235.012	19432.09
235.084	19422.06
235.156	19427.94
235.228	19417.15
235.3	19403.94
235.372	19402.11
235.444	19414.21
235.516	19396.33
235.588	19402.01
235.66	19400.76
235.732	19389.05
235.804	19441.58
235.876	19449.39
235.948	19462.49
236.02	19460.33
236.092	19461.77
236.164	19455.12
236.236	19453.29
236.308	19444.52
236.38	19434.98
236.452	19416.62
236.524	19409.53
236.596	19416.38
236.668	19423.32
236.74	19425.77
236.812	19423.12
236.884	19411.75
236.956	19408.38
237.028	19397.1
237.1	19373.58
237.172	19371.7
237.244	19367.08
237.316	19322.98
237.388	19295.95
237.46	19277.06
237.532	19269.83
237.604	19253.3
237.675	19245.01
237.747	19234.89
237.819	19217.11
237.891	19210.07
237.963	19193.74
238.035	19169.93
238.107	19125.79
238.178	19105.65
238.25	19078.9
238.322	19084.64
238.394	19060.93
238.466	19033.07
238.538	19025.75
238.609	19015.24
238.681	18975.25
238.753	18950.09
238.825	18929.95
238.897	18924.17
238.968	18924.84
239.04	18903.73
239.112	18913.95
239.184	18889.13
239.255	18864.89
239.327	18845.62
239.399	18830.77
239.471	18822.1
239.542	18810
239.614	18802.29
239.686	18766.87
239.758	18767.64
239.829	18728.47
239.901	18718.54
239.973	18699.75
240.044	18676.61
240.116	18655.27
240.188	18633.34
240.259	18613.87
240.331	18580.19
240.403	18552.33
240.474	18507.95
240.546	18482.02
240.618	18434.17
240.689	18403.47
240.761	18382.94
240.833	18373.55
240.904	18338.71
240.976	18308.01
241.048	18283.14
241.119	18261.6
241.191	18244.49
241.262	18227.24
241.334	18193.36
241.405	18157.56
241.477	18120.26
241.549	18093.03
241.62	18066.43
241.692	18058.48
241.763	18040.45
241.835	18011.97
241.906	17994.43
241.978	17952.99
242.049	17927.06
242.121	17916.41
242.192	17904.89
242.264	17856.51
242.335	17814.1
242.407	17789.91
242.478	17758.63
242.55	17736.56
242.621	17701.19
242.693	17661.38
242.764	17632.17
242.836	17602.34
242.907	17574.83
242.979	17557.57
243.05	17525.77
243.122	17501.86
243.193	17461.14
243.264	17407.36
243.336	17383.79
243.407	17360.42
243.479	17349.38
243.55	17324.51
243.622	17291.55
243.693	17252.32
243.764	17248.75
243.836	17210.58
243.907	17172.17
243.978	17139.88
244.05	17109.38
244.121	17064.27
244.192	17044.84
244.264	16995.88
244.335	16972.65
244.407	16930.58
244.478	16904.74
244.549	16872.74
244.62	16827.34
244.692	16789.27
244.763	16776.64
244.834	16738.95
244.906	16696.64
244.977	16669.41
245.048	16654.37
245.119	16609.07
245.191	16568.92
245.262	16519.85
245.333	16501.97
245.405	16479.66
245.476	16454.31
245.547	16426.45
245.618	16404.86
245.689	16374.01
245.761	16344.03
245.832	16308.12
245.903	16287.74
245.974	16263.01
246.045	16233.85
246.117	16225.13
246.188	16192.02
246.259	16147.82
246.33	16110.27
246.401	16075.71
246.473	16029.15
246.544	15994.26
246.615	15981
246.686	15951.7
246.757	15928.66
246.828	15893.47
246.899	15866.58
246.97	15824.35
247.042	15780.59
247.113	15756.97
247.184	15748.1
247.255	15715.95
247.326	15687.18
247.397	15657.97
247.468	15627.55
247.539	15598.78
247.61	15553.08
247.681	15525.56
247.752	15503.15
247.823	15465.98
247.894	15442.8
247.965	15417.35
248.037	15380.28
248.108	15338.06
248.179	15306.77
248.25	15277.18
248.321	15254.38
248.392	15221.41
248.463	15211.09
248.534	15183.33
248.605	15165.35
248.675	15126.5
248.746	15107.7
248.817	15086.83
248.888	15059.06
248.959	15013.22
249.03	14995.63
249.101	14967.04
249.172	14938.17
249.243	14892.13
249.314	14885.34
249.385	14854.63
249.456	14827.11
249.527	14799.73
249.598	14775.53
249.669	14747.38
249.739	14723.18
249.81	14700.67
249.881	14656.27
249.952	14633.23
250.023	14611.29
250.094	14560.2
250.165	14526.79
250.235	14486.93
250.306	14456.46
250.377	14424.16
250.448	14399.92
250.519	14345.78
250.59	14321.39
250.66	14285.48
250.731	14270.05
250.802	14238.86
250.873	14216.69
250.944	14196.01
251.014	14157.49
251.085	14150.84
251.156	14133.92
251.227	14117.19
251.297	14100.46
251.368	14087.69
251.439	14068.21
251.51	14047.44
251.58	14017.36
251.651	13990.6
251.722	13979.37
251.792	13939.84
251.863	13906.19
251.934	13891.78
252.005	13899.25
252.075	13883.01
252.146	13880.16
252.217	13866.86
252.287	13853.74
252.358	13826.84
252.429	13812.58
252.499	13786.26
252.57	13764.08
252.641	13756.75
252.711	13726.53
252.782	13688.2
252.852	13684.39
252.923	13650.02
252.994	13624.72
253.064	13607.99
253.135	13574.39
253.205	13541.75
253.276	13532.45
253.347	13530.52
253.417	13501.31
253.488	13474.31
253.558	13446.35
253.629	13420.22
253.699	13398.24
253.77	13374.67
253.841	13348.44
253.911	13327.91
253.982	13309.93
254.052	13288.38
254.123	13253.52
254.193	13233.66
254.264	13244.65
254.334	13208.45
254.405	13178.08
254.475	13149.59
254.546	13124.91
254.616	13112.52
254.687	13097.67
254.757	13079.55
254.827	13055.44
254.898	13034.57
254.968	13001.94
255.039	12976.63
255.109	12955.85
255.18	12927.46
255.25	12883.4
255.321	12865.71
255.391	12827.33
255.461	12819.72
255.532	12773.92
255.602	12750.06
255.673	12707.78
255.743	12678.86
255.813	12632.15
255.884	12620.77
255.954	12609.74
256.024	12604.82
256.095	12591.8
256.165	12558.83
256.235	12538.25
256.306	12505.61
256.376	12497.47
256.446	12487.1
256.517	12464.49
256.587	12455.58
256.657	12441.94
256.728	12427.19
256.798	12408.1
256.868	12391.32
256.938	12359.07
257.009	12355.6
257.079	12341.09
257.149	12349.53
257.219	12301.71
257.29	12303.25
257.36	12265.46
257.43	12252.21
257.5	12210.17
257.571	12174.7
257.641	12162.6
257.711	12131.31
257.781	12126.64
257.852	12111.55
257.922	12078.97
257.992	12057.81
258.062	12031.63
258.132	12015.05
258.202	11997.75
258.273	11977.89
258.343	11969.98
258.413	11948.73
258.483	11921.49
258.553	11893.92
258.623	11864.42
258.693	11859.79
258.764	11842.59
258.834	11837.62
258.904	11820.32
258.974	11795.93
259.044	11779.3
259.114	11764.51
259.184	11750.58
259.254	11725.03
259.324	11685.07
259.394	11668.78
259.464	11664.15
259.535	11647.04
259.605	11626.9
259.675	11601.11
259.745	11588.68
259.815	11557.3
259.885	11534.21
259.955	11542.79
260.025	11518.99
260.095	11494.69
260.165	11475.99
260.235	11471.85
260.305	11451.27
260.375	11419.99
260.445	11431.7
260.515	11428.66
260.585	11421.96
260.655	11406.01
260.725	11397
260.795	11387.99
260.865	11386.25
260.934	11361.91
261.004	11346.39
261.074	11318.78
261.144	11311.41
261.214	11300.9
261.284	11287.84
261.354	11278.54
261.424	11251.74
261.494	11250.82
261.564	11235.79
261.634	11222.34
261.703	11189.72
261.773	11183.45
261.843	11166.63
261.913	11141.67
261.983	11105.43
262.053	11086.3
262.123	11062.06
262.192	11026.25
262.262	11015.41
262.332	10985.67
