Data from 20250630_urea_2M_MAYP1162681_12-02-26-963.txt Node
Date: Tue Jul 01 12:02:26 BST 2025
User: adleo
Spectrometer: MAYP116268
Trigger mode: 0
Integration Time (sec): 1.000000E0
Scans to average: 1
Electric dark correction enabled: true
Nonlinearity correction enabled: true
Boxcar width: 10
XAxis mode: Wavelengths
Number of Pixels in Spectrum: 2068
>>>>>Begin Spectral Data<<<<<
179.565	1131.17
179.642	1186.7
179.718	1225.93
179.795	1261.27
179.871	1290.1
179.948	1305.73
180.024	1324.91
180.101	1341.91
180.177	1356.65
180.254	1376.99
180.33	1397.54
180.407	1442.97
180.483	1532.33
180.56	1615.71
180.636	1692.14
180.712	1677.45
180.789	1684.72
180.865	1692.89
180.942	1702.48
181.018	1714.27
181.095	1721.87
181.171	1726.2
181.248	1724.39
181.324	1739.27
181.4	1745.59
181.477	1755.24
181.553	1765.54
181.63	1784.22
181.706	1802.19
181.782	1807.75
181.859	1807.32
181.935	1812.79
182.011	1809.84
182.088	1826.05
182.164	1846.97
182.24	1863.94
182.317	1872.4
182.393	1873.21
182.469	1886.28
182.546	1900.87
182.622	1904.53
182.698	1901.11
182.775	1913.23
182.851	1925.59
182.927	1918.46
183.003	1914.99
183.08	1911.04
183.156	1922.21
183.232	1919.84
183.308	1907.86
183.385	1913.99
183.461	1931.48
183.537	1929.44
183.613	1942.18
183.69	1932.24
183.766	1918.45
183.842	1923.06
183.918	1928.29
183.995	1939.8
184.071	1943.6
184.147	1939.28
184.223	1930.39
184.299	1942.27
184.375	1932.05
184.452	1940.76
184.528	1992.74
184.604	2001.39
184.68	2011.66
184.756	2016.42
184.832	2021.22
184.908	2026.4
184.985	2027.97
185.061	2010.76
185.137	2022.41
185.213	2011.62
185.289	2013.57
185.365	2007.77
185.441	2005.53
185.517	2019.09
185.593	2017.57
185.669	2014.81
185.745	2022.85
185.822	2040.63
185.898	2032.73
185.974	2040.39
186.05	2033.11
186.126	1994.39
186.202	1988.12
186.278	1984.12
186.354	1977.51
186.43	1980.75
186.506	1979.08
186.582	1979.6
186.658	1984.83
186.734	1966.91
186.81	1969.43
186.886	1972.99
186.962	1984.4
187.038	1980.13
187.114	1972.04
187.19	1977.13
187.266	1968
187.341	1969.24
187.417	1960.63
187.493	1961.82
187.569	1966.86
187.645	1961.48
187.721	1952.02
187.797	1958.06
187.873	1962.96
187.949	1958.77
188.025	1954.78
188.101	1958.2
188.176	1962.05
188.252	1960.67
188.328	1964.71
188.404	1963.14
188.48	1958.77
188.556	1951.21
188.632	1952.97
188.707	1952.4
188.783	1950.16
188.859	1945.36
188.935	1935.04
189.011	1939.89
189.086	1933.47
189.162	1924.54
189.238	1923.11
189.314	1918.59
189.39	1914.6
189.465	1906.61
189.541	1922.4
189.617	1907.09
189.693	1904.05
189.768	1908.28
189.844	1932.11
189.92	1925.98
189.996	1937.92
190.071	1945.1
190.147	1946.95
190.223	1955.89
190.298	1949.23
190.374	1937.54
190.45	1948.94
190.526	1954.56
190.601	1950.99
190.677	1953.7
190.753	1980.96
190.828	1982.53
190.904	2001.07
190.98	2016.1
191.055	2024.61
191.131	2014.39
191.207	2037.54
191.282	2044.01
191.358	2034.55
191.433	2021.27
191.509	2033.87
191.585	2029.54
191.66	2033.54
191.736	2039.67
191.811	2030.02
191.887	2047.14
191.963	2070.11
192.038	2076.29
192.114	2079.48
192.189	2082.24
192.265	2078.82
192.34	2059.07
192.416	2055.17
192.491	2049.6
192.567	2052.36
192.642	2057.64
192.718	2056.55
192.793	2042.57
192.869	2039.86
192.944	2041.38
193.02	2048.37
193.095	2053.08
193.171	2056.41
193.246	2054.13
193.322	2050.42
193.397	2050.65
193.473	2036.81
193.548	2018.12
193.624	2022.82
193.699	2018.31
193.775	2035.48
193.85	2038.86
193.925	2045.66
194.001	2044.09
194.076	2035.62
194.152	2024.73
194.227	2017.83
194.302	2009.09
194.378	2011.66
194.453	2008.33
194.529	2021.5
194.604	2009.09
194.679	2002.15
194.755	1986.27
194.83	2000.54
194.905	1995.79
194.981	2003.49
195.056	1996.36
195.131	2003.16
195.207	2003.21
195.282	1996.93
195.357	1977.43
195.433	1989.46
195.508	1978.85
195.583	1987.46
195.659	2004.44
195.734	2014.43
195.809	2012.48
195.884	2022.36
195.96	2022.32
196.035	2038.63
196.11	2031.64
196.185	2039.34
196.261	2043
196.336	2073.49
196.411	2057.79
196.486	2068.25
196.561	2064.16
196.637	2072.67
196.712	2087.42
196.787	2088.46
196.862	2102.78
196.937	2112.01
197.013	2119
197.088	2129.94
197.163	2151.87
197.238	2163.92
197.313	2162.97
197.388	2177.62
197.464	2205.6
197.539	2216.97
197.614	2208.41
197.689	2221.44
197.764	2237.24
197.839	2255.75
197.914	2249.66
197.989	2271.36
198.065	2283.54
198.14	2330.16
198.215	2354.43
198.29	2364.28
198.365	2378.94
198.44	2386.32
198.515	2414.98
198.59	2428.12
198.665	2450.3
198.74	2458.3
198.815	2460.92
198.89	2480.39
198.965	2507.3
199.04	2506.68
199.115	2521.63
199.19	2563.29
199.265	2565.67
199.34	2575.62
199.415	2607.02
199.49	2625.4
199.565	2634.3
199.64	2660.84
199.715	2657.64
199.79	2667.46
199.865	2675.55
199.94	2671.7
200.015	2702.42
200.09	2705.04
200.165	2712.19
200.24	2719.38
200.315	2756.15
200.39	2770.73
200.464	2776.73
200.539	2779.59
200.614	2793.45
200.689	2815.99
200.764	2823
200.839	2841.96
200.914	2847.05
200.989	2838.81
201.063	2856.3
201.138	2839.44
201.213	2833.96
201.288	2816.95
201.363	2818.28
201.438	2816.95
201.512	2832.57
201.587	2816.65
201.662	2817.51
201.737	2828.47
201.812	2832.81
201.886	2799.57
201.961	2806.34
202.036	2795.67
202.111	2790.81
202.186	2760.71
202.26	2745.27
202.335	2725.88
202.41	2720.78
202.485	2702.58
202.559	2684.48
202.634	2656.94
202.709	2667.32
202.784	2651.17
202.858	2650.98
202.933	2633.88
203.008	2628.79
203.082	2610.59
203.157	2609.74
203.232	2573.03
203.306	2554.59
203.381	2528.78
203.456	2510.82
203.53	2488.8
203.605	2467.48
203.68	2449.1
203.754	2445.34
203.829	2430.48
203.904	2408.35
203.978	2395.16
204.053	2401.11
204.127	2389.54
204.202	2389.73
204.277	2374.64
204.351	2367.31
204.426	2359.93
204.5	2352.74
204.575	2318.43
204.65	2329.48
204.724	2322
204.799	2327.66
204.873	2323.33
204.948	2321.85
205.022	2308.53
205.097	2304.39
205.171	2322.28
205.246	2326.85
205.32	2325.28
205.395	2324.85
205.469	2319.96
205.544	2322
205.618	2305.91
205.693	2313.2
205.767	2301.16
205.842	2319.48
205.916	2313.44
205.991	2305.68
206.065	2311.82
206.14	2328.66
206.214	2323.04
206.289	2318.09
206.363	2331.08
206.438	2333.61
206.512	2340.46
206.586	2361.4
206.661	2366.3
206.735	2342.75
206.81	2343.32
206.884	2358.46
206.958	2347.23
207.033	2360.88
207.107	2371.98
207.181	2402.02
207.256	2397.98
207.33	2415.54
207.405	2425.74
207.479	2447.25
207.553	2455.06
207.628	2438.45
207.702	2448.02
207.776	2439.98
207.851	2442.17
207.925	2455.55
207.999	2449.26
208.073	2450.31
208.148	2455.07
208.222	2444.84
208.296	2475.96
208.371	2492.73
208.445	2503.78
208.519	2529.1
208.593	2540.39
208.668	2538.67
208.742	2541.15
208.816	2543.48
208.89	2555.73
208.965	2557.44
209.039	2561.54
209.113	2576.78
209.187	2595
209.261	2592
209.336	2610.67
209.41	2630.2
209.484	2629.2
209.558	2654.4
209.632	2662.07
209.707	2667.88
209.781	2689.41
209.855	2701.51
209.929	2716.63
210.003	2720.1
210.077	2720.01
210.151	2764.45
210.226	2792.72
210.3	2817.09
210.374	2841.91
210.448	2848.34
210.522	2854.35
210.596	2867.12
210.67	2872.89
210.744	2918.07
210.818	2949.33
210.892	2970.45
210.966	2963.4
211.041	2982.18
211.115	2977.74
211.189	3001.77
211.263	3017.97
211.337	3024.6
211.411	3043.39
211.485	3039.19
211.559	3050.68
211.633	3055.96
211.707	3028.68
211.781	3036.93
211.855	3002.89
211.929	2995.41
212.003	2976.16
212.077	2987.56
212.151	2998.24
212.225	3013.59
212.299	3009.58
212.373	2997.76
212.447	2997.52
212.52	3033.09
212.594	3036.58
212.668	3050.31
212.742	3040.58
212.816	3044.01
212.89	3043.15
212.964	3045.83
213.038	3051.88
213.112	3072.01
213.186	3089.75
213.26	3076.74
213.333	3042.46
213.407	3060.37
213.481	3070.81
213.555	3092.87
213.629	3093.54
213.703	3092.54
213.777	3103.85
213.85	3099.75
213.924	3145.93
213.998	3159.96
214.072	3166.07
214.146	3172.79
214.219	3187.25
214.293	3198.55
214.367	3218.21
214.441	3246.89
214.515	3255.1
214.588	3256.81
214.662	3245.31
214.736	3248.84
214.81	3279.93
214.883	3316.46
214.957	3332.01
215.031	3348.22
215.105	3355.19
215.178	3368.02
215.252	3388.55
215.326	3395.52
215.4	3405.25
215.473	3391.4
215.547	3404.72
215.621	3426.41
215.694	3464.57
215.768	3474.36
215.842	3503
215.915	3523.73
215.989	3537.58
216.063	3568.39
216.136	3608.08
216.21	3648.86
216.284	3702.45
216.357	3751.61
216.431	3784.86
216.504	3834.74
216.578	3902.8
216.652	3960.26
216.725	4010.3
216.799	4067.3
216.873	4117.92
216.946	4174.7
217.02	4221.29
217.093	4271.31
217.167	4298.33
217.24	4331.19
217.314	4384.45
217.387	4427.35
217.461	4474.09
217.535	4541.65
217.608	4585.72
217.682	4642.25
217.755	4707.49
217.829	4754.74
217.902	4809.81
217.976	4868.21
218.049	4917.81
218.123	4961.99
218.196	5022.76
218.27	5076.94
218.343	5122.55
218.417	5185.04
218.49	5240.18
218.563	5319.24
218.637	5387.3
218.71	5475.79
218.784	5550.39
218.857	5625.22
218.931	5699.94
219.004	5766.68
219.077	5838.27
219.151	5903.87
219.224	5967.1
219.298	6031.96
219.371	6110.09
219.444	6161.04
219.518	6233.54
219.591	6307.79
219.665	6400.94
219.738	6472.99
219.811	6532.7
219.885	6610.83
219.958	6684.5
220.031	6753.92
220.105	6828.33
220.178	6898.71
220.251	6959.25
220.325	7035.13
220.398	7104.7
220.471	7180.08
220.544	7260.19
220.618	7314.07
220.691	7392.94
220.764	7463.5
220.838	7541.96
220.911	7605.23
220.984	7697.25
221.057	7772.01
221.131	7840.05
221.204	7887.34
221.277	7975.46
221.35	8081.09
221.424	8146.51
221.497	8215.16
221.57	8292.89
221.643	8362.9
221.716	8444.94
221.79	8510.53
221.863	8575.64
221.936	8652.93
222.009	8723.72
222.082	8800.01
222.155	8876.1
222.229	8956.4
222.302	9034.43
222.375	9096.43
222.448	9171.87
222.521	9234.66
222.594	9299.36
222.667	9357.13
222.74	9425.31
222.814	9484.89
222.887	9542.88
222.96	9619.35
223.033	9695.84
223.106	9765.43
223.179	9832.62
223.252	9885.31
223.325	9950.72
223.398	10014.98
223.471	10070.57
223.544	10132.95
223.617	10193.26
223.69	10255.84
223.763	10308.98
223.837	10372.1
223.91	10442
223.983	10485.8
224.056	10534.02
224.129	10602.59
224.202	10676.54
224.275	10732.48
224.348	10785.29
224.42	10834.83
224.493	10879.93
224.566	10930.15
224.639	10992.31
224.712	11049.28
224.785	11111.35
224.858	11174
224.931	11226.38
225.004	11274.62
225.077	11334.72
225.15	11372.6
225.223	11435.35
225.296	11517.34
225.369	11562.01
225.442	11610.16
225.514	11673.69
225.587	11735.91
225.66	11790.52
225.733	11852.26
225.806	11918.15
225.879	11966.88
225.952	12022.22
226.025	12091.19
226.097	12163.88
226.17	12220.95
226.243	12254.7
226.316	12308.59
226.389	12365.81
226.461	12428.18
226.534	12498.36
226.607	12550.28
226.68	12629.14
226.753	12686.12
226.825	12718.95
226.898	12787.21
226.971	12849.78
227.044	12914.18
227.117	12981.14
227.189	13048.34
227.262	13119.83
227.335	13180.71
227.407	13245.21
227.48	13296.89
227.553	13353
227.626	13400.63
227.698	13452.45
227.771	13514.78
227.844	13566.07
227.916	13619.97
227.989	13659.3
228.062	13712.96
228.134	13789.51
228.207	13831.45
228.28	13875.8
228.352	13924.15
228.425	13976.26
228.498	14039.65
228.57	14077.4
228.643	14135.97
228.716	14182.24
228.788	14215.99
228.861	14260.24
228.934	14320.35
229.006	14370.15
229.079	14417.24
229.151	14457.01
229.224	14494.04
229.296	14557.96
229.369	14636.58
229.442	14699.53
229.514	14747.11
229.587	14800.47
229.659	14825.58
229.732	14884.97
229.804	14943.83
229.877	15023.51
229.949	15077.45
230.022	15133.94
230.094	15191.35
230.167	15243.84
230.239	15288.62
230.312	15338.51
230.384	15397.41
230.457	15450.34
230.529	15500.37
230.602	15551.66
230.674	15609.55
230.747	15667.63
230.819	15719.3
230.892	15731.88
230.964	15778.25
231.037	15833.44
231.109	15878.65
231.181	15935.38
231.254	15964.01
231.326	15999.87
231.399	16032.74
231.471	16067.93
231.544	16083.11
231.616	16130.59
231.688	16177.19
231.761	16199.94
231.833	16236.67
231.905	16262.7
231.978	16298.12
232.05	16337.5
232.122	16374.47
232.195	16409.07
232.267	16468.4
232.339	16503.63
232.412	16549.52
232.484	16581.08
232.556	16607.55
232.629	16660.66
232.701	16702.54
232.773	16748.23
232.846	16779.75
232.918	16817.1
232.99	16845.44
233.062	16889.44
233.135	16930.31
233.207	16944.38
233.279	17001.2
233.351	17036.97
233.424	17064.68
233.496	17079.38
233.568	17125.93
233.64	17140.82
233.713	17156.44
233.785	17167.96
233.857	17197.69
233.929	17211.38
234.001	17250.17
234.074	17293.65
234.146	17298.42
234.218	17313.55
234.29	17335.09
234.362	17358.37
234.434	17365.69
234.507	17391.04
234.579	17401.17
234.651	17420.39
234.723	17443.48
234.795	17452.3
234.867	17464.54
234.939	17501.16
235.012	17520.2
235.084	17536.54
235.156	17561.94
235.228	17580.35
235.3	17590.8
235.372	17603.77
235.444	17626.8
235.516	17625.84
235.588	17638.32
235.66	17651.81
235.732	17659.14
235.804	17715.57
235.876	17731.91
235.948	17746.27
236.02	17751.33
236.092	17761.11
236.164	17765.26
236.236	17772.82
236.308	17779.91
236.38	17803.67
236.452	17790.32
236.524	17797.79
236.596	17819.71
236.668	17832.53
236.74	17841.79
236.812	17857.25
236.884	17867.62
236.956	17874.94
237.028	17868.39
237.1	17862.65
237.172	17882.75
237.244	17901.88
237.316	17866.27
237.388	17858.75
237.46	17866.12
237.532	17888.53
237.604	17882.51
237.675	17900.43
237.747	17916.05
237.819	17911.66
237.891	17903.52
237.963	17913.64
238.035	17911.66
238.107	17880.15
238.178	17898.17
238.25	17888.82
238.322	17900.77
238.394	17879.33
238.466	17874.36
238.538	17870.03
238.609	17883.23
238.681	17860.44
238.753	17852.77
238.825	17855.13
238.897	17860.24
238.968	17862.51
239.04	17849.79
239.112	17871.71
239.184	17845.45
239.255	17824.2
239.327	17823.33
239.399	17817.74
239.471	17812.97
239.542	17808.29
239.614	17807.81
239.686	17769.45
239.758	17775.91
239.829	17754.08
239.901	17756.92
239.973	17748.73
240.044	17753.11
240.116	17730.37
240.188	17714.46
240.259	17700.54
240.331	17679.62
240.403	17669.12
240.474	17639.67
240.546	17612.25
240.618	17581.07
240.689	17560.83
240.761	17549.41
240.833	17542.76
240.904	17525.21
240.976	17501.7
241.048	17491.48
241.119	17489.79
241.191	17478.66
241.262	17476.3
241.334	17462.95
241.405	17448.35
241.477	17423.72
241.549	17398.95
241.62	17388.54
241.692	17377.17
241.763	17364.2
241.835	17336.49
241.906	17320.39
241.978	17289.21
242.049	17280.68
242.121	17271.53
242.192	17268.78
242.264	17227.91
242.335	17200.2
242.407	17182.03
242.478	17161.93
242.55	17140.34
242.621	17107.04
242.693	17090.7
242.764	17069.11
242.836	17038.94
242.907	17013.06
242.979	16997.35
243.05	16977.25
243.122	16960.48
243.193	16941.59
243.264	16898.21
243.336	16884.82
243.407	16865.06
243.479	16859.66
243.55	16841.44
243.622	16816.57
243.693	16790.31
243.764	16796.81
243.836	16757.19
243.907	16729.53
243.978	16701.82
244.05	16685.38
244.121	16639.64
244.192	16616.03
244.264	16574.82
244.335	16550.82
244.407	16507.49
244.478	16485.99
244.549	16458.19
244.62	16418.66
244.692	16390.81
244.763	16379.62
244.834	16350.42
244.906	16318.22
244.977	16297.88
245.048	16273.21
245.119	16237.44
245.191	16196.62
245.262	16146.16
245.333	16138.73
245.405	16111.26
245.476	16091.84
245.547	16057.47
245.618	16044.22
245.689	16013.42
245.761	15988.5
245.832	15961.17
245.903	15955.15
245.974	15933.7
246.045	15904.78
246.117	15895.72
246.188	15863.86
246.259	15823.32
246.33	15793.19
246.401	15761.91
246.473	15718
246.544	15692.17
246.615	15675.78
246.686	15651.15
246.757	15635.29
246.828	15592.1
246.899	15585.07
246.97	15544.24
247.042	15513.82
247.113	15497.15
247.184	15497.1
247.255	15457.81
247.326	15426.87
247.397	15392.31
247.468	15359.92
247.539	15331.48
247.61	15282.12
247.681	15260.48
247.752	15246.59
247.823	15209.38
247.894	15187.59
247.965	15158.04
248.037	15124.54
248.108	15087.48
248.179	15053.44
248.25	15036.81
248.321	15015.03
248.392	14971.79
248.463	14963.93
248.534	14938.53
248.605	14913.8
248.675	14873.36
248.746	14856.54
248.817	14836.82
248.888	14814.12
248.959	14771.65
249.03	14748.85
249.101	14733.04
249.172	14703.39
249.243	14649.16
249.314	14639.37
249.385	14608.91
249.456	14581.34
249.527	14551.83
249.598	14529.56
249.669	14507.87
249.739	14472.68
249.81	14456.97
249.881	14418.21
249.952	14385.72
250.023	14365.43
250.094	14328.79
250.165	14289.12
250.235	14262.22
250.306	14232.19
250.377	14197
250.448	14180.85
250.519	14143.44
250.59	14129.36
250.66	14097.84
250.731	14100.63
250.802	14075.28
250.873	14061.44
250.944	14038.11
251.014	14008.22
251.085	13999.4
251.156	13978.43
251.227	13962.47
251.297	13948.54
251.368	13934.76
251.439	13920.78
251.51	13897.25
251.58	13861.63
251.651	13834.58
251.722	13816.79
251.792	13774.52
251.863	13743.28
251.934	13730.26
252.005	13730.41
252.075	13703.03
252.146	13691.07
252.217	13676.27
252.287	13653.13
252.358	13630.96
252.429	13630.33
252.499	13599.96
252.57	13581.11
252.641	13569.59
252.711	13552.19
252.782	13508.8
252.852	13501.72
252.923	13476.65
252.994	13450.86
253.064	13442.52
253.135	13418.27
253.205	13386.79
253.276	13392.67
253.347	13393.3
253.417	13355.36
253.488	13329.04
253.558	13299.15
253.629	13268.64
253.699	13239.33
253.77	13229.54
253.841	13195.41
253.911	13173.82
253.982	13158.73
254.052	13133.85
254.123	13115.77
254.193	13085.36
254.264	13107.19
254.334	13075.33
254.405	13041.25
254.475	13016.57
254.546	12990.92
254.616	12979.69
254.687	12966.62
254.757	12941.9
254.827	12915.82
254.898	12901.26
254.968	12871.27
255.039	12842.83
255.109	12831.6
255.18	12804.85
255.25	12760.16
255.321	12748.93
255.391	12718.32
255.461	12719.81
255.532	12679.61
255.602	12653.14
255.673	12612.7
255.743	12576.3
255.813	12529.35
255.884	12520.24
255.954	12503.9
256.024	12493.35
256.095	12470.79
256.165	12437.04
256.235	12421.04
256.306	12390.82
256.376	12387.01
256.446	12381.27
256.517	12364.4
256.587	12354.37
256.657	12342.76
256.728	12326.27
256.798	12303.04
256.868	12267.13
256.938	12233.43
257.009	12223.89
257.079	12211.4
257.149	12222.44
257.219	12189.52
257.29	12178
257.36	12138.91
257.43	12132.88
257.5	12097.55
257.571	12073.59
257.641	12062.8
257.711	12030.65
257.781	12020.14
257.852	12001.72
257.922	11959.6
257.992	11943.4
258.062	11921.37
258.132	11907.88
258.202	11890.23
258.273	11875.77
258.343	11875.87
258.413	11853.02
258.483	11832.97
258.553	11796.87
258.623	11766.12
258.693	11744.04
258.764	11745.83
258.834	11743.75
258.904	11721.58
258.974	11690.26
259.044	11667.51
259.114	11648.42
259.184	11635.74
259.254	11609.77
259.324	11578.39
259.394	11567.78
259.464	11566.19
259.535	11542.43
259.605	11512.89
259.675	11484.74
259.745	11466.23
259.815	11439.15
259.885	11412.59
259.955	11417.12
260.025	11393.46
260.095	11372.11
260.165	11362.33
260.235	11355.96
260.305	11333.22
260.375	11301.45
260.445	11313.07
260.515	11312.59
260.585	11310.56
260.655	11293.89
260.725	11292.01
260.795	11279.86
260.865	11275.77
260.934	11239.33
261.004	11222.75
261.074	11203.72
261.144	11199.91
261.214	11192.63
261.284	11175.24
261.354	11174.03
261.424	11149.35
261.494	11150.9
261.564	11134.8
261.634	11124.05
261.703	11084.54
261.773	11076.92
261.843	11064.39
261.913	11044.39
261.983	11012.64
262.053	10998.23
262.123	10978.57
262.192	10942.09
262.262	10931.97
262.332	10903.39
262.402	10903.05
262.472	10892.31
262.541	10864.46
262.611	10864.65
