Data from 20250630_urea_2M_MAYP1162681_16-52-27-514.txt Node
Date: Mon Jun 30 16:52:27 BST 2025
User: adleo
Spectrometer: MAYP116268
Trigger mode: 0
Integration Time (sec): 1.000000E0
Scans to average: 1
Electric dark correction enabled: true
Nonlinearity correction enabled: true
Boxcar width: 10
XAxis mode: Wavelengths
Number of Pixels in Spectrum: 2068
>>>>>Begin Spectral Data<<<<<
179.565	1030.41
179.642	1080.38
179.718	1120.05
179.795	1153.56
179.871	1181
179.948	1197.54
180.024	1214.53
180.101	1234.24
180.177	1247.3
180.254	1267.13
180.33	1287.69
180.407	1327.37
180.483	1408.51
180.56	1484.62
180.636	1557.96
180.712	1546.94
180.789	1553.97
180.865	1563.66
180.942	1575.72
181.018	1587.36
181.095	1599.28
181.171	1607.17
181.248	1606.22
181.324	1619.14
181.4	1623.94
181.477	1635.2
181.553	1646.6
181.63	1665.89
181.706	1679.24
181.782	1686.55
181.859	1688.4
181.935	1689.59
182.011	1687.12
182.088	1703.7
182.164	1720.96
182.24	1730.88
182.317	1740.15
182.393	1740.1
182.469	1753.59
182.546	1763.15
182.622	1765.19
182.698	1759.72
182.775	1767.75
182.851	1781.11
182.927	1773.6
183.003	1772.32
183.08	1764.24
183.156	1770.84
183.232	1768.89
183.308	1758.44
183.385	1765.09
183.461	1777.16
183.537	1779.92
183.613	1792.04
183.69	1782.2
183.766	1771.74
183.842	1777.97
183.918	1782.48
183.995	1792.13
184.071	1792.75
184.147	1789.71
184.223	1782.2
184.299	1794.61
184.375	1783.06
184.452	1788.96
184.528	1838.82
184.604	1845.9
184.68	1857.26
184.756	1863.87
184.832	1865.53
184.908	1870.71
184.985	1869.71
185.061	1853.51
185.137	1861.54
185.213	1851.04
185.289	1853.79
185.365	1849.66
185.441	1849.42
185.517	1860.79
185.593	1861.5
185.669	1861.31
185.745	1871.34
185.822	1885.02
185.898	1874.94
185.974	1886.3
186.05	1878.79
186.126	1842.23
186.202	1835.15
186.278	1830.73
186.354	1822.51
186.43	1828.74
186.506	1827.07
186.582	1822.65
186.658	1827.74
186.734	1809.49
186.81	1813.58
186.886	1815.62
186.962	1824.22
187.038	1819.94
187.114	1811.48
187.19	1816.38
187.266	1804.26
187.341	1806.49
187.417	1799.08
187.493	1798.84
187.569	1799.94
187.645	1791.57
187.721	1781.64
187.797	1791.85
187.873	1797.08
187.949	1791.29
188.025	1785.39
188.101	1788.34
188.176	1797.41
188.252	1798.55
188.328	1806.82
188.404	1806.3
188.48	1802.21
188.556	1796.98
188.632	1797.93
188.707	1800.4
188.783	1797.98
188.859	1797.74
188.935	1785.76
189.011	1795.93
189.086	1790.61
189.162	1783.58
189.238	1784.53
189.314	1782.67
189.39	1773.79
189.465	1768.13
189.541	1784.1
189.617	1771.79
189.693	1767.47
189.768	1770.13
189.844	1791.43
189.92	1782.98
189.996	1789.87
190.071	1801.04
190.147	1800.04
190.223	1809.17
190.298	1801.89
190.374	1790.58
190.45	1800.13
190.526	1808.88
190.601	1803.08
190.677	1808.4
190.753	1831.61
190.828	1834.03
190.904	1845.77
190.98	1862.5
191.055	1872.25
191.131	1863.64
191.207	1879.85
191.282	1889.31
191.358	1883.17
191.433	1869.29
191.509	1880.4
191.585	1877.17
191.66	1874.51
191.736	1880.97
191.811	1873.41
191.887	1887.73
191.963	1909.98
192.038	1915.58
192.114	1912.54
192.189	1914.68
192.265	1908.55
192.34	1890.29
192.416	1888.96
192.491	1885.92
192.567	1886.44
192.642	1886.91
192.718	1886.96
192.793	1876.74
192.869	1872.61
192.944	1870.52
193.02	1876.55
193.095	1879.45
193.171	1884.3
193.246	1887.3
193.322	1886.49
193.397	1883.4
193.473	1870.8
193.548	1854.44
193.624	1858.15
193.699	1859.96
193.775	1875.7
193.85	1879.31
193.925	1887.77
194.001	1888.44
194.076	1880.97
194.152	1870.85
194.227	1865.38
194.302	1857.92
194.378	1861.48
194.453	1858.3
194.529	1870.56
194.604	1857.35
194.679	1852.31
194.755	1834.11
194.83	1842.67
194.905	1840.82
194.981	1850.99
195.056	1844.43
195.131	1847.9
195.207	1845.52
195.282	1835.21
195.357	1816.57
195.433	1831.12
195.508	1819.42
195.583	1825.17
195.659	1840.05
195.734	1849.37
195.809	1843.76
195.884	1851.18
195.96	1852.32
196.035	1864.58
196.11	1861.73
196.185	1872.61
196.261	1877.32
196.336	1906.12
196.411	1895.66
196.486	1900.13
196.561	1895.71
196.637	1904.55
196.712	1918.39
196.787	1923.05
196.862	1937.64
196.937	1947.29
197.013	1951.86
197.088	1961.6
197.163	1982.58
197.238	1995.61
197.313	1993.66
197.388	2009.16
197.464	2035.18
197.539	2045.36
197.614	2042.03
197.689	2052.87
197.764	2066.52
197.839	2082.88
197.914	2078.22
197.989	2095.96
198.065	2107.9
198.14	2150.11
198.215	2171.95
198.29	2185.18
198.365	2196.88
198.44	2204.49
198.515	2230.33
198.59	2242.13
198.665	2265.73
198.74	2270.44
198.815	2271.4
198.89	2291.86
198.965	2317.56
199.04	2313.46
199.115	2326.93
199.19	2363.29
199.265	2366.1
199.34	2375.14
199.415	2404.47
199.49	2424.65
199.565	2436.6
199.64	2458.73
199.715	2456.68
199.79	2465.49
199.865	2470.11
199.94	2468.02
200.015	2497.25
200.09	2499.06
200.165	2507.35
200.24	2509.87
200.315	2549.09
200.39	2564.81
200.464	2570.04
200.539	2573.9
200.614	2593.33
200.689	2616.1
200.764	2620
200.839	2636.33
200.914	2642.86
200.989	2632.99
201.063	2646
201.138	2627.48
201.213	2630.44
201.288	2614.29
201.363	2618.2
201.438	2616.86
201.512	2631.91
201.587	2616.24
201.662	2621.43
201.737	2631.62
201.812	2645.2
201.886	2615.74
201.961	2624.27
202.036	2616.56
202.111	2612.65
202.186	2580.71
202.26	2566.42
202.335	2549.32
202.41	2539.18
202.485	2523.8
202.559	2509.09
202.634	2482.62
202.709	2491.94
202.784	2473.42
202.858	2472.71
202.933	2454.05
203.008	2449.57
203.082	2432
203.157	2431.91
203.232	2393.46
203.306	2371.65
203.381	2341.41
203.456	2315.71
203.53	2293.04
203.605	2272.44
203.68	2255.16
203.754	2251.3
203.829	2233.31
203.904	2217.09
203.978	2210.47
204.053	2213.09
204.127	2200.58
204.202	2200.67
204.277	2183.78
204.351	2176.03
204.426	2167.46
204.5	2161.9
204.575	2129.32
204.65	2138.12
204.724	2130.27
204.799	2137.54
204.873	2135.16
204.948	2133.5
205.022	2127.36
205.097	2120.7
205.171	2132.16
205.246	2132.97
205.32	2133.92
205.395	2135.01
205.469	2122.99
205.544	2127.55
205.618	2110.81
205.693	2123.56
205.767	2111.1
205.842	2132.6
205.916	2128.7
205.991	2122.9
206.065	2127.61
206.14	2144.39
206.214	2137.3
206.289	2130.88
206.363	2142.48
206.438	2145.96
206.512	2151.9
206.586	2167.03
206.661	2177.88
206.735	2160.29
206.81	2166.19
206.884	2177.27
206.958	2168
207.033	2185.64
207.107	2192.68
207.181	2222.71
207.256	2216.91
207.33	2233.75
207.405	2243.37
207.479	2258.83
207.553	2264.97
207.628	2251.03
207.702	2257.88
207.776	2256.69
207.851	2259.83
207.925	2273.4
207.999	2268.88
208.073	2269.69
208.148	2274.11
208.222	2262.02
208.296	2291.8
208.371	2306.9
208.445	2317.65
208.519	2342.4
208.593	2350.49
208.668	2346.87
208.742	2350.73
208.816	2349.63
208.89	2361.01
208.965	2359.63
209.039	2367.63
209.113	2384.43
209.187	2402.7
209.261	2398.84
209.336	2415.7
209.41	2433.64
209.484	2432.6
209.558	2454.78
209.632	2464.16
209.707	2476.35
209.781	2493.63
209.855	2507.4
209.929	2521.93
210.003	2531.84
210.077	2531.79
210.151	2575.35
210.226	2609.03
210.3	2630.86
210.374	2653.33
210.448	2662.52
210.522	2673.34
210.596	2683.68
210.67	2692.16
210.744	2733.32
210.818	2766.46
210.892	2787.81
210.966	2787.19
211.041	2805.34
211.115	2805.54
211.189	2831.41
211.263	2848.85
211.337	2860.57
211.411	2874.68
211.485	2872.77
211.559	2884.02
211.633	2892.73
211.707	2876.66
211.781	2888.59
211.855	2868.8
211.929	2871.38
212.003	2860.37
212.077	2877.83
212.151	2901.52
212.225	2923.36
212.299	2927.13
212.373	2930.37
212.447	2940.62
212.52	2982.77
212.594	3004.86
212.668	3033.7
212.742	3041.14
212.816	3056.4
212.89	3077.67
212.964	3107.5
213.038	3140.85
213.112	3185.71
213.186	3232.02
213.26	3248.9
213.333	3248.28
213.407	3292.98
213.481	3340.25
213.555	3403.5
213.629	3444.61
213.703	3477.7
213.777	3531.53
213.85	3576.14
213.924	3668.88
213.998	3730.85
214.072	3795.92
214.146	3854.8
214.219	3927.98
214.293	4000.95
214.367	4085.47
214.441	4175.75
214.515	4253.15
214.588	4321.79
214.662	4385.76
214.736	4464.36
214.81	4567.67
214.883	4679.9
214.957	4774.8
215.031	4873.21
215.105	4956.06
215.178	5055.92
215.252	5171.23
215.326	5268.46
215.4	5372.09
215.473	5454.09
215.547	5560.34
215.621	5674.19
215.694	5812.98
215.768	5925.43
215.842	6057.37
215.915	6186.98
215.989	6309.35
216.063	6445.78
216.136	6590.11
216.21	6739.46
216.284	6899.04
216.357	7051.47
216.431	7192.84
216.504	7356.24
216.578	7536.27
216.652	7708.76
216.725	7874.61
216.799	8044.21
216.873	8209.04
216.946	8384.13
217.02	8545.72
217.093	8719.96
217.167	8860.1
217.24	9015.7
217.314	9184.45
217.387	9340.09
217.461	9500.43
217.535	9677.02
217.608	9829.1
217.682	9997.87
217.755	10173.1
217.829	10336.7
217.902	10503.77
217.976	10674.89
218.049	10834.42
218.123	10993.01
218.196	11165.86
218.27	11326
218.343	11483.35
218.417	11647.74
218.49	11812.33
218.563	11995.43
218.637	12158.48
218.71	12353.93
218.784	12522.06
218.857	12688.64
218.931	12858.12
219.004	13019.89
219.077	13192.61
219.151	13360.07
219.224	13519.34
219.298	13674.99
219.371	13833.97
219.444	13982.25
219.518	14139.25
219.591	14300.69
219.665	14468.34
219.738	14619.37
219.811	14757.23
219.885	14912.11
219.958	15071.32
220.031	15208.85
220.105	15344.44
220.178	15490.3
220.251	15614.7
220.325	15759.49
220.398	15893.15
220.471	16029.08
220.544	16171.55
220.618	16284.14
220.691	16419.82
220.764	16543.83
220.838	16670.49
220.911	16796.96
220.984	16940
221.057	17066.32
221.131	17188.2
221.204	17282.32
221.277	17411.68
221.35	17561.61
221.424	17664.11
221.497	17762.37
221.57	17871.24
221.643	17985.75
221.716	18099.91
221.79	18205.93
221.863	18302.07
221.936	18407.03
222.009	18505.39
222.082	18598.3
222.155	18696.42
222.229	18805.66
222.302	18906.53
222.375	18991.39
222.448	19081.99
222.521	19163.24
222.594	19232.82
222.667	19296.43
222.74	19381.25
222.814	19459.17
222.887	19522.83
222.96	19609.28
223.033	19702.44
223.106	19780.26
223.179	19848.89
223.252	19916.89
223.325	19981.32
223.398	20033.6
223.471	20100.45
223.544	20175
223.617	20241.02
223.69	20301.45
223.763	20337.98
223.837	20391.09
223.91	20460.54
223.983	20497.12
224.056	20538.51
224.129	20602.08
224.202	20664.63
224.275	20710.66
224.348	20747
224.42	20782.61
224.493	20811.77
224.566	20833.51
224.639	20885.56
224.712	20920.79
224.785	20943.78
224.858	20977.76
224.931	21018.48
225.004	21047.4
225.077	21079.06
225.15	21104.41
225.223	21141.04
225.296	21200.33
225.369	21220.96
225.442	21248.14
225.514	21270.6
225.587	21314.36
225.66	21342.99
225.733	21379.77
225.806	21415.39
225.879	21436.84
225.952	21450.77
226.025	21483.54
226.097	21524.37
226.17	21543.65
226.243	21556.71
226.316	21587.8
226.389	21615.9
226.461	21636.48
226.534	21652.63
226.607	21659.52
226.68	21678.41
226.753	21684.87
226.825	21672.92
226.898	21693.4
226.971	21690.08
227.044	21715.58
227.117	21720.93
227.189	21739.44
227.262	21755.73
227.335	21762.86
227.407	21767.83
227.48	21788.8
227.553	21803.26
227.626	21807.64
227.698	21804.56
227.771	21817.91
227.844	21812.94
227.916	21821.19
227.989	21819.98
228.062	21826.2
228.134	21855.32
228.207	21855.65
228.28	21858.83
228.352	21874.11
228.425	21879.51
228.498	21895.81
228.57	21899.61
228.643	21914.65
228.716	21915.09
228.788	21904.43
228.861	21909.54
228.934	21932.1
229.006	21932.73
229.079	21925.26
229.151	21918.9
229.224	21913.74
229.296	21919.33
229.369	21947.91
229.442	21963.15
229.514	21957.12
229.587	21976.93
229.659	21960.88
229.732	21975.87
229.804	21986.57
229.877	22001.76
229.949	22015.45
230.022	22031.89
230.094	22017.38
230.167	22010.2
230.239	22000.6
230.312	21998.34
230.384	22003.45
230.457	21991.69
230.529	21988.6
230.602	21989.71
230.674	21992.22
230.747	22007.26
230.819	22011.74
230.892	21977.56
230.964	21965.9
231.037	21977.32
231.109	21969.9
231.181	21969.22
231.254	21954.42
231.326	21937.26
231.399	21919.19
231.471	21904.68
231.544	21869.87
231.616	21882.4
231.688	21877.05
231.761	21864.38
231.833	21846.64
231.905	21813.19
231.978	21801.38
232.05	21787.83
232.122	21781.76
232.195	21763.2
232.267	21758.28
232.339	21739
232.412	21738.33
232.484	21714.08
232.556	21694.56
232.629	21692.05
232.701	21680.68
232.773	21664.44
232.846	21655.37
232.918	21655.52
232.99	21648.58
233.062	21652.24
233.135	21632.33
233.207	21604.57
233.279	21592.81
233.351	21594.74
233.424	21578.45
233.496	21560.18
233.568	21556.52
233.64	21521.91
233.713	21511.64
233.785	21484.31
233.857	21467.54
233.929	21430.86
234.001	21434.96
234.074	21428.55
234.146	21392.93
234.218	21378.37
234.29	21356.88
234.362	21331.86
234.434	21286.84
234.507	21250.89
234.579	21212.28
234.651	21200.28
234.723	21194.59
234.795	21182.64
234.867	21156.13
234.939	21154.2
235.012	21130.3
235.084	21126.2
235.156	21117.19
235.228	21085.67
235.3	21062.82
235.372	21054.15
235.444	21054
235.516	21021.76
235.588	20995.44
235.66	20983.54
235.732	20946.81
235.804	20977.66
235.876	20962.43
235.948	20956.74
236.02	20930.72
236.092	20908.98
236.164	20875.01
236.236	20843.82
236.308	20815
236.38	20796.45
236.452	20764.54
236.524	20747.05
236.596	20732.11
236.668	20715.58
236.74	20693.46
236.812	20675.1
236.884	20653.02
236.956	20625.46
237.028	20586.71
237.1	20554.18
237.172	20530.56
237.244	20521.07
237.316	20456
237.388	20428.15
237.46	20394.32
237.532	20387.23
237.604	20352.53
237.675	20342.7
237.747	20324.05
237.819	20286.22
237.891	20252.68
237.963	20221.5
238.035	20192.44
238.107	20127.57
238.178	20108.88
238.25	20082.66
238.322	20074.52
238.394	20011.48
238.466	19979.29
238.538	19950.28
238.609	19933.7
238.681	19888.55
238.753	19851.87
238.825	19822.86
238.897	19786.72
238.968	19774.14
239.04	19733.85
239.112	19729.28
239.184	19683.98
239.255	19648.32
239.327	19625.33
239.399	19595.6
239.471	19574.54
239.542	19543.55
239.614	19528.51
239.686	19470.2
239.758	19446.25
239.829	19399.36
239.901	19394.02
239.973	19365.58
240.044	19343.85
240.116	19310.89
240.188	19279.28
240.259	19252.63
240.331	19215.62
240.403	19194.65
240.474	19147.24
240.546	19112.83
240.618	19071.29
240.689	19032.06
240.761	19003.73
240.833	18987.29
240.904	18947.78
240.976	18917.71
241.048	18888.12
241.119	18850.29
241.191	18827.16
241.262	18816.12
241.334	18788.41
241.405	18750.83
241.477	18717
241.549	18675.94
241.62	18639.51
241.692	18611.61
241.763	18586.45
241.835	18555.32
241.906	18522.6
241.978	18470.36
242.049	18443.33
242.121	18411.91
242.192	18402.36
242.264	18352.2
242.335	18304.97
242.407	18281.26
242.478	18233.41
242.55	18199.19
242.621	18168.01
242.693	18125.32
242.764	18075.54
242.836	18036.55
242.907	18011.59
242.979	17977.66
243.05	17947.06
243.122	17917.28
243.193	17879.64
243.264	17818.39
243.336	17775.69
243.407	17747.74
243.479	17731.64
243.55	17702.97
243.622	17678.1
243.693	17638.78
243.764	17622.3
243.836	17580.66
243.907	17545.43
243.978	17508.61
244.05	17484.27
244.121	17434.92
244.192	17415.74
244.264	17369.14
244.335	17327.65
244.407	17270.58
244.478	17242.34
244.549	17213.67
244.62	17169.86
244.692	17143.11
244.763	17127.45
244.834	17096.36
244.906	17058.68
244.977	17024.27
245.048	17006
245.119	16965.76
245.191	16917.9
245.262	16865.71
245.333	16847.34
245.405	16818.62
245.476	16795.77
245.547	16763.29
245.618	16747.58
245.689	16717.12
245.761	16688.59
245.832	16663.86
245.903	16655.91
245.974	16629.26
246.045	16589.55
246.117	16568.48
246.188	16517.01
246.259	16472.48
246.33	16442.45
246.401	16403.75
246.473	16365.33
246.544	16323.07
246.615	16296.12
246.686	16269.32
246.757	16250.77
246.828	16205.7
246.899	16186.13
246.97	16139.14
247.042	16095.14
247.113	16054.7
247.184	16043.76
247.255	16006.11
247.326	15966.83
247.397	15925.96
247.468	15890.73
247.539	15866.67
247.61	15825.42
247.681	15812.64
247.752	15793.31
247.823	15747.76
247.894	15725.74
247.965	15687.95
248.037	15649.1
248.108	15605.67
248.179	15577.67
248.25	15550
248.321	15533.22
248.392	15488.45
248.463	15480.69
248.534	15451.48
248.605	15437.3
248.675	15394.36
248.746	15370.45
248.817	15353.15
248.888	15329
248.959	15286.43
249.03	15257.03
249.101	15230.04
249.172	15190.22
249.243	15144.53
249.314	15136.52
249.385	15108.66
249.456	15085.28
249.527	15053.04
249.598	15028.89
249.669	14996.4
249.739	14971.96
249.81	14945.06
249.881	14908.62
249.952	14882.93
250.023	14859.64
250.094	14816.02
250.165	14777.5
250.235	14753.16
250.306	14722.84
250.377	14684.91
250.448	14664.85
250.519	14626.91
250.59	14612.07
250.66	14585.89
250.731	14576.15
250.802	14552.49
250.873	14527.95
250.944	14506.69
251.014	14483.65
251.085	14480.13
251.156	14454.53
251.227	14439.54
251.297	14430.72
251.368	14417.9
251.439	14401.8
251.51	14395.19
251.58	14363.86
251.651	14339.28
251.722	14321.01
251.792	14273.81
251.863	14242.91
251.934	14230.86
252.005	14231.92
252.075	14206.71
252.146	14189.26
252.217	14170.46
252.287	14145.58
252.358	14114.39
252.429	14105.33
252.499	14070.57
252.57	14042.62
252.641	14030.9
252.711	14003.42
252.782	13956.38
252.852	13952.08
252.923	13927.11
252.994	13901.32
253.064	13893.76
253.135	13868.16
253.205	13836.49
253.276	13838.75
253.347	13831.67
253.417	13799.99
253.488	13761.96
253.558	13734.53
253.629	13709.94
253.699	13689.41
253.77	13677.36
253.841	13648.87
253.911	13620.28
253.982	13599.45
254.052	13579.02
254.123	13550.81
254.193	13519.77
254.264	13535.92
254.334	13497.3
254.405	13454.26
254.475	13409.95
254.546	13379.97
254.616	13366.62
254.687	13354.61
254.757	13336.15
254.827	13311.28
254.898	13294.07
254.968	13276.71
255.039	13252.75
255.109	13245.23
255.18	13219.68
255.25	13175.29
255.321	13162.51
255.391	13131.75
255.461	13130.84
255.532	13089.19
255.602	13072.36
255.673	13042.62
255.743	13009.21
255.813	12964.05
255.884	12960.14
255.954	12951.42
256.024	12945.63
256.095	12927.65
256.165	12895.98
256.235	12876.36
256.306	12844.59
256.376	12832.25
256.446	12821.02
256.517	12800.92
256.587	12781.25
256.657	12765.49
256.728	12754.25
256.798	12736.51
256.868	12719.88
256.938	12696.31
257.009	12689.03
257.079	12672.26
257.149	12674.14
257.219	12632.34
257.29	12627.09
257.36	12581.63
257.43	12570.74
257.5	12531.16
257.571	12500.5
257.641	12482.33
257.711	12449.75
257.781	12440.1
257.852	12418.7
257.922	12371.9
257.992	12346.44
258.062	12323.6
258.132	12304.17
258.202	12276.65
258.273	12260.06
258.343	12251.82
258.413	12220.1
258.483	12195.52
258.553	12162.16
258.623	12129.43
258.693	12115.7
258.764	12103.45
258.834	12100.66
258.904	12083.16
258.974	12051.2
259.044	12029.95
259.114	12016.79
259.184	11998.13
259.254	11980.44
259.324	11937.54
259.394	11930.56
259.464	11927.47
259.535	11911.71
259.605	11888.23
259.675	11860.42
259.745	11847.99
259.815	11818.87
259.885	11799.35
259.955	11805.72
260.025	11780.99
260.095	11759.54
260.165	11745.61
260.235	11744.74
260.305	11721.61
260.375	11687.39
260.445	11699.15
260.515	11699.63
260.585	11687.15
260.655	11670.28
260.725	11657.17
260.795	11651.96
260.865	11652.06
260.934	11633.45
261.004	11618.22
261.074	11592.29
261.144	11587.91
261.214	11577.35
261.284	11559.37
261.354	11550.55
261.424	11522.79
261.494	11527.51
261.564	11509.97
261.634	11498.79
261.703	11460.09
261.773	11446.98
261.843	11436.28
261.913	11410.93
261.983	11373.77
262.053	11370.83
262.123	11351.94
262.192	11323.65
262.262	11316.13
262.332	11284.95
262.402	11267.84
262.472	11250.54
