Data from 20250630_urea_2M_MAYP1162681_11-42-27-058.txt Node
Date: Tue Jul 01 11:42:27 BST 2025
User: adleo
Spectrometer: MAYP116268
Trigger mode: 0
Integration Time (sec): 1.000000E0
Scans to average: 1
Electric dark correction enabled: true
Nonlinearity correction enabled: true
Boxcar width: 10
XAxis mode: Wavelengths
Number of Pixels in Spectrum: 2068
>>>>>Begin Spectral Data<<<<<
179.565	1120.99
179.642	1171.48
179.718	1210.13
179.795	1247.18
179.871	1280.15
179.948	1294.79
180.024	1314.16
180.101	1336.09
180.177	1349.04
180.254	1370.12
180.33	1390.63
180.407	1437.86
180.483	1524.7
180.56	1607.7
180.636	1683.8
180.712	1672.77
180.789	1682.32
180.865	1694.1
180.942	1703.6
181.018	1708.88
181.095	1721.33
181.171	1726.13
181.248	1726.7
181.324	1741.62
181.4	1746.09
181.477	1755.69
181.553	1768.66
181.63	1786.48
181.706	1803.07
181.782	1809.77
181.859	1809.82
181.935	1816.9
182.011	1811.15
182.088	1830.73
182.164	1848.56
182.24	1862.15
182.317	1871.85
182.393	1870.14
182.469	1882.16
182.546	1894.48
182.622	1903.51
182.698	1898.13
182.775	1906.69
182.851	1921.28
182.927	1915.82
183.003	1912.25
183.08	1904.7
183.156	1911.92
183.232	1909.88
183.308	1897.8
183.385	1906.16
183.461	1920
183.537	1919.52
183.613	1934.97
183.69	1926.18
183.766	1916.71
183.842	1926.18
183.918	1932.31
183.995	1941.06
184.071	1943.2
184.147	1937.02
184.223	1925.37
184.299	1937.12
184.375	1928.8
184.452	1935.69
184.528	1987.97
184.604	2000.23
184.68	2014.87
184.756	2022.1
184.832	2027.48
184.908	2031.99
184.985	2030.85
185.061	2017.78
185.137	2025.43
185.213	2012.07
185.289	2012.07
185.365	2004.52
185.441	2002.28
185.517	2012.32
185.593	2013.36
185.669	2013.22
185.745	2023.68
185.822	2039.99
185.898	2031
185.974	2041.12
186.05	2031.28
186.126	1990.85
186.202	1982.62
186.278	1976.72
186.354	1963.79
186.43	1968.69
186.506	1966.74
186.582	1968.22
186.658	1975.2
186.734	1955.14
186.81	1960.28
186.886	1960.13
186.962	1974.63
187.038	1971.02
187.114	1963.55
187.19	1970.92
187.266	1961.37
187.341	1961.51
187.417	1954.66
187.493	1958.52
187.569	1959.94
187.645	1956.57
187.721	1947.96
187.797	1955.76
187.873	1957.23
187.949	1958.61
188.025	1952.61
188.101	1954.09
188.176	1960.65
188.252	1956.32
188.328	1965.54
188.404	1964.12
188.48	1961.79
188.556	1952.8
188.632	1954.46
188.707	1954.75
188.783	1950.18
188.859	1945.48
188.935	1936.49
189.011	1944.53
189.086	1937.3
189.162	1928.74
189.238	1928.12
189.314	1926.17
189.39	1921.37
189.465	1915.38
189.541	1929.55
189.617	1914.34
189.693	1911.16
189.768	1912.82
189.844	1933.99
189.92	1925.48
189.996	1933.23
190.071	1944.21
190.147	1944.59
190.223	1952.44
190.298	1945.69
190.374	1934.51
190.45	1946.68
190.526	1954.1
190.601	1950.68
190.677	1951.96
190.753	1979.5
190.828	1981.07
190.904	1994.25
190.98	2008.23
191.055	2022.73
191.131	2012.75
191.207	2032.95
191.282	2041.51
191.358	2030.19
191.433	2016.26
191.509	2031.32
191.585	2030.13
191.66	2030.47
191.736	2039.12
191.811	2029.99
191.887	2045.26
191.963	2069.09
192.038	2074.75
192.114	2074.56
192.189	2077.12
192.265	2072.7
192.34	2051.39
192.416	2050.77
192.491	2046.34
192.567	2051.1
192.642	2052.58
192.718	2052.77
192.793	2041.59
192.869	2037.6
192.944	2039.21
193.02	2047.68
193.095	2050.82
193.171	2056.29
193.246	2055.96
193.322	2054.39
193.397	2052.77
193.473	2040.12
193.548	2022.23
193.624	2026.47
193.699	2024.47
193.775	2036.65
193.85	2040.45
193.925	2046.82
194.001	2045.44
194.076	2039.88
194.152	2027.03
194.227	2020.09
194.302	2011.77
194.378	2016
194.453	2013.77
194.529	2028.03
194.604	2014.77
194.679	2009.68
194.755	1991.52
194.83	2002.17
194.905	1995.71
194.981	2003.03
195.056	1995.71
195.131	2002.46
195.207	2002.98
195.282	1995.42
195.357	1978.92
195.433	1992.33
195.508	1983.29
195.583	1989.33
195.659	2003.32
195.734	2010.5
195.809	2010.59
195.884	2019.77
195.96	2021.57
196.035	2035.98
196.11	2033.03
196.185	2045.21
196.261	2045.45
196.336	2072.6
196.411	2060.18
196.486	2068.27
196.561	2064.23
196.637	2073.26
196.712	2088.11
196.787	2087.06
196.862	2103.75
196.937	2112.69
197.013	2117.16
197.088	2128.29
197.163	2150.66
197.238	2166.32
197.313	2167.56
197.388	2175.88
197.464	2205.77
197.539	2215.76
197.614	2208.2
197.689	2218.19
197.764	2235.56
197.839	2257.45
197.914	2254.88
197.989	2275.53
198.065	2289.71
198.14	2337.8
198.215	2361.79
198.29	2371.26
198.365	2383.49
198.44	2390.2
198.515	2418.39
198.59	2433.05
198.665	2455.76
198.74	2462.23
198.815	2462.47
198.89	2482.65
198.965	2515.14
199.04	2511.76
199.115	2525.94
199.19	2566.22
199.265	2569.26
199.34	2577.84
199.415	2605.76
199.49	2624.95
199.565	2633.66
199.64	2653.67
199.715	2650.9
199.79	2659.57
199.865	2667.53
199.94	2667.86
200.015	2698.63
200.09	2705.5
200.165	2713.78
200.24	2721.46
200.315	2758.69
200.39	2774.8
200.464	2781.66
200.539	2782.28
200.614	2797.1
200.689	2820.35
200.764	2828.74
200.839	2848.36
200.914	2852.22
200.989	2844.41
201.063	2855.51
201.138	2842.6
201.213	2843.56
201.288	2826.07
201.363	2830.88
201.438	2830.07
201.512	2842.88
201.587	2825.54
201.662	2825.35
201.737	2836.98
201.812	2844.03
201.886	2813.22
201.961	2820.33
202.036	2807.85
202.111	2805.27
202.186	2776.94
202.26	2757.92
202.335	2736.14
202.41	2729.95
202.485	2712.42
202.559	2696.56
202.634	2672.65
202.709	2679.55
202.784	2659.73
202.858	2658.35
202.933	2638.3
203.008	2630.49
203.082	2615.77
203.157	2614.29
203.232	2574.49
203.306	2552.1
203.381	2522.28
203.456	2500.99
203.53	2475.45
203.605	2457.51
203.68	2432.74
203.754	2426.46
203.829	2413.98
203.904	2393.52
203.978	2379.51
204.053	2380.56
204.127	2368.23
204.202	2366.95
204.277	2350.19
204.351	2344.96
204.426	2337.1
204.5	2332.44
204.575	2301.36
204.65	2306.84
204.724	2301.08
204.799	2309.97
204.873	2308.02
204.948	2306.5
205.022	2295.32
205.097	2290.41
205.171	2301.97
205.246	2309.83
205.32	2309.5
205.395	2308.78
205.469	2301.98
205.544	2306.55
205.618	2291.47
205.693	2301.65
205.767	2291.09
205.842	2310.22
205.916	2304.18
205.991	2296.71
206.065	2299.71
206.14	2312.55
206.214	2309.88
206.289	2303.93
206.363	2315.64
206.438	2316.07
206.512	2322.88
206.586	2342.1
206.661	2350.58
206.735	2329.84
206.81	2331.12
206.884	2345.11
206.958	2332.12
207.033	2350.68
207.107	2357.82
207.181	2392.25
207.256	2384.77
207.33	2403.38
207.405	2414.39
207.479	2431.38
207.553	2439.66
207.628	2427.38
207.702	2441.57
207.776	2437.43
207.851	2439.76
207.925	2452.67
207.999	2451.24
208.073	2451.14
208.148	2454.33
208.222	2444.9
208.296	2474.69
208.371	2487.6
208.445	2497.94
208.519	2527.4
208.593	2536.16
208.668	2533.83
208.742	2531.45
208.816	2535.35
208.89	2547.74
208.965	2546.21
209.039	2557.55
209.113	2575.55
209.187	2594.68
209.261	2587.59
209.336	2605.02
209.41	2624.26
209.484	2625.07
209.558	2645.18
209.632	2655.32
209.707	2662.75
209.781	2680.14
209.855	2698.96
209.929	2715.93
210.003	2722.93
210.077	2721.6
210.151	2768.38
210.226	2798.41
210.3	2826.12
210.374	2846.55
210.448	2853.75
210.522	2863.9
210.596	2873.15
210.67	2877.15
210.744	2920.44
210.818	2951.88
210.892	2969.57
210.966	2966.61
211.041	2980.82
211.115	2977.05
211.189	3002.36
211.263	3017
211.337	3026.96
211.411	3038.98
211.485	3032.25
211.559	3043.55
211.633	3046.79
211.707	3016.21
211.781	3028.18
211.855	2996.14
211.929	2991.66
212.003	2970.17
212.077	2982.96
212.151	2993.21
212.225	3007.89
212.299	2999.54
212.373	2991.87
212.447	2991.15
212.52	3020.38
212.594	3026.82
212.668	3043.46
212.742	3033.54
212.816	3036.64
212.89	3035.59
212.964	3040.12
213.038	3054.1
213.112	3073.99
213.186	3094.73
213.26	3081.29
213.333	3044.43
213.407	3058.63
213.481	3070.6
213.555	3094.18
213.629	3093.42
213.703	3092.7
213.777	3102.53
213.85	3098.43
213.924	3143.09
213.998	3161.46
214.072	3168.29
214.146	3170.62
214.219	3187.13
214.293	3201.97
214.367	3220.86
214.441	3247.72
214.515	3258.99
214.588	3257.03
214.662	3246.87
214.736	3252.97
214.81	3289.12
214.883	3325.07
214.957	3341.48
215.031	3358.7
215.105	3365.99
215.178	3382.7
215.252	3404.89
215.326	3412.05
215.4	3426.18
215.473	3413
215.547	3426.51
215.621	3447
215.694	3488.88
215.768	3501.49
215.842	3525.07
215.915	3550.29
215.989	3564.52
216.063	3594.86
216.136	3639.38
216.21	3677.34
216.284	3728.27
216.357	3768.54
216.431	3806.43
216.504	3856.21
216.578	3920.92
216.652	3976.04
216.725	4026.19
216.799	4082.52
216.873	4134.67
216.946	4191.93
217.02	4240.34
217.093	4289.69
217.167	4321.83
217.24	4357.28
217.314	4408.88
217.387	4456.65
217.461	4503.78
217.535	4575.61
217.608	4619.78
217.682	4678.67
217.755	4751.71
217.829	4801.13
217.902	4860.69
217.976	4916.32
218.049	4970.86
218.123	5016.14
218.196	5083.23
218.27	5137.9
218.343	5187.4
218.417	5253
218.49	5311.65
218.563	5389.33
218.637	5459.61
218.71	5548.44
218.784	5626.01
218.857	5703.3
218.931	5780.54
219.004	5853.77
219.077	5925.88
219.151	5998.12
219.224	6059.63
219.298	6123.75
219.371	6204.81
219.444	6262.49
219.518	6341.38
219.591	6415.68
219.665	6514.8
219.738	6585.86
219.811	6647.74
219.885	6726.45
219.958	6797.67
220.031	6862.78
220.105	6940.61
220.178	7014.03
220.251	7076.64
220.325	7145.21
220.398	7217.63
220.471	7288.85
220.544	7362.91
220.618	7420.26
220.691	7492.79
220.764	7559.51
220.838	7633.8
220.911	7697.08
220.984	7791.85
221.057	7871.69
221.131	7950.08
221.204	7989.96
221.277	8076.16
221.35	8180.79
221.424	8244.53
221.497	8321.27
221.57	8398.96
221.643	8470.23
221.716	8551.37
221.79	8616.96
221.863	8689.49
221.936	8761.29
222.009	8833.63
222.082	8907.76
222.155	8975
222.229	9064.49
222.302	9138.39
222.375	9201.12
222.448	9273.77
222.521	9337.33
222.594	9395.74
222.667	9453.04
222.74	9530.81
222.814	9593.27
222.887	9648.23
222.96	9727.5
223.033	9800.62
223.106	9871.32
223.179	9940.78
223.252	9998.78
223.325	10072.57
223.398	10141.75
223.471	10204.67
223.544	10271.38
223.617	10343.75
223.69	10422.81
223.763	10472.1
223.837	10544.42
223.91	10614.33
223.983	10658.46
224.056	10707.8
224.129	10773.81
224.202	10839.87
224.275	10898.99
224.348	10955.47
224.42	11005.49
224.493	11045.44
224.566	11094.98
224.639	11159.07
224.712	11215.56
224.785	11272.67
224.858	11328.72
224.931	11377.59
225.004	11427.52
225.077	11479.62
225.15	11505.4
225.223	11555.19
225.296	11631.25
225.369	11672.75
225.442	11721.86
225.514	11788.28
225.587	11852.57
225.66	11909.06
225.733	11965.84
225.806	12017.61
225.879	12079.22
225.952	12135.03
226.025	12215.67
226.097	12289.28
226.17	12350.11
226.243	12383.04
226.316	12435.87
226.389	12501.91
226.461	12569.64
226.534	12632.88
226.607	12691.69
226.68	12782.27
226.753	12833.41
226.825	12868.41
226.898	12942.98
226.971	13007.05
227.044	13073.09
227.117	13129.2
227.189	13194.96
227.262	13264.66
227.335	13337.98
227.407	13382.04
227.48	13444.76
227.553	13492.77
227.626	13541.22
227.698	13600.42
227.771	13667.04
227.844	13711.63
227.916	13756.61
227.989	13802.07
228.062	13853.89
228.134	13928.37
228.207	13971.46
228.28	14023.28
228.352	14079.54
228.425	14123.07
228.498	14184.34
228.57	14229.99
228.643	14298.64
228.716	14340.48
228.788	14381.31
228.861	14418.04
228.934	14485.24
229.006	14526.89
229.079	14580.59
229.151	14626
229.224	14646.43
229.296	14699.7
229.369	14775
229.442	14842.82
229.514	14878.92
229.587	14937.25
229.659	14964.87
229.732	15022.38
229.804	15088.94
229.877	15157.82
229.949	15221.5
230.022	15277.27
230.094	15320.51
230.167	15360.47
230.239	15397.53
230.312	15449.45
230.384	15512.16
230.457	15551.58
230.529	15603.88
230.602	15650.11
230.674	15705.3
230.747	15765.89
230.819	15829.27
230.892	15858.28
230.964	15893.18
231.037	15949.96
231.109	15995.17
231.181	16045.83
231.254	16072.39
231.326	16102.51
231.399	16140.59
231.471	16175.34
231.544	16201.7
231.616	16256.36
231.688	16309.52
231.761	16347.07
231.833	16382.11
231.905	16413.53
231.978	16456.04
232.05	16491.03
232.122	16533.35
232.195	16564.43
232.267	16620.97
232.339	16648.01
232.412	16692.2
232.484	16723.77
232.556	16753.46
232.629	16805.65
232.701	16853.27
232.773	16891.87
232.846	16929.52
232.918	16960.79
232.99	16995.83
233.062	17038.82
233.135	17071.16
233.207	17084.27
233.279	17125.28
233.351	17164.66
233.424	17186.87
233.496	17202.87
233.568	17252.51
233.64	17262.06
233.713	17281.57
233.785	17304.66
233.857	17330.78
233.929	17343.94
234.001	17394.34
234.074	17434.06
234.146	17429.77
234.218	17448.08
234.29	17472.03
234.362	17484.9
234.434	17493.62
234.507	17499.21
234.579	17502.88
234.651	17511.16
234.723	17533.09
234.795	17556.66
234.867	17573.24
234.939	17604.46
235.012	17623.45
235.084	17638.34
235.156	17656.71
235.228	17662.49
235.3	17672.27
235.372	17683.6
235.444	17712.03
235.516	17693.91
235.588	17704.08
235.66	17730.2
235.732	17732.61
235.804	17794.39
235.876	17818.53
235.948	17843.78
236.02	17857.28
236.092	17861.52
236.164	17873.33
236.236	17880.46
236.308	17893.76
236.38	17895.88
236.452	17889.9
236.524	17908.46
236.596	17926.77
236.668	17942.82
236.74	17961.47
236.812	17972.07
236.884	17985.08
236.956	17982.67
237.028	17987.78
237.1	17979.88
237.172	17997.76
237.244	18017.13
237.316	17981.81
237.388	17973.37
237.46	17964.22
237.532	17983.83
237.604	17982.91
237.675	18003.44
237.747	18017.8
237.819	18005.47
237.891	18008.65
237.963	18002.53
238.035	17981.56
238.107	17945.18
238.178	17968.26
238.25	17962.43
238.322	17976.12
238.394	17960.79
238.466	17958.09
238.538	17967.44
238.609	17974.53
238.681	17942.63
238.753	17932.7
238.825	17934.43
238.897	17927.25
238.968	17932.36
239.04	17919.2
239.112	17941.95
239.184	17916.99
239.255	17901.33
239.327	17895.4
239.399	17883.93
239.471	17890.43
239.542	17903.16
239.614	17915.11
239.686	17864.22
239.758	17855.3
239.829	17824.99
239.901	17825.91
239.973	17811.11
240.044	17793.96
240.116	17780.03
240.188	17764.46
240.259	17744.03
240.331	17713.62
240.403	17713.19
240.474	17688.66
240.546	17668.08
240.618	17635.21
240.689	17615.84
240.761	17607.02
240.833	17608.8
240.904	17593.33
240.976	17572.76
241.048	17555.65
241.119	17533.24
241.191	17531.31
241.262	17534.73
241.334	17517.29
241.405	17495.65
241.477	17473
241.549	17448.66
241.62	17433.67
241.692	17425.58
241.763	17422.83
241.835	17408.13
241.906	17378.83
241.978	17342.88
242.049	17320.22
242.121	17305.67
242.192	17296.47
242.264	17255.74
242.335	17214.1
242.407	17203.02
242.478	17179.35
242.55	17148.22
242.621	17123.35
242.693	17093.86
242.764	17059.69
242.836	17040.17
242.907	17029.95
242.979	17014.63
243.05	16995.74
243.122	16978.58
243.193	16954.92
243.264	16905.18
243.336	16881.32
243.407	16875.01
243.479	16876.17
243.55	16861.13
243.622	16837.27
243.693	16814.14
243.764	16801.51
243.836	16771.44
243.907	16740.45
243.978	16707.38
244.05	16692.88
244.121	16655.19
244.192	16640.34
244.264	16602.75
244.335	16574.75
244.407	16522.84
244.478	16503.95
244.549	16480.38
244.62	16435.22
244.692	16403.41
244.763	16391.7
244.834	16361.24
244.906	16326.58
244.977	16303.21
245.048	16287.54
245.119	16253.9
245.191	16217.51
245.262	16168.35
245.333	16162.76
245.405	16137.26
245.476	16119.28
245.547	16094.9
245.618	16080.24
245.689	16053.83
245.761	16039.18
245.832	16006.5
245.903	15988.47
245.974	15966.64
246.045	15934.78
246.117	15923.84
246.188	15893.81
246.259	15848.6
246.33	15819.24
246.401	15792.01
246.473	15745.36
246.544	15711.37
246.615	15695.47
246.686	15665.39
246.757	15658.02
246.828	15609.04
246.899	15600.03
246.97	15563.06
247.042	15523.97
247.113	15499.97
247.184	15493.7
247.255	15455.43
247.326	15433.21
247.397	15406.94
247.468	15368.57
247.539	15348.85
247.61	15312.56
247.681	15284.7
247.752	15275.25
247.823	15236.16
247.894	15210.03
247.965	15179.23
248.037	15148.43
248.108	15106.3
248.179	15074.39
248.25	15044.12
248.321	15024.93
248.392	14976.34
248.463	14970.99
248.534	14943.57
248.605	14922.16
248.675	14887.84
248.746	14866.25
248.817	14845.18
248.888	14823.25
248.959	14787.19
249.03	14758.27
249.101	14734.65
249.172	14712.57
249.243	14664.27
249.314	14660.9
249.385	14638.72
249.456	14614.48
249.527	14582.86
249.598	14561.6
249.669	14543.95
249.739	14522.74
249.81	14512.04
249.881	14478.11
249.952	14443.69
250.023	14425.9
250.094	14385.89
250.165	14350.75
250.235	14324.09
250.306	14291.99
250.377	14254.67
250.448	14230.91
250.519	14192.3
250.59	14169.69
250.66	14134.45
250.731	14125.05
250.802	14089.28
250.873	14059.87
250.944	14038.66
251.014	14010.22
251.085	14002.85
251.156	13985.97
251.227	13978.6
251.297	13954.88
251.368	13944.03
251.439	13932.66
251.51	13912.07
251.58	13877.56
251.651	13840.92
251.722	13829.3
251.792	13794.55
251.863	13766.83
251.934	13753.23
252.005	13757.48
252.075	13737.08
252.146	13726.62
252.217	13712.16
252.287	13706.47
252.358	13679.09
252.429	13671.19
252.499	13640.38
252.57	13619.46
252.641	13600.32
252.711	13571.64
252.782	13536.26
252.852	13526.66
252.923	13504.29
252.994	13484.77
253.064	13481.45
253.135	13459.17
253.205	13428.76
253.276	13432.95
253.347	13434.25
253.417	13410.2
253.488	13377.08
253.558	13353.22
253.629	13333.98
253.699	13317.35
253.77	13291.99
253.841	13271.51
253.911	13251.21
253.982	13236.84
254.052	13218.96
254.123	13196.93
254.193	13174.95
254.264	13186.42
254.334	13155.42
254.405	13111.51
254.475	13077.09
254.546	13048.55
254.616	13036.93
254.687	13017.55
254.757	12989.45
254.827	12961.15
254.898	12940.57
254.968	12915.31
255.039	12887.54
255.109	12867.68
255.18	12836.35
255.25	12798.99
255.321	12787.23
255.391	12755.17
255.461	12753.82
255.532	12702.58
255.602	12674.86
255.673	12633.02
255.743	12604.77
255.813	12561.72
255.884	12556.28
255.954	12542.73
256.024	12537.72
256.095	12522.87
256.165	12492.31
256.235	12471.87
256.306	12442.51
256.376	12425.79
256.446	12412.19
256.517	12393.59
256.587	12383.03
256.657	12359.94
256.728	12335.36
256.798	12309.57
256.868	12285.08
256.938	12256.83
257.009	12258.91
257.079	12243.72
257.149	12248.4
257.219	12199.86
257.29	12184.05
257.36	12147.7
257.43	12132.95
257.5	12094.01
257.571	12066.58
257.641	12055.83
257.711	12028.02
257.781	12011.77
257.852	12005.51
257.922	11968.49
257.992	11948.44
258.062	11926.94
258.132	11915.37
258.202	11900.38
258.273	11880.18
258.343	11879.8
258.413	11844.57
258.483	11824.8
258.553	11795.79
258.623	11760.55
258.693	11751.83
258.764	11745.03
258.834	11733.8
258.904	11717.32
258.974	11690.62
259.044	11667.24
259.114	11647.14
259.184	11634.37
259.254	11618.51
259.324	11575.23
259.394	11566.51
259.464	11565.01
259.535	11541.4
259.605	11513.63
259.675	11483.71
259.745	11473.44
259.815	11442.54
259.885	11424.47
259.955	11432.76
260.025	11412.28
260.095	11402.11
260.165	11393.24
260.235	11389.63
260.305	11373.48
260.375	11343.41
260.445	11346.3
260.515	11341.77
260.585	11346.11
260.655	11326.11
260.725	11316.66
260.795	11312.85
260.865	11311.74
260.934	11288.85
261.004	11277.72
261.074	11267.5
261.144	11267.02
261.214	11260.13
261.284	11240.32
261.354	11235.26
261.424	11196.03
261.494	11197.43
261.564	11176.13
261.634	11160.85
261.703	11127.21
261.773	11114.1
261.843	11106.97
261.913	11090.05
261.983	11057.91
262.053	11036.95
262.123	11018.97
262.192	10991.07
262.262	10983.17
262.332	10950.21
262.402	10934.88
262.472	10918.35
262.541	10884.72
262.611	10879.27
