Data from 20250630_urea_2M_MAYP1162681_20-02-27-580.txt Node
Date: Mon Jun 30 20:02:27 BST 2025
User: adleo
Spectrometer: MAYP116268
Trigger mode: 0
Integration Time (sec): 1.000000E0
Scans to average: 1
Electric dark correction enabled: true
Nonlinearity correction enabled: true
Boxcar width: 10
XAxis mode: Wavelengths
Number of Pixels in Spectrum: 2068
>>>>>Begin Spectral Data<<<<<
179.565	1125.95
179.642	1178.63
179.718	1221.51
179.795	1255.28
179.871	1286.87
179.948	1304.29
180.024	1324.94
180.101	1348.39
180.177	1362.81
180.254	1385.77
180.33	1407.3
180.407	1456.86
180.483	1545.94
180.56	1629.75
180.636	1708.74
180.712	1697.48
180.789	1708.79
180.865	1722.18
180.942	1729.26
181.018	1740.57
181.095	1754.5
181.171	1760.01
181.248	1760.39
181.324	1773.94
181.4	1780.92
181.477	1791.28
181.553	1804.35
181.63	1823.46
181.706	1834.77
181.782	1840.19
181.859	1835.81
181.935	1839.24
182.011	1832.15
182.088	1848.79
182.164	1868.86
182.24	1880.07
182.317	1886.63
182.393	1882.74
182.469	1894.57
182.546	1906.6
182.622	1909.97
182.698	1903.89
182.775	1916.44
182.851	1929.18
182.927	1922.48
183.003	1918.34
183.08	1910.54
183.156	1918.06
183.232	1914.87
183.308	1907.12
183.385	1918.81
183.461	1936.31
183.537	1938.12
183.613	1949.62
183.69	1939.59
183.766	1927.46
183.842	1933.74
183.918	1940.15
183.995	1954.65
184.071	1956.89
184.147	1953.28
184.223	1944.06
184.299	1956.85
184.375	1945.2
184.452	1950.1
184.528	2004.18
184.604	2015.21
184.68	2025.15
184.756	2029.48
184.832	2034.9
184.908	2039.13
184.985	2037.61
185.061	2024.53
185.137	2034.14
185.213	2025.48
185.289	2025.63
185.365	2021.11
185.441	2022.68
185.517	2035.57
185.593	2029.82
185.669	2028.87
185.745	2038.66
185.822	2055.59
185.898	2047.45
185.974	2055.11
186.05	2049.26
186.126	2009.91
186.202	2003.16
186.278	2003.64
186.354	1996.27
186.43	2000.79
186.506	1999.03
186.582	1996.7
186.658	2000.55
186.734	1979.77
186.81	1982.48
186.886	1987.85
186.962	1999.12
187.038	1995.51
187.114	1984.85
187.19	1993.89
187.266	1983.05
187.341	1984.33
187.417	1974.63
187.493	1975.63
187.569	1977.68
187.645	1971.64
187.721	1956.56
187.797	1966.64
187.873	1969.12
187.949	1964.84
188.025	1959.18
188.101	1960.94
188.176	1963.12
188.252	1961.22
188.328	1969.06
188.404	1966.64
188.48	1961.5
188.556	1952.37
188.632	1952.47
188.707	1957.04
188.783	1953.14
188.859	1951.52
188.935	1942.2
189.011	1951.18
189.086	1948
189.162	1942.58
189.238	1940.82
189.314	1940.44
189.39	1934.59
189.465	1927.41
189.541	1942.63
189.617	1928.74
189.693	1922.85
189.768	1927.46
189.844	1950.29
189.92	1943.21
189.996	1954.58
190.071	1963.56
190.147	1964.89
190.223	1973.88
190.298	1963.33
190.374	1951.72
190.45	1962.66
190.526	1968.79
190.601	1961.95
190.677	1959.85
190.753	1985.74
190.828	1990.06
190.904	2004.52
190.98	2017.6
191.055	2029.34
191.131	2021.35
191.207	2042.09
191.282	2053.07
191.358	2048.88
191.433	2035.13
191.509	2047.63
191.585	2041.69
191.66	2044.21
191.736	2052.44
191.811	2044.83
191.887	2062.47
191.963	2084.73
192.038	2089.01
192.114	2087.4
192.189	2091.06
192.265	2087.49
192.34	2064.27
192.416	2062.23
192.491	2058.61
192.567	2061.8
192.642	2063.04
192.718	2064.18
192.793	2051.2
192.869	2045.82
192.944	2044.82
193.02	2053.01
193.095	2056
193.171	2064.47
193.246	2063.37
193.322	2060.76
193.397	2059
193.473	2047.3
193.548	2028.89
193.624	2034.26
193.699	2036.31
193.775	2052.82
193.85	2056.05
193.925	2067.32
194.001	2068.75
194.076	2064.7
194.152	2054.81
194.227	2045.68
194.302	2034.55
194.378	2036.79
194.453	2035.84
194.529	2050.91
194.604	2035.36
194.679	2028.8
194.755	2007.45
194.83	2021.2
194.905	2016.31
194.981	2027.01
195.056	2020.87
195.131	2028.39
195.207	2025.63
195.282	2016.88
195.357	1998.61
195.433	2013.93
195.508	2001.18
195.583	2006.84
195.659	2019.16
195.734	2025.63
195.809	2027.2
195.884	2037.23
195.96	2039.18
196.035	2054.92
196.11	2047.36
196.185	2060.29
196.261	2064.48
196.336	2099.48
196.411	2086.16
196.486	2092.05
196.561	2083.92
196.637	2091
196.712	2105.71
196.787	2110.32
196.862	2123.83
196.937	2134.1
197.013	2138.19
197.088	2147.7
197.163	2168.64
197.238	2183.78
197.313	2183.35
197.388	2197.53
197.464	2226.23
197.539	2233.08
197.614	2224.61
197.689	2237.08
197.764	2251.07
197.839	2272.53
197.914	2263.34
197.989	2284.14
198.065	2299.37
198.14	2348.8
198.215	2375.6
198.29	2388.21
198.365	2400.54
198.44	2413.16
198.515	2440.05
198.59	2454.62
198.665	2479.23
198.74	2487.76
198.815	2490.62
198.89	2511.9
198.965	2538.28
199.04	2536
199.115	2554.47
199.19	2596.65
199.265	2597.61
199.34	2607.04
199.415	2637.39
199.49	2659.24
199.565	2668.63
199.64	2689.11
199.715	2682.67
199.79	2687.53
199.865	2691.29
199.94	2691.48
200.015	2720.22
200.09	2722.6
200.165	2727.74
200.24	2737.03
200.315	2776.19
200.39	2789.2
200.464	2795.68
200.539	2799.16
200.614	2811.88
200.689	2833.22
200.764	2840.47
200.839	2862.19
200.914	2868.62
200.989	2859.56
201.063	2873.48
201.138	2857.62
201.213	2860.05
201.288	2844.14
201.363	2847.04
201.438	2850.81
201.512	2864.77
201.587	2845.75
201.662	2853.76
201.737	2865.2
201.812	2874.01
201.886	2839.63
201.961	2845.63
202.036	2836.54
202.111	2830.96
202.186	2805.15
202.26	2789.61
202.335	2768.11
202.41	2758.3
202.485	2742.01
202.559	2722
202.634	2693.89
202.709	2701.32
202.784	2680.36
202.858	2681.41
202.933	2667.31
203.008	2658.35
203.082	2638.82
203.157	2641.77
203.232	2600.35
203.306	2581.57
203.381	2548.13
203.456	2528.37
203.53	2510.26
203.605	2489.22
203.68	2469.78
203.754	2463.41
203.829	2448.5
203.904	2427.03
203.978	2419.84
204.053	2424.89
204.127	2411.94
204.202	2414.32
204.277	2396
204.351	2389.62
204.426	2380.05
204.5	2369.91
204.575	2335.84
204.65	2344.74
204.724	2335.55
204.799	2345.4
204.873	2340.21
204.948	2337.68
205.022	2325.5
205.097	2315.74
205.171	2330.25
205.246	2337.4
205.32	2335.49
205.395	2335.83
205.469	2331.93
205.544	2334.4
205.618	2315.32
205.693	2329.4
205.767	2316.79
205.842	2338.36
205.916	2334.64
205.991	2325.6
206.065	2332.93
206.14	2348.77
206.214	2344.2
206.289	2336.72
206.363	2344.82
206.438	2349.15
206.512	2357.38
206.586	2375.9
206.661	2384.04
206.735	2361.15
206.81	2359.58
206.884	2374.62
206.958	2362.01
207.033	2374.28
207.107	2380.86
207.181	2413.52
207.256	2407.48
207.33	2423.09
207.405	2432.47
207.479	2448.95
207.553	2456.99
207.628	2441.05
207.702	2454.42
207.776	2447.19
207.851	2451.04
207.925	2464.62
207.999	2461.33
208.073	2459.28
208.148	2461.62
208.222	2453.9
208.296	2483.79
208.371	2504.94
208.445	2517.28
208.519	2545.03
208.593	2558.75
208.668	2555.46
208.742	2558.37
208.816	2560.94
208.89	2573.27
208.965	2575.56
209.039	2586.23
209.113	2604.33
209.187	2621.13
209.261	2616.27
209.336	2635.75
209.41	2656.81
209.484	2658.33
209.558	2677.67
209.632	2689.72
209.707	2700.49
209.781	2715.87
209.855	2733.84
209.929	2744.81
210.003	2752.48
210.077	2753.19
210.151	2796.88
210.226	2830.39
210.3	2853.38
210.374	2875.77
210.448	2881.35
210.522	2891.41
210.596	2900.61
210.67	2910.57
210.744	2958.77
210.818	2988.92
210.892	3008.38
210.966	3003.7
211.041	3021.34
211.115	3021.96
211.189	3049.18
211.263	3067.78
211.337	3079.36
211.411	3095.05
211.485	3096.82
211.559	3109.36
211.633	3117.84
211.707	3095.6
211.781	3107.73
211.855	3083.59
211.929	3082.07
212.003	3076.11
212.077	3097.58
212.151	3116.9
212.225	3135.84
212.299	3138.37
212.373	3142.71
212.447	3159.65
212.52	3203.92
212.594	3224.49
212.668	3254.68
212.742	3264.18
212.816	3286.32
212.89	3310.7
212.964	3338.11
213.038	3372.3
213.112	3416.99
213.186	3467.15
213.26	3483.76
213.333	3482.75
213.407	3530.76
213.481	3578.82
213.555	3638.81
213.629	3678.09
213.703	3719.8
213.777	3777.38
213.85	3821.02
213.924	3917.1
213.998	3982.75
214.072	4045.5
214.146	4112.12
214.219	4184.76
214.293	4266.2
214.367	4348.53
214.441	4442.98
214.515	4523.15
214.588	4591.02
214.662	4655.82
214.736	4735.77
214.81	4849.37
214.883	4965.93
214.957	5064.04
215.031	5165.65
215.105	5261.86
215.178	5368.7
215.252	5486.71
215.326	5587.92
215.4	5697.56
215.473	5785.79
215.547	5900.99
215.621	6027.52
215.694	6164.27
215.768	6288.54
215.842	6413.01
215.915	6549.17
215.989	6666.69
216.063	6804.95
216.136	6958.58
216.21	7114.66
216.284	7281.39
216.357	7437.26
216.431	7592.01
216.504	7757.73
216.578	7946.54
216.652	8118.68
216.725	8282.92
216.799	8460.77
216.873	8630.38
216.946	8806.2
217.02	8965.58
217.093	9127.9
217.167	9276.28
217.24	9434.8
217.314	9599.46
217.387	9771.08
217.461	9932.91
217.535	10120.99
217.608	10282.84
217.682	10456.08
217.755	10632.6
217.829	10799.46
217.902	10968.97
217.976	11142.78
218.049	11309.41
218.123	11464.6
218.196	11639.4
218.27	11804.71
218.343	11954.41
218.417	12128.27
218.49	12292.48
218.563	12481.57
218.637	12658.81
218.71	12843.76
218.784	13016.57
218.857	13191.89
218.931	13353.75
219.004	13521.36
219.077	13689.36
219.151	13851.9
219.224	14000.95
219.298	14154.44
219.371	14314.91
219.444	14453.07
219.518	14599.7
219.591	14755.35
219.665	14925.36
219.738	15074.17
219.811	15212.46
219.885	15368.01
219.958	15512.32
220.031	15652.44
220.105	15785.67
220.178	15919.47
220.251	16046.23
220.325	16177.57
220.398	16307.76
220.471	16446.37
220.544	16575.93
220.618	16691.31
220.691	16818.55
220.764	16936.43
220.838	17053.84
220.911	17167.43
220.984	17316.79
221.057	17437.32
221.131	17544.93
221.204	17626.33
221.277	17745.94
221.35	17885.12
221.424	17978.33
221.497	18086.85
221.57	18194.61
221.643	18307.42
221.716	18414.07
221.79	18503.7
221.863	18607.89
221.936	18693.72
222.009	18781.38
222.082	18876.07
222.155	18957.22
222.229	19061.46
222.302	19158.75
222.375	19243.76
222.448	19322.02
222.521	19388.67
222.594	19469.87
222.667	19530.15
222.74	19624.56
222.814	19694.68
222.887	19755.49
222.96	19838.19
223.033	19905.08
223.106	19969.65
223.179	20042.91
223.252	20103.68
223.325	20173.02
223.398	20223.63
223.471	20291.19
223.544	20349.65
223.617	20403.77
223.69	20464.63
223.763	20502.95
223.837	20564.25
223.91	20631.87
223.983	20672.97
224.056	20719.53
224.129	20768.88
224.202	20836.83
224.275	20873.03
224.348	20909.66
224.42	20939.15
224.493	20965.08
224.566	21004.46
224.639	21048.07
224.712	21068.7
224.785	21099.45
224.858	21138.2
224.931	21168.81
225.004	21190.83
225.077	21231.08
225.15	21244.81
225.223	21281.88
225.296	21339.19
225.369	21345.55
225.442	21367.43
225.514	21398.33
225.587	21428.64
225.66	21457.47
225.733	21495.64
225.806	21522.44
225.879	21538.15
225.952	21549.87
226.025	21591.7
226.097	21624.19
226.17	21640.77
226.243	21638.07
226.316	21662.7
226.389	21675
226.461	21699.39
226.534	21726.96
226.607	21729.08
226.68	21776.6
226.753	21787.98
226.825	21774.82
226.898	21808.8
226.971	21822.15
227.044	21848.62
227.117	21867.71
227.189	21880.19
227.262	21895.47
227.335	21914.95
227.407	21927.58
227.48	21953.07
227.553	21959
227.626	21964.5
227.698	21982.09
227.771	22012.17
227.844	22011.54
227.916	22026.54
227.989	22016.36
228.062	22028.61
228.134	22070.88
228.207	22062.79
228.28	22066.21
228.352	22071.37
228.425	22081.92
228.498	22094.46
228.57	22092.53
228.643	22097.54
228.716	22105.69
228.788	22095.85
228.861	22086.79
228.934	22106.31
229.006	22109.11
229.079	22105.98
229.151	22106.99
229.224	22097.01
229.296	22106.03
229.369	22140.59
229.442	22160.79
229.514	22166.86
229.587	22174.48
229.659	22150.23
229.732	22161.8
229.804	22172.31
229.877	22198
229.949	22203.02
230.022	22215.36
230.094	22214.68
230.167	22226.69
230.239	22222.73
230.312	22227.7
230.384	22259.52
230.457	22267.42
230.529	22267.38
230.602	22275.14
230.674	22281.21
230.747	22291.67
230.819	22305.6
230.892	22273.16
230.964	22271.18
231.037	22274.8
231.109	22261.54
231.181	22261.4
231.254	22248.82
231.326	22235.41
231.399	22224.23
231.471	22209.67
231.544	22182.43
231.616	22183.45
231.688	22169.08
231.761	22154.09
231.833	22150.52
231.905	22113.69
231.978	22102.27
232.05	22086.41
232.122	22084.24
232.195	22066.98
232.267	22067.37
232.339	22036.9
232.412	22038.44
232.484	22010.14
232.556	21997.13
232.629	22021.04
232.701	22023.35
232.773	22016.17
232.846	22008.75
232.918	22003.54
232.99	22000.65
233.062	22004.36
233.135	21987.73
233.207	21959.1
233.279	21953.22
233.351	21934.27
233.424	21910.03
233.496	21876.43
233.568	21889.35
233.64	21858.31
233.713	21843.12
233.785	21823.99
233.857	21798.34
233.929	21767.74
234.001	21770.44
234.074	21763.25
234.146	21718.57
234.218	21693.79
234.29	21680.06
234.362	21652.87
234.434	21612.81
234.507	21584.18
234.579	21541.14
234.651	21524.46
234.723	21518.39
234.795	21497.76
234.867	21472.99
234.939	21473.76
235.012	21459.73
235.084	21439.63
235.156	21422.18
235.228	21386.81
235.3	21352.63
235.372	21347.67
235.444	21342.37
235.516	21301.54
235.588	21281.64
235.66	21254.5
235.732	21226.35
235.804	21237.01
235.876	21220.33
235.948	21215.61
236.02	21188.18
236.092	21167.75
236.164	21129.53
236.236	21097.09
236.308	21063.69
236.38	21046.78
236.452	21006.58
236.524	20986.48
236.596	20964.75
236.668	20945.76
236.74	20917.18
236.812	20895.25
236.884	20880.93
236.956	20844.26
237.028	20807.39
237.1	20761.51
237.172	20759.87
237.244	20751.1
237.316	20691.62
237.388	20655.04
237.46	20615.33
237.532	20603.38
237.604	20564.3
237.675	20555.33
237.747	20538.17
237.819	20499.04
237.891	20472.1
237.963	20440.73
238.035	20405.16
238.107	20341.45
238.178	20320.39
238.25	20297.89
238.322	20290.56
238.394	20229.74
238.466	20203.04
238.538	20185.02
238.609	20167.53
238.681	20110.23
238.753	20063.82
238.825	20026.81
238.897	20002.18
238.968	19990.37
239.04	19939.97
239.112	19937.41
239.184	19899.34
239.255	19858.62
239.327	19845.37
239.399	19804.89
239.471	19784.45
239.542	19752.55
239.614	19736.12
239.686	19686.14
239.758	19660.89
239.829	19615.35
239.901	19601.81
239.973	19559.74
240.044	19532.85
240.116	19501.91
240.188	19467.75
240.259	19432.42
240.331	19403.12
240.403	19376.72
240.474	19324.96
240.546	19287.27
240.618	19230.46
240.689	19190.61
240.761	19158.9
240.833	19132.63
240.904	19098.71
240.976	19056.83
241.048	19029.07
241.119	18999.58
241.191	18968.07
241.262	18951.15
241.334	18916.21
241.405	18881.04
241.477	18850.24
241.549	18806.58
241.62	18778.97
241.692	18753.04
241.763	18726.49
241.835	18686.88
241.906	18653.43
241.978	18604.71
242.049	18590.69
242.121	18583.13
242.192	18565.01
242.264	18522.94
242.335	18475.18
242.407	18447.04
242.478	18400.58
242.55	18358.9
242.621	18317.12
242.693	18278.08
242.764	18235.53
242.836	18199.77
242.907	18169.22
242.979	18136.02
243.05	18101.75
243.122	18069.46
243.193	18029.75
243.264	17983.35
243.336	17952.65
243.407	17925.76
243.479	17912.65
243.55	17876.8
243.622	17828.32
243.693	17791.93
243.764	17772.99
243.836	17726.92
243.907	17688.03
243.978	17661.52
244.05	17640.27
244.121	17595.6
244.192	17573.72
244.264	17529.72
244.335	17493.09
244.407	17437.81
244.478	17411.79
244.549	17376.99
244.62	17330.1
244.692	17288.32
244.763	17263.74
244.834	17224.8
244.906	17188.56
244.977	17155.93
245.048	17129.81
245.119	17097.43
245.191	17054.1
245.262	16994.96
245.333	16981.52
245.405	16950.53
245.476	16924.17
245.547	16890.96
245.618	16867.39
245.689	16835.1
245.761	16796.88
245.832	16761.17
245.903	16749.27
245.974	16717.41
246.045	16680.06
246.117	16664.97
246.188	16628.78
246.259	16588.05
246.33	16547.47
246.401	16508.43
246.473	16462.35
246.544	16427.65
246.615	16399.17
246.686	16356.47
246.757	16343.31
246.828	16292.99
246.899	16280.75
246.97	16229.9
247.042	16195.44
247.113	16171.67
247.184	16153.5
247.255	16123.62
247.326	16096.34
247.397	16048.58
247.468	16014.55
247.539	15992.18
247.61	15943.21
247.681	15923.07
247.752	15897.28
247.823	15865.66
247.894	15834.28
247.965	15786.47
248.037	15751.62
248.108	15707.85
248.179	15683.42
248.25	15644.42
248.321	15629.87
248.392	15584.08
248.463	15581.38
248.534	15551.78
248.605	15528.84
248.675	15489.56
248.746	15458.32
248.817	15437.93
248.888	15419.18
248.959	15372.86
249.03	15347.99
249.101	15318.01
249.172	15286.58
249.243	15238.37
249.314	15221.84
249.385	15187.28
249.456	15174.89
249.527	15133.73
249.598	15114.4
249.669	15083.79
249.739	15065.28
249.81	15043.15
249.881	14997.79
249.952	14971.86
250.023	14940.87
250.094	14889.82
250.165	14856.32
250.235	14834.67
250.306	14803.78
250.377	14766.37
250.448	14742.56
250.519	14697.24
250.59	14683.55
250.66	14654.29
250.731	14649.52
250.802	14618
250.873	14603.25
250.944	14578.52
251.014	14555.38
251.085	14548.92
251.156	14531.71
251.227	14519.51
251.297	14498.21
251.368	14480.23
251.439	14456.61
251.51	14434.05
251.58	14409.27
251.651	14382.76
251.722	14367.91
251.792	14321.15
251.863	14290.97
251.934	14291.17
252.005	14294.4
252.075	14262.58
252.146	14245.42
252.217	14226.09
252.287	14211.34
252.358	14179.28
252.429	14175.71
252.499	14140.86
252.57	14115.84
252.641	14100.9
252.711	14070.33
252.782	14029.7
252.852	14028.88
252.923	14001.3
252.994	13982.74
253.064	13969.39
253.135	13937.62
253.205	13906.72
253.276	13906.63
253.347	13894.43
253.417	13857.46
253.488	13831.42
253.558	13810.65
253.629	13783.36
253.699	13764.08
253.77	13749.28
253.841	13729.13
253.911	13704.88
253.982	13686.56
254.052	13667.14
254.123	13641.92
254.193	13619.75
254.264	13635.13
254.334	13599.7
254.405	13562.82
254.475	13532.93
254.546	13507.62
254.616	13498.08
254.687	13474.12
254.757	13451.99
254.827	13434.64
254.898	13415.35
254.968	13381.32
255.039	13352.59
255.109	13336.97
255.18	13306.02
255.25	13254.34
255.321	13235.16
255.391	13194.47
255.461	13191.87
255.532	13145.06
255.602	13115.41
255.673	13065.76
255.743	13029.17
255.813	12983.96
255.884	12982.08
255.954	12962.55
256.024	12962.07
256.095	12935.32
256.165	12905.57
256.235	12891.45
256.306	12867.1
256.376	12855.53
256.446	12850.18
256.517	12833.75
256.587	12822.08
256.657	12807.14
256.728	12794.8
256.798	12776.14
256.868	12757.53
256.938	12729.96
257.009	12717.91
257.079	12709.86
257.149	12721.14
257.219	12686.38
257.29	12679.34
257.36	12642.03
257.43	12628.82
257.5	12577.73
257.571	12554.01
257.641	12539.79
257.711	12507.25
257.781	12490.48
257.852	12472.64
257.922	12424.39
257.992	12403.28
258.062	12381.97
258.132	12362.69
258.202	12338.63
258.273	12315.16
258.343	12304.22
258.413	12277.85
258.483	12261.8
258.553	12228.15
258.623	12192.96
258.693	12176.72
258.764	12171.27
258.834	12161.73
258.904	12137.72
258.974	12118.35
259.044	12102.34
259.114	12084.85
259.184	12064.75
259.254	12036.5
259.324	11998.42
259.394	11990.52
259.464	11986.42
259.535	11960.78
259.605	11934.12
259.675	11909.3
259.745	11896.38
259.815	11870.74
259.885	11842.15
259.955	11846.78
260.025	11821.33
260.095	11802.1
260.165	11788.94
260.235	11782.92
260.305	11754.24
260.375	11730.81
260.445	11729.8
260.515	11717.75
260.585	11709.9
260.655	11691.44
260.725	11683.92
260.795	11673.75
260.865	11674.81
260.934	11650.76
261.004	11643.77
261.074	11624.44
261.144	11623.14
261.214	11617.69
261.284	11602.17
261.354	11599.96
261.424	11566.75
261.494	11568.63
261.564	11552.53
261.634	11536.72
261.703	11500.14
261.773	11489.92
261.843	11482.16
261.913	11457.05
261.983	11420.95
262.053	11406.83
262.123	11388.18
262.192	11361.67
262.262	11353.34
