Data from 20250630_urea_2M_MAYP1162681_01-22-27-037.txt Node
Date: Tue Jul 01 01:22:27 BST 2025
User: adleo
Spectrometer: MAYP116268
Trigger mode: 0
Integration Time (sec): 1.000000E0
Scans to average: 1
Electric dark correction enabled: true
Nonlinearity correction enabled: true
Boxcar width: 10
XAxis mode: Wavelengths
Number of Pixels in Spectrum: 2068
>>>>>Begin Spectral Data<<<<<
179.565	1088.23
179.642	1132.25
179.718	1170.95
179.795	1206.4
179.871	1232.74
179.948	1247.74
180.024	1267.73
180.101	1290.48
180.177	1303.64
180.254	1323.77
180.33	1343.6
180.407	1388.74
180.483	1474.92
180.56	1553.64
180.636	1628.69
180.712	1614.24
180.789	1624.55
180.865	1634.48
180.942	1644.12
181.018	1653.95
181.095	1664.36
181.171	1666.55
181.248	1671.11
181.324	1683.99
181.4	1689.16
181.477	1702.56
181.553	1713.87
181.63	1731.69
181.706	1745.04
181.782	1752.36
181.859	1753.45
181.935	1759.06
182.011	1752.41
182.088	1767.57
182.164	1786.68
182.24	1800.36
182.317	1808.2
182.393	1808.68
182.469	1822.6
182.546	1831.77
182.622	1835.96
182.698	1833.77
182.775	1842.61
182.851	1855.01
182.927	1849.45
183.003	1848.74
183.08	1842.37
183.156	1852.92
183.232	1852.88
183.308	1841.37
183.385	1848.31
183.461	1863
183.537	1861.48
183.613	1874.69
183.69	1866.61
183.766	1856.15
183.842	1863.76
183.918	1867.99
183.995	1877.21
184.071	1881.87
184.147	1876.59
184.223	1866.9
184.299	1876.08
184.375	1870.18
184.452	1876.65
184.528	1930.24
184.604	1937.56
184.68	1948.78
184.756	1954.16
184.832	1958.01
184.908	1963.38
184.985	1964.9
185.061	1949.31
185.137	1960.81
185.213	1950.78
185.289	1951.5
185.365	1947.36
185.441	1944.22
185.517	1959.01
185.593	1957.78
185.669	1952.93
185.745	1961.72
185.822	1977.36
185.898	1971.41
185.974	1978.49
186.05	1970.41
186.126	1930.75
186.202	1926.7
186.278	1922.24
186.354	1915.06
186.43	1918.48
186.506	1914.44
186.582	1911.45
186.658	1920.33
186.734	1899.85
186.81	1901.13
186.886	1902.46
186.962	1913.06
187.038	1910.35
187.114	1902.12
187.19	1908.11
187.266	1899.42
187.341	1902.18
187.417	1895.19
187.493	1894.81
187.569	1895.24
187.645	1886.49
187.721	1875.89
187.797	1879.07
187.873	1882.4
187.949	1875.94
188.025	1870.13
188.101	1874.74
188.176	1879.78
188.252	1870.66
188.328	1878.92
188.404	1878.26
188.48	1877.55
188.556	1870.18
188.632	1869.75
188.707	1872.13
188.783	1871.75
188.859	1866.81
188.935	1857.49
189.011	1866.23
189.086	1862.38
189.162	1855.82
189.238	1855.16
189.314	1853.35
189.39	1850.07
189.465	1843.23
189.541	1858.58
189.617	1845.23
189.693	1840.52
189.768	1844.99
189.844	1871.43
189.92	1866.34
189.996	1878.18
190.071	1887.21
190.147	1886.64
190.223	1892.06
190.298	1883.5
190.374	1870.05
190.45	1883.21
190.526	1889.82
190.601	1884.88
190.677	1885.59
190.753	1913.65
190.828	1920.5
190.904	1934.71
190.98	1947.36
191.055	1959.11
191.131	1950.31
191.207	1967.9
191.282	1975.5
191.358	1964.62
191.433	1952.06
191.509	1963.23
191.585	1958.04
191.66	1955
191.736	1961.85
191.811	1955.62
191.887	1970.55
191.963	1992.62
192.038	1995.33
192.114	1995.04
192.189	1999.7
192.265	1995.94
192.34	1973.59
192.416	1969.93
192.491	1964.88
192.567	1969.74
192.642	1970.59
192.718	1972.3
192.793	1960.8
192.869	1958.66
192.944	1961.27
193.02	1967.46
193.095	1968.98
193.171	1974.06
193.246	1976.49
193.322	1973.4
193.397	1974.16
193.473	1958.99
193.548	1941.01
193.624	1947.72
193.699	1944.39
193.775	1957.85
193.85	1958.61
193.925	1967.12
194.001	1967.31
194.076	1959.8
194.152	1949
194.227	1941.78
194.302	1932.22
194.378	1936.41
194.453	1932.79
194.529	1946.96
194.604	1933.46
194.679	1927.61
194.755	1910.83
194.83	1922.3
194.905	1919.16
194.981	1927.81
195.056	1925.1
195.131	1931.71
195.207	1930.86
195.282	1924.49
195.357	1904.51
195.433	1921.25
195.508	1911.41
195.583	1920.15
195.659	1933.75
195.734	1939.65
195.809	1939.98
195.884	1945.59
195.96	1946.11
196.035	1962.33
196.11	1956.43
196.185	1965.27
196.261	1970.55
196.336	1998.94
196.411	1984.24
196.486	1989.71
196.561	1980.53
196.637	1989.51
196.712	2002.79
196.787	2004.59
196.862	2019.43
196.937	2030.93
197.013	2034.07
197.088	2042.35
197.163	2061.71
197.238	2077.94
197.313	2080.03
197.388	2091.92
197.464	2121.08
197.539	2132.07
197.614	2125.27
197.689	2135.88
197.764	2151.58
197.839	2168.42
197.914	2162.95
197.989	2183.35
198.065	2196.96
198.14	2245.65
198.215	2268.69
198.29	2281.68
198.365	2293.2
198.44	2305.9
198.515	2330.46
198.59	2345.22
198.665	2372.35
198.74	2379.92
198.815	2379.82
198.89	2397.53
198.965	2425.52
199.04	2424.62
199.115	2440.52
199.19	2479.26
199.265	2482.74
199.34	2493.88
199.415	2524.89
199.49	2545.45
199.565	2555.4
199.64	2575.35
199.715	2576.78
199.79	2584.4
199.865	2587.5
199.94	2586.88
200.015	2615.37
200.09	2621.13
200.165	2626.04
200.24	2627.75
200.315	2665.27
200.39	2680.66
200.464	2689.18
200.539	2691.99
200.614	2704.57
200.689	2725.34
200.764	2732.59
200.839	2745.82
200.914	2748.68
200.989	2738.62
201.063	2752.2
201.138	2739.68
201.213	2744.4
201.288	2722.72
201.363	2726.15
201.438	2726.39
201.512	2741.15
201.587	2720.18
201.662	2724.76
201.737	2736.81
201.812	2747.44
201.886	2717.73
201.961	2725.65
202.036	2710.93
202.111	2707.45
202.186	2677.79
202.26	2660.64
202.335	2638.96
202.41	2637.91
202.485	2622.25
202.559	2604.77
202.634	2580
202.709	2587.38
202.784	2570.95
202.858	2570.33
202.933	2551.38
203.008	2545.76
203.082	2528
203.157	2531
203.232	2488.78
203.306	2469.15
203.381	2435.87
203.456	2411.25
203.53	2392.81
203.605	2375.82
203.68	2355.06
203.754	2350.59
203.829	2337.26
203.904	2316.18
203.978	2303.18
204.053	2307.89
204.127	2298.14
204.202	2292.62
204.277	2274.82
204.351	2263.92
204.426	2256.49
204.5	2250.07
204.575	2221
204.65	2229.38
204.724	2222.28
204.799	2230.51
204.873	2227.89
204.948	2229.7
205.022	2220.8
205.097	2207.52
205.171	2220.75
205.246	2227.55
205.32	2230.74
205.395	2227.41
205.469	2222.8
205.544	2229.56
205.618	2212.95
205.693	2222.8
205.767	2215.38
205.842	2235.75
205.916	2232.18
205.991	2225.23
206.065	2232.23
206.14	2245.45
206.214	2241.02
206.289	2236.45
206.363	2249.82
206.438	2251.49
206.512	2257.77
206.586	2274.33
206.661	2284.09
206.735	2262.73
206.81	2261.49
206.884	2273.86
206.958	2264.73
207.033	2277.81
207.107	2283.24
207.181	2312.51
207.256	2306.99
207.33	2323.93
207.405	2334.55
207.479	2350.73
207.553	2357.82
207.628	2341.84
207.702	2352.45
207.776	2349.74
207.851	2349.83
207.925	2359.88
207.999	2356.17
208.073	2355.69
208.148	2359.21
208.222	2347.79
208.296	2379.66
208.371	2397.43
208.445	2408
208.519	2435.99
208.593	2449.46
208.668	2447.27
208.742	2451.7
208.816	2451.79
208.89	2464.75
208.965	2465.32
209.039	2472.99
209.113	2489.41
209.187	2508.73
209.261	2503.78
209.336	2518.35
209.41	2538.78
209.484	2544.59
209.558	2564.83
209.632	2575.93
209.707	2583.88
209.781	2607.16
209.855	2622.93
209.929	2636.23
210.003	2642
210.077	2641.14
210.151	2684.62
210.226	2714.55
210.3	2737.86
210.374	2761.01
210.448	2765.49
210.522	2773.83
210.596	2785.55
210.67	2795.98
210.744	2838.07
210.818	2868.55
210.892	2887.85
210.966	2884.18
211.041	2899.24
211.115	2898.58
211.189	2921.78
211.263	2941.42
211.337	2949.76
211.411	2964.45
211.485	2961.58
211.559	2973.31
211.633	2979.64
211.707	2955.32
211.781	2967.91
211.855	2940.64
211.929	2937.4
212.003	2927.44
212.077	2943.18
212.151	2962.11
212.225	2977.66
212.299	2976.7
212.373	2977.75
212.447	2987.53
212.52	3028.55
212.594	3044.14
212.668	3069.13
212.742	3071.56
212.816	3081.05
212.89	3090.64
212.964	3108.15
213.038	3132.86
213.112	3169.51
213.186	3209.62
213.26	3217.68
213.333	3204.7
213.407	3243.14
213.481	3280.01
213.555	3321.2
213.629	3345.84
213.703	3366.7
213.777	3407.67
213.85	3431.54
213.924	3503.03
213.998	3548.79
214.072	3585.2
214.146	3619.73
214.219	3668.6
214.293	3722.85
214.367	3783
214.441	3853.33
214.515	3904.14
214.588	3945.05
214.662	3980.8
214.736	4025.3
214.81	4101.08
214.883	4185.19
214.957	4247.82
215.031	4316.09
215.105	4377.33
215.178	4446.8
215.252	4523.82
215.326	4585.81
215.4	4659.64
215.473	4708.14
215.547	4781.46
215.621	4863.81
215.694	4968.34
215.768	5046.71
215.842	5135.53
215.915	5226.06
215.989	5307.07
216.063	5404.29
216.136	5512.54
216.21	5619.53
216.284	5742.3
216.357	5856.07
216.431	5964.87
216.504	6085.4
216.578	6225.94
216.652	6358.46
216.725	6478
216.799	6612.66
216.873	6740.3
216.946	6861
217.02	6983.47
217.093	7105.54
217.167	7205.49
217.24	7318.2
217.314	7442.43
217.387	7562.78
217.461	7683.51
217.535	7824.92
217.608	7944.38
217.682	8070.01
217.755	8209.89
217.829	8331.33
217.902	8462.15
217.976	8591.64
218.049	8710.7
218.123	8820.4
218.196	8952.58
218.27	9075
218.343	9192
218.417	9317.58
218.49	9457.25
218.563	9597.81
218.637	9731.26
218.71	9890.39
218.784	10026.51
218.857	10157.43
218.931	10287.87
219.004	10418.18
219.077	10543.98
219.151	10677.1
219.224	10799.04
219.298	10921.82
219.371	11052.27
219.444	11163.2
219.518	11284.35
219.591	11410.17
219.665	11555.24
219.738	11675.01
219.811	11794.19
219.885	11921.63
219.958	12047.14
220.031	12158.82
220.105	12276.14
220.178	12392.26
220.251	12498.17
220.325	12616.41
220.398	12738.7
220.471	12862.3
220.544	12980.74
220.618	13083.17
220.691	13195.4
220.764	13311.33
220.838	13423.26
220.911	13527.19
220.984	13651.13
221.057	13762.1
221.131	13879.72
221.204	13956.03
221.277	14072.35
221.35	14200.43
221.424	14295.45
221.497	14397.64
221.57	14496.75
221.643	14601.55
221.716	14700.51
221.79	14789.69
221.863	14878.24
221.936	14974.21
222.009	15051.82
222.082	15141.33
222.155	15218.41
222.229	15311.68
222.302	15401.05
222.375	15480.68
222.448	15568.16
222.521	15655.02
222.594	15731.61
222.667	15787.09
222.74	15870.43
222.814	15935.55
222.887	15996.56
222.96	16076.96
223.033	16149.06
223.106	16231.63
223.179	16310.28
223.252	16389.52
223.325	16459.07
223.398	16523.27
223.471	16577.44
223.544	16653.35
223.617	16723.57
223.69	16803.82
223.763	16859.24
223.837	16926.52
223.91	16993.47
223.983	17039.44
224.056	17078.91
224.129	17141.52
224.202	17217.76
224.275	17274.34
224.348	17324.22
224.42	17376.85
224.493	17410.63
224.566	17463.98
224.639	17512.85
224.712	17551.11
224.785	17588.13
224.858	17637.72
224.931	17686.2
225.004	17733.14
225.077	17782.73
225.15	17808.27
225.223	17853.62
225.296	17924.55
225.369	17962.72
225.442	17992.12
225.514	18043.01
225.587	18101.51
225.66	18152.98
225.733	18195.19
225.806	18245.79
225.879	18288.83
225.952	18312.87
226.025	18366.7
226.097	18418.46
226.17	18461.88
226.243	18481.06
226.316	18522.26
226.389	18553.25
226.461	18590.55
226.534	18634.64
226.607	18669.87
226.68	18734.97
226.753	18778.29
226.825	18795.02
226.898	18843.4
226.971	18889.08
227.044	18923.83
227.117	18962.76
227.189	19002.71
227.262	19054.61
227.335	19095.77
227.407	19132.54
227.48	19179.19
227.553	19219.52
227.626	19244.39
227.698	19281.3
227.771	19325.88
227.844	19346.69
227.916	19385.63
227.989	19408.57
228.062	19444.13
228.134	19500.85
228.207	19516.27
228.28	19529.09
228.352	19558.87
228.425	19578.2
228.498	19619.16
228.57	19652.03
228.643	19690.77
228.716	19710.48
228.788	19725.85
228.861	19741.66
228.934	19774.38
229.006	19795.87
229.079	19812.31
229.151	19824.74
229.224	19824.21
229.296	19849.8
229.369	19901.46
229.442	19945.56
229.514	19965.27
229.587	19985.75
229.659	19980.3
229.732	20005.26
229.804	20045.7
229.877	20091.77
229.949	20122.03
230.022	20149.21
230.094	20163.86
230.167	20174.9
230.239	20184.01
230.312	20198.08
230.384	20231.77
230.457	20258.13
230.529	20290.13
230.602	20319.38
230.674	20341.84
230.747	20377.16
230.819	20404.53
230.892	20403.04
230.964	20416.15
231.037	20434.7
231.109	20445.88
231.181	20469.93
231.254	20474.65
231.326	20471.57
231.399	20464.39
231.471	20469.79
231.544	20462.99
231.616	20494.03
231.688	20511.28
231.761	20521.55
231.833	20532.39
231.905	20526.89
231.978	20529.5
232.05	20529.4
232.122	20537.59
232.195	20554.56
232.267	20571.33
232.339	20578.51
232.412	20589.59
232.484	20587.23
232.556	20600
232.629	20635.86
232.701	20645.4
232.773	20654.13
232.846	20665.93
232.918	20666.17
232.99	20682.13
233.062	20692.2
233.135	20690.08
233.207	20671.86
233.279	20676.63
233.351	20683.19
233.424	20670.27
233.496	20658.08
233.568	20684.73
233.64	20665.74
233.713	20662.99
233.785	20656.3
233.857	20650.17
233.929	20632.73
234.001	20642.95
234.074	20651.09
234.146	20619.72
234.218	20600.44
234.29	20595.52
234.362	20581.84
234.434	20563.33
234.507	20541.21
234.579	20524.24
234.651	20495.23
234.723	20498.17
234.795	20501.93
234.867	20482.75
234.939	20499.86
235.012	20499.57
235.084	20476.68
235.156	20472.92
235.228	20452.73
235.3	20444.1
235.372	20435.91
235.444	20440.68
235.516	20399.52
235.588	20384.44
235.66	20372.34
235.732	20363.38
235.804	20408.34
235.876	20410.94
235.948	20413.69
236.02	20399.91
236.092	20381.35
236.164	20380.44
236.236	20359.48
236.308	20336.87
236.38	20320.97
236.452	20288.58
236.524	20275.86
236.596	20267.57
236.668	20255.91
236.74	20242.9
236.812	20219.43
236.884	20211.91
236.956	20192.3
237.028	20174.61
237.1	20140.73
237.172	20151.05
237.244	20148.73
237.316	20089.41
237.388	20058.71
237.46	20030.95
237.532	20015.24
237.604	19997.31
237.675	19994.08
237.747	19979.63
237.819	19947.96
237.891	19934.33
237.963	19907.34
238.035	19871.29
238.107	19814.62
238.178	19798.19
238.25	19765.66
238.322	19763.97
238.394	19710.48
238.466	19678.05
238.538	19656.51
238.609	19649.09
238.681	19590.44
238.753	19560.03
238.825	19536.13
238.897	19510.73
238.968	19503.12
239.04	19471.46
239.112	19471.7
239.184	19419.65
239.255	19396.96
239.327	19380.28
239.399	19355.17
239.471	19334.84
239.542	19320.72
239.614	19318.65
239.686	19273.88
239.758	19257.45
239.829	19216.1
239.901	19204.29
239.973	19183.38
240.044	19167.76
240.116	19128.06
240.188	19111.82
240.259	19075.14
240.331	19035.53
240.403	19017.89
240.474	18972.16
240.546	18933.08
240.618	18876.7
240.689	18850.68
240.761	18823.59
240.833	18801.23
240.904	18776.27
240.976	18749.67
241.048	18714.39
241.119	18696.81
241.191	18671.89
241.262	18651.94
241.334	18625.63
241.405	18600.38
241.477	18561.05
241.549	18517.15
241.62	18494.02
241.692	18466.89
241.763	18448.19
241.835	18414.41
241.906	18374.9
241.978	18329.84
242.049	18312.54
242.121	18288.2
242.192	18274.85
242.264	18222.95
242.335	18175.48
242.407	18142.86
242.478	18108.69
242.55	18081.56
242.621	18027.44
242.693	17988.74
242.764	17958.14
242.836	17909.37
242.907	17882.05
242.979	17852.99
243.05	17834.58
243.122	17797.28
243.193	17753.76
243.264	17697.23
243.336	17669.86
243.407	17655.55
243.479	17644.37
243.55	17618.54
243.622	17595.69
243.693	17554.54
243.764	17538.35
243.836	17503.89
243.907	17471.55
243.978	17435.79
244.05	17412.51
244.121	17367.02
244.192	17348.42
244.264	17296.9
244.335	17276.51
244.407	17228.85
244.478	17206.25
244.549	17172.56
244.62	17140.32
244.692	17110.24
244.763	17100.17
244.834	17056.99
244.906	17008.22
244.977	16982.96
245.048	16951.01
245.119	16903.59
245.191	16861.18
245.262	16804.4
245.333	16780.3
245.405	16751.53
245.476	16721.02
245.547	16687.38
245.618	16665.74
245.689	16629.07
245.761	16605.93
245.832	16575.57
245.903	16548
245.974	16522.55
246.045	16482.55
246.117	16463.22
246.188	16423.36
246.259	16371.26
246.33	16336.8
246.401	16304.22
246.473	16259.11
246.544	16229.8
246.615	16209.7
246.686	16172.93
246.757	16162.42
246.828	16120.34
246.899	16094.94
246.97	16047.47
247.042	15998.98
247.113	15980.62
247.184	15975.17
247.255	15928.03
247.326	15890
247.397	15848.94
247.468	15809.46
247.539	15776.11
247.61	15728.87
247.681	15706.07
247.752	15689.54
247.823	15650.78
247.894	15628.66
247.965	15578.63
248.037	15540.79
248.108	15497.02
248.179	15471.43
248.25	15435.23
248.321	15414.21
248.392	15366.5
248.463	15360.08
248.534	15341.91
248.605	15310.39
248.675	15273.32
248.746	15252.31
248.817	15232.4
248.888	15215.53
248.959	15172.24
249.03	15156.09
249.101	15128.28
249.172	15097.24
249.243	15043.4
249.314	15034.24
249.385	14998.9
249.456	14987.29
249.527	14958.51
249.598	14939.28
249.669	14905.39
249.739	14879.36
249.81	14859.31
249.881	14820.65
249.952	14796.16
250.023	14764.83
250.094	14729.06
250.165	14693
250.235	14669.58
250.306	14639.98
250.377	14602.62
250.448	14582.57
250.519	14534.02
250.59	14519.8
250.66	14490.25
250.731	14483.41
250.802	14459.55
250.873	14435.54
250.944	14410.76
251.014	14378.47
251.085	14370.22
251.156	14351.52
251.227	14334.31
251.297	14315.27
251.368	14307.12
251.439	14284.66
251.51	14265.52
251.58	14232.5
251.651	14196.83
251.722	14173.54
251.792	14121.24
251.863	14091.06
251.934	14078.43
252.005	14079.54
252.075	14055.25
252.146	14037.84
252.217	14017.84
252.287	13997.21
252.358	13967.13
252.429	13954.35
252.499	13918
252.57	13897.61
252.641	13883.01
252.711	13859.87
252.782	13814.79
252.852	13806.55
252.923	13776.08
252.994	13751.74
253.064	13733.47
253.135	13702.33
253.205	13679.77
253.276	13688.06
253.347	13677.36
253.417	13646.84
253.488	13620.23
253.558	13589.52
253.629	13562.19
253.699	13550.43
253.77	13530.66
253.841	13513.26
253.911	13491.18
253.982	13477.59
254.052	13459.9
254.123	13445.19
254.193	13421.04
254.264	13444.71
254.334	13406.15
254.405	13374.57
254.475	13340.34
254.546	13319.42
254.616	13311.37
254.687	13285.73
254.757	13264.42
254.827	13236.51
254.898	13212.79
254.968	13187.29
255.039	13160.15
255.109	13149.25
255.18	13116.33
255.25	13074.1
255.321	13054.58
255.391	13025.65
255.461	13023.05
255.532	12975.04
255.602	12945.49
255.673	12908.46
255.743	12872.94
255.813	12821.02
255.884	12811.47
255.954	12803.95
256.024	12797.45
256.095	12774.84
256.165	12745.96
256.235	12726.1
256.306	12702.39
256.376	12694.82
256.446	12681.9
256.517	12663.82
256.587	12647.38
256.657	12621.26
256.728	12602.46
256.798	12578.89
256.868	12547.21
256.938	12516.65
257.009	12502.29
257.079	12484.55
257.149	12490.43
257.219	12448.3
257.29	12442.51
257.36	12404.72
257.43	12391.47
257.5	12351.22
257.571	12320.94
257.641	12308.36
257.711	12276.6
257.781	12267.44
257.852	12249.8
257.922	12204.92
257.992	12178.02
258.062	12158.6
258.132	12149.39
258.202	12132.47
258.273	12109
258.343	12108.08
258.413	12081.47
258.483	12062.19
258.553	12032.55
258.623	11993.36
258.693	11977.69
258.764	11975.19
258.834	11972.44
258.904	11951.38
258.974	11924.77
259.044	11916
259.114	11900.33
259.184	11884.96
259.254	11862.59
259.324	11829.04
259.394	11824.85
259.464	11833.72
259.535	11807.06
259.605	11778.92
259.675	11745.76
259.745	11731.44
259.815	11702.38
259.885	11681.51
259.955	11685.36
260.025	11658.18
260.095	11648.3
260.165	11633.12
260.235	11629.6
260.305	11601.84
260.375	11570.56
260.445	11578.51
260.515	11568.87
260.585	11565.45
260.655	11545.25
260.725	11535.28
260.795	11515.8
260.865	11511.13
260.934	11478.79
261.004	11461.15
261.074	11445.73
261.144	11443.17
261.214	11438.21
261.284	11413.72
261.354	11404.86
261.424	11375.26
261.494	11374.68
261.564	11351.41
261.634	11342.68
261.703	11308.99
261.773	11297.04
261.843	11285.91
261.913	11256.61
261.983	11219.74
262.053	11199.59
262.123	11176.94
262.192	11146.58
262.262	11143.5
262.332	11114.82
262.402	11106.39
262.472	11090.2
