Data from 20250630_urea_2M_MAYP1162681_07-02-27-407.txt Node
Date: Tue Jul 01 07:02:27 BST 2025
User: adleo
Spectrometer: MAYP116268
Trigger mode: 0
Integration Time (sec): 1.000000E0
Scans to average: 1
Electric dark correction enabled: true
Nonlinearity correction enabled: true
Boxcar width: 10
XAxis mode: Wavelengths
Number of Pixels in Spectrum: 2068
>>>>>Begin Spectral Data<<<<<
179.565	1073.92
179.642	1125.75
179.718	1163.39
179.795	1200.43
179.871	1230.87
179.948	1246.34
180.024	1265.04
180.101	1283.6
180.177	1297.22
180.254	1319.25
180.33	1337.94
180.407	1380.42
180.483	1463.65
180.56	1541.66
180.636	1616.86
180.712	1604.27
180.789	1614.62
180.865	1623.55
180.942	1633.57
181.018	1643.22
181.095	1657.85
181.171	1664.84
181.248	1666.12
181.324	1680.61
181.4	1685.79
181.477	1695.34
181.553	1707.08
181.63	1725.89
181.706	1743.19
181.782	1748.51
181.859	1746.85
181.935	1752.84
182.011	1750.7
182.088	1769.04
182.164	1788.77
182.24	1800.46
182.317	1808.63
182.393	1805.97
182.469	1818.09
182.546	1830.02
182.622	1831.49
182.698	1828.11
182.775	1839.71
182.851	1852.5
182.927	1846.65
183.003	1843.37
183.08	1836.39
183.156	1843.75
183.232	1841.71
183.308	1829.49
183.385	1838.19
183.461	1856.06
183.537	1859.44
183.613	1869.75
183.69	1860.72
183.766	1849.64
183.842	1856.96
183.918	1861.48
183.995	1875.83
184.071	1877.88
184.147	1873.12
184.223	1865.09
184.299	1872.94
184.375	1862.29
184.452	1867.05
184.528	1918.74
184.604	1926.48
184.68	1937.27
184.756	1942.65
184.832	1944.64
184.908	1944.88
184.985	1945.07
185.061	1926.39
185.137	1931.86
185.213	1921.73
185.289	1924.87
185.365	1917.79
185.441	1914.46
185.517	1928.06
185.593	1924.35
185.669	1923.12
185.745	1935.34
185.822	1953.06
185.898	1947.97
185.974	1956.1
186.05	1950.01
186.126	1912.35
186.202	1907.79
186.278	1904.22
186.354	1898.23
186.43	1905.08
186.506	1906.74
186.582	1907.03
186.658	1913.16
186.734	1895.24
186.81	1896.71
186.886	1897.52
186.962	1911.35
187.038	1910.69
187.114	1902.98
187.19	1909.16
187.266	1901.61
187.341	1900.94
187.417	1890.67
187.493	1887.96
187.569	1888.82
187.645	1881.88
187.721	1870.18
187.797	1878.93
187.873	1882.59
187.949	1875.84
188.025	1870.51
188.101	1873.51
188.176	1877.31
188.252	1873.89
188.328	1882.35
188.404	1884.2
188.48	1879.83
188.556	1872.79
188.632	1871.65
188.707	1870.94
188.783	1868.99
188.859	1864.05
188.935	1854.96
189.011	1864.71
189.086	1860.67
189.162	1855.53
189.238	1854.82
189.314	1853.82
189.39	1843.6
189.465	1838.23
189.541	1854.01
189.617	1840.56
189.693	1836.24
189.768	1838.52
189.844	1861.39
189.92	1854.07
189.996	1865.01
190.071	1874.8
190.147	1872.33
190.223	1879.89
190.298	1875.85
190.374	1861.54
190.45	1872.42
190.526	1878.08
190.601	1870.47
190.677	1870.66
190.753	1897.06
190.828	1898.54
190.904	1911.09
190.98	1927.63
191.055	1936.33
191.131	1926.21
191.207	1944.41
191.282	1956.77
191.358	1948.17
191.433	1934.09
191.509	1946.49
191.585	1940.17
191.66	1940.41
191.736	1949.44
191.811	1943.35
191.887	1956.67
191.963	1978.3
192.038	1985.01
192.114	1985.53
192.189	1989.38
192.265	1985.82
192.34	1964.36
192.416	1965.93
192.491	1962.6
192.567	1966.12
192.642	1967.88
192.718	1971.02
192.793	1959.84
192.869	1952.29
192.944	1954.99
193.02	1961.27
193.095	1961.98
193.171	1968.31
193.246	1966.31
193.322	1963.36
193.397	1961.6
193.473	1948
193.548	1931.6
193.624	1935.55
193.699	1931.98
193.775	1949.53
193.85	1953.66
193.925	1961.84
194.001	1959.94
194.076	1955.04
194.152	1944.39
194.227	1939.87
194.302	1929.89
194.378	1933.36
194.453	1931.46
194.529	1943.68
194.604	1932.18
194.679	1928.47
194.755	1908.98
194.83	1918.92
194.905	1915.36
194.981	1925.2
195.056	1921.82
195.131	1926.96
195.207	1923.91
195.282	1917.07
195.357	1897.24
195.433	1910.12
195.508	1899.66
195.583	1906.55
195.659	1919.87
195.734	1926.81
195.809	1925.72
195.884	1933.75
195.96	1933.47
196.035	1948.2
196.11	1945.78
196.185	1958.23
196.261	1962.23
196.336	1991.23
196.411	1983.62
196.486	1990.04
196.561	1983.19
196.637	1989.27
196.712	2005.54
196.787	2008.02
196.862	2022.71
196.937	2033.26
197.013	2039.59
197.088	2049.05
197.163	2067.41
197.238	2079.17
197.313	2079.79
197.388	2090.06
197.464	2119.41
197.539	2126.79
197.614	2120.7
197.689	2129.93
197.764	2144.96
197.839	2163.23
197.914	2160.85
197.989	2178.69
198.065	2192.11
198.14	2238.04
198.215	2261.6
198.29	2273.88
198.365	2285.96
198.44	2295.57
198.515	2320.32
198.59	2334.41
198.665	2359.64
198.74	2368.11
198.815	2368.3
198.89	2388.82
198.965	2417.76
199.04	2415.67
199.115	2431.9
199.19	2469.02
199.265	2472.97
199.34	2481.11
199.415	2511.7
199.49	2530.93
199.565	2543.55
199.64	2568.55
199.715	2565.59
199.79	2571.74
199.865	2578.97
199.94	2579.69
200.015	2607.69
200.09	2611.93
200.165	2617.65
200.24	2622.89
200.315	2660.88
200.39	2676.36
200.464	2681.84
200.539	2682.08
200.614	2696.41
200.689	2719.33
200.764	2726.57
200.839	2741.14
200.914	2745.33
200.989	2736.18
201.063	2749.9
201.138	2730.43
201.213	2729.24
201.288	2711.24
201.363	2718.29
201.438	2716
201.512	2730.86
201.587	2718.8
201.662	2724.09
201.737	2733
201.812	2739.34
201.886	2705.34
201.961	2713.92
202.036	2703.59
202.111	2701.49
202.186	2672.97
202.26	2659.16
202.335	2637.72
202.41	2632.15
202.485	2615.67
202.559	2597.81
202.634	2571.23
202.709	2581.99
202.784	2563.42
202.858	2561.84
202.933	2542.61
203.008	2536.13
203.082	2517.89
203.157	2512.37
203.232	2472.57
203.306	2454.57
203.381	2425.28
203.456	2405.95
203.53	2387.8
203.605	2368.29
203.68	2349.43
203.754	2345.2
203.829	2329.3
203.904	2312.12
203.978	2299.84
204.053	2304.65
204.127	2290.7
204.202	2289.56
204.277	2272.1
204.351	2265.15
204.426	2256.96
204.5	2251.49
204.575	2218.47
204.65	2227.19
204.724	2221.19
204.799	2227.04
204.873	2222.8
204.948	2222.04
205.022	2212.05
205.097	2203.53
205.171	2216.66
205.246	2222.51
205.32	2219.33
205.395	2220.9
205.469	2214.62
205.544	2221.66
205.618	2206.06
205.693	2216.43
205.767	2204.63
205.842	2222.62
205.916	2216.67
205.991	2211.53
206.065	2214.01
206.14	2227.94
206.214	2221.89
206.289	2214.23
206.363	2225.89
206.438	2228.31
206.512	2237.17
206.586	2255.01
206.661	2262.39
206.735	2241.08
206.81	2243.65
206.884	2261.16
206.958	2248.03
207.033	2265.53
207.107	2269.87
207.181	2298.86
207.256	2293.1
207.33	2311.32
207.405	2322.32
207.479	2340.5
207.553	2346.16
207.628	2330.71
207.702	2343.98
207.776	2339.37
207.851	2344.6
207.925	2359.69
207.999	2357.41
208.073	2351.46
208.148	2352.65
208.222	2339.99
208.296	2368.86
208.371	2383.87
208.445	2394.49
208.519	2423.09
208.593	2429.52
208.668	2428.99
208.742	2429.71
208.816	2435.61
208.89	2449.9
208.965	2450.85
209.039	2456.9
209.113	2474.99
209.187	2497.35
209.261	2492.97
209.336	2510.25
209.41	2525.68
209.484	2523.4
209.558	2543.4
209.632	2557.11
209.707	2567.63
209.781	2589.3
209.855	2604.4
209.929	2618.6
210.003	2620.7
210.077	2617.7
210.151	2660.65
210.226	2689.76
210.3	2714.6
210.374	2733.75
210.448	2735.7
210.522	2742.75
210.596	2754.9
210.67	2763.38
210.744	2807.23
210.818	2834.81
210.892	2857.21
210.966	2854.4
211.041	2871.41
211.115	2871.65
211.189	2894.33
211.263	2909.87
211.337	2916.82
211.411	2933.7
211.485	2931.7
211.559	2946.52
211.633	2953.52
211.707	2927.62
211.781	2936.93
211.855	2908.71
211.929	2906.32
212.003	2889.99
212.077	2906.2
212.151	2916.97
212.225	2927.46
212.299	2920.07
212.373	2915.92
212.447	2916.68
212.52	2951.39
212.594	2962.6
212.668	2981.76
212.742	2976.95
212.816	2983.1
212.89	2987.44
212.964	2996.36
213.038	3006.99
213.112	3027.98
213.186	3052.63
213.26	3049.91
213.333	3022.97
213.407	3044.14
213.481	3061.82
213.555	3091.6
213.629	3100.85
213.703	3104.43
213.777	3129.1
213.85	3135.92
213.924	3192.52
213.998	3215.86
214.072	3234.71
214.146	3247.69
214.219	3267.07
214.293	3297.46
214.367	3331.44
214.441	3372.68
214.515	3395.45
214.588	3408.2
214.662	3414.26
214.736	3432.92
214.81	3479.24
214.883	3530.87
214.957	3561.75
215.031	3596.49
215.105	3621.83
215.178	3656.75
215.252	3701.64
215.326	3721.22
215.4	3751.83
215.473	3758.42
215.547	3791.92
215.621	3832.94
215.694	3895.09
215.768	3935.19
215.842	3979.49
215.915	4019.47
215.989	4054.71
216.063	4102
216.136	4166.6
216.21	4228.47
216.284	4306.25
216.357	4371.02
216.431	4433.4
216.504	4508.57
216.578	4595.39
216.652	4677.48
216.725	4743.49
216.799	4826.15
216.873	4905.62
216.946	4988.15
217.02	5058.96
217.093	5139.34
217.167	5200.43
217.24	5259.95
217.314	5332.19
217.387	5400.75
217.461	5479.02
217.535	5570.78
217.608	5650.61
217.682	5731.32
217.755	5823.1
217.829	5891.75
217.902	5982.38
217.976	6064.65
218.049	6142.82
218.123	6216.46
218.196	6308.8
218.27	6393.53
218.343	6462.96
218.417	6552.84
218.49	6640.43
218.563	6741.99
218.637	6829.61
218.71	6933.09
218.784	7030.33
218.857	7137.23
218.931	7236.82
219.004	7328.42
219.077	7422.3
219.151	7512.76
219.224	7600.16
219.298	7683.24
219.371	7780.75
219.444	7849.9
219.518	7946.27
219.591	8040.11
219.665	8145.42
219.738	8229.7
219.811	8307.29
219.885	8402.55
219.958	8497.3
220.031	8582.7
220.105	8674.77
220.178	8765.5
220.251	8846.37
220.325	8940.58
220.398	9027.52
220.471	9115.23
220.544	9208.92
220.618	9290.44
220.691	9372.48
220.764	9463.2
220.838	9558.65
220.911	9641.77
220.984	9749.98
221.057	9832
221.131	9918.65
221.204	9968.93
221.277	10075.11
221.35	10188.84
221.424	10268.56
221.497	10350.61
221.57	10431.93
221.643	10517.83
221.716	10601.48
221.79	10679.15
221.863	10756.1
221.936	10833.2
222.009	10912.37
222.082	10988.99
222.155	11063.78
222.229	11158.04
222.302	11237.79
222.375	11313.7
222.448	11403.58
222.521	11479.49
222.594	11556.75
222.667	11620.03
222.74	11713.14
222.814	11772.62
222.887	11841.98
222.96	11927.15
223.033	12008.37
223.106	12091.8
223.179	12165.6
223.252	12235.2
223.325	12310.98
223.398	12377.21
223.471	12449.71
223.544	12522.59
223.617	12595.18
223.69	12663.49
223.763	12715.6
223.837	12781.78
223.91	12849.46
223.983	12889.33
224.056	12937.78
224.129	13000.49
224.202	13075.4
224.275	13140.87
224.348	13201.8
224.42	13250.1
224.493	13294.36
224.566	13348.11
224.639	13405.57
224.712	13463.85
224.785	13521.89
224.858	13572.7
224.931	13629.97
225.004	13675.72
225.077	13729.61
225.15	13760.71
225.223	13821.11
225.296	13903.97
225.369	13940.18
225.442	13993.54
225.514	14056.74
225.587	14128.08
225.66	14190.17
225.733	14244.6
225.806	14297.04
225.879	14344.77
225.952	14386.42
226.025	14457.52
226.097	14520.33
226.17	14574.8
226.243	14601.56
226.316	14657.38
226.389	14718.98
226.461	14782.03
226.534	14838.62
226.607	14888.13
226.68	14968.1
226.753	15018.76
226.825	15045.61
226.898	15122.59
226.971	15168.29
227.044	15226.37
227.117	15270.72
227.189	15323.69
227.262	15383.85
227.335	15450.65
227.407	15506.37
227.48	15562.19
227.553	15608.61
227.626	15642.97
227.698	15686.79
227.771	15745.88
227.844	15785.89
227.916	15823.68
227.989	15854.09
228.062	15897.04
228.134	15967.26
228.207	16008.96
228.28	16044.29
228.352	16094.22
228.425	16130.42
228.498	16192.35
228.57	16227.2
228.643	16285.13
228.716	16327.59
228.788	16366.54
228.861	16398.88
228.934	16451.17
229.006	16495.32
229.079	16534.07
229.151	16579.42
229.224	16609.88
229.296	16645.84
229.369	16711.77
229.442	16769.89
229.514	16807.29
229.587	16861.99
229.659	16884.26
229.732	16930.19
229.804	16990.24
229.877	17048.12
229.949	17089.28
230.022	17137.42
230.094	17180.8
230.167	17211.64
230.239	17236.17
230.312	17275.02
230.384	17334.68
230.457	17369.96
230.529	17416.56
230.602	17453.81
230.674	17499.98
230.747	17559.88
230.819	17613.91
230.892	17604.9
230.964	17647.93
231.037	17681.09
231.109	17711.59
231.181	17755.74
231.254	17776.51
231.326	17797.04
231.399	17822.82
231.471	17857.71
231.544	17870.39
231.616	17914.53
231.688	17951.44
231.761	17979.3
231.833	18005.56
231.905	18007.49
231.978	18043.34
232.05	18071.87
232.122	18104.35
232.195	18125.37
232.267	18155.82
232.339	18178.66
232.412	18234.9
232.484	18244.88
232.556	18277.55
232.629	18322.03
232.701	18343.57
232.773	18366.13
232.846	18393.02
232.918	18419.62
232.99	18442.7
233.062	18474.75
233.135	18489.83
233.207	18491.71
233.279	18524.77
233.351	18537.63
233.424	18553.78
233.496	18553.87
233.568	18583.13
233.64	18591.17
233.713	18603.7
233.785	18607.99
233.857	18624.95
233.929	18621.53
234.001	18649.05
234.074	18666.3
234.146	18658.59
234.218	18671.65
234.29	18687.55
234.362	18689.77
234.434	18688.23
234.507	18684.61
234.579	18681.87
234.651	18682.11
234.723	18707.21
234.795	18715.21
234.867	18724.76
234.939	18742.97
235.012	18754.92
235.084	18766.3
235.156	18776.95
235.228	18772.99
235.3	18781.96
235.372	18789.81
235.444	18807.02
235.516	18788.94
235.588	18798.53
235.66	18801.23
235.732	18792.7
235.804	18841.33
235.876	18858.19
235.948	18875.11
236.02	18881.42
236.092	18878.58
236.164	18874.1
236.236	18859.35
236.308	18849.42
236.38	18858.82
236.452	18849.18
236.524	18848.31
236.596	18856.84
236.668	18860.7
236.74	18857.57
236.812	18857.62
236.884	18849.62
236.956	18847.21
237.028	18840.27
237.1	18817.28
237.172	18825.67
237.244	18841.91
237.316	18804.7
237.388	18790.63
237.46	18776.66
237.532	18784.03
237.604	18767.07
237.675	18782.44
237.747	18790.58
237.819	18784.13
237.891	18769.23
237.963	18755.69
238.035	18733.04
238.107	18685.58
238.178	18680.85
238.25	18670.83
238.322	18674.45
238.394	18657.05
238.466	18640.66
238.538	18639.75
238.609	18636.81
238.681	18609.92
238.753	18584.48
238.825	18567.99
238.897	18547.51
238.968	18537.92
239.04	18511.61
239.112	18518.65
239.184	18490.55
239.255	18466.46
239.327	18448.34
239.399	18432.82
239.471	18417.21
239.542	18421.35
239.614	18419.14
239.686	18377.69
239.758	18377.4
239.829	18350.13
239.901	18338.66
239.973	18313.16
240.044	18293.65
240.116	18279.91
240.188	18253.65
240.259	18233.51
240.331	18209.6
240.403	18201.46
240.474	18169.27
240.546	18140.11
240.618	18106.48
240.689	18078.43
240.761	18063.59
240.833	18060.84
240.904	18035.44
240.976	18015.3
241.048	17985.37
241.119	17970
241.191	17960.02
241.262	17948.17
241.334	17922.39
241.405	17901.66
241.477	17880.84
241.549	17859.74
241.62	17836.08
241.692	17822.1
241.763	17807.3
241.835	17775.84
241.906	17745.04
241.978	17703.4
242.049	17691.31
242.121	17675.45
242.192	17664.32
242.264	17620.9
242.335	17575.5
242.407	17555.6
242.478	17526.87
242.55	17503.84
242.621	17466.73
242.693	17434.92
242.764	17389.86
242.836	17360.56
242.907	17335.26
242.979	17314.97
243.05	17295.5
243.122	17279.07
243.193	17249.57
243.264	17206.49
243.336	17184.71
243.407	17176.56
243.479	17177.62
243.55	17167.02
243.622	17144.9
243.693	17116.22
243.764	17105.14
243.836	17070.44
243.907	17041.13
243.978	17010.05
244.05	16987.88
244.121	16948.74
244.192	16928.21
244.264	16891.83
244.335	16857.95
244.407	16812.3
244.478	16788.98
244.549	16744.44
244.62	16691.67
244.692	16662.51
244.763	16644
244.834	16608.48
244.906	16561.54
244.977	16533.83
245.048	16501.35
245.119	16455.17
245.191	16413.77
245.262	16367.46
245.333	16354.78
245.405	16327.21
245.476	16302.29
245.547	16272.99
245.618	16244.31
245.689	16223.59
245.761	16201.61
245.832	16167.82
245.903	16154.9
245.974	16128.97
246.045	16107.48
246.117	16098.32
246.188	16057.74
246.259	16010.64
246.33	15978.64
246.401	15944.51
246.473	15898.34
246.544	15858.63
246.615	15847.01
246.686	15813.37
246.757	15795.19
246.828	15759.28
246.899	15740.1
246.97	15701.3
247.042	15657.34
247.113	15640.04
247.184	15617.67
247.255	15583.74
247.326	15563.98
247.397	15528.69
247.468	15495.77
247.539	15465.84
247.61	15422.51
247.681	15401.73
247.752	15387.51
247.823	15350.4
247.894	15333.04
247.965	15292.89
248.037	15261.85
248.108	15215.14
248.179	15189.26
248.25	15163.61
248.321	15138.5
248.392	15095.65
248.463	15087.74
248.534	15058
248.605	15030.57
248.675	15001.41
248.746	14984.11
248.817	14955.96
248.888	14936.92
248.959	14897.29
249.03	14873.29
249.101	14847.74
249.172	14816.26
249.243	14771.82
249.314	14762.27
249.385	14727.95
249.456	14706.98
249.527	14682.73
249.598	14661.38
249.669	14639.88
249.739	14614.33
249.81	14590.76
249.881	14557.11
249.952	14531.03
250.023	14504.57
250.094	14462.87
250.165	14427.64
250.235	14398.18
250.306	14375.43
250.377	14333.92
250.448	14307.85
250.519	14260.89
250.59	14247.88
250.66	14217.75
250.731	14203.29
250.802	14177.01
250.873	14153.78
250.944	14135.8
251.014	14105.53
251.085	14103.31
251.156	14078.19
251.227	14060.31
251.297	14050.28
251.368	14031.05
251.439	14009.07
251.51	13999.71
251.58	13975.22
251.651	13942.44
251.722	13917.91
251.792	13874.52
251.863	13850.51
251.934	13839.38
252.005	13835.23
252.075	13805.59
252.146	13794.02
252.217	13782.21
252.287	13763.55
252.358	13746.82
252.429	13741.28
252.499	13700.93
252.57	13673.07
252.641	13657.98
252.711	13635.27
252.782	13594.88
252.852	13591.55
252.923	13568.8
252.994	13548.26
253.064	13535.63
253.135	13504.15
253.205	13479.66
253.276	13479.71
253.347	13470.55
253.417	13435.84
253.488	13416.13
253.558	13390.43
253.629	13366.62
253.699	13344.73
253.77	13330.51
253.841	13297.49
253.911	13270.73
253.982	13257.09
254.052	13242.49
254.123	13215.25
254.193	13191.82
254.264	13202.38
254.334	13170.22
254.405	13132.62
254.475	13097.82
254.546	13074.82
254.616	13064.65
254.687	13045.85
254.757	13019.53
254.827	12985.21
254.898	12972.96
254.968	12943.85
255.039	12916.9
255.109	12906.97
255.18	12878.29
255.25	12830.61
255.321	12813.36
255.391	12783.95
255.461	12786.84
255.532	12739.74
255.602	12716.12
255.673	12677.51
255.743	12641.94
255.813	12590.45
255.884	12589.83
255.954	12572.09
256.024	12565.39
256.095	12541.91
256.165	12510.39
256.235	12495.06
256.306	12478.52
256.376	12466.57
256.446	12456.01
256.517	12438.95
256.587	12419.95
256.657	12399.03
256.728	12383.8
256.798	12363.32
256.868	12337.57
256.938	12309.71
257.009	12298.87
257.079	12290.53
257.149	12295.69
257.219	12256.5
257.29	12250.47
257.36	12204.63
257.43	12198.32
257.5	12161.06
257.571	12139.46
257.641	12125.1
257.711	12092.56
257.781	12074.05
257.852	12056.94
257.922	12013.12
257.992	11990.57
258.062	11966.85
258.132	11957.55
258.202	11938.7
258.273	11923.66
258.343	11923.28
258.413	11896.57
258.483	11876.76
258.553	11838.93
258.623	11809.62
258.693	11794.24
258.764	11791.11
258.834	11785.52
258.904	11760.21
258.974	11741.03
259.044	11715.58
259.114	11705.51
259.184	11691.39
259.254	11668.69
259.324	11628.39
259.394	11623.04
259.464	11623.77
259.535	11600.97
259.605	11579.09
259.675	11553.45
259.745	11533.68
259.815	11495.66
259.885	11464.96
259.955	11474.55
260.025	11453.49
260.095	11428.38
260.165	11418.64
260.235	11415.27
260.305	11391.7
260.375	11362.69
260.445	11358.25
260.515	11359.55
260.585	11346.06
260.655	11327.21
260.725	11324.85
260.795	11313.43
260.865	11316.85
260.934	11288.32
261.004	11276.56
261.074	11253.14
261.144	11245.81
261.214	11238.06
261.284	11219.65
261.354	11213.53
261.424	11176.32
261.494	11176.9
261.564	11164.32
261.634	11149.96
261.703	11110.44
261.773	11093.91
261.843	11085.62
261.913	11061.43
261.983	11026.97
262.053	11016.08
262.123	10991.89
262.192	10957.2
262.262	10950.4
262.332	10916.52
262.402	10913
262.472	10899.27
262.541	10861.93
