Data from 20250630_urea_2M_MAYP1162681_00-22-27-339.txt Node
Date: Tue Jul 01 00:22:27 BST 2025
User: adleo
Spectrometer: MAYP116268
Trigger mode: 0
Integration Time (sec): 1.000000E0
Scans to average: 1
Electric dark correction enabled: true
Nonlinearity correction enabled: true
Boxcar width: 10
XAxis mode: Wavelengths
Number of Pixels in Spectrum: 2068
>>>>>Begin Spectral Data<<<<<
179.565	1103.43
179.642	1153.51
179.718	1192.2
179.795	1224.8
179.871	1256.37
179.948	1270.97
180.024	1287.78
180.101	1307.98
180.177	1321.6
180.254	1342.04
180.33	1364.76
180.407	1412.22
180.483	1497.64
180.56	1578.93
180.636	1656.22
180.712	1644.62
180.789	1652.46
180.865	1663.53
180.942	1671.13
181.018	1679.73
181.095	1692.65
181.171	1696.69
181.248	1696.17
181.324	1709.86
181.4	1717.13
181.477	1724.49
181.553	1736.04
181.63	1755.95
181.706	1768.54
181.782	1776.19
181.859	1776.71
181.935	1780.28
182.011	1774.86
182.088	1791.83
182.164	1810.51
182.24	1821.25
182.317	1830.09
182.393	1830.47
182.469	1842.83
182.546	1854.76
182.622	1858.22
182.698	1854.75
182.775	1865.64
182.851	1879.8
182.927	1873.1
183.003	1869.16
183.08	1863.55
183.156	1873.48
183.232	1869.68
183.308	1859.65
183.385	1866.69
183.461	1879.95
183.537	1878.95
183.613	1891.17
183.69	1882.37
183.766	1872.86
183.842	1880.23
183.918	1885.7
183.995	1896.92
184.071	1897.72
184.147	1891.26
184.223	1881.19
184.299	1889.89
184.375	1879.71
184.452	1884.71
184.528	1935.49
184.604	1946.95
184.68	1959.12
184.756	1964.35
184.832	1967.67
184.908	1974.61
184.985	1973.52
185.061	1960.26
185.137	1970.53
185.213	1958.6
185.289	1958.69
185.365	1949.28
185.441	1946.66
185.517	1959.46
185.593	1957.89
185.669	1958.08
185.745	1971.87
185.822	1988.88
185.898	1981.56
185.974	1990.16
186.05	1984.79
186.126	1946.56
186.202	1937.57
186.278	1934.29
186.354	1926.73
186.43	1936.29
186.506	1932.92
186.582	1933.25
186.658	1937.24
186.734	1916.28
186.81	1918.89
186.886	1924.69
186.962	1937.43
187.038	1934.34
187.114	1924.45
187.19	1928.16
187.266	1919.17
187.341	1917.93
187.417	1911.09
187.493	1914.32
187.569	1916.22
187.645	1909.47
187.721	1901.67
187.797	1909.66
187.873	1916.7
187.949	1910.14
188.025	1902.1
188.101	1904.05
188.176	1910.37
188.252	1908.19
188.328	1918.26
188.404	1916.5
188.48	1911.13
188.556	1904.52
188.632	1906.38
188.707	1907.47
188.783	1905.76
188.859	1899.15
188.935	1889.6
189.011	1896.77
189.086	1889.83
189.162	1883.32
189.238	1881.66
189.314	1878.47
189.39	1871.3
189.465	1858.6
189.541	1875.95
189.617	1862.79
189.693	1860.03
189.768	1860.65
189.844	1884.14
189.92	1875.83
189.996	1885.62
190.071	1893.37
190.147	1894.51
190.223	1900.21
190.298	1890.52
190.374	1878.63
190.45	1892.89
190.526	1901.3
190.601	1895.65
190.677	1896.88
190.753	1923.43
190.828	1928.18
190.904	1940.87
190.98	1957.61
191.055	1969.92
191.131	1959.61
191.207	1978.81
191.282	1988.27
191.358	1979.24
191.433	1966.49
191.509	1976.71
191.585	1973.05
191.66	1975.61
191.736	1980.84
191.811	1973.28
191.887	1991.83
191.963	2013.37
192.038	2016.13
192.114	2015.08
192.189	2017.37
192.265	2015.23
192.34	1995.1
192.416	1991.82
192.491	1988.25
192.567	1990.2
192.642	1992.68
192.718	1995.48
192.793	1985.69
192.869	1982.55
192.944	1984.12
193.02	1992.35
193.095	1997.62
193.171	2004.99
193.246	2002.47
193.322	1999.53
193.397	1998.05
193.473	1985.02
193.548	1968.33
193.624	1972.85
193.699	1971.7
193.775	1990.54
193.85	1989.78
193.925	1997.58
194.001	1998.53
194.076	1992.87
194.152	1984.36
194.227	1977.7
194.302	1965.3
194.378	1969.96
194.453	1966.3
194.529	1979.8
194.604	1963.82
194.679	1958.07
194.755	1938.91
194.83	1952.9
194.905	1952.42
194.981	1963.36
195.056	1956.18
195.131	1962.46
195.207	1964.31
195.282	1955.99
195.357	1933.11
195.433	1949.18
195.508	1936.39
195.583	1944.38
195.659	1957.17
195.734	1964.4
195.809	1963.36
195.884	1971.48
195.96	1968.72
196.035	1983.46
196.11	1980.56
196.185	1992.16
196.261	1995.59
196.336	2022.74
196.411	2010.13
196.486	2015.93
196.561	2010.04
196.637	2017.07
196.712	2031.63
196.787	2032.82
196.862	2046.18
196.937	2058.44
197.013	2063.96
197.088	2074.85
197.163	2091.55
197.238	2106.5
197.313	2103.02
197.388	2115.53
197.464	2146.27
197.539	2158.11
197.614	2151.17
197.689	2161.44
197.764	2175.1
197.839	2195.84
197.914	2191.75
197.989	2209.4
198.065	2220.49
198.14	2267.29
198.215	2292.36
198.29	2303.88
198.365	2314.88
198.44	2324.25
198.515	2350.53
198.59	2363.71
198.665	2388.32
198.74	2400.27
198.815	2400.75
198.89	2423.97
198.965	2454.17
199.04	2448.21
199.115	2462.49
199.19	2497.76
199.265	2501.43
199.34	2514.48
199.415	2542.92
199.49	2564.58
199.565	2575.91
199.64	2596.43
199.715	2593.38
199.79	2600.15
199.865	2608.39
199.94	2606.91
200.015	2637.97
200.09	2643.68
200.165	2647.68
200.24	2654.16
200.315	2688.49
200.39	2703.54
200.464	2708.93
200.539	2710.36
200.614	2726.45
200.689	2746.94
200.764	2755.95
200.839	2771.76
200.914	2774.28
200.989	2763.32
201.063	2774.09
201.138	2755.05
201.213	2756.43
201.288	2739.61
201.363	2743.8
201.438	2739.94
201.512	2754.94
201.587	2739.31
201.662	2741.7
201.737	2754.7
201.812	2764.24
201.886	2735.24
201.961	2742.68
202.036	2732.34
202.111	2726.34
202.186	2699.01
202.26	2684.72
202.335	2665.75
202.41	2659.8
202.485	2640.75
202.559	2626.18
202.634	2605.51
202.709	2617.17
202.784	2596.69
202.858	2595.4
202.933	2579.59
203.008	2574.69
203.082	2557.83
203.157	2554.69
203.232	2516.08
203.306	2496.98
203.381	2465.73
203.456	2445.87
203.53	2425.81
203.605	2407.44
203.68	2386.77
203.754	2381.02
203.829	2366.5
203.904	2350.5
203.978	2340.79
204.053	2349.5
204.127	2335.27
204.202	2330.32
204.277	2314.57
204.351	2312.28
204.426	2305.81
204.5	2296.96
204.575	2266.32
204.65	2276.41
204.724	2271.22
204.799	2276.36
204.873	2273.12
204.948	2270.98
205.022	2257.37
205.097	2251.32
205.171	2263.27
205.246	2270.55
205.32	2270.98
205.395	2269.31
205.469	2259.66
205.544	2266.56
205.618	2248.86
205.693	2260.33
205.767	2251.86
205.842	2270.13
205.916	2262.9
205.991	2253.43
206.065	2259.62
206.14	2274.6
206.214	2268.03
206.289	2260.27
206.363	2273.64
206.438	2273.93
206.512	2280.21
206.586	2297.05
206.661	2299.24
206.735	2279.88
206.81	2280.26
206.884	2294.92
206.958	2283.12
207.033	2299.2
207.107	2302.58
207.181	2331.28
207.256	2327.38
207.33	2343.56
207.405	2354.85
207.479	2374.17
207.553	2382.64
207.628	2366.52
207.702	2375.51
207.776	2369.75
207.851	2373.65
207.925	2386.23
207.999	2385.61
208.073	2382.18
208.148	2385.51
208.222	2379.23
208.296	2408.78
208.371	2423.64
208.445	2434.16
208.519	2459.53
208.593	2468.81
208.668	2464.43
208.742	2466.34
208.816	2464.43
208.89	2476.82
208.965	2474.86
209.039	2483.34
209.113	2501.25
209.187	2521.75
209.261	2518.33
209.336	2535.9
209.41	2555.66
209.484	2552.99
209.558	2569.14
209.632	2582.47
209.707	2590.66
209.781	2610.52
209.855	2625.48
209.929	2642.55
210.003	2648.07
210.077	2649.22
210.151	2692.5
210.226	2725.82
210.3	2752.04
210.374	2776.04
210.448	2781.24
210.522	2794.54
210.596	2803.92
210.67	2808.78
210.744	2856.12
210.818	2886.27
210.892	2910.58
210.966	2905.82
211.041	2923.35
211.115	2925.31
211.189	2949.56
211.263	2969.2
211.337	2979.73
211.411	2996.85
211.485	2994.37
211.559	3010
211.633	3018.15
211.707	2996.07
211.781	3007.33
211.855	2982.67
211.929	2982.05
212.003	2971.29
212.077	2983.93
212.151	3007.92
212.225	3026.8
212.299	3022.6
212.373	3023.12
212.447	3028.61
212.52	3070.67
212.594	3092.71
212.668	3121.18
212.742	3126.43
212.816	3139.26
212.89	3152.38
212.964	3169.7
213.038	3197.29
213.112	3233.22
213.186	3269.28
213.26	3279.39
213.333	3268.94
213.407	3300.94
213.481	3339.06
213.555	3387.99
213.629	3416.64
213.703	3438.03
213.777	3482.3
213.85	3516.92
213.924	3597.13
213.998	3652.12
214.072	3695.23
214.146	3735.7
214.219	3790.12
214.293	3847.26
214.367	3911.49
214.441	3991.65
214.515	4051.52
214.588	4100.04
214.662	4141.02
214.736	4202.07
214.81	4285.43
214.883	4374.16
214.957	4453.92
215.031	4529.78
215.105	4595.26
215.178	4672.26
215.252	4759.09
215.326	4826.07
215.4	4900.71
215.473	4956.43
215.547	5031.12
215.621	5123.86
215.694	5235.73
215.768	5323.92
215.842	5422.65
215.915	5524.89
215.989	5611.41
216.063	5715.84
216.136	5831.48
216.21	5953.36
216.284	6087.01
216.357	6212.93
216.431	6328.69
216.504	6459.32
216.578	6605.3
216.652	6745.19
216.725	6878.67
216.799	7021.14
216.873	7156.85
216.946	7299.16
217.02	7426.93
217.093	7568.15
217.167	7682.91
217.24	7800.88
217.314	7933.59
217.387	8069.49
217.461	8199.23
217.535	8349.52
217.608	8483.19
217.682	8625.44
217.755	8770.54
217.829	8900.99
217.902	9033.74
217.976	9179.41
218.049	9306.13
218.123	9430.94
218.196	9574.77
218.27	9706.73
218.343	9831.24
218.417	9973.9
218.49	10109.64
218.563	10265.13
218.637	10401.37
218.71	10558.82
218.784	10700.22
218.857	10850.45
218.931	10984.89
219.004	11124.15
219.077	11262.27
219.151	11397.78
219.224	11525.11
219.298	11662.71
219.371	11799.98
219.444	11921.72
219.518	12047.71
219.591	12182.57
219.665	12336.19
219.738	12464.07
219.811	12590.84
219.885	12724.08
219.958	12858.23
220.031	12977.68
220.105	13105.13
220.178	13227.72
220.251	13342.25
220.325	13468.07
220.398	13587.23
220.471	13710.35
220.544	13831.4
220.618	13939.95
220.691	14059.84
220.764	14175.82
220.838	14278.07
220.911	14377.9
220.984	14507.62
221.057	14627.31
221.131	14739.97
221.204	14810.97
221.277	14932.01
221.35	15052.76
221.424	15145.45
221.497	15239.78
221.57	15340.19
221.643	15442.66
221.716	15550.01
221.79	15640.82
221.863	15736.98
221.936	15827.74
222.009	15917.01
222.082	16011.67
222.155	16091.44
222.229	16189.62
222.302	16275.22
222.375	16363.08
222.448	16453.26
222.521	16531.63
222.594	16613.22
222.667	16678.87
222.74	16777.09
222.814	16844.37
222.887	16909.97
222.96	16994.64
223.033	17081.59
223.106	17155.08
223.179	17221.78
223.252	17286.17
223.325	17362.99
223.398	17431.52
223.471	17492.77
223.544	17564.34
223.617	17617.06
223.69	17683.52
223.763	17732.05
223.837	17795.28
223.91	17853.83
223.983	17892.48
224.056	17938.5
224.129	17992.67
224.202	18064.86
224.275	18112.04
224.348	18156.95
224.42	18207.46
224.493	18244.95
224.566	18278.49
224.639	18340.42
224.712	18386.73
224.785	18435.06
224.858	18476.46
224.931	18516.55
225.004	18549.22
225.077	18596.64
225.15	18612.55
225.223	18666.37
225.296	18736.68
225.369	18765.79
225.442	18799.62
225.514	18851.33
225.587	18900.38
225.66	18944.38
225.733	18966.02
225.806	18999.75
225.879	19045
225.952	19074.64
226.025	19129.72
226.097	19186.25
226.17	19219.98
226.243	19236.65
226.316	19266.96
226.389	19309.32
226.461	19355.83
226.534	19408.4
226.607	19435
226.68	19509.12
226.753	19529.84
226.825	19528.97
226.898	19577.26
226.971	19619.67
227.044	19657.01
227.117	19690.99
227.189	19730.36
227.262	19783.22
227.335	19822.02
227.407	19834.07
227.48	19861.58
227.553	19888.28
227.626	19908.09
227.698	19933.24
227.771	19979.17
227.844	19998.97
227.916	20021.09
227.989	20037.67
228.062	20055.55
228.134	20099.21
228.207	20112.32
228.28	20130.54
228.352	20162.63
228.425	20186.25
228.498	20220.9
228.57	20242.58
228.643	20269.47
228.716	20279.21
228.788	20291.31
228.861	20307.98
228.934	20344.89
229.006	20369.86
229.079	20385.42
229.151	20401.18
229.224	20398.63
229.296	20414.39
229.369	20456.61
229.442	20495.88
229.514	20502.97
229.587	20532.56
229.659	20534.15
229.732	20557.14
229.804	20586.2
229.877	20628.18
229.949	20656.71
230.022	20685.05
230.094	20691.5
230.167	20713.19
230.239	20721
230.312	20741.24
230.384	20777.82
230.457	20798.5
230.529	20820.28
230.602	20832.95
230.674	20845.2
230.747	20876.47
230.819	20897.92
230.892	20876.81
230.964	20883.7
231.037	20903.22
231.109	20915.99
231.181	20940.77
231.254	20943.66
231.326	20953.73
231.399	20945.92
231.471	20941.29
231.544	20927.7
231.616	20953.25
231.688	20963.42
231.761	20970.21
231.833	20969.92
231.905	20963.03
231.978	20973.05
232.05	20974.36
232.122	20979.03
232.195	20981.63
232.267	21004.96
232.339	21005.11
232.412	21037.73
232.484	21031.8
232.556	21021.35
232.629	21046.02
232.701	21046.84
232.773	21049.11
232.846	21050.51
232.918	21057.35
232.99	21065.21
233.062	21062.31
233.135	21065.78
233.207	21053.64
233.279	21054.55
233.351	21063.13
233.424	21050.7
233.496	21030.22
233.568	21043.23
233.64	21037.3
233.713	21036.58
233.785	21021.54
233.857	21022.75
233.929	20990.55
234.001	20996.67
234.074	21007.76
234.146	20972.72
234.218	20958.07
234.29	20955.61
234.362	20934.88
234.434	20916.81
234.507	20890.79
234.579	20873.34
234.651	20852.76
234.723	20837.24
234.795	20823.26
234.867	20810.83
234.939	20811.02
235.012	20806.01
235.084	20791.26
235.156	20778.01
235.228	20757.19
235.3	20740.76
235.372	20721.53
235.444	20725.96
235.516	20681.67
235.588	20665.33
235.66	20658.15
235.732	20639.11
235.804	20667.21
235.876	20659.74
235.948	20661.28
236.02	20646.34
236.092	20631.84
236.164	20614.25
236.236	20602.73
236.308	20590.58
236.38	20567.55
236.452	20534.2
236.524	20516.17
236.596	20513.52
236.668	20504.32
236.74	20488.61
236.812	20472.22
236.884	20457.09
236.956	20430.05
237.028	20402.25
237.1	20368.22
237.172	20355.12
237.244	20353.53
237.316	20301.38
237.388	20280.9
237.46	20234.44
237.532	20230.78
237.604	20205.38
237.675	20204.85
237.747	20184.9
237.819	20151.94
237.891	20124.66
237.963	20103.41
238.035	20072.08
238.107	20013.96
238.178	20006.73
238.25	19968.18
238.322	19960.18
238.394	19914.35
238.466	19883.8
238.538	19874.64
238.609	19857.63
238.681	19808.33
238.753	19769.83
238.825	19749.59
238.897	19721.2
238.968	19712.63
239.04	19672.63
239.112	19662.56
239.184	19614.12
239.255	19585.02
239.327	19562.18
239.399	19540.73
239.471	19517.21
239.542	19492.2
239.614	19479.34
239.686	19416.93
239.758	19411.24
239.829	19375.68
239.901	19363.58
239.973	19335.59
240.044	19313.61
240.116	19293.47
240.188	19269.28
240.259	19236.46
240.331	19187.5
240.403	19168.17
240.474	19121.62
240.546	19082.88
240.618	19040.28
240.689	19008.09
240.761	18973.78
240.833	18958.02
240.904	18920.43
240.976	18885.3
241.048	18867.37
241.119	18838.32
241.191	18825.11
241.262	18801.4
241.334	18762.18
241.405	18729.79
241.477	18702.18
241.549	18669.7
241.62	18633.75
241.692	18606.62
241.763	18581.99
241.835	18557.85
241.906	18515.54
241.978	18471.59
242.049	18444.02
242.121	18417.47
242.192	18394.68
242.264	18352.85
242.335	18305.24
242.407	18281.67
242.478	18246.44
242.55	18209.19
242.621	18166.5
242.693	18119.32
242.764	18078.6
242.836	18041.1
242.907	18014.7
242.979	17989.68
243.05	17958.02
243.122	17922.46
243.193	17889.25
243.264	17829.98
243.336	17783.81
243.407	17758.32
243.479	17743.47
243.55	17723.23
243.622	17688.1
243.693	17656.63
243.764	17643.72
243.836	17593.5
243.907	17554.99
243.978	17529.4
244.05	17498.27
244.121	17450.32
244.192	17432.68
244.264	17389.6
244.335	17346.46
244.407	17297.16
244.478	17261.6
244.549	17215.96
244.62	17173.88
244.692	17140.2
244.763	17122.56
244.834	17092.1
244.906	17054.22
244.977	17026.12
245.048	16995.9
245.119	16959.47
245.191	16916.77
245.262	16851.9
245.333	16841.2
245.405	16810.06
245.476	16778.21
245.547	16748.47
245.618	16728.04
245.689	16684.66
245.761	16659.74
245.832	16642.78
245.903	16614.29
245.974	16583.06
246.045	16552.22
246.117	16539.25
246.188	16489.42
246.259	16450.62
246.33	16415
246.401	16374.13
246.473	16328.78
246.544	16297.5
246.615	16271.66
246.686	16235.18
246.757	16222.89
246.828	16179.65
246.899	16156.66
246.97	16104.94
247.042	16057.61
247.113	16033.8
247.184	16021.13
247.255	15978.62
247.326	15938.18
247.397	15906.66
247.468	15882.85
247.539	15851.52
247.61	15803.36
247.681	15792.71
247.752	15772.03
247.823	15734.49
247.894	15711.16
247.965	15669.95
248.037	15636.93
248.108	15596.15
248.179	15564.24
248.25	15537.92
248.321	15512.57
248.392	15478.59
248.463	15466.59
248.534	15443.4
248.605	15410.34
248.675	15374.43
248.746	15342.32
248.817	15326.51
248.888	15295.33
248.959	15240.67
249.03	15217.43
249.101	15191.26
249.172	15148.55
249.243	15092.54
249.314	15078.22
249.385	15056.19
249.456	15034.74
249.527	14994.69
249.598	14975.36
249.669	14943.78
249.739	14915.97
249.81	14896.83
249.881	14852
249.952	14828
250.023	14795.36
250.094	14765.04
250.165	14730.48
250.235	14710.52
250.306	14679.92
250.377	14648
250.448	14633.21
250.519	14587.07
250.59	14572.61
250.66	14540.46
250.731	14541.37
250.802	14509.17
250.873	14477.46
250.944	14457.5
251.014	14425.44
251.085	14416.57
251.156	14392.13
251.227	14374.54
251.297	14361.96
251.368	14346.39
251.439	14324.98
251.51	14318.52
251.58	14279.23
251.651	14241.44
251.722	14229.92
251.792	14186.82
251.863	14159.35
251.934	14147.87
252.005	14151.97
252.075	14126.52
252.146	14115.24
252.217	14089.21
252.287	14076.53
252.358	14050.11
252.429	14038.54
252.499	14015.26
252.57	13989.42
252.641	13985.95
252.711	13959.48
252.782	13912.1
252.852	13903.76
252.923	13881.87
252.994	13848.75
253.064	13838.92
253.135	13811.93
253.205	13778.42
253.276	13769.89
253.347	13761.79
253.417	13718.84
253.488	13690.35
253.558	13657.23
253.629	13631.25
253.699	13614.47
253.77	13598.42
253.841	13574.99
253.911	13552.77
253.982	13532.62
254.052	13509.19
254.123	13479.64
254.193	13456.84
254.264	13475.35
254.334	13438.81
254.405	13399.52
254.475	13371.65
254.546	13347.31
254.616	13341.53
254.687	13322.19
254.757	13299.15
254.827	13267.96
254.898	13250.42
254.968	13225.35
255.039	13201
255.109	13181.72
255.18	13148.36
255.25	13097.12
255.321	13082.46
255.391	13038.89
255.461	13035.17
255.532	12990.78
255.602	12956.84
255.673	12913.26
255.743	12877.59
255.813	12834.83
255.884	12828.95
255.954	12803.01
256.024	12794.87
256.095	12772.16
256.165	12732.68
256.235	12721.79
256.306	12694.89
256.376	12683.9
256.446	12668.14
256.517	12654.98
256.587	12649.43
256.657	12634.49
256.728	12624.12
256.798	12601.03
256.868	12580.07
256.938	12549.41
257.009	12541.31
257.079	12530.37
257.149	12541.55
257.219	12497.83
257.29	12487.37
257.36	12439.31
257.43	12434.59
257.5	12394.19
257.571	12364.59
257.641	12354.81
257.711	12320.54
257.781	12310.41
257.852	12295.37
257.922	12262.98
257.992	12239.26
258.062	12212.03
258.132	12197.71
258.202	12175.88
258.273	12156.35
258.343	12157.32
258.413	12127
258.483	12106.18
258.553	12078.8
258.623	12047.9
258.693	12034.31
258.764	12028.09
258.834	12024.86
258.904	12001.67
258.974	11977.19
259.044	11956.61
259.114	11945.62
259.184	11932.8
259.254	11912.79
259.324	11867.15
259.394	11846.57
259.464	11838.47
259.535	11815.24
259.605	11784.63
259.675	11760.96
259.745	11746.02
259.815	11714.16
259.885	11695.85
259.955	11705.1
260.025	11676.62
260.095	11655.7
260.165	11639.45
260.235	11635.07
260.305	11613.43
260.375	11585.71
260.445	11590
260.515	11590.92
260.585	11581.04
260.655	11556.84
260.725	11543.11
260.795	11538.96
260.865	11541.18
260.934	11514.57
261.004	11498.33
261.074	11490.57
261.144	11488.36
261.214	11482.04
261.284	11461.99
261.354	11452.55
261.424	11418.37
261.494	11416.01
261.564	11393.36
261.634	11387.67
261.703	11352.25
261.773	11339.24
261.843	11332.15
261.913	11312.59
261.983	11277.5
262.053	11266.94
262.123	11249.6
262.192	11220.78
262.262	11213.21
262.332	11178.95
