Data from 20250630_urea_2M_MAYP1162681_07-22-27-322.txt Node
Date: Tue Jul 01 07:22:27 BST 2025
User: adleo
Spectrometer: MAYP116268
Trigger mode: 0
Integration Time (sec): 1.000000E0
Scans to average: 1
Electric dark correction enabled: true
Nonlinearity correction enabled: true
Boxcar width: 10
XAxis mode: Wavelengths
Number of Pixels in Spectrum: 2068
>>>>>Begin Spectral Data<<<<<
179.565	1081.89
179.642	1131.99
179.718	1169.08
179.795	1203.45
179.871	1233.89
179.948	1247.82
180.024	1264.97
180.101	1285.49
180.177	1298.54
180.254	1320.11
180.33	1339.49
180.407	1383.63
180.483	1468.38
180.56	1549.05
180.636	1625.48
180.712	1614.22
180.789	1622.15
180.865	1629.32
180.942	1641.44
181.018	1648.42
181.095	1662.44
181.171	1665.86
181.248	1666.29
181.324	1681.4
181.4	1689.81
181.477	1696.94
181.553	1708.24
181.63	1727.77
181.706	1742.55
181.782	1748.35
181.859	1747.06
181.935	1753.48
182.011	1750.48
182.088	1766.12
182.164	1783.76
182.24	1793.64
182.317	1803.09
182.393	1800.91
182.469	1817.4
182.546	1826.57
182.622	1834.03
182.698	1831.75
182.775	1843.78
182.851	1855.99
182.927	1848.91
183.003	1841.92
183.08	1838.69
183.156	1849.58
183.232	1845.63
183.308	1834.65
183.385	1844.06
183.461	1861.51
183.537	1859.27
183.613	1868.02
183.69	1859.65
183.766	1847.86
183.842	1856.7
183.918	1862.98
183.995	1874.24
184.071	1875.9
184.147	1869.06
184.223	1857.61
184.299	1866.07
184.375	1852.72
184.452	1859.71
184.528	1910.87
184.604	1922.13
184.68	1933.54
184.756	1940.34
184.832	1946.71
184.908	1952.13
184.985	1950.32
185.061	1933.73
185.137	1944.1
185.213	1935.78
185.289	1938.01
185.365	1932.02
185.441	1929.93
185.517	1941.87
185.593	1939.64
185.669	1939.59
185.745	1953.33
185.822	1966.82
185.898	1957.93
185.974	1967.15
186.05	1960.49
186.126	1923.97
186.202	1916.8
186.278	1914.18
186.354	1904.58
186.43	1909.29
186.506	1905.91
186.582	1906.34
186.658	1912.61
186.734	1892.37
186.81	1893.7
186.886	1895.5
186.962	1905.82
187.038	1902.49
187.114	1892.74
187.19	1901.15
187.266	1891.79
187.341	1889.84
187.417	1884.28
187.493	1885.66
187.569	1887.51
187.645	1880.85
187.721	1870.92
187.797	1875.81
187.873	1878.09
187.949	1872.34
188.025	1866.97
188.101	1871.01
188.176	1877.95
188.252	1874.29
188.328	1884.17
188.404	1884.79
188.48	1878.66
188.556	1875.52
188.632	1873.72
188.707	1875.48
188.783	1872.62
188.859	1867.44
188.935	1856.89
189.011	1864.59
189.086	1857.79
189.162	1854.7
189.238	1853.99
189.314	1848.05
189.39	1844.63
189.465	1838.16
189.541	1855.56
189.617	1841.73
189.693	1836.46
189.768	1838.12
189.844	1862.09
189.92	1853.39
189.996	1862.61
190.071	1873.45
190.147	1871.74
190.223	1881.06
190.298	1873.36
190.374	1861.47
190.45	1873.78
190.526	1881.48
190.601	1878.44
190.677	1881.58
190.753	1905.69
190.828	1907.88
190.904	1921.81
190.98	1932.84
191.055	1942.77
191.131	1932.88
191.207	1952.18
191.282	1961.64
191.358	1950.52
191.433	1934.82
191.509	1948.56
191.585	1942.52
191.66	1944.28
191.736	1951.03
191.811	1944.56
191.887	1960.16
191.963	1983.32
192.038	1987.79
192.114	1987.22
192.189	1988.83
192.265	1985.17
192.34	1963.67
192.416	1962.96
192.491	1962.1
192.567	1969.76
192.642	1973.33
192.718	1973.47
192.793	1961.82
192.869	1956.4
192.944	1958.49
193.02	1964.25
193.095	1966.29
193.171	1973.85
193.246	1974.61
193.322	1970.81
193.397	1967.58
193.473	1953.88
193.548	1936.95
193.624	1939.56
193.699	1939.04
193.775	1953.79
193.85	1954.59
193.925	1963.63
194.001	1960.63
194.076	1952.84
194.152	1939.8
194.227	1931.53
194.302	1922.4
194.378	1927.21
194.453	1928.97
194.529	1941.8
194.604	1931.06
194.679	1928.16
194.755	1911.19
194.83	1921.18
194.905	1920.46
194.981	1932.02
195.056	1928.02
195.131	1932.02
195.207	1931.16
195.282	1922.99
195.357	1905.39
195.433	1920.84
195.508	1910.29
195.583	1918.94
195.659	1934.06
195.734	1941.14
195.809	1939.2
195.884	1947.84
195.96	1949.27
196.035	1960.3
196.11	1954.36
196.185	1965.15
196.261	1965.48
196.336	1994.82
196.411	1983.12
196.486	1988.45
196.561	1980.12
196.637	1984.4
196.712	1999.39
196.787	2003.24
196.862	2018.41
196.937	2028.1
197.013	2032.29
197.088	2041.13
197.163	2060.97
197.238	2075.3
197.313	2074.87
197.388	2089.42
197.464	2118.26
197.539	2127.53
197.614	2122.63
197.689	2136.71
197.764	2151.37
197.839	2174.68
197.914	2169.83
197.989	2188.38
198.065	2204.36
198.14	2250.44
198.215	2277.13
198.29	2289.56
198.365	2299.41
198.44	2310.11
198.515	2335.67
198.59	2349.62
198.665	2374.46
198.74	2381.55
198.815	2380.17
198.89	2402.92
198.965	2430.06
199.04	2427.16
199.115	2441.48
199.19	2480.47
199.265	2483.04
199.34	2490.23
199.415	2519.58
199.49	2539.19
199.565	2549.62
199.64	2567.52
199.715	2565.95
199.79	2571.9
199.865	2578.95
199.94	2577.1
200.015	2603.91
200.09	2607.63
200.165	2612.15
200.24	2617.53
200.315	2656.15
200.39	2671.48
200.464	2675.72
200.539	2678.63
200.614	2690.87
200.689	2711.07
200.764	2714.31
200.839	2728.83
200.914	2733.5
200.989	2719.87
201.063	2729.59
201.138	2714.59
201.213	2717.26
201.288	2700.11
201.363	2706.45
201.438	2704.45
201.512	2720.92
201.587	2705.05
201.662	2709.01
201.737	2718.68
201.812	2727.02
201.886	2696.69
201.961	2704.94
202.036	2692.27
202.111	2687.03
202.186	2660.8
202.26	2644.84
202.335	2627.59
202.41	2621.31
202.485	2606.45
202.559	2587.31
202.634	2562.59
202.709	2569.87
202.784	2550.92
202.858	2554.2
202.933	2533.3
203.008	2525.01
203.082	2506.35
203.157	2505.4
203.232	2465.23
203.306	2449.03
203.381	2420.55
203.456	2397.51
203.53	2378.16
203.605	2363.56
203.68	2342.94
203.754	2339.09
203.829	2325.42
203.904	2304.53
203.978	2294.68
204.053	2298.91
204.127	2291.06
204.202	2291.78
204.277	2275.45
204.351	2270.17
204.426	2258.22
204.5	2254.18
204.575	2223.4
204.65	2234.16
204.724	2227.83
204.799	2237
204.873	2231.81
204.948	2229.05
205.022	2219.07
205.097	2210.02
205.171	2222.72
205.246	2228.48
205.32	2224.82
205.395	2223.44
205.469	2215.83
205.544	2220.78
205.618	2204.94
205.693	2215.55
205.767	2204.04
205.842	2223.79
205.916	2215.79
205.991	2208.13
206.065	2213.46
206.14	2228.2
206.214	2223.25
206.289	2215.97
206.363	2227.58
206.438	2230.62
206.512	2237.38
206.586	2253.41
206.661	2260.51
206.735	2238.49
206.81	2242.25
206.884	2257.57
206.958	2247.05
207.033	2263.7
207.107	2271.46
207.181	2300.97
207.256	2293.64
207.33	2309.73
207.405	2321.68
207.479	2341.38
207.553	2348.28
207.628	2333.73
207.702	2345.86
207.776	2341.77
207.851	2342.81
207.925	2355.81
207.999	2354.81
208.073	2353.24
208.148	2360.76
208.222	2348.63
208.296	2380.03
208.371	2390.79
208.445	2399.6
208.519	2427.68
208.593	2438.34
208.668	2434.96
208.742	2435.82
208.816	2438.86
208.89	2455.25
208.965	2453.48
209.039	2458.91
209.113	2476.77
209.187	2493.42
209.261	2489.52
209.336	2503.32
209.41	2525.23
209.484	2527.09
209.558	2544.71
209.632	2555.27
209.707	2561.99
209.781	2583.56
209.855	2600.52
209.929	2615.77
210.003	2623.35
210.077	2620.15
210.151	2664.73
210.226	2695.13
210.3	2719.97
210.374	2742.26
210.448	2744.97
210.522	2752.55
210.596	2763.89
210.67	2770.13
210.744	2813.88
210.818	2845.27
210.892	2867.81
210.966	2861.48
211.041	2876.34
211.115	2876.73
211.189	2903.36
211.263	2920.04
211.337	2926.19
211.411	2940.69
211.485	2939.97
211.559	2952.36
211.633	2957.22
211.707	2930.37
211.781	2942.44
211.855	2915.07
211.929	2909.26
212.003	2895.68
212.077	2910.47
212.151	2927.73
212.225	2942.89
212.299	2939.69
212.373	2931.97
212.447	2931.97
212.52	2967.73
212.594	2976.83
212.668	2994.14
212.742	2985.18
212.816	2988.89
212.89	2993.47
212.964	2995.19
213.038	3006.73
213.112	3031.63
213.186	3059.85
213.26	3051.94
213.333	3022.04
213.407	3040.15
213.481	3055.83
213.555	3081.99
213.629	3090.11
213.703	3091.44
213.777	3108.71
213.85	3112.48
213.924	3165.88
213.998	3187.26
214.072	3203.49
214.146	3216.13
214.219	3241.14
214.293	3269.71
214.367	3298.49
214.441	3342.49
214.515	3368.46
214.588	3378.86
214.662	3378.62
214.736	3399.53
214.81	3447.42
214.883	3495.56
214.957	3529.45
215.031	3560.79
215.105	3586.71
215.178	3616.03
215.252	3656.29
215.326	3686.43
215.4	3717.47
215.473	3724.83
215.547	3763.58
215.621	3802.11
215.694	3860.13
215.768	3893.92
215.842	3936.26
215.915	3981.49
215.989	4011.41
216.063	4064.93
216.136	4130.48
216.21	4195.68
216.284	4263.56
216.357	4324.64
216.431	4386.77
216.504	4454.8
216.578	4547.34
216.652	4630.15
216.725	4704.78
216.799	4784.98
216.873	4855.98
216.946	4933.48
217.02	5001.94
217.093	5076.66
217.167	5136.25
217.24	5202.67
217.314	5275.87
217.387	5349.4
217.461	5420.61
217.535	5515.85
217.608	5585.42
217.682	5661.28
217.755	5752.1
217.829	5825.68
217.902	5915.67
217.976	5992.99
218.049	6069.36
218.123	6134.63
218.196	6215.11
218.27	6289.5
218.343	6362.2
218.417	6448.76
218.49	6533.3
218.563	6634.08
218.637	6717.46
218.71	6825.4
218.784	6913.94
218.857	7012.51
218.931	7108.78
219.004	7202.76
219.077	7291.01
219.151	7375.93
219.224	7463.6
219.298	7542.49
219.371	7638.51
219.444	7711.69
219.518	7806.98
219.591	7900.27
219.665	8012.25
219.738	8101.33
219.811	8180.2
219.885	8271.85
219.958	8361.29
220.031	8445.24
220.105	8532.82
220.178	8619.16
220.251	8692.32
220.325	8782.18
220.398	8868.15
220.471	8949.93
220.544	9048.52
220.618	9133.36
220.691	9225.55
220.764	9310.1
220.838	9403.08
220.911	9483.5
220.984	9589.73
221.057	9677.57
221.131	9762.52
221.204	9821.58
221.277	9924.03
221.35	10038.91
221.424	10118.34
221.497	10199.37
221.57	10290.07
221.643	10372.94
221.716	10464.62
221.79	10538.58
221.863	10615.81
221.936	10691.02
222.009	10771.73
222.082	10848.35
222.155	10913.69
222.229	11004.76
222.302	11091.94
222.375	11165.57
222.448	11244.27
222.521	11313.48
222.594	11382.06
222.667	11443.79
222.74	11529.1
222.814	11589.73
222.887	11659.67
222.96	11740.16
223.033	11821.76
223.106	11886.49
223.179	11963.8
223.252	12029.45
223.325	12102.28
223.398	12172.23
223.471	12246.02
223.544	12312.97
223.617	12378.29
223.69	12450.59
223.763	12501.45
223.837	12559.49
223.91	12629.19
223.983	12682.99
224.056	12737.22
224.129	12806.3
224.202	12887.91
224.275	12938.38
224.348	12994.92
224.42	13040.04
224.493	13081.69
224.566	13132.99
224.639	13198.79
224.712	13254.61
224.785	13315.21
224.858	13374.69
224.931	13428.06
225.004	13478.29
225.077	13541
225.15	13576.82
225.223	13636.4
225.296	13716.48
225.369	13762.22
225.442	13811.68
225.514	13865.48
225.587	13920.1
225.66	13974.96
225.733	14029.38
225.806	14090.12
225.879	14134.37
225.952	14180.65
226.025	14246.79
226.097	14317.41
226.17	14370.44
226.243	14402.78
226.316	14453.3
226.389	14513.61
226.461	14574.97
226.534	14631.08
226.607	14673.89
226.68	14750.68
226.753	14801.96
226.825	14832.96
226.898	14900.64
226.971	14949.66
227.044	15013.34
227.117	15071.52
227.189	15131.29
227.262	15186.77
227.335	15248.37
227.407	15301.44
227.48	15360.88
227.553	15418.09
227.626	15461.86
227.698	15516.09
227.771	15579.13
227.844	15623.62
227.916	15670.57
227.989	15701.76
228.062	15745.52
228.134	15818.88
228.207	15861.73
228.28	15900.24
228.352	15940.97
228.425	15998.18
228.498	16051.73
228.57	16082.29
228.643	16135.36
228.716	16167.84
228.788	16206.93
228.861	16241.15
228.934	16296.92
229.006	16335.14
229.079	16368.44
229.151	16399.29
229.224	16420.11
229.296	16468.55
229.369	16532.41
229.442	16588.7
229.514	16621.09
229.587	16673.81
229.659	16698.06
229.732	16736.95
229.804	16794.64
229.877	16868.38
229.949	16902.45
230.022	16959.18
230.094	17002.17
230.167	17038.12
230.239	17075.47
230.312	17109.4
230.384	17171.76
230.457	17213.69
230.529	17265.06
230.602	17308.2
230.674	17352.39
230.747	17414.75
230.819	17457.89
230.892	17466.32
230.964	17495.76
231.037	17543.52
231.109	17569.12
231.181	17617.11
231.254	17645.02
231.326	17673.36
231.399	17701.02
231.471	17729.45
231.544	17742.7
231.616	17788.53
231.688	17831.66
231.761	17862.46
231.833	17901.4
231.905	17910.36
231.978	17943.04
232.05	17963.81
232.122	17992.29
232.195	18027.66
232.267	18059.37
232.339	18077.2
232.412	18119.46
232.484	18143.8
232.556	18169.29
232.629	18220.18
232.701	18241.63
232.773	18270.54
232.846	18288.37
232.918	18299.98
232.99	18326.39
233.062	18357.33
233.135	18374.92
233.207	18375.21
233.279	18404.61
233.351	18420.99
233.424	18430.39
233.496	18431.59
233.568	18461.76
233.64	18467.54
233.713	18471.54
233.785	18479.93
233.857	18500.36
233.929	18495.25
234.001	18524.02
234.074	18551.49
234.146	18548.65
234.218	18570.43
234.29	18582.76
234.362	18588.98
234.434	18592.98
234.507	18593.03
234.579	18585.99
234.651	18591.34
234.723	18607.73
234.795	18614.67
234.867	18619.53
234.939	18641.99
235.012	18662.37
235.084	18676.01
235.156	18693.79
235.228	18695.34
235.3	18704.68
235.372	18705.7
235.444	18723.05
235.516	18708.64
235.588	18709.74
235.66	18715.62
235.732	18706.42
235.804	18764.05
235.876	18773.36
235.948	18785.88
236.02	18782.95
236.092	18788.92
236.164	18786.95
236.236	18786.85
236.308	18787.09
236.38	18793.84
236.452	18786.42
236.524	18790.8
236.596	18798.61
236.668	18801.74
236.74	18805.31
236.812	18796.29
236.884	18810.22
236.956	18816.1
237.028	18811.67
237.1	18806.17
237.172	18813.69
237.244	18823.86
237.316	18780.78
237.388	18772.73
237.46	18758.99
237.532	18772.63
237.604	18756.2
237.675	18771.09
237.747	18772.05
237.819	18755.81
237.891	18751.28
237.963	18738.13
238.035	18718.13
238.107	18663.67
238.178	18664.98
238.25	18640.98
238.322	18661.94
238.394	18624.79
238.466	18604.5
238.538	18588.69
238.609	18578.38
238.681	18546.19
238.753	18521.23
238.825	18498.82
238.897	18492.07
238.968	18494.77
239.04	18465.23
239.112	18473.71
239.184	18439.88
239.255	18411.69
239.327	18404.65
239.399	18381.67
239.471	18372.66
239.542	18365.43
239.614	18379.45
239.686	18335.02
239.758	18338.01
239.829	18303.26
239.901	18300.18
239.973	18284.47
240.044	18280.27
240.116	18260.23
240.188	18241.96
240.259	18222.16
240.331	18199.03
240.403	18186.83
240.474	18144.86
240.546	18113.54
240.618	18082.79
240.689	18063.9
240.761	18041.73
240.833	18035.08
240.904	18011.8
240.976	17987.56
241.048	17964.05
241.119	17942.41
241.191	17935.85
241.262	17925.73
241.334	17904.1
241.405	17875.71
241.477	17845.11
241.549	17799.18
241.62	17773.26
241.692	17752.29
241.763	17733.31
241.835	17708.25
241.906	17674.42
241.978	17638.95
242.049	17633.6
242.121	17618.85
242.192	17612.39
242.264	17582.13
242.335	17531.48
242.407	17511.09
242.478	17486.32
242.55	17463.14
242.621	17425.98
242.693	17388.68
242.764	17359.48
242.836	17320.59
242.907	17304.1
242.979	17278.66
243.05	17261.02
243.122	17244.25
243.193	17218.46
243.264	17171.81
243.336	17141.69
243.407	17126.51
243.479	17127.62
243.55	17109.55
243.622	17074.27
243.693	17041.83
243.764	17039.28
243.836	17010.17
243.907	16987.71
243.978	16951.23
244.05	16925.93
244.121	16894.31
244.192	16883.71
244.264	16834.21
244.335	16808.91
244.407	16764.18
244.478	16745.58
244.549	16720.9
244.62	16679.5
244.692	16652.61
244.763	16637.86
244.834	16606
244.906	16562
244.977	16533.47
245.048	16513.18
245.119	16482.38
245.191	16442.18
245.262	16391.82
245.333	16373.74
245.405	16342.51
245.476	16320.1
245.547	16289.69
245.618	16262.26
245.689	16223.22
245.761	16203.03
245.832	16174.74
245.903	16156.76
245.974	16133.62
246.045	16097.57
246.117	16080.7
246.188	16038.19
246.259	15998.19
246.33	15978.76
246.401	15952.4
246.473	15902.56
246.544	15867.18
246.615	15845.73
246.686	15805.58
246.757	15787.8
246.828	15753.28
246.899	15731.16
246.97	15688.21
247.042	15651.73
247.113	15627.77
247.184	15620.59
247.255	15580.53
247.326	15551.28
247.397	15513.68
247.468	15475.89
247.539	15457.48
247.61	15411.83
247.681	15394.28
247.752	15374.47
247.823	15333.94
247.894	15309.64
247.965	15275.56
248.037	15235.02
248.108	15198.58
248.179	15168.79
248.25	15145.85
248.321	15125.65
248.392	15083.62
248.463	15084.78
248.534	15059.42
248.605	15043.66
248.675	15008.38
248.746	14990.06
248.817	14970.92
248.888	14950.15
248.959	14910.96
249.03	14886.61
249.101	14867.48
249.172	14831.42
249.243	14787.65
249.314	14769.19
249.385	14736.36
249.456	14716.74
249.527	14692.21
249.598	14661.36
249.669	14637.06
249.739	14600.18
249.81	14578.44
249.881	14541.81
249.952	14506.76
250.023	14472.1
250.094	14434.5
250.165	14397.1
250.235	14359.98
250.306	14337.42
250.377	14297.46
250.448	14275.76
250.519	14230.35
250.59	14220.47
250.66	14188.56
250.731	14177.09
250.802	14147.3
250.873	14132.98
250.944	14114.42
251.014	14079.33
251.085	14079.08
251.156	14060.04
251.227	14053.15
251.297	14036.52
251.368	14030.4
251.439	14014.44
251.51	14008.46
251.58	13965.85
251.651	13936.15
251.722	13930.08
251.792	13877.05
251.863	13855.41
251.934	13850.54
252.005	13853.91
252.075	13817.81
252.146	13806.77
252.217	13789.17
252.287	13776.59
252.358	13743.09
252.429	13728.29
252.499	13700.37
252.57	13672.7
252.641	13656.46
252.711	13628.4
252.782	13585.5
252.852	13571.9
252.923	13538.59
252.994	13512.9
253.064	13503.84
253.135	13477.18
253.205	13445.07
253.276	13442.18
253.347	13428.35
253.417	13391.47
253.488	13355.79
253.558	13329.09
253.629	13303.54
253.699	13284.98
253.77	13269.07
253.841	13246.17
253.911	13231.61
253.982	13214.6
254.052	13205.97
254.123	13188.86
254.193	13166.25
254.264	13179.84
254.334	13142.82
254.405	13115.2
254.475	13077.21
254.546	13051.03
254.616	13039.42
254.687	13023.89
254.757	13011.79
254.827	12990.1
254.898	12967.35
254.968	12940.45
255.039	12914.76
255.109	12906.32
255.18	12875.08
255.25	12830.64
255.321	12814.68
255.391	12777.03
255.461	12773.13
255.532	12719.33
255.602	12691.9
255.673	12652.23
255.743	12615.35
255.813	12579.73
255.884	12567.15
255.954	12556.11
256.024	12550.37
256.095	12526.41
256.165	12496.33
256.235	12473.97
256.306	12446.1
256.376	12447.55
256.446	12440.9
256.517	12423.45
256.587	12407.11
256.657	12395.06
256.728	12378.81
256.798	12358.57
256.868	12326.8
256.938	12298.26
257.009	12292
257.079	12277.44
257.149	12276.62
257.219	12244.95
257.29	12228.76
257.36	12197.57
257.43	12190.29
257.5	12155.73
257.571	12132.16
257.641	12115.19
257.711	12083.14
257.781	12073.5
257.852	12050.74
257.922	12015.03
257.992	11999.65
258.062	11979.69
258.132	11963.98
258.202	11944.85
258.273	11923.44
258.343	11928.46
258.413	11904.74
258.483	11884.64
258.553	11855.67
258.623	11825.89
258.693	11806.56
258.764	11805.93
258.834	11796.87
258.904	11772.91
258.974	11746.12
259.044	11724.23
259.114	11705.2
259.184	11691.65
259.254	11667.36
259.324	11623.31
259.394	11605.67
259.464	11601.33
259.535	11574.82
259.605	11545.71
259.675	11517.42
259.745	11506.96
259.815	11483
259.885	11453.61
259.955	11449.51
260.025	11417.89
260.095	11400.64
260.165	11391.48
260.235	11384.25
260.305	11352.93
260.375	11329.74
260.445	11336.78
260.515	11333.41
260.585	11326.66
260.655	11303.24
260.725	11294.8
260.795	11284.01
260.865	11289.7
260.934	11261.79
261.004	11252.78
261.074	11238.9
261.144	11239.28
261.214	11230.95
261.284	11207.48
261.354	11202.03
261.424	11180.82
261.494	11193.02
261.564	11186.32
261.634	11174.46
261.703	11136.29
261.773	11128.68
261.843	11104.05
261.913	11078.18
261.983	11048.44
262.053	11042.85
262.123	11027.33
262.192	10992.5
262.262	10985.07
262.332	10949.75
262.402	10943.49
