Data from 20250630_urea_2M_MAYP1162681_01-12-27-086.txt Node
Date: Tue Jul 01 01:12:27 BST 2025
User: adleo
Spectrometer: MAYP116268
Trigger mode: 0
Integration Time (sec): 1.000000E0
Scans to average: 1
Electric dark correction enabled: true
Nonlinearity correction enabled: true
Boxcar width: 10
XAxis mode: Wavelengths
Number of Pixels in Spectrum: 2068
>>>>>Begin Spectral Data<<<<<
179.565	1083.92
179.642	1134.82
179.718	1173.82
179.795	1209.39
179.871	1239.22
179.948	1254.66
180.024	1271.51
180.101	1290.98
180.177	1304.09
180.254	1323.22
180.33	1343.81
180.407	1388.71
180.483	1476.22
180.56	1556.65
180.636	1632.56
180.712	1617.69
180.789	1629.99
180.865	1641.82
180.942	1650.41
181.018	1659.77
181.095	1670.61
181.171	1675.98
181.248	1677.83
181.324	1690.19
181.4	1695.7
181.477	1705.01
181.553	1717.27
181.63	1738.46
181.706	1754.62
181.782	1762.27
181.859	1764.36
181.935	1768.73
182.011	1763.93
182.088	1778.33
182.164	1793.92
182.24	1807.99
182.317	1818.82
182.393	1816.35
182.469	1830.32
182.546	1842.11
182.622	1848.81
182.698	1845.67
182.775	1854.32
182.851	1866.54
182.927	1861.26
183.003	1857.8
183.08	1852
183.156	1859.98
183.232	1855.75
183.308	1842.92
183.385	1848.91
183.461	1862.6
183.537	1862.93
183.613	1876.1
183.69	1868.54
183.766	1860.31
183.842	1866.64
183.918	1872.62
183.995	1883.22
184.071	1883.6
184.147	1877.81
184.223	1864.69
184.299	1875.53
184.375	1865.88
184.452	1869.97
184.528	1921.61
184.604	1930.26
184.68	1943.24
184.756	1950.42
184.832	1952.99
184.908	1958.59
184.985	1959.16
185.061	1947.66
185.137	1955.55
185.213	1943.05
185.289	1945.28
185.365	1940.34
185.441	1936.58
185.517	1949.33
185.593	1946.67
185.669	1944.67
185.745	1955.75
185.822	1971.1
185.898	1964.63
185.974	1973.47
186.05	1967.91
186.126	1929.49
186.202	1924.87
186.278	1917.36
186.354	1908
186.43	1915.65
186.506	1913.37
186.582	1913.09
186.658	1917.79
186.734	1901.16
186.81	1903.25
186.886	1902.25
186.962	1911.28
187.038	1909.47
187.114	1899.1
187.19	1905.14
187.266	1895.64
187.341	1893.5
187.417	1886.27
187.493	1886.98
187.569	1890.98
187.645	1884.23
187.721	1872.91
187.797	1878.04
187.873	1886.46
187.949	1882.94
188.025	1876.09
188.101	1879.61
188.176	1884.37
188.252	1879.18
188.328	1885.08
188.404	1886.98
188.48	1883.94
188.556	1878.52
188.632	1878.23
188.707	1880.94
188.783	1877.57
188.859	1873.19
188.935	1863.97
189.011	1867.25
189.086	1863.35
189.162	1854.94
189.238	1853.61
189.314	1852.37
189.39	1846.24
189.465	1836.31
189.541	1849.76
189.617	1834.5
189.693	1833.41
189.768	1835.74
189.844	1857.57
189.92	1850.87
189.996	1860.9
190.071	1873.45
190.147	1870.84
190.223	1877.92
190.298	1869.03
190.374	1858.71
190.45	1870.07
190.526	1882.05
190.601	1879.91
190.677	1878.11
190.753	1906.46
190.828	1911.07
190.904	1924.86
190.98	1942.83
191.055	1954.81
191.131	1946.11
191.207	1965.79
191.282	1973.63
191.358	1963.79
191.433	1949.52
191.509	1961.07
191.585	1954.84
191.66	1953.98
191.736	1962.3
191.811	1955.46
191.887	1970.1
191.963	1994.69
192.038	1999.25
192.114	1998.82
192.189	2004.77
192.265	1999.68
192.34	1980.79
192.416	1979.27
192.491	1976.75
192.567	1974.66
192.642	1975.13
192.718	1975.18
192.793	1967.24
192.869	1961.3
192.944	1962.87
193.02	1972.71
193.095	1977.04
193.171	1985.69
193.246	1985.22
193.322	1982.22
193.397	1982.27
193.473	1970.24
193.548	1950.31
193.624	1958.11
193.699	1954.35
193.775	1969.29
193.85	1972.28
193.925	1976.66
194.001	1975.61
194.076	1967.15
194.152	1960.01
194.227	1954.74
194.302	1946.75
194.378	1948.94
194.453	1942.43
194.529	1955.64
194.604	1939.81
194.679	1934.96
194.755	1913.57
194.83	1924.8
194.905	1923.75
194.981	1930.69
195.056	1923.95
195.131	1930.08
195.207	1926.7
195.282	1917.05
195.357	1898.26
195.433	1913.67
195.508	1904.44
195.583	1911.67
195.659	1928.41
195.734	1937.78
195.809	1935.88
195.884	1945.14
195.96	1946.48
196.035	1966.02
196.11	1963.02
196.185	1979.04
196.261	1981.66
196.336	2012.51
196.411	1997.48
196.486	2002.76
196.561	1998.58
196.637	2009.08
196.712	2023.64
196.787	2025.3
196.862	2040.66
196.937	2049.98
197.013	2055.59
197.088	2064.29
197.163	2084.71
197.238	2096.41
197.313	2096.13
197.388	2110.63
197.464	2138.47
197.539	2148.84
197.614	2138.66
197.689	2148.46
197.764	2160.31
197.839	2179.34
197.914	2175.72
197.989	2197.37
198.065	2212.54
198.14	2255.48
198.215	2279.27
198.29	2291.89
198.365	2302.69
198.44	2308.92
198.515	2334.1
198.59	2349.05
198.665	2375.08
198.74	2382.41
198.815	2384.99
198.89	2403.41
198.965	2430.5
199.04	2425.79
199.115	2436.88
199.19	2480.53
199.265	2483.43
199.34	2491.48
199.415	2523.01
199.49	2539.01
199.565	2548.67
199.64	2570.86
199.715	2572.53
199.79	2578.82
199.865	2581.82
199.94	2583.01
200.015	2616.97
200.09	2625.3
200.165	2627.45
200.24	2632.64
200.315	2669.97
200.39	2683.93
200.464	2691.69
200.539	2693.55
200.614	2711.41
200.689	2736.18
200.764	2740.57
200.839	2760.23
200.914	2766.43
200.989	2755.08
201.063	2770.33
201.138	2754.66
201.213	2750.28
201.288	2731.7
201.363	2735.75
201.438	2734.32
201.512	2749.89
201.587	2735.36
201.662	2738.69
201.737	2752.8
201.812	2759.09
201.886	2727.67
201.961	2736.25
202.036	2724.2
202.111	2721.43
202.186	2692.91
202.26	2677.85
202.335	2654.65
202.41	2643.79
202.485	2628.7
202.559	2610.12
202.634	2584.12
202.709	2588.64
202.784	2572.64
202.858	2573.5
202.933	2556.59
203.008	2554.97
203.082	2533.59
203.157	2530.97
203.232	2488.27
203.306	2468.17
203.381	2440.17
203.456	2417.55
203.53	2397.3
203.605	2377.7
203.68	2352.84
203.754	2348.08
203.829	2335.51
203.904	2318.09
203.978	2308.96
204.053	2310.86
204.127	2301.2
204.202	2301.67
204.277	2290.35
204.351	2285.88
204.426	2276.59
204.5	2268.03
204.575	2237.29
204.65	2246.1
204.724	2237.57
204.799	2245.99
204.873	2243.61
204.948	2239.99
205.022	2231.15
205.097	2220.72
205.171	2232.8
205.246	2241.09
205.32	2239.71
205.395	2236.14
205.469	2228.72
205.544	2234.62
205.618	2221.34
205.693	2233.43
205.767	2224.15
205.842	2242.24
205.916	2234.72
205.991	2224.83
206.065	2230.77
206.14	2241.61
206.214	2240.14
206.289	2233.86
206.363	2245.56
206.438	2246.51
206.512	2254.56
206.586	2270.21
206.661	2277.35
206.735	2259.23
206.81	2259.18
206.884	2273.55
206.958	2261.42
207.033	2277.54
207.107	2284.21
207.181	2311.96
207.256	2303.78
207.33	2319.91
207.405	2330.63
207.479	2348.95
207.553	2357.28
207.628	2342.62
207.702	2355.04
207.776	2350.24
207.851	2355.09
207.925	2370.14
207.999	2368.61
208.073	2364.81
208.148	2368.19
208.222	2360.38
208.296	2387.97
208.371	2405.93
208.445	2416.74
208.519	2444.54
208.593	2456.72
208.668	2454.53
208.742	2456.29
208.816	2459.58
208.89	2470.87
208.965	2470.63
209.039	2479.3
209.113	2497.06
209.187	2517.13
209.261	2515.85
209.336	2535.28
209.41	2551.61
209.484	2548.66
209.558	2568.8
209.632	2582.71
209.707	2593.94
209.781	2614.52
209.855	2633.43
209.929	2645.78
210.003	2648.49
210.077	2649.68
210.151	2692.64
210.226	2724.81
210.3	2749.84
210.374	2771.41
210.448	2774.65
210.522	2786
210.596	2794.95
210.67	2805.2
210.744	2848.57
210.818	2878.01
210.892	2895.93
210.966	2892.93
211.041	2910.9
211.115	2908.61
211.189	2930.87
211.263	2946.21
211.337	2953.51
211.411	2966
211.485	2964.42
211.559	2976.53
211.633	2979.77
211.707	2959.26
211.781	2969.47
211.855	2942.1
211.929	2940.76
212.003	2932.52
212.077	2944.49
212.151	2962.85
212.225	2982.12
212.299	2980.59
212.373	2979.73
212.447	2988.13
212.52	3028.38
212.594	3043.45
212.668	3070.53
212.742	3072.58
212.816	3086.08
212.89	3099.34
212.964	3119.28
213.038	3147.25
213.112	3184.99
213.186	3225.1
213.26	3228.63
213.333	3211.64
213.407	3244.16
213.481	3278.12
213.555	3322.66
213.629	3350.3
213.703	3375.27
213.777	3411.85
213.85	3435
213.924	3504.3
213.998	3550.25
214.072	3589.71
214.146	3629.79
214.219	3679.42
214.293	3734.2
214.367	3796.22
214.441	3867.14
214.515	3920.06
214.588	3957.58
214.662	3990.27
214.736	4039.79
214.81	4117.24
214.883	4201.52
214.957	4273.38
215.031	4344.19
215.105	4402.46
215.178	4471.98
215.252	4555.88
215.326	4618.53
215.4	4691.64
215.473	4745.71
215.547	4824.35
215.621	4909.34
215.694	5010.81
215.768	5087.41
215.842	5179.97
215.915	5265.1
215.989	5344.48
216.063	5438.84
216.136	5553.81
216.21	5670.06
216.284	5797.75
216.357	5916.9
216.431	6027.71
216.504	6148.68
216.578	6287.3
216.652	6421.18
216.725	6543.7
216.799	6666.89
216.873	6794.59
216.946	6929.48
217.02	7048.06
217.093	7167.99
217.167	7274.92
217.24	7386.15
217.314	7519.09
217.387	7643.01
217.461	7774.42
217.535	7921.57
217.608	8039.93
217.682	8164.08
217.755	8303.54
217.829	8423.46
217.902	8548.66
217.976	8686.33
218.049	8806.07
218.123	8921.75
218.196	9049.12
218.27	9174.62
218.343	9295.92
218.417	9429.63
218.49	9561.96
218.563	9709.27
218.637	9843.98
218.71	9995.36
218.784	10138.62
218.857	10273.6
218.931	10405.59
219.004	10532.82
219.077	10657.04
219.151	10791.46
219.224	10912.07
219.298	11032.68
219.371	11172.05
219.444	11289.97
219.518	11413.53
219.591	11541.1
219.665	11686.17
219.738	11812.54
219.811	11926.81
219.885	12055.12
219.958	12174.17
220.031	12289.81
220.105	12413.11
220.178	12537.72
220.251	12641.64
220.325	12755.6
220.398	12874.66
220.471	12991.03
220.544	13109.76
220.618	13223.43
220.691	13341.58
220.764	13462.09
220.838	13581.02
220.911	13673.96
220.984	13799.24
221.057	13906.74
221.131	14012.55
221.204	14088.14
221.277	14210.82
221.35	14339.82
221.424	14432.71
221.497	14532.25
221.57	14625.92
221.643	14720.97
221.716	14823.74
221.79	14917.21
221.863	15006.82
221.936	15094.89
222.009	15183.15
222.082	15269.77
222.155	15344.19
222.229	15435.78
222.302	15530.59
222.375	15603.71
222.448	15696.98
222.521	15780.17
222.594	15861.96
222.667	15930.22
222.74	16013.89
222.814	16081.95
222.887	16145.71
222.96	16230.35
223.033	16309.34
223.106	16381.88
223.179	16459.34
223.252	16521.07
223.325	16594.19
223.398	16657.95
223.471	16721.38
223.544	16788.13
223.617	16852.62
223.69	16926.31
223.763	16973.97
223.837	17031.27
223.91	17104.72
223.983	17137.59
224.056	17178.56
224.129	17232.87
224.202	17310.03
224.275	17366.17
224.348	17404.83
224.42	17457.4
224.493	17490.56
224.566	17544.82
224.639	17599.67
224.712	17645.35
224.785	17698.22
224.858	17741.54
224.931	17793.35
225.004	17833.4
225.077	17870.07
225.15	17900.38
225.223	17950.55
225.296	18021.68
225.369	18055.13
225.442	18094.98
225.514	18154.64
225.587	18204.57
225.66	18251.65
225.733	18293.81
225.806	18339.5
225.879	18392.99
225.952	18421.13
226.025	18485.32
226.097	18540.5
226.17	18586.67
226.243	18615.97
226.316	18644.64
226.389	18688.4
226.461	18728.68
226.534	18780.29
226.607	18829.16
226.68	18890.02
226.753	18918.41
226.825	18937.83
226.898	18986.45
226.971	19015.07
227.044	19053.77
227.117	19093.77
227.189	19144.13
227.262	19194.63
227.335	19233.33
227.407	19258.63
227.48	19302.58
227.553	19329.37
227.626	19351.3
227.698	19381.27
227.771	19408.45
227.844	19432.06
227.916	19462.95
227.989	19481.94
228.062	19504.73
228.134	19554.75
228.207	19580.05
228.28	19595.52
228.352	19624.15
228.425	19654.31
228.498	19682.94
228.57	19695.76
228.643	19740.14
228.716	19752.96
228.788	19767.56
228.861	19787.51
228.934	19824.09
229.006	19841.87
229.079	19863.65
229.151	19881.73
229.224	19891.85
229.296	19926.74
229.369	19977.92
229.442	20021.43
229.514	20044.56
229.587	20072.8
229.659	20072.8
229.732	20091.07
229.804	20135.98
229.877	20178.01
229.949	20204.56
230.022	20244.99
230.094	20260.7
230.167	20270.68
230.239	20272.27
230.312	20288.08
230.384	20332.42
230.457	20352.51
230.529	20379.93
230.602	20398.54
230.674	20419.21
230.747	20452.51
230.819	20479.4
230.892	20468.37
230.964	20472.9
231.037	20502.58
231.109	20515.84
231.181	20535.69
231.254	20540.41
231.326	20552.12
231.399	20558.49
231.471	20557.38
231.544	20550.39
231.616	20582.97
231.688	20594.49
231.761	20610.1
231.833	20617.76
231.905	20593.96
231.978	20597.62
232.05	20598.63
232.122	20610.2
232.195	20613.47
232.267	20626.97
232.339	20624.61
232.412	20641.57
232.484	20647.64
232.556	20633.67
232.629	20659.74
232.701	20682.58
232.773	20687.36
232.846	20676.32
232.918	20676.66
232.99	20686.1
233.062	20700.18
233.135	20705.09
233.207	20697.96
233.279	20714.44
233.351	20724.22
233.424	20721.09
233.496	20716.22
233.568	20729.77
233.64	20721.57
233.713	20721.96
233.785	20714.25
233.857	20715.74
233.929	20693.09
234.001	20701.28
234.074	20711.5
234.146	20693.67
234.218	20677.14
234.29	20675.16
234.362	20677.52
234.434	20657.33
234.507	20636.13
234.579	20606.82
234.651	20592.94
234.723	20586.63
234.795	20576.7
234.867	20555.3
234.939	20555.5
235.012	20550.05
235.084	20547.06
235.156	20540.22
235.228	20519.74
235.3	20514.39
235.372	20504.22
235.444	20510.15
235.516	20478.34
235.588	20465.52
235.66	20444.07
235.732	20422.48
235.804	20461.76
235.876	20453.09
235.948	20447.59
236.02	20438.44
236.092	20438.92
236.164	20417.76
236.236	20408.37
236.308	20382.82
236.38	20368.75
236.452	20357.57
236.524	20344.41
236.596	20343.6
236.668	20325.72
236.74	20315.84
236.812	20292.27
236.884	20279.6
236.956	20266.3
237.028	20243.6
237.1	20212.32
237.172	20205.91
237.244	20208.27
237.316	20147.31
237.388	20113.62
237.46	20092.37
237.532	20081.33
237.604	20036.56
237.675	20037
237.747	20019.89
237.819	19989.43
237.891	19963.07
237.963	19932.81
238.035	19903.51
238.107	19845.58
238.178	19832.33
238.25	19792
238.322	19784.77
238.394	19742.74
238.466	19716.53
238.538	19693.11
238.609	19677.83
238.681	19636.58
238.753	19585.84
238.825	19563.43
238.897	19542.42
238.968	19533.36
239.04	19497.74
239.112	19499.29
239.184	19453.36
239.255	19421.46
239.327	19399.24
239.399	19385.41
239.471	19362.19
239.542	19335.3
239.614	19320.65
239.686	19264.22
239.758	19255.54
239.829	19223.88
239.901	19207.69
239.973	19176.08
240.044	19152.37
240.116	19129.14
240.188	19100.9
240.259	19081.38
240.331	19044.81
240.403	19019.75
240.474	18965.73
240.546	18931.85
240.618	18886.79
240.689	18865.4
240.761	18835.71
240.833	18825.4
240.904	18779.67
240.976	18754.66
241.048	18724.83
241.119	18697.26
241.191	18682.42
241.262	18659.58
241.334	18619.05
241.405	18584.69
241.477	18546.62
241.549	18513.9
241.62	18478.43
241.692	18455.06
241.763	18437.18
241.835	18407.93
241.906	18378.78
241.978	18337.96
242.049	18326.1
242.121	18309.91
242.192	18284.27
242.264	18234.73
242.335	18188.13
242.407	18169.05
242.478	18123.46
242.55	18094.11
242.621	18058.26
242.693	18021.54
242.764	17982.36
242.836	17947.28
242.907	17919.18
242.979	17898.36
243.05	17872.63
243.122	17849.78
243.193	17817.64
243.264	17761.21
243.336	17726.32
243.407	17703.86
243.479	17694.46
243.55	17650.13
243.622	17621.21
243.693	17588.54
243.764	17571.67
243.836	17523.28
243.907	17490.18
243.978	17468.06
244.05	17445.79
244.121	17390.99
244.192	17369.45
244.264	17331.28
244.335	17306.8
244.407	17258.56
244.478	17226.56
244.549	17187.62
244.62	17136.97
244.692	17095.42
244.763	17073.88
244.834	17036.34
244.906	16994.41
244.977	16965.2
245.048	16951.32
245.119	16898.12
245.191	16854.31
245.262	16797.87
245.333	16789.87
245.405	16751.75
245.476	16715.99
245.547	16685.29
245.618	16670.54
245.689	16638.25
245.761	16603.3
245.832	16570.19
245.903	16540.41
245.974	16505.27
246.045	16470.77
246.117	16453.8
246.188	16419.19
246.259	16380.35
246.33	16350.08
246.401	16308.73
246.473	16256.77
246.544	16222.89
246.615	16206.07
246.686	16161.24
246.757	16147.02
246.828	16101.28
246.899	16083.54
246.97	16033.66
247.042	15980.45
247.113	15953.55
247.184	15942.08
247.255	15906.75
247.326	15871.57
247.397	15844.14
247.468	15813.05
247.539	15784.9
247.61	15741.52
247.681	15722.34
247.752	15698.19
247.823	15657.56
247.894	15628.3
247.965	15593.64
248.037	15553.88
248.108	15512.38
248.179	15486.4
248.25	15455.93
248.321	15435.5
248.392	15398.09
248.463	15394.57
248.534	15379.34
248.605	15357.84
248.675	15316.25
248.746	15296.44
248.817	15275.9
248.888	15253.15
248.959	15207.6
249.03	15182.82
249.101	15156.75
249.172	15108.4
249.243	15064.39
249.314	15051.61
249.385	15027.03
249.456	15013.44
249.527	14987.07
249.598	14962.53
249.669	14935.68
249.739	14911
249.81	14888.64
249.881	14846.17
249.952	14812.62
250.023	14778.59
250.094	14729.76
250.165	14701.41
250.235	14672.01
250.306	14638.22
250.377	14603.03
250.448	14588.42
250.519	14541.47
250.59	14524.46
250.66	14501.08
250.731	14485.51
250.802	14456
250.873	14430.65
250.944	14398.88
251.014	14357.47
251.085	14344.84
251.156	14324.45
251.227	14311.1
251.297	14289.36
251.368	14275.52
251.439	14262.03
251.51	14244.29
251.58	14210.49
251.651	14162.67
251.722	14142.67
251.792	14096.29
251.863	14060.19
251.934	14043.99
252.005	14048.57
252.075	14022.97
252.146	14016.85
252.217	13998.1
252.287	13974.43
252.358	13948.11
252.429	13947.58
252.499	13917.5
252.57	13897.83
252.641	13882.88
252.711	13848.71
252.782	13810.43
252.852	13803.39
252.923	13771.29
252.994	13747.71
253.064	13743.23
253.135	13721.68
253.205	13690.93
253.276	13686.01
253.347	13680.9
253.417	13649.18
253.488	13613.84
253.558	13583.09
253.629	13551.42
253.699	13530.74
253.77	13521.05
253.841	13497.52
253.911	13466.72
253.982	13453.41
254.052	13434.76
254.123	13415.86
254.193	13403.86
254.264	13426.61
254.334	13394.5
254.405	13365.39
254.475	13333.38
254.546	13299.87
254.616	13293.61
254.687	13277.7
254.757	13261.5
254.827	13239.13
254.898	13221.25
254.968	13198.64
255.039	13175.07
255.109	13162.63
255.18	13134
255.25	13093.74
255.321	13075.67
255.391	13041.78
255.461	13035.17
255.532	12999.4
255.602	12971.78
255.673	12925.17
255.743	12880.53
255.813	12830.88
255.884	12817.62
255.954	12804.27
256.024	12792.31
256.095	12765.17
256.165	12731.43
256.235	12711.09
256.306	12678.16
256.376	12667.27
256.446	12656.71
256.517	12643.26
256.587	12624.8
256.657	12604.79
256.728	12587.97
256.798	12570.28
256.868	12544.97
256.938	12510.89
257.009	12490.31
257.079	12467.07
257.149	12470.98
257.219	12432.56
257.29	12424.61
257.36	12390.28
257.43	12376.88
257.5	12347.48
257.571	12324.58
257.641	12316.97
257.711	12284.82
257.781	12272.14
257.852	12254.93
257.922	12214.39
257.992	12195.83
258.062	12176.31
258.132	12164.26
258.202	12137.51
258.273	12114.08
258.343	12112.63
258.413	12086.94
258.483	12072.53
258.553	12045.83
258.623	12017.48
258.693	12002.45
258.764	11994.59
258.834	11989.86
258.904	11972.95
258.974	11945.71
259.044	11929.95
259.114	11904.98
259.184	11891.39
259.254	11871.39
259.324	11832.2
259.394	11823.77
259.464	11814.56
259.535	11786.17
259.605	11760.87
259.675	11732.72
259.745	11724.86
259.815	11697
259.885	11675.94
259.955	11682.35
260.025	11660.66
260.095	11642.68
260.165	11627.45
260.235	11627.26
260.305	11593.38
260.375	11560.07
260.445	11570.73
260.515	11560.75
260.585	11552.41
260.655	11536.51
260.725	11529.32
260.795	11518.38
260.865	11514.67
260.934	11486.96
261.004	11483.73
261.074	11468.98
261.144	11468.16
261.214	11455.49
261.284	11431.24
261.354	11429.22
261.424	11393.65
261.494	11387.09
261.564	11371.14
261.634	11364.01
261.703	11322.71
261.773	11316.2
261.843	11310.08
261.913	11281.93
261.983	11253.55
262.053	11245.4
262.123	11226.17
262.192	11193.64
262.262	11185.93
262.332	11156.25
