Data from 20250630_urea_2M_MAYP1162681_04-02-27-290.txt Node
Date: Tue Jul 01 04:02:27 BST 2025
User: adleo
Spectrometer: MAYP116268
Trigger mode: 0
Integration Time (sec): 1.000000E0
Scans to average: 1
Electric dark correction enabled: true
Nonlinearity correction enabled: true
Boxcar width: 10
XAxis mode: Wavelengths
Number of Pixels in Spectrum: 2068
>>>>>Begin Spectral Data<<<<<
179.565	1061.1
179.642	1107.89
179.718	1147.56
179.795	1179.63
179.871	1209.49
179.948	1225.03
180.024	1242.96
180.101	1265.37
180.177	1279.19
180.254	1298.4
180.33	1317.5
180.407	1359.5
180.483	1445.73
180.56	1524.73
180.636	1597.32
180.712	1584.39
180.789	1593.13
180.865	1601.63
180.942	1612.6
181.018	1621.15
181.095	1632.7
181.171	1636.59
181.248	1635.6
181.324	1649.9
181.4	1657.5
181.477	1667.43
181.553	1679.54
181.63	1699.26
181.706	1710.72
181.782	1714.89
181.859	1715.65
181.935	1722.02
182.011	1717.84
182.088	1730.44
182.164	1747.26
182.24	1759.61
182.317	1768.21
182.393	1769.16
182.469	1784.23
182.546	1795.25
182.622	1800.1
182.698	1798.44
182.775	1809.13
182.851	1822.2
182.927	1814.88
183.003	1812.02
183.08	1805.7
183.156	1814.02
183.232	1809.46
183.308	1800.24
183.385	1810.41
183.461	1825.33
183.537	1825.76
183.613	1837.31
183.69	1828.56
183.766	1818.53
183.842	1825.04
183.918	1830.46
183.995	1842.82
184.071	1843.63
184.147	1838.3
184.223	1829.94
184.299	1837.12
184.375	1826.81
184.452	1833.08
184.528	1884.43
184.604	1891.66
184.68	1903.16
184.756	1908.53
184.832	1913
184.908	1917.04
184.985	1915.04
185.061	1901.31
185.137	1908.68
185.213	1901.17
185.289	1903.59
185.365	1897.13
185.441	1896.27
185.517	1907.02
185.593	1901.55
185.669	1899.51
185.745	1908.49
185.822	1922.32
185.898	1917.8
185.974	1924.07
186.05	1920.51
186.126	1881.33
186.202	1877.38
186.278	1872.53
186.354	1865.4
186.43	1872.2
186.506	1873.34
186.582	1874.86
186.658	1878.71
186.734	1861.32
186.81	1861.22
186.886	1862.36
186.962	1872.53
187.038	1872.68
187.114	1864.31
187.19	1870.63
187.266	1861.5
187.341	1862.69
187.417	1856.37
187.493	1856.37
187.569	1861.89
187.645	1853.23
187.721	1841.87
187.797	1848
187.873	1852.95
187.949	1846.44
188.025	1837.78
188.101	1837.26
188.176	1839.78
188.252	1835.22
188.328	1843.53
188.404	1845.15
188.48	1842.92
188.556	1838.83
188.632	1836.4
188.707	1838.97
188.783	1837.97
188.859	1836.07
188.935	1828.61
189.011	1837.35
189.086	1831.55
189.162	1823.62
189.238	1823.47
189.314	1823.38
189.39	1815.06
189.465	1807.41
189.541	1822.24
189.617	1808.98
189.693	1806.03
189.768	1809.93
189.844	1834.56
189.92	1823.59
189.996	1830.29
190.071	1837.51
190.147	1834.61
190.223	1841.75
190.298	1834.09
190.374	1823.25
190.45	1832.52
190.526	1837.04
190.601	1831.57
190.677	1831.76
190.753	1857.77
190.828	1860.29
190.904	1872.37
190.98	1889.63
191.055	1900.32
191.131	1890.96
191.207	1912.11
191.282	1919.76
191.358	1911.73
191.433	1897.93
191.509	1913.57
191.585	1910.33
191.66	1914.71
191.736	1923.64
191.811	1915.75
191.887	1930.97
191.963	1954.08
192.038	1958.74
192.114	1960.73
192.189	1963.3
192.265	1960.97
192.34	1938.71
192.416	1938
192.491	1936.1
192.567	1938.05
192.642	1941.71
192.718	1943.75
192.793	1933.58
192.869	1928.35
192.944	1929.78
193.02	1936.29
193.095	1938.19
193.171	1944.75
193.246	1941.19
193.322	1938.1
193.397	1939
193.473	1926.02
193.548	1905.57
193.624	1911.7
193.699	1910.47
193.775	1926.16
193.85	1925.88
193.925	1936.91
194.001	1935.01
194.076	1926.21
194.152	1915.08
194.227	1906.24
194.302	1896.69
194.378	1898.59
194.453	1898.26
194.529	1910.24
194.604	1898.49
194.679	1891.17
194.755	1873.78
194.83	1886.43
194.905	1885.15
194.981	1892.8
195.056	1886.38
195.131	1890.61
195.207	1889.76
195.282	1880.01
195.357	1862.47
195.433	1876.68
195.508	1863.7
195.583	1870.5
195.659	1884.81
195.734	1891.99
195.809	1891.23
195.884	1901.16
195.96	1902.4
196.035	1914.95
196.11	1912.24
196.185	1921.41
196.261	1926.69
196.336	1954.12
196.411	1941.56
196.486	1946.13
196.561	1940.28
196.637	1950.16
196.712	1966.62
196.787	1966.29
196.862	1979.45
196.937	1989.15
197.013	1995.86
197.088	2007.03
197.163	2029.91
197.238	2044.9
197.313	2047.09
197.388	2060.69
197.464	2088.48
197.539	2097.84
197.614	2091.04
197.689	2100.8
197.764	2117.92
197.839	2135.14
197.914	2129.62
197.989	2149.17
198.065	2162.64
198.14	2206.61
198.215	2229.02
198.29	2240.3
198.365	2253.72
198.44	2263.66
198.515	2288.12
198.59	2299.97
198.665	2321.86
198.74	2327.05
198.815	2328.1
198.89	2346.04
198.965	2373.99
199.04	2368.9
199.115	2382.89
199.19	2424.29
199.265	2426.39
199.34	2433.2
199.415	2464.15
199.49	2487.05
199.565	2493.71
199.64	2514.85
199.715	2513.38
199.79	2521.23
199.865	2524.85
199.94	2524.99
200.015	2552.47
200.09	2559.04
200.165	2563.14
200.24	2571.76
200.315	2608.75
200.39	2619.99
200.464	2625.89
200.539	2625.61
200.614	2641.03
200.689	2661.56
200.764	2669.43
200.839	2685.85
200.914	2689.23
200.989	2679.27
201.063	2687.85
201.138	2675.14
201.213	2675.47
201.288	2659.37
201.363	2661.42
201.438	2660.76
201.512	2675.09
201.587	2662.08
201.662	2664.8
201.737	2680.28
201.812	2688.86
201.886	2657.97
201.961	2669.88
202.036	2660.22
202.111	2657.5
202.186	2628.84
202.26	2613.36
202.335	2588.78
202.41	2583.16
202.485	2570.5
202.559	2553.35
202.634	2530.73
202.709	2538.39
202.784	2519.87
202.858	2518.16
202.933	2501.87
203.008	2500.26
203.082	2481.97
203.157	2479.45
203.232	2439.28
203.306	2419.18
203.381	2386.42
203.456	2363.14
203.53	2339.89
203.605	2324.33
203.68	2300.81
203.754	2295.58
203.829	2280.35
203.904	2265.74
203.978	2254.6
204.053	2257.79
204.127	2245.52
204.202	2242.95
204.277	2226.49
204.351	2221.44
204.426	2216.11
204.5	2208.02
204.575	2176.2
204.65	2182.81
204.724	2177.24
204.799	2185.18
204.873	2180.33
204.948	2180.8
205.022	2172.62
205.097	2163.87
205.171	2174.33
205.246	2183.14
205.32	2183.71
205.395	2185.71
205.469	2175.48
205.544	2181.19
205.618	2165.78
205.693	2176.2
205.767	2166.16
205.842	2186.43
205.916	2179.72
205.991	2171.44
206.065	2178.01
206.14	2187.52
206.214	2185.57
206.289	2178.43
206.363	2190.51
206.438	2191.61
206.512	2198.32
206.586	2218.49
206.661	2231.06
206.735	2210.08
206.81	2211.75
206.884	2225.49
206.958	2214.51
207.033	2231.63
207.107	2238.25
207.181	2267
207.256	2259.95
207.33	2278.6
207.405	2290.85
207.479	2310.83
207.553	2317.78
207.628	2304.74
207.702	2320.06
207.776	2314.26
207.851	2319.87
207.925	2332.63
207.999	2332.82
208.073	2330.25
208.148	2330.82
208.222	2317.78
208.296	2349.37
208.371	2363.04
208.445	2375.22
208.519	2402.07
208.593	2411.35
208.668	2409.68
208.742	2412.78
208.816	2416.68
208.89	2427.15
208.965	2424.25
209.039	2429.87
209.113	2447.77
209.187	2465.56
209.261	2461.14
209.336	2478.51
209.41	2494.94
209.484	2494.32
209.558	2513.61
209.632	2524.51
209.707	2533.08
209.781	2555.75
209.855	2570.42
209.929	2585.96
210.003	2588.53
210.077	2584.96
210.151	2629.53
210.226	2660.02
210.3	2683.43
210.374	2705.38
210.448	2710.72
210.522	2721.11
210.596	2731.68
210.67	2738.5
210.744	2781.24
210.818	2809.34
210.892	2828.5
210.966	2822.31
211.041	2840.79
211.115	2840.46
211.189	2865.76
211.263	2885.59
211.337	2889.59
211.411	2903.41
211.485	2905.13
211.559	2918.57
211.633	2923.95
211.707	2897.48
211.781	2905.4
211.855	2876.89
211.929	2875.22
212.003	2862.46
212.077	2875.52
212.151	2892.54
212.225	2907.8
212.299	2904.51
212.373	2902.7
212.447	2907.75
212.52	2944.65
212.594	2959.34
212.668	2978.74
212.742	2978.26
212.816	2982.6
212.89	2993.28
212.964	3001.15
213.038	3016.99
213.112	3046.28
213.186	3081.89
213.26	3084.28
213.333	3066.49
213.407	3092.23
213.481	3117.68
213.555	3154.14
213.629	3168.98
213.703	3181.91
213.777	3210.84
213.85	3226.3
213.924	3291.45
213.998	3325.44
214.072	3357.29
214.146	3380.16
214.219	3415.72
214.293	3454.43
214.367	3501.56
214.441	3559.72
214.515	3602.61
214.588	3627.68
214.662	3647.79
214.736	3680.65
214.81	3743.86
214.883	3803.87
214.957	3853.06
215.031	3900.91
215.105	3940.79
215.178	3990.68
215.252	4049.76
215.326	4091.31
215.4	4142.5
215.473	4172.21
215.547	4229.8
215.621	4287.56
215.694	4369.73
215.768	4427.95
215.842	4498.05
215.915	4564.44
215.989	4614.66
216.063	4685.14
216.136	4767.34
216.21	4853.27
216.284	4949.68
216.357	5032.73
216.431	5117.27
216.504	5217.26
216.578	5332.86
216.652	5440.94
216.725	5539.93
216.799	5641.4
216.873	5745.3
216.946	5849.83
217.02	5941.32
217.093	6036.55
217.167	6118.7
217.24	6199
217.314	6297.84
217.387	6387.01
217.461	6482.07
217.535	6599.26
217.608	6689.15
217.682	6792.4
217.755	6909.04
217.829	7001.05
217.902	7114.25
217.976	7220.14
218.049	7315.64
218.123	7402.51
218.196	7510.57
218.27	7612.07
218.343	7705.5
218.417	7813.76
218.49	7918.6
218.563	8039.65
218.637	8149.14
218.71	8281.78
218.784	8402.6
218.857	8521.06
218.931	8630.27
219.004	8745.92
219.077	8862.22
219.151	8979.8
219.224	9084.11
219.298	9185.99
219.371	9303.66
219.444	9389.31
219.518	9500.68
219.591	9608.78
219.665	9739.11
219.738	9845.84
219.811	9938.98
219.885	10052.85
219.958	10156.71
220.031	10251.12
220.105	10359.47
220.178	10454.52
220.251	10546.12
220.325	10644.75
220.398	10741.21
220.471	10851.12
220.544	10956.79
220.618	11042.29
220.691	11145.07
220.764	11247.72
220.838	11343.53
220.911	11437.94
220.984	11563.29
221.057	11665.81
221.131	11764.08
221.204	11830.16
221.277	11944.01
221.35	12069.86
221.424	12159.8
221.497	12248.4
221.57	12351.26
221.643	12438.75
221.716	12538.19
221.79	12617.39
221.863	12707.87
221.936	12793.86
222.009	12877.6
222.082	12958.87
222.155	13040.67
222.229	13139.45
222.302	13225.74
222.375	13306.63
222.448	13391.37
222.521	13459.97
222.594	13531.56
222.667	13601.65
222.74	13690.4
222.814	13744.53
222.887	13815.3
222.96	13897.97
223.033	13984.79
223.106	14059.03
223.179	14137.41
223.252	14216.32
223.325	14293.06
223.398	14360.36
223.471	14427.12
223.544	14497.26
223.617	14565.14
223.69	14634.6
223.763	14687.38
223.837	14756.07
223.91	14820.76
223.983	14865.4
224.056	14919.24
224.129	14987.84
224.202	15065.35
224.275	15127.15
224.348	15187.3
224.42	15230.35
224.493	15269.49
224.566	15317.93
224.639	15374.38
224.712	15427.73
224.785	15475.36
224.858	15528.71
224.931	15583.04
225.004	15638.23
225.077	15693.85
225.15	15726.43
225.223	15778.83
225.296	15849.34
225.369	15885.35
225.442	15927.52
225.514	15986.33
225.587	16046.05
225.66	16100.08
225.733	16149
225.806	16203.65
225.879	16258.02
225.952	16301.93
226.025	16371.52
226.097	16437.12
226.17	16490.04
226.243	16515.97
226.316	16564.74
226.389	16610.58
226.461	16652.41
226.534	16705.43
226.607	16751.74
226.68	16818.26
226.753	16862.55
226.825	16888.91
226.898	16956.38
226.971	17014.12
227.044	17072.58
227.117	17117.26
227.189	17167.38
227.262	17220.15
227.335	17264.39
227.407	17305.35
227.48	17358.9
227.553	17394.7
227.626	17426.32
227.698	17466.17
227.771	17514.8
227.844	17551.38
227.916	17591.72
227.989	17628.54
228.062	17657.5
228.134	17712.05
228.207	17750.03
228.28	17784.2
228.352	17822.36
228.425	17855.04
228.498	17901.4
228.57	17925.4
228.643	17973.97
228.716	18010.17
228.788	18030.84
228.861	18053.39
228.934	18095.37
229.006	18125.77
229.079	18154.16
229.151	18186.01
229.224	18209.1
229.296	18252.85
229.369	18316.13
229.442	18361.28
229.514	18388.12
229.587	18439.11
229.659	18464.84
229.732	18502.58
229.804	18543.73
229.877	18603.49
229.949	18638.18
230.022	18677.31
230.094	18704.44
230.167	18734.08
230.239	18748.54
230.312	18778.85
230.384	18828.63
230.457	18863.95
230.529	18893.88
230.602	18928.72
230.674	18956.09
230.747	19000.09
230.819	19034.83
230.892	19023.51
230.964	19062.06
231.037	19087.31
231.109	19104.13
231.181	19129.62
231.254	19142.1
231.326	19166.58
231.399	19170.39
231.471	19195.64
231.544	19204.75
231.616	19243.69
231.688	19258.34
231.761	19280.07
231.833	19298.19
231.905	19301.27
231.978	19310
232.05	19325.95
232.122	19345.37
232.195	19356.6
232.267	19381.56
232.339	19390.38
232.412	19421.51
232.484	19420.4
232.556	19450.28
232.629	19495.72
232.701	19512.44
232.773	19531.96
232.846	19536.15
232.918	19553.79
232.99	19567.48
233.062	19587.38
233.135	19603.71
233.207	19614.99
233.279	19628.92
233.351	19648.63
233.424	19653.21
233.496	19665.78
233.568	19697.35
233.64	19695.81
233.713	19709.01
233.785	19708.72
233.857	19717.3
233.929	19710.07
234.001	19734.65
234.074	19740.43
234.146	19720.77
234.218	19726.07
234.29	19729.01
234.362	19724.53
234.434	19704
234.507	19688.05
234.579	19671.28
234.651	19655.62
234.723	19651.23
234.795	19653.98
234.867	19652.82
234.939	19664.24
235.012	19657.25
235.084	19650.17
235.156	19658.65
235.228	19654.12
235.3	19644.72
235.372	19639.57
235.444	19654.17
235.516	19622.89
235.588	19617.35
235.66	19610.27
235.732	19597.35
235.804	19643.86
235.876	19654.94
235.948	19680.68
236.02	19678.46
236.092	19674.89
236.164	19666.94
236.236	19660.05
236.308	19645.01
236.38	19641.83
236.452	19629.88
236.524	19621.5
236.596	19628.39
236.668	19614.85
236.74	19598.66
236.812	19596.87
236.884	19592.68
236.956	19577.69
237.028	19563.96
237.1	19546.51
237.172	19548.68
237.244	19548.01
237.316	19491.14
237.388	19471.91
237.46	19437.89
237.532	19439.39
237.604	19408.79
237.675	19418.86
237.747	19415.15
237.819	19390.81
237.891	19363.01
237.963	19340.36
238.035	19323.83
238.107	19273.76
238.178	19272.26
238.25	19259.2
238.322	19257.37
238.394	19221.33
238.466	19205.09
238.538	19186.97
238.609	19169.91
238.681	19132.85
238.753	19100.66
238.825	19085.72
238.897	19069.92
238.968	19062.49
239.04	19027.6
239.112	19032.28
239.184	18992.76
239.255	18960.28
239.327	18946.89
239.399	18925.68
239.471	18910.84
239.542	18893.88
239.614	18886.31
239.686	18840.97
239.758	18826.85
239.829	18795.14
239.901	18790.46
239.973	18756.06
240.044	18737.31
240.116	18720.3
240.188	18690.37
240.259	18665.17
240.331	18635.53
240.403	18611.77
240.474	18577.27
240.546	18548.93
240.618	18513.27
240.689	18483.11
240.761	18465.95
240.833	18460.55
240.904	18433.28
240.976	18398.24
241.048	18367.74
241.119	18345.57
241.191	18321
241.262	18306.97
241.334	18268.56
241.405	18250.06
241.477	18223.55
241.549	18202.83
241.62	18174.5
241.692	18157.97
241.763	18136.14
241.835	18102.45
241.906	18075.66
241.978	18034.98
242.049	18021.44
242.121	17998.7
242.192	17979.61
242.264	17936.91
242.335	17887.66
242.407	17867.23
242.478	17837.64
242.55	17812.34
242.621	17769.3
242.693	17743.33
242.764	17711.76
242.836	17681.74
242.907	17642.46
242.979	17611.43
243.05	17582.75
243.122	17553.74
243.193	17526.76
243.264	17482.76
243.336	17455.67
243.407	17435.09
243.479	17423.43
243.55	17393.12
243.622	17364.88
243.693	17336.68
243.764	17322.95
243.836	17284.83
243.907	17252.25
243.978	17223.23
244.05	17192.2
244.121	17152.34
244.192	17128.68
244.264	17086.56
244.335	17063.33
244.407	17020.1
244.478	16999.95
244.549	16961.01
244.62	16922.89
244.692	16886.6
244.763	16863.8
244.834	16825.44
244.906	16790.35
244.977	16763.94
245.048	16737.58
245.119	16703.17
245.191	16666.35
245.262	16609.09
245.333	16596.9
245.405	16567.01
245.476	16545.42
245.547	16522.77
245.618	16503.35
245.689	16475.97
245.761	16443.68
245.832	16406.95
245.903	16379
245.974	16348.88
246.045	16323.52
246.117	16307.96
246.188	16261.73
246.259	16225.1
246.33	16202.74
246.401	16167.75
246.473	16122.73
246.544	16089.19
246.615	16066.87
246.686	16022.91
246.757	16011.25
246.828	15965.75
246.899	15950.08
246.97	15895.71
247.042	15858.21
247.113	15833.44
247.184	15817.39
247.255	15779.02
247.326	15751.45
247.397	15725.28
247.468	15701.28
247.539	15676.84
247.61	15635.82
247.681	15621.22
247.752	15597.89
247.823	15553.25
247.894	15518.98
247.965	15483.02
248.037	15447.31
248.108	15398.53
248.179	15376.5
248.25	15341.84
248.321	15318.56
248.392	15273.1
248.463	15271.13
248.534	15240.52
248.605	15216.13
248.675	15182.34
248.746	15156.07
248.817	15126.81
248.888	15100.93
248.959	15049.16
249.03	15018.79
249.101	14992.33
249.172	14960.32
249.243	14907.49
249.314	14896.64
249.385	14870.03
249.456	14848.77
249.527	14820.77
249.598	14808.67
249.669	14776.71
249.739	14766.06
249.81	14743.93
249.881	14703
249.952	14672.78
250.023	14651.23
250.094	14612.24
250.165	14562.92
250.235	14536.84
250.306	14505.66
250.377	14466.8
250.448	14447.23
250.519	14398.69
250.59	14377.43
250.66	14343.44
250.731	14346.58
250.802	14311.92
250.873	14289.45
250.944	14260.1
251.014	14227.8
251.085	14217.92
251.156	14200.37
251.227	14177.42
251.297	14165.18
251.368	14153.85
251.439	14135.63
251.51	14110.51
251.58	14079.71
251.651	14062.41
251.722	14046.02
251.792	14005.23
251.863	13981.18
251.934	13966.38
252.005	13973.32
252.075	13941.5
252.146	13928.97
252.217	13908.43
252.287	13896.24
252.358	13868.62
252.429	13865.63
252.499	13836.75
252.57	13819.25
252.641	13799.87
252.711	13766.9
252.782	13731.56
252.852	13720.43
252.923	13696.66
252.994	13671.35
253.064	13650.96
253.135	13617.32
253.205	13583.28
253.276	13583.86
253.347	13573.06
253.417	13541.82
253.488	13510.73
253.558	13490.82
253.629	13464.64
253.699	13436.88
253.77	13420.29
253.841	13397.16
253.911	13370.16
253.982	13349.96
254.052	13324.32
254.123	13306.58
254.193	13284.59
254.264	13290.28
254.334	13254.51
254.405	13215.08
254.475	13179.65
254.546	13161.86
254.616	13149.52
254.687	13135.97
254.757	13120.26
254.827	13099.77
254.898	13079.09
254.968	13053.69
255.039	13018.54
255.109	13008.23
255.18	12986.15
255.25	12941.22
255.321	12924.83
255.391	12887.76
255.461	12887.66
255.532	12840.66
255.602	12812.51
255.673	12772.16
255.743	12738.56
255.813	12698.94
255.884	12696.43
255.954	12688.82
256.024	12676.72
256.095	12650.73
256.165	12619.21
256.235	12602.05
256.306	12570.23
256.376	12559.58
256.446	12542.71
256.517	12533.69
256.587	12517.69
256.657	12493.59
256.728	12476.09
256.798	12455.46
256.868	12432.17
256.938	12401.37
257.009	12388.94
257.079	12375.44
257.149	12380.26
257.219	12337.02
257.29	12326.13
257.36	12282.65
257.43	12270.45
257.5	12233.62
257.571	12215.89
257.641	12207.74
257.711	12171.01
257.781	12157.75
257.852	12143.77
257.922	12102.85
257.992	12078.7
258.062	12054.65
258.132	12040.04
258.202	12017.63
258.273	11995.65
258.343	11990.44
258.413	11962.01
258.483	11940.07
258.553	11908.74
258.623	11882.91
258.693	11871.58
258.764	11868.4
258.834	11867.96
258.904	11840.73
258.974	11815.96
259.044	11793.79
259.114	11768.77
259.184	11753.68
259.254	11731.37
259.324	11688.52
259.394	11683.6
259.464	11687.84
259.535	11667.6
259.605	11649.57
259.675	11629.38
259.745	11612.99
259.815	11581.81
259.885	11557.23
259.955	11572.85
260.025	11547.93
260.095	11522.05
260.165	11513.03
260.235	11509.76
260.305	11481.51
260.375	11456.79
260.445	11456.11
260.515	11450.04
260.585	11449.27
260.655	11426.33
260.725	11416.06
260.795	11409.56
260.865	11413.8
260.934	11385.55
261.004	11373.36
261.074	11358.85
261.144	11353.17
261.214	11350.85
261.284	11336.78
261.354	11329.65
261.424	11298.46
261.494	11296.05
261.564	11284.78
261.634	11271.52
261.703	11228.68
261.773	11209.64
261.843	11200.68
261.913	11184.01
261.983	11160.05
262.053	11138.85
262.123	11121.69
262.192	11094.42
262.262	11088.3
262.332	11047.62
262.402	11032.93
262.472	11014.27
