Data from 20250630_urea_2M_MAYP1162681_20-42-27-411.txt Node
Date: Mon Jun 30 20:42:27 BST 2025
User: adleo
Spectrometer: MAYP116268
Trigger mode: 0
Integration Time (sec): 1.000000E0
Scans to average: 1
Electric dark correction enabled: true
Nonlinearity correction enabled: true
Boxcar width: 10
XAxis mode: Wavelengths
Number of Pixels in Spectrum: 2068
>>>>>Begin Spectral Data<<<<<
179.565	1135.16
179.642	1185.37
179.718	1227.62
179.795	1263.9
179.871	1294.82
179.948	1311.15
180.024	1331.25
180.101	1352.88
180.177	1367.04
180.254	1386.77
180.33	1408.13
180.407	1456.03
180.483	1547.34
180.56	1631.24
180.636	1711
180.712	1697.26
180.789	1708.86
180.865	1718.12
180.942	1730.19
181.018	1740.73
181.095	1752.57
181.171	1758.56
181.248	1759.89
181.324	1774.34
181.4	1782.13
181.477	1793.83
181.553	1804.75
181.63	1824.43
181.706	1839.98
181.782	1847.01
181.859	1848.24
181.935	1851.67
182.011	1850.38
182.088	1866.22
182.164	1885.62
182.24	1896.97
182.317	1908.43
182.393	1906.62
182.469	1921.83
182.546	1932.91
182.622	1936.52
182.698	1932.81
182.775	1942.61
182.851	1955.11
182.927	1947.6
183.003	1940.94
183.08	1933.15
183.156	1944.61
183.232	1939.56
183.308	1927.25
183.385	1935.71
183.461	1953.88
183.537	1955.83
183.613	1966
183.69	1954.59
183.766	1941.42
183.842	1948.36
183.918	1950.64
183.995	1963.05
184.071	1968.14
184.147	1962.34
184.223	1952.5
184.299	1962.82
184.375	1952.17
184.452	1961.4
184.528	2014.39
184.604	2026.6
184.68	2037.73
184.756	2041.44
184.832	2046.72
184.908	2055.7
184.985	2054.89
185.061	2037.25
185.137	2045
185.213	2034.35
185.289	2035.54
185.365	2031.26
185.441	2033.69
185.517	2047.96
185.593	2045.15
185.669	2039.54
185.745	2049.29
185.822	2066.12
185.898	2057.7
185.974	2066.35
186.05	2055.55
186.126	2015.5
186.202	2009.08
186.278	2004.99
186.354	1999.86
186.43	2003.47
186.506	2001.14
186.582	2000.29
186.658	2007.42
186.734	1988.69
186.81	1990.54
186.886	1994.58
186.962	2004.76
187.038	1999.76
187.114	1990.25
187.19	1996.67
187.266	1987.73
187.341	1988.54
187.417	1978.84
187.493	1979.31
187.569	1981.31
187.645	1976.98
187.721	1966.95
187.797	1973.51
187.873	1979.6
187.949	1971.71
188.025	1969.95
188.101	1968.71
188.176	1975.27
188.252	1969.19
188.328	1977.93
188.404	1978.98
188.48	1975.03
188.556	1969.18
188.632	1966.95
188.707	1966.57
188.783	1961
188.859	1959.77
188.935	1949.54
189.011	1960.38
189.086	1953.21
189.162	1948.93
189.238	1947.88
189.314	1946.83
189.39	1938.89
189.465	1933.09
189.541	1948.31
189.617	1930.39
189.693	1927.39
189.768	1927.68
189.844	1954.69
189.92	1945.47
189.996	1953.94
190.071	1964.49
190.147	1963.4
190.223	1970.77
190.298	1966.54
190.374	1956.7
190.45	1967.77
190.526	1977.43
190.601	1970.1
190.677	1973
190.753	1998.41
190.828	2002.03
190.904	2013.53
190.98	2033.37
191.055	2041.5
191.131	2034.79
191.207	2056.24
191.282	2066.93
191.358	2059.28
191.433	2044.24
191.509	2058.6
191.585	2056.03
191.66	2056.7
191.736	2064.07
191.811	2058.22
191.887	2074.82
191.963	2096.22
192.038	2101.64
192.114	2099.5
192.189	2104.78
192.265	2101.31
192.34	2078.61
192.416	2076.57
192.491	2074.81
192.567	2074.43
192.642	2076.28
192.718	2079.19
192.793	2069.48
192.869	2063.11
192.944	2066.01
193.02	2071.96
193.095	2075.62
193.171	2079.95
193.246	2079.23
193.322	2077.38
193.397	2075.67
193.473	2060.39
193.548	2045.27
193.624	2049.12
193.699	2051.41
193.775	2065.87
193.85	2069.58
193.925	2080.47
194.001	2080.61
194.076	2072.96
194.152	2062.54
194.227	2056.54
194.302	2043.28
194.378	2043.42
194.453	2040.57
194.529	2051.94
194.604	2041.14
194.679	2033.44
194.755	2016.7
194.83	2028.12
194.905	2024.89
194.981	2035.16
195.056	2028.69
195.131	2035.59
195.207	2035.16
195.282	2023.46
195.357	2005.43
195.433	2020.75
195.508	2003.77
195.583	2011.04
195.659	2025.41
195.734	2033.26
195.809	2033.26
195.884	2042.81
195.96	2043.86
196.035	2057.46
196.11	2055.46
196.185	2066.49
196.261	2071.82
196.336	2101.02
196.411	2088.56
196.486	2095.74
196.561	2088.37
196.637	2097.26
196.712	2110.34
196.787	2111.49
196.862	2126.37
196.937	2135.08
197.013	2139.07
197.088	2153.39
197.163	2172.9
197.238	2189.61
197.313	2187.75
197.388	2198.74
197.464	2227.87
197.539	2239.86
197.614	2236.57
197.689	2247.19
197.764	2262.99
197.839	2279.64
197.914	2269.55
197.989	2289.59
198.065	2300.58
198.14	2350.2
198.215	2373
198.29	2385.85
198.365	2400.37
198.44	2409.65
198.515	2434.93
198.59	2449.55
198.665	2473.97
198.74	2483.16
198.815	2483.21
198.89	2505.35
198.965	2532.4
199.04	2527.68
199.115	2542.82
199.19	2583.63
199.265	2585.25
199.34	2593.78
199.415	2628.46
199.49	2652.36
199.565	2664.89
199.64	2691.66
199.715	2687.99
199.79	2696.47
199.865	2700.38
199.94	2696.42
200.015	2727.3
200.09	2732.78
200.165	2740.97
200.24	2748.21
200.315	2788.13
200.39	2803.9
200.464	2810.86
200.539	2815.24
200.614	2832.06
200.689	2853.51
200.764	2860.75
200.839	2878.38
200.914	2881.81
200.989	2872.08
201.063	2884.47
201.138	2865.47
201.213	2862.51
201.288	2842.69
201.363	2847.93
201.438	2848.55
201.512	2864.99
201.587	2846.21
201.662	2852.07
201.737	2860.6
201.812	2867.23
201.886	2833.31
201.961	2840.28
202.036	2826.37
202.111	2823.84
202.186	2793.79
202.26	2778.73
202.335	2754.14
202.41	2749.61
202.485	2735.61
202.559	2717.26
202.634	2693.06
202.709	2700.77
202.784	2685.62
202.858	2684.2
202.933	2668
203.008	2664.52
203.082	2643.42
203.157	2642.95
203.232	2602
203.306	2583.36
203.381	2553.16
203.456	2532.73
203.53	2509.81
203.605	2491.91
203.68	2468.62
203.754	2463.34
203.829	2446.53
203.904	2428.15
203.978	2411.87
204.053	2412.96
204.127	2401.63
204.202	2398.44
204.277	2381.83
204.351	2373.4
204.426	2366.98
204.5	2357.79
204.575	2322.52
204.65	2336.71
204.724	2330.81
204.799	2338.51
204.873	2333.66
204.948	2331.04
205.022	2318.38
205.097	2310.24
205.171	2323.94
205.246	2330.75
205.32	2332.75
205.395	2333.04
205.469	2326.09
205.544	2336.9
205.618	2318.24
205.693	2328
205.767	2318.58
205.842	2340.33
205.916	2333.53
205.991	2329.67
206.065	2334
206.14	2347.75
206.214	2340.56
206.289	2335.7
206.363	2344.27
206.438	2348.79
206.512	2358.88
206.586	2376.64
206.661	2386.92
206.735	2367.51
206.81	2368.84
206.884	2383.07
206.958	2371.46
207.033	2388.78
207.107	2394.17
207.181	2427.3
207.256	2421.5
207.33	2439.2
207.405	2450.83
207.479	2469.97
207.553	2473.16
207.628	2460.16
207.702	2470.16
207.776	2464.54
207.851	2469.16
207.925	2487.21
207.999	2480.16
208.073	2477.26
208.148	2483.16
208.222	2471.16
208.296	2502
208.371	2517.11
208.445	2525.63
208.519	2553.67
208.593	2564.58
208.668	2559.67
208.742	2563.06
208.816	2564.53
208.89	2576.68
208.965	2571.53
209.039	2580.39
209.113	2597.59
209.187	2617.1
209.261	2617.1
209.336	2635.87
209.41	2652.01
209.484	2649.3
209.558	2674.5
209.632	2684.45
209.707	2692.36
209.781	2712.51
209.855	2728.81
209.929	2744.26
210.003	2750.88
210.077	2750.45
210.151	2796.57
210.226	2830.23
210.3	2856.37
210.374	2880.18
210.448	2884.62
210.522	2899.73
210.596	2908.88
210.67	2917.7
210.744	2959.6
210.818	2989.05
210.892	3010.27
210.966	3008.22
211.041	3029
211.115	3025.57
211.189	3054.13
211.263	3072.82
211.337	3082.3
211.411	3098.52
211.485	3100.14
211.559	3115.78
211.633	3123.16
211.707	3099.3
211.781	3112.76
211.855	3085.77
211.929	3084.81
212.003	3077
212.077	3095.27
212.151	3119.46
212.225	3143.02
212.299	3147.36
212.373	3152.42
212.447	3163.92
212.52	3207.57
212.594	3228.43
212.668	3263.26
212.742	3268.12
212.816	3288.88
212.89	3311.02
212.964	3337.19
213.038	3366.83
213.112	3415.4
213.186	3464.31
213.26	3478.82
213.333	3479.2
213.407	3524.58
213.481	3572.88
213.555	3634.34
213.629	3675.82
213.703	3713.23
213.777	3765.94
213.85	3808.52
213.924	3905.33
213.998	3973.37
214.072	4033.01
214.146	4091.63
214.219	4162.89
214.293	4240.25
214.367	4323.25
214.441	4418.35
214.515	4495.7
214.588	4571.79
214.662	4629.66
214.736	4710.89
214.81	4822.72
214.883	4935.01
214.957	5034.07
215.031	5133.38
215.105	5219.23
215.178	5313.87
215.252	5424.77
215.326	5525.11
215.4	5628.93
215.473	5712.85
215.547	5824.83
215.621	5945.05
215.694	6084.66
215.768	6202.35
215.842	6332.75
215.915	6460.34
215.989	6579.2
216.063	6718.08
216.136	6867.1
216.21	7022.17
216.284	7182.52
216.357	7336.75
216.431	7486.49
216.504	7652.01
216.578	7831.8
216.652	8011.75
216.725	8183.61
216.799	8358.06
216.873	8523.08
216.946	8700.9
217.02	8860.28
217.093	9022.64
217.167	9168.59
217.24	9318.42
217.314	9487.32
217.387	9649.78
217.461	9812.17
217.535	9998.03
217.608	10152.98
217.682	10319.18
217.755	10489.43
217.829	10651.27
217.902	10817.83
217.976	10986.95
218.049	11142.89
218.123	11298.11
218.196	11462.83
218.27	11618.55
218.343	11767.76
218.417	11935.63
218.49	12094.45
218.563	12271.24
218.637	12436.38
218.71	12623.49
218.784	12798.28
218.857	12958.22
218.931	13128.9
219.004	13290.68
219.077	13450.48
219.151	13611.72
219.224	13764.39
219.298	13922.64
219.371	14087.36
219.444	14226.14
219.518	14372.3
219.591	14528.19
219.665	14705.14
219.738	14846.48
219.811	14978.94
219.885	15129.48
219.958	15271.44
220.031	15402.93
220.105	15545.42
220.178	15686.64
220.251	15806.57
220.325	15936.32
220.398	16068.58
220.471	16189.75
220.544	16321.43
220.618	16433.87
220.691	16559.04
220.764	16679.72
220.838	16806.19
220.911	16913.18
220.984	17051.88
221.057	17164.95
221.131	17277.97
221.204	17356.38
221.277	17490.16
221.35	17632.09
221.424	17729.49
221.497	17836.81
221.57	17951.03
221.643	18054.11
221.716	18156.03
221.79	18244.75
221.863	18339.3
221.936	18434.57
222.009	18531.92
222.082	18622.76
222.155	18699.82
222.229	18807.28
222.302	18906.65
222.375	18985
222.448	19064.57
222.521	19127.98
222.594	19216.51
222.667	19278.43
222.74	19367.49
222.814	19437.32
222.887	19497.41
222.96	19571.29
223.033	19653.79
223.106	19719.18
223.179	19793.73
223.252	19857.83
223.325	19929.58
223.398	19996.09
223.471	20061.05
223.544	20122.54
223.617	20184.08
223.69	20247.16
223.763	20273.91
223.837	20321.28
223.91	20374.06
223.983	20414.68
224.056	20464.22
224.129	20508.56
224.202	20565.67
224.275	20605.57
224.348	20630.34
224.42	20668.27
224.493	20709.28
224.566	20735.12
224.639	20773.91
224.712	20806.54
224.785	20844.47
224.858	20881.49
224.931	20900.38
225.004	20921.54
225.077	20950.74
225.15	20955.95
225.223	20989.35
225.296	21055.09
225.369	21065.98
225.442	21082.03
225.514	21120.49
225.587	21150.71
225.66	21189.8
225.733	21226.04
225.806	21261.18
225.879	21295.93
225.952	21313.76
226.025	21346.59
226.097	21390.06
226.17	21412.47
226.243	21405.24
226.316	21414.74
226.389	21435.42
226.461	21463.08
226.534	21481.25
226.607	21499.86
226.68	21549.89
226.753	21574.09
226.825	21572.21
226.898	21615.63
226.971	21639.59
227.044	21657.18
227.117	21682.15
227.189	21698.3
227.262	21711.17
227.335	21721.87
227.407	21718.11
227.48	21733
227.553	21745.78
227.626	21751.42
227.698	21772.82
227.771	21796.34
227.844	21809.74
227.916	21823.77
227.989	21824.1
228.062	21837.65
228.134	21860.26
228.207	21854.76
228.28	21849.36
228.352	21848.54
228.425	21852.59
228.498	21875.78
228.57	21869.32
228.643	21890
228.716	21891.3
228.788	21896.36
228.861	21892.75
228.934	21921.38
229.006	21926.49
229.079	21924.61
229.151	21922.49
229.224	21912.12
229.296	21924.75
229.369	21951.12
229.442	21975.51
229.514	21984.33
229.587	22008.1
229.659	22004.15
229.732	22017.88
229.804	22039.48
229.877	22081.95
229.949	22097.76
230.022	22114.49
230.094	22129.29
230.167	22120.85
230.239	22110.83
230.312	22104.75
230.384	22136.09
230.457	22139.12
230.529	22150.98
230.602	22157.49
230.674	22158.55
230.747	22171.23
230.819	22179.13
230.892	22150.02
230.964	22137.48
231.037	22134.5
231.109	22119.41
231.181	22115.98
231.254	22105.33
231.326	22101.72
231.399	22086.14
231.471	22066.77
231.544	22032.15
231.616	22045.17
231.688	22045.22
231.761	22037.74
231.833	22041.17
231.905	22001.88
231.978	21988.48
232.05	21967.65
232.122	21966.83
232.195	21948.28
232.267	21951.8
232.339	21931.89
232.412	21923.84
232.484	21912.27
232.556	21907.88
232.629	21920.22
232.701	21919.84
232.773	21919.74
232.846	21909.81
232.918	21891.44
232.99	21880.89
233.062	21888.99
233.135	21868.79
233.207	21839.91
233.279	21836.97
233.351	21824.01
233.424	21806.08
233.496	21785.21
233.568	21793.98
233.64	21759.51
233.713	21752.57
233.785	21734.69
233.857	21733.68
233.929	21719.85
234.001	21720.28
234.074	21703.41
234.146	21667.93
234.218	21642.39
234.29	21614.96
234.362	21592.79
234.434	21561.12
234.507	21534.22
234.579	21491.71
234.651	21469.15
234.723	21469.68
234.795	21454.02
234.867	21440.52
234.939	21446.21
235.012	21430.11
235.084	21408.47
235.156	21404.9
235.228	21377.77
235.3	21337.86
235.372	21307.21
235.444	21295.45
235.516	21247.97
235.588	21233.41
235.66	21221.08
235.732	21190.04
235.804	21215.73
235.876	21192.26
235.948	21182.42
236.02	21150.08
236.092	21124.4
236.164	21091.77
236.236	21051.57
236.308	21023.67
236.38	20989.98
236.452	20942.65
236.524	20918.31
236.596	20912.19
236.668	20890.89
236.74	20865.39
236.812	20847.8
236.884	20828.47
236.956	20802.26
237.028	20778.74
237.1	20740.13
237.172	20719.12
237.244	20713.58
237.316	20652.46
237.388	20615.64
237.46	20587.16
237.532	20581.52
237.604	20545.19
237.675	20535.4
237.747	20517.33
237.819	20492.17
237.891	20465.28
237.963	20428.8
238.035	20388.27
238.107	20321.62
238.178	20300.51
238.25	20265.77
238.322	20265.91
238.394	20219.4
238.466	20185.77
238.538	20164.8
238.609	20138.25
238.681	20093.91
238.753	20047.41
238.825	20014.78
238.897	19987.51
238.968	19957.53
239.04	19916.81
239.112	19912.86
239.184	19865.68
239.255	19828.96
239.327	19789.87
239.399	19764.43
239.471	19739.61
239.542	19729.01
239.614	19712.96
239.686	19655.13
239.758	19643.62
239.829	19589.64
239.901	19572.49
239.973	19544.73
240.044	19518.13
240.116	19493.55
240.188	19457.7
240.259	19432.93
240.331	19391.97
240.403	19367.78
240.474	19324.07
240.546	19282.53
240.618	19223.59
240.689	19189.38
240.761	19151.89
240.833	19134.15
240.904	19098.54
240.976	19069.87
241.048	19033.39
241.119	19009.34
241.191	18983.61
241.262	18956.19
241.334	18921.64
241.405	18881.44
241.477	18833.64
241.549	18788.05
241.62	18755.62
241.692	18726.95
241.763	18703.14
241.835	18673.84
241.906	18642.04
241.978	18603.92
242.049	18589.08
242.121	18578.48
242.192	18558.24
242.264	18516.84
242.335	18463.11
242.407	18436.94
242.478	18401.67
242.55	18372.41
242.621	18323.4
242.693	18286.73
242.764	18249.77
242.836	18211.17
242.907	18185.34
242.979	18161.34
243.05	18131.08
243.122	18102.6
243.193	18063.22
243.264	18008.77
243.336	17972.38
243.407	17941.69
243.479	17915.66
243.55	17872.92
243.622	17833.3
243.693	17800.73
243.764	17786.46
243.836	17744.49
243.907	17695.96
243.978	17664.25
244.05	17630.75
244.121	17582.13
244.192	17559.09
244.264	17505.74
244.335	17474.51
244.407	17422.66
244.478	17396.87
244.549	17357.31
244.62	17309.26
244.692	17277.5
244.763	17251.19
244.834	17206.08
244.906	17165.55
244.977	17144.49
245.048	17132.44
245.119	17095.09
245.191	17052.48
245.262	16994.94
245.333	16982.02
245.405	16954.26
245.476	16920.38
245.547	16885.2
245.618	16866.5
245.689	16830.84
245.761	16808.38
245.832	16774.5
245.903	16750.88
245.974	16721.1
246.045	16682.78
246.117	16664.56
246.188	16616.41
246.259	16576.89
246.33	16546.48
246.401	16507.92
246.473	16459.39
246.544	16415.63
246.615	16400.4
246.686	16354.51
246.757	16340.58
246.828	16287.28
246.899	16269.35
246.97	16218.06
247.042	16178.3
247.113	16154.2
247.184	16143.5
247.255	16097.04
247.326	16071.93
247.397	16027.54
247.468	15980.3
247.539	15953.36
247.61	15905.3
247.681	15890.75
247.752	15872.91
247.823	15842.5
247.894	15819.8
247.965	15779.74
248.037	15744.51
248.108	15689.13
248.179	15663.29
248.25	15634.66
248.321	15623.14
248.392	15581.02
248.463	15581.83
248.534	15548.77
248.605	15517.29
248.675	15482.35
248.746	15459.65
248.817	15431.3
248.888	15413.18
248.959	15377.85
249.03	15355.34
249.101	15331.38
249.172	15288.82
249.243	15229.63
249.314	15205.96
249.385	15176.65
249.456	15147.58
249.527	15111.96
249.598	15086.42
249.669	15058.46
249.739	15031.51
249.81	15000.32
249.881	14957.47
249.952	14923.34
250.023	14899.72
250.094	14862.51
250.165	14819.13
250.235	14791.65
250.306	14759.93
250.377	14727.88
250.448	14702.91
250.519	14652.97
250.59	14633.54
250.66	14606.5
250.731	14608.19
250.802	14580.95
250.873	14554.39
250.944	14533.9
251.014	14503.63
251.085	14506.96
251.156	14488.78
251.227	14471.67
251.297	14460.25
251.368	14445.3
251.439	14427.56
251.51	14406.35
251.58	14373.57
251.651	14339.93
251.722	14326.81
251.792	14284.39
251.863	14253.4
251.934	14239.08
252.005	14251.95
252.075	14234.31
252.146	14222.4
252.217	14208.23
252.287	14190.78
252.358	14164.94
252.429	14154.67
252.499	14123.38
252.57	14101.07
252.641	14088.92
252.711	14062.4
252.782	14025.77
252.852	14024.51
252.923	13996.6
252.994	13976.84
253.064	13965.41
253.135	13929.6
253.205	13892
253.276	13887.18
253.347	13879.9
253.417	13858.97
253.488	13824.51
253.558	13788.45
253.629	13759.62
253.699	13735.47
253.77	13711.9
253.841	13683.12
253.911	13661.62
253.982	13642.58
254.052	13623.39
254.123	13593.74
254.193	13567.71
254.264	13583.33
254.334	13544.96
254.405	13509.67
254.475	13474.72
254.546	13448.98
254.616	13448.74
254.687	13430.13
254.757	13416.53
254.827	13388.91
254.898	13364.52
254.968	13344.22
255.039	13315.83
255.109	13303.92
255.18	13272.54
255.25	13235.66
255.321	13226.26
255.391	13188.61
255.461	13183.75
255.532	13135.97
255.602	13107.97
255.673	13069.16
255.743	13028.23
255.813	12987.59
255.884	12982.58
255.954	12969.37
256.024	12970
256.095	12950.67
256.165	12921.84
256.235	12906.95
256.306	12884.43
256.376	12874.65
256.446	12855.65
256.517	12847.07
256.587	12840.18
256.657	12820.13
256.728	12803.01
256.798	12782.33
256.868	12761.51
256.938	12733.84
257.009	12722.9
257.079	12709.01
257.149	12717.31
257.219	12674.4
257.29	12662.93
257.36	12619.16
257.43	12614.24
257.5	12565.36
257.571	12537.21
257.641	12526.51
257.711	12483.51
257.781	12466.21
257.852	12449.82
257.922	12416.46
257.992	12388.02
258.062	12360.06
258.132	12342.47
258.202	12321.55
258.273	12290.74
258.343	12291.42
258.413	12269.2
258.483	12245.19
258.553	12217.57
258.623	12182.77
258.693	12170.48
258.764	12164.45
258.834	12161.13
258.904	12136.11
258.974	12107.86
259.044	12086.8
259.114	12069.21
259.184	12058.02
259.254	12033.87
259.324	11988.81
259.394	11968.66
259.464	11966.97
259.535	11938.87
259.605	11915.73
259.675	11892.21
259.745	11884.16
259.815	11849.22
259.885	11820.3
259.955	11835.82
260.025	11808.01
260.095	11786.75
260.165	11770.65
260.235	11761.54
260.305	11737.59
260.375	11708.23
260.445	11711.66
260.515	11707.08
260.585	11701.63
260.655	11684.52
260.725	11682.45
260.795	11677.19
260.865	11680.37
260.934	11653.38
261.004	11650.01
261.074	11637.77
261.144	11631.65
261.214	11622.15
261.284	11603.64
261.354	11595.84
261.424	11561.32
261.494	11563.15
261.564	11550.86
261.634	11542.62
261.703	11504.36
261.773	11483.44
261.843	11474.67
261.913	11454.23
261.983	11419.87
262.053	11408.93
262.123	11392.2
262.192	11356.54
262.262	11353.46
262.332	11320.64
262.402	11312.1
