Data from 20250630_urea_2M_MAYP1162681_08-42-26-937.txt Node
Date: Tue Jul 01 08:42:26 BST 2025
User: adleo
Spectrometer: MAYP116268
Trigger mode: 0
Integration Time (sec): 1.000000E0
Scans to average: 1
Electric dark correction enabled: true
Nonlinearity correction enabled: true
Boxcar width: 10
XAxis mode: Wavelengths
Number of Pixels in Spectrum: 2068
>>>>>Begin Spectral Data<<<<<
179.565	1083.16
179.642	1138.81
179.718	1177.07
179.795	1213
179.871	1244.68
179.948	1260.29
180.024	1279.18
180.101	1298.96
180.177	1312.04
180.254	1332.63
180.33	1350.89
180.407	1398.83
180.483	1484.77
180.56	1564.92
180.636	1639.64
180.712	1625.91
180.789	1634.6
180.865	1647.76
180.942	1655.36
181.018	1664.33
181.095	1678.54
181.171	1683.39
181.248	1681.35
181.324	1696.55
181.4	1700.88
181.477	1709.39
181.553	1720.93
181.63	1739.13
181.706	1751.91
181.782	1757.8
181.859	1756.52
181.935	1761.08
182.011	1755.9
182.088	1772.39
182.164	1789.6
182.24	1802.33
182.317	1812.22
182.393	1812.88
182.469	1825.57
182.546	1840.69
182.622	1845.25
182.698	1840.16
182.775	1852.33
182.851	1865.88
182.927	1857.08
183.003	1854.23
183.08	1850.48
183.156	1857.89
183.232	1855.8
183.308	1849.15
183.385	1857.89
183.461	1874.19
183.537	1878.28
183.613	1889.12
183.69	1879.71
183.766	1872.24
183.842	1879.75
183.918	1884.89
183.995	1894.96
184.071	1898.25
184.147	1892.16
184.223	1883.18
184.299	1896.16
184.375	1885.37
184.452	1891.03
184.528	1944.29
184.604	1953.89
184.68	1961.83
184.756	1971.24
184.832	1972.43
184.908	1972.29
184.985	1971.38
185.061	1956.6
185.137	1963.45
185.213	1952.85
185.289	1953.8
185.365	1945.81
185.441	1943.1
185.517	1954.18
185.593	1954.09
185.669	1952.57
185.745	1963.31
185.822	1974.57
185.898	1966.44
185.974	1973.95
186.05	1965.63
186.126	1925.45
186.202	1920.31
186.278	1917.84
186.354	1909.04
186.43	1916.37
186.506	1917.84
186.582	1915.56
186.658	1922.35
186.734	1904.67
186.81	1905.95
186.886	1908
186.962	1919.31
187.038	1916.94
187.114	1908.09
187.19	1912.75
187.266	1902.2
187.341	1898.82
187.417	1894.54
187.493	1893.54
187.569	1896.35
187.645	1890.07
187.721	1883.08
187.797	1888.74
187.873	1891.69
187.949	1886.65
188.025	1880.28
188.101	1883.6
188.176	1888.12
188.252	1884.51
188.328	1891.78
188.404	1892.16
188.48	1887.31
188.556	1879.75
188.632	1878.99
188.707	1880.75
188.783	1879.23
188.859	1875.86
188.935	1867.39
189.011	1875.81
189.086	1870.25
189.162	1861.88
189.238	1860.12
189.314	1856.41
189.39	1851.37
189.465	1846.67
189.541	1862.98
189.617	1852.52
189.693	1847.72
189.768	1854.47
189.844	1878.92
189.92	1872.74
189.996	1879.63
190.071	1891.23
190.147	1890.33
190.223	1899.17
190.298	1891.14
190.374	1876.87
190.45	1887.09
190.526	1895.46
190.601	1889.14
190.677	1891.56
190.753	1919.58
190.828	1925.76
190.904	1939.54
190.98	1956.28
191.055	1962.65
191.131	1952.52
191.207	1970.11
191.282	1977.96
191.358	1966.74
191.433	1951.04
191.509	1963.16
191.585	1959.83
191.66	1963.73
191.736	1971.24
191.811	1961.92
191.887	1977.14
191.963	2000.01
192.038	2004.1
192.114	2003.77
192.189	2007.43
192.265	2001.87
192.34	1980.41
192.416	1977.32
192.491	1973.28
192.567	1973.94
192.642	1981.03
192.718	1979.32
192.793	1969.05
192.869	1964.34
192.944	1966.96
193.02	1975.71
193.095	1979.32
193.171	1987.12
193.246	1984.98
193.322	1982.51
193.397	1985.12
193.473	1971.09
193.548	1954.73
193.624	1963.48
193.699	1963.01
193.775	1979.42
193.85	1981.98
193.925	1989.21
194.001	1991.45
194.076	1984.31
194.152	1972.33
194.227	1961.44
194.302	1953.36
194.378	1956.78
194.453	1954.03
194.529	1967.53
194.604	1951.93
194.679	1944.94
194.755	1925.84
194.83	1933.68
194.905	1934.25
194.981	1944
195.056	1940.3
195.131	1943.53
195.207	1938.06
195.282	1929.36
195.357	1911.24
195.433	1925.88
195.508	1915.23
195.583	1918.46
195.659	1932.97
195.734	1939.86
195.809	1939.43
195.884	1949.56
195.96	1948.13
196.035	1966.06
196.11	1960.73
196.185	1973.33
196.261	1975.28
196.336	2004.24
196.411	1994.72
196.486	1998.57
196.561	1989.54
196.637	1995.1
196.712	2011.37
196.787	2016.08
196.862	2030.34
196.937	2038.04
197.013	2043.18
197.088	2054.45
197.163	2076.05
197.238	2092.47
197.313	2094.18
197.388	2108.78
197.464	2135.76
197.539	2146.61
197.614	2137.43
197.689	2148.61
197.764	2162.69
197.839	2182.91
197.914	2178.77
197.989	2196.66
198.065	2210.02
198.14	2255.2
198.215	2282.84
198.29	2294.41
198.365	2304.55
198.44	2314.73
198.515	2343.29
198.59	2356.28
198.665	2379.89
198.74	2387.46
198.815	2384.84
198.89	2404.07
198.965	2431.97
199.04	2427.83
199.115	2442.06
199.19	2482.14
199.265	2485.62
199.34	2494.76
199.415	2526.63
199.49	2546.05
199.565	2555.34
199.64	2576.72
199.715	2576.29
199.79	2579.1
199.865	2586.86
199.94	2587.24
200.015	2617.11
200.09	2618.2
200.165	2623.49
200.24	2627.3
200.315	2665.44
200.39	2679.78
200.464	2685.44
200.539	2685.11
200.614	2702.35
200.689	2722.65
200.764	2728.46
200.839	2747.41
200.914	2752.37
200.989	2742.55
201.063	2755.32
201.138	2741.46
201.213	2743.85
201.288	2726.74
201.363	2734.27
201.438	2731.51
201.512	2747.13
201.587	2729.31
201.662	2734.55
201.737	2746.89
201.812	2754.84
201.886	2721.85
201.961	2730.14
202.036	2722.14
202.111	2718.81
202.186	2689.29
202.26	2677.47
202.335	2657.32
202.41	2649.22
202.485	2631.74
202.559	2615.69
202.634	2591.73
202.709	2602.11
202.784	2584.3
202.858	2581.87
202.933	2563.63
203.008	2558.1
203.082	2537.34
203.157	2536.11
203.232	2498.36
203.306	2478.83
203.381	2448.11
203.456	2428.21
203.53	2407.82
203.605	2389.83
203.68	2367.16
203.754	2361.65
203.829	2344.98
203.904	2328.56
203.978	2317.61
204.053	2323.9
204.127	2305.57
204.202	2303.19
204.277	2285.01
204.351	2277.64
204.426	2270.73
204.5	2262.93
204.575	2233.29
204.65	2245.95
204.724	2239
204.799	2243.14
204.873	2237.71
204.948	2235.76
205.022	2222.87
205.097	2217.54
205.171	2229.39
205.246	2239.48
205.32	2237.57
205.395	2239.53
205.469	2230.49
205.544	2236.11
205.618	2219.69
205.693	2233.92
205.767	2221.64
205.842	2240.73
205.916	2233.64
205.991	2226.64
206.065	2233.73
206.14	2243.24
206.214	2237.48
206.289	2233.2
206.363	2247.76
206.438	2252.14
206.512	2261.42
206.586	2281.49
206.661	2289.11
206.735	2268.8
206.81	2268.13
206.884	2283.07
206.958	2270.27
207.033	2286.97
207.107	2291.78
207.181	2319.01
207.256	2313.25
207.33	2332.43
207.405	2341.28
207.479	2361.32
207.553	2366.27
207.628	2350.29
207.702	2363.42
207.776	2358.13
207.851	2358.33
207.925	2371.47
207.999	2366.57
208.073	2367.47
208.148	2367.99
208.222	2356.66
208.296	2383.64
208.371	2398.31
208.445	2410.54
208.519	2435.2
208.593	2442.82
208.668	2439.91
208.742	2446.34
208.816	2448.25
208.89	2461.63
208.965	2464.35
209.039	2467.87
209.113	2485.06
209.187	2506.37
209.261	2503.04
209.336	2518.75
209.41	2540.56
209.484	2540.42
209.558	2560.14
209.632	2570.85
209.707	2580.28
209.781	2600.52
209.855	2618.38
209.929	2635.16
210.003	2638.16
210.077	2639.16
210.151	2685.69
210.226	2718.05
210.3	2739.7
210.374	2759.99
210.448	2765.08
210.522	2775.81
210.596	2787.53
210.67	2797.01
210.744	2840.86
210.818	2872.11
210.892	2895.42
210.966	2888.84
211.041	2906.24
211.115	2908.81
211.189	2931.26
211.263	2949.65
211.337	2956.42
211.411	2971.11
211.485	2968.72
211.559	2979.92
211.633	2983.4
211.707	2953.92
211.781	2964.8
211.855	2935.86
211.929	2929.19
212.003	2914.57
212.077	2921.48
212.151	2933.59
212.225	2946.13
212.299	2937.35
212.373	2930.06
212.447	2928.15
212.52	2960.86
212.594	2967.44
212.668	2983.45
212.742	2977.16
212.816	2980.31
212.89	2984.07
212.964	2989.89
213.038	2997.19
213.112	3018.65
213.186	3043.11
213.26	3036.67
213.333	3004.96
213.407	3021.41
213.481	3039.42
213.555	3063.77
213.629	3069.73
213.703	3071.97
213.777	3088.58
213.85	3091.87
213.924	3140.77
213.998	3164.59
214.072	3181.48
214.146	3192.31
214.219	3211.97
214.293	3233.72
214.367	3260.11
214.441	3295.38
214.515	3314.19
214.588	3326.55
214.662	3327.12
214.736	3338.52
214.81	3379.92
214.883	3422.37
214.957	3447.09
215.031	3475.38
215.105	3493.17
215.178	3522.06
215.252	3562.64
215.326	3578.93
215.4	3602.6
215.473	3602.56
215.547	3626.39
215.621	3657.27
215.694	3711.55
215.768	3739.31
215.842	3775.33
215.915	3814.85
215.989	3841.52
216.063	3884.12
216.136	3937.55
216.21	3993.84
216.284	4063.64
216.357	4120.11
216.431	4173.13
216.504	4238.2
216.578	4325.32
216.652	4393.87
216.725	4457.27
216.799	4523.27
216.873	4592.5
216.946	4662.2
217.02	4723.48
217.093	4788.59
217.167	4835.36
217.24	4881.05
217.314	4946.82
217.387	5010.3
217.461	5074.3
217.535	5156.02
217.608	5216.01
217.682	5285.3
217.755	5367.63
217.829	5430.1
217.902	5501.47
217.976	5576.63
218.049	5651.2
218.123	5700.36
218.196	5781.93
218.27	5845.62
218.343	5910.4
218.417	5989.23
218.49	6068.63
218.563	6165.7
218.637	6247.58
218.71	6346.51
218.784	6438.82
218.857	6533.3
218.931	6617.45
219.004	6697.55
219.077	6784.06
219.151	6865.32
219.224	6943.57
219.298	7025.11
219.371	7117.95
219.444	7189.92
219.518	7268.87
219.591	7350.24
219.665	7464.23
219.738	7553.5
219.811	7632.47
219.885	7720.41
219.958	7802.59
220.031	7879.13
220.105	7964.99
220.178	8044.88
220.251	8116.99
220.325	8202.63
220.398	8280.76
220.471	8362.3
220.544	8451.31
220.618	8522.2
220.691	8613.53
220.764	8697.6
220.838	8779.96
220.911	8849.37
220.984	8951.07
221.057	9037.38
221.131	9118.64
221.204	9168.04
221.277	9258.57
221.35	9372.06
221.424	9453.73
221.497	9536.08
221.57	9620.15
221.643	9701.79
221.716	9786.75
221.79	9863.57
221.863	9935.58
221.936	10011.92
222.009	10095.15
222.082	10173.34
222.155	10238.7
222.229	10326.97
222.302	10401.2
222.375	10475.64
222.448	10551.72
222.521	10620.23
222.594	10688.65
222.667	10749.65
222.74	10831.56
222.814	10895.12
222.887	10950.45
222.96	11021.53
223.033	11097.96
223.106	11169.57
223.179	11234.92
223.252	11305.62
223.325	11378.39
223.398	11452.23
223.471	11520.96
223.544	11584.04
223.617	11653.3
223.69	11738.95
223.763	11786.67
223.837	11863.74
223.91	11929.34
223.983	11982.94
224.056	12034.17
224.129	12104.79
224.202	12173.57
224.275	12226.25
224.348	12271.51
224.42	12323.28
224.493	12371.97
224.566	12429.43
224.639	12496.24
224.712	12555.1
224.785	12612.08
224.858	12666.55
224.931	12713.21
225.004	12760.4
225.077	12826.54
225.15	12858.07
225.223	12916.64
225.296	12996.13
225.369	13030.4
225.442	13077.31
225.514	13142.77
225.587	13208.91
225.66	13270.76
225.733	13339.26
225.806	13403.76
225.879	13466.72
225.952	13511.12
226.025	13573.25
226.097	13638.24
226.17	13690.35
226.243	13721.73
226.316	13775.38
226.389	13835.98
226.461	13899.37
226.534	13964.21
226.607	14014.97
226.68	14091.33
226.753	14140.01
226.825	14170.29
226.898	14252.04
226.971	14310.57
227.044	14368.22
227.117	14428.09
227.189	14481.12
227.262	14540.41
227.335	14596.47
227.407	14651.23
227.48	14718.57
227.553	14774.2
227.626	14819.37
227.698	14868.92
227.771	14932.07
227.844	14973.28
227.916	15026.21
227.989	15067.42
228.062	15110.42
228.134	15178.34
228.207	15225.53
228.28	15273.73
228.352	15328.2
228.425	15366.86
228.498	15417.13
228.57	15453.43
228.643	15504.66
228.716	15546.26
228.788	15578.65
228.861	15612.78
228.934	15667.87
229.006	15710.1
229.079	15755.79
229.151	15798.64
229.224	15827.32
229.296	15876.39
229.369	15952.88
229.442	16013.27
229.514	16049.37
229.587	16107.74
229.659	16136.95
229.732	16180.08
229.804	16225.1
229.877	16286.79
229.949	16338.17
230.022	16398.75
230.094	16433.07
230.167	16476.64
230.239	16509.56
230.312	16553.56
230.384	16618.92
230.457	16659.93
230.529	16703.69
230.602	16743.94
230.674	16789.05
230.747	16854.55
230.819	16903.71
230.892	16911.27
230.964	16947.03
231.037	16991.28
231.109	17023.52
231.181	17066.8
231.254	17097.06
231.326	17123.96
231.399	17151.71
231.471	17181.88
231.544	17198.17
231.616	17259.72
231.688	17292.63
231.761	17323.14
231.833	17352.06
231.905	17363.72
231.978	17398.32
232.05	17435.24
232.122	17465.45
232.195	17485.07
232.267	17517.21
232.339	17550.46
232.412	17597.69
232.484	17622.22
232.556	17647.62
232.629	17695.67
232.701	17735.47
232.773	17766.65
232.846	17799.14
232.918	17833.54
232.99	17857.16
233.062	17890.31
233.135	17924.63
233.207	17938.17
233.279	17976.05
233.351	18002.7
233.424	18023.66
233.496	18035.42
233.568	18063.95
233.64	18079.66
233.713	18100.04
233.785	18120.43
233.857	18142.35
233.929	18132.81
234.001	18169.05
234.074	18201.63
234.146	18194.83
234.218	18204.52
234.29	18215.51
234.362	18228.86
234.434	18224.95
234.507	18235.07
234.579	18227.94
234.651	18223.7
234.723	18238.83
234.795	18254.06
234.867	18273.09
234.939	18300.37
235.012	18304.66
235.084	18314.49
235.156	18330.49
235.228	18332.46
235.3	18332.8
235.372	18330.15
235.444	18362.54
235.516	18339.02
235.588	18352.75
235.66	18371.07
235.732	18369.81
235.804	18434.24
235.876	18450.63
235.948	18474.05
236.02	18471.78
236.092	18479.88
236.164	18487.06
236.236	18488.55
236.308	18484.02
236.38	18482.24
236.452	18468.99
236.524	18484.7
236.596	18504.21
236.668	18513.18
236.74	18526
236.812	18530.09
236.884	18537.95
236.956	18531.88
237.028	18519.97
237.1	18498
237.172	18504.65
237.244	18514.38
237.316	18473.61
237.388	18458.29
237.46	18441.76
237.532	18460.65
237.604	18448.75
237.675	18457.37
237.747	18467.11
237.819	18457.95
237.891	18449.86
237.963	18439.54
238.035	18421.71
238.107	18377.96
238.178	18375.31
238.25	18353.38
238.322	18360.32
238.394	18335.6
238.466	18327.26
238.538	18327.12
238.609	18326.15
238.681	18293.86
238.753	18274.54
238.825	18271.55
238.897	18263.21
238.968	18264.03
239.04	18237.29
239.112	18257.96
239.184	18232.66
239.255	18209.68
239.327	18193.15
239.399	18184.33
239.471	18182.59
239.542	18175.27
239.614	18176.47
239.686	18133.34
239.758	18129.39
239.829	18101.29
239.901	18102.26
239.973	18081.87
240.044	18071.27
240.116	18052.62
240.188	18042.55
240.259	18015.32
240.331	17979.08
240.403	17971.56
240.474	17943.13
240.546	17922.41
240.618	17881.21
240.689	17847.95
240.761	17827.52
240.833	17830.85
240.904	17804.34
240.976	17775.18
241.048	17761.31
241.119	17752.34
241.191	17750.85
241.262	17742.66
241.334	17723.52
241.405	17701.84
241.477	17675.67
241.549	17648.54
241.62	17631.19
241.692	17605.74
241.763	17607.14
241.835	17585.21
241.906	17562.85
241.978	17527.43
242.049	17512.25
242.121	17501.94
242.192	17501.31
242.264	17465.74
242.335	17420.68
242.407	17409.21
242.478	17392.63
242.55	17362.95
242.621	17326.08
242.693	17298.27
242.764	17272.1
242.836	17237.02
242.907	17209.98
242.979	17192.39
243.05	17171.96
243.122	17149.79
243.193	17137.79
243.264	17088.1
243.336	17066.61
243.407	17044.97
243.479	17037.98
243.55	17021.54
243.622	16993.01
243.693	16964.87
243.764	16963.28
243.836	16940.77
243.907	16908.77
243.978	16877.06
244.05	16859.71
244.121	16815.46
244.192	16797.87
244.264	16760.04
244.335	16737
244.407	16692.23
244.478	16671.79
244.549	16643.64
244.62	16602.24
244.692	16563.59
244.763	16545.81
244.834	16515.64
244.906	16475.44
244.977	16446.96
245.048	16425.27
245.119	16388.4
245.191	16338.32
245.262	16287.52
245.333	16270.89
245.405	16248.96
245.476	16222.89
245.547	16196.38
245.618	16186.06
245.689	16148.13
245.761	16126.97
245.832	16099.69
245.903	16091.64
245.974	16059.78
246.045	16031.25
246.117	16024.89
246.188	15984.11
246.259	15939.62
246.33	15896.87
246.401	15862.65
246.473	15824.62
246.544	15785.1
246.615	15780.66
246.686	15751.6
246.757	15738.97
246.828	15699.01
246.899	15680.55
246.97	15642.71
247.042	15600.34
247.113	15577.45
247.184	15571.76
247.255	15527.66
247.326	15501.15
247.397	15462.01
247.468	15442.77
247.539	15410.43
247.61	15363.82
247.681	15347.58
247.752	15330.32
247.823	15303.09
247.894	15282.89
247.965	15243.7
248.037	15214.25
248.108	15157.18
248.179	15134.52
248.25	15095.91
248.321	15068.05
248.392	15020.38
248.463	15009.68
248.534	14988.95
248.605	14963.31
248.675	14933.47
248.746	14917.51
248.817	14899.97
248.888	14870.76
248.959	14823.71
249.03	14811.03
249.101	14787.41
249.172	14754.2
249.243	14709.46
249.314	14688.54
249.385	14666.08
249.456	14648.15
249.527	14621.01
249.598	14607.51
249.669	14577.38
249.739	14561.23
249.81	14549.33
249.881	14515.05
249.952	14486.76
250.023	14449.5
250.094	14408.67
250.165	14370.15
250.235	14338.14
250.306	14305.65
250.377	14280.05
250.448	14256.43
250.519	14200.32
250.59	14189.14
250.66	14156.31
250.731	14152.69
250.802	14130.23
250.873	14101.36
250.944	14077.59
251.014	14039.75
251.085	14032.37
251.156	14017.91
251.227	13991.35
251.297	13977.08
251.368	13962.57
251.439	13949.75
251.51	13946.08
251.58	13912.44
251.651	13883.17
251.722	13875.41
251.792	13831.98
251.863	13796.74
251.934	13783.34
252.005	13789.99
252.075	13758.32
252.146	13743.86
252.217	13721.59
252.287	13705.87
252.358	13682.78
252.429	13671.74
252.499	13642.05
252.57	13619.24
252.641	13602.47
252.711	13587.62
252.782	13542.35
252.852	13534.26
252.923	13508.9
252.994	13481.42
253.064	13473.76
253.135	13440.2
253.205	13402.89
253.276	13409.59
253.347	13405.06
253.417	13376.52
253.488	13344.61
253.558	13316.51
253.629	13298.86
253.699	13277.6
253.77	13261.45
253.841	13230.8
253.911	13213.1
253.982	13188.47
254.052	13167.98
254.123	13145.08
254.193	13116.4
254.264	13129.22
254.334	13095.48
254.405	13058.26
254.475	13019.36
254.546	12994.54
254.616	12993.62
254.687	12982.24
254.757	12955.25
254.827	12932.54
254.898	12916.88
254.968	12896.15
255.039	12869.68
255.109	12852.14
255.18	12826.78
255.25	12782.96
255.321	12764.5
255.391	12727.19
255.461	12741.99
255.532	12696
255.602	12677.05
255.673	12640.18
255.743	12606.58
255.813	12559.96
255.884	12552.06
255.954	12542.13
256.024	12537.89
256.095	12509.64
256.165	12466.16
256.235	12449
256.306	12423.02
256.376	12411.54
256.446	12402
256.517	12393.56
256.587	12389.13
256.657	12368.98
256.728	12355
256.798	12346.57
256.868	12320.92
256.938	12280.43
257.009	12274.02
257.079	12253.63
257.149	12257.68
257.219	12218.05
257.29	12213.09
257.36	12176.75
257.43	12171.49
257.5	12128.01
257.571	12102.08
257.641	12094.8
257.711	12057.54
257.781	12044.14
257.852	12021.1
257.922	11974.97
257.992	11954.05
258.062	11926.96
258.132	11921.37
258.202	11904.65
258.273	11882.96
258.343	11888.4
258.413	11863.92
258.483	11839.19
258.553	11810.9
258.623	11778.89
258.693	11767.9
258.764	11762.31
258.834	11755.08
258.904	11730.93
258.974	11701.97
259.044	11679.89
259.114	11666.98
259.184	11657.19
259.254	11636.51
259.324	11600.22
259.394	11595.21
259.464	11585.47
259.535	11563.64
259.605	11534.33
259.675	11507.06
259.745	11491.25
259.815	11453.7
259.885	11428.21
259.955	11435.77
260.025	11405.46
260.095	11391.29
260.165	11377.12
260.235	11373.7
260.305	11346.32
260.375	11312.93
260.445	11319
260.515	11321.26
260.585	11314.9
260.655	11299.19
260.725	11290.66
260.795	11279.48
260.865	11277.94
260.934	11248.15
261.004	11239.33
261.074	11222.75
261.144	11215.04
261.214	11204.54
261.284	11190.37
261.354	11190.8
261.424	11164
261.494	11166.03
261.564	11148.63
261.634	11135.91
261.703	11095.33
261.773	11089.16
261.843	11083.81
261.913	11066.22
261.983	11027.05
262.053	11010.18
262.123	10987.72
262.192	10954.81
262.262	10951
262.332	10921.61
262.402	10917.12
262.472	10900.31
