Data from 20250630_urea_2M_MAYP1162681_12-12-26-916.txt Node
Date: Tue Jul 01 12:12:26 BST 2025
User: adleo
Spectrometer: MAYP116268
Trigger mode: 0
Integration Time (sec): 1.000000E0
Scans to average: 1
Electric dark correction enabled: true
Nonlinearity correction enabled: true
Boxcar width: 10
XAxis mode: Wavelengths
Number of Pixels in Spectrum: 2068
>>>>>Begin Spectral Data<<<<<
179.565	1124.74
179.642	1175.13
179.718	1214.63
179.795	1253.33
179.871	1283.94
179.948	1301.88
180.024	1320.4
180.101	1340.8
180.177	1352.17
180.254	1371.34
180.33	1392.53
180.407	1439.8
180.483	1529.59
180.56	1614.02
180.636	1693.73
180.712	1680.28
180.789	1690.4
180.865	1699.85
180.942	1707.59
181.018	1718.24
181.095	1732.07
181.171	1737.91
181.248	1739
181.324	1752.22
181.4	1754.69
181.477	1764.29
181.553	1776.6
181.63	1796.18
181.706	1809.96
181.782	1819.79
181.859	1819.75
181.935	1823.74
182.011	1819.56
182.088	1835.44
182.164	1851.6
182.24	1863.1
182.317	1874.27
182.393	1870.52
182.469	1886.3
182.546	1899.65
182.622	1902.22
182.698	1897.61
182.775	1907.02
182.851	1919.67
182.927	1915.44
183.003	1914.91
183.08	1909.11
183.156	1917.01
183.232	1915.25
183.308	1905.07
183.385	1912.06
183.461	1928.13
183.537	1929.41
183.613	1941.92
183.69	1935.35
183.766	1926.08
183.842	1932.36
183.918	1936.06
183.995	1948.9
184.071	1951.18
184.147	1947.76
184.223	1936.97
184.299	1946.39
184.375	1933.88
184.452	1941.3
184.528	1998.11
184.604	2006.57
184.68	2018.12
184.756	2022.69
184.832	2025.63
184.908	2033.81
184.985	2032.91
185.061	2020.78
185.137	2030.91
185.213	2021.88
185.289	2022.16
185.365	2013.75
185.441	2014.61
185.517	2027.64
185.593	2024.31
185.669	2022.17
185.745	2031.4
185.822	2049.98
185.898	2047.22
185.974	2056.87
186.05	2046.79
186.126	2001.92
186.202	1994.37
186.278	1992.42
186.354	1985.95
186.43	1992.94
186.506	1988
186.582	1989.14
186.658	1994.89
186.734	1973.54
186.81	1974.11
186.886	1974.21
186.962	1989.14
187.038	1983.29
187.114	1977.72
187.19	1983.71
187.266	1975.68
187.341	1974.02
187.417	1964.65
187.493	1961.51
187.569	1963.41
187.645	1959.75
187.721	1950.67
187.797	1959.99
187.873	1963.65
187.949	1955
188.025	1951.29
188.101	1954.52
188.176	1957.23
188.252	1954.71
188.328	1961.65
188.404	1961.98
188.48	1957.13
188.556	1948.86
188.632	1949.71
188.707	1947.62
188.783	1947.14
188.859	1939.68
188.935	1931.79
189.011	1939.54
189.086	1935.59
189.162	1929.51
189.238	1927.61
189.314	1925.51
189.39	1918.14
189.465	1912.58
189.541	1930.03
189.617	1910.92
189.693	1908.16
189.768	1912.49
189.844	1934.13
189.92	1928.19
189.996	1936.47
190.071	1948.97
190.147	1948.83
190.223	1956.06
190.298	1948.26
190.374	1934.52
190.45	1949.06
190.526	1958.62
190.601	1954.58
190.677	1955.34
190.753	1981.55
190.828	1985.64
190.904	1999.62
190.98	2013.55
191.055	2020.88
191.131	2013.93
191.207	2034.43
191.282	2042.98
191.358	2033.33
191.433	2019.25
191.509	2032.46
191.585	2029.85
191.66	2029.66
191.736	2037.22
191.811	2028.8
191.887	2046.83
191.963	2070.13
192.038	2075.93
192.114	2076.17
192.189	2078.22
192.265	2075.7
192.34	2055.14
192.416	2053.91
192.491	2047.48
192.567	2051.58
192.642	2054.43
192.718	2055.48
192.793	2042.11
192.869	2037.64
192.944	2040.5
193.02	2045.97
193.095	2049.29
193.171	2055.48
193.246	2054.91
193.322	2053.1
193.397	2054.86
193.473	2040.06
193.548	2023.65
193.624	2029.7
193.699	2027.17
193.775	2042.26
193.85	2043.44
193.925	2049.86
194.001	2047.53
194.076	2040.69
194.152	2033.27
194.227	2025.61
194.302	2016.05
194.378	2023.56
194.453	2021.09
194.529	2031.98
194.604	2017.86
194.679	2011.82
194.755	1993.9
194.83	2006.79
194.905	2002.99
194.981	2013.12
195.056	2007.27
195.131	2013.02
195.207	2010.69
195.282	1999.9
195.357	1980.11
195.433	1993.57
195.508	1981.39
195.583	1989.33
195.659	2004.98
195.734	2011.36
195.809	2011.59
195.884	2020.39
195.96	2018.92
196.035	2033.04
196.11	2030.52
196.185	2043.79
196.261	2048.26
196.336	2077.84
196.411	2062.42
196.486	2069.65
196.561	2060.66
196.637	2068.27
196.712	2083.73
196.787	2083.59
196.862	2100.33
196.937	2114.98
197.013	2122.59
197.088	2136.91
197.163	2156.22
197.238	2173.93
197.313	2173.36
197.388	2186.4
197.464	2214.57
197.539	2226.7
197.614	2220.9
197.689	2229.79
197.764	2246.93
197.839	2266.82
197.914	2261.49
197.989	2281.9
198.065	2292.37
198.14	2342.03
198.215	2367.83
198.29	2379.35
198.365	2393.34
198.44	2401.72
198.515	2423.81
198.59	2436.24
198.665	2459.75
198.74	2467.85
198.815	2466.8
198.89	2484.89
198.965	2511.42
199.04	2505.13
199.115	2518.03
199.19	2558.93
199.265	2563.84
199.34	2570.17
199.415	2599.67
199.49	2618.28
199.565	2628.9
199.64	2655.57
199.715	2652.38
199.79	2658.57
199.865	2665.62
199.94	2661.01
200.015	2693.4
200.09	2699.88
200.165	2709.46
200.24	2716.32
200.315	2755.18
200.39	2769.85
200.464	2778.95
200.539	2784.2
200.614	2802.68
200.689	2824.07
200.764	2828.41
200.839	2848.37
200.914	2854.32
200.989	2844.36
201.063	2860.04
201.138	2842.09
201.213	2837.18
201.288	2818.17
201.363	2826.03
201.438	2822.41
201.512	2839.98
201.587	2820.82
201.662	2825.16
201.737	2834.31
201.812	2840.89
201.886	2810.46
201.961	2819.9
202.036	2805.57
202.111	2799.08
202.186	2769.08
202.26	2753.16
202.335	2733.2
202.41	2722.62
202.485	2708.48
202.559	2689.13
202.634	2659.31
202.709	2668.98
202.784	2654.07
202.858	2653.97
202.933	2632.96
203.008	2628.92
203.082	2611.48
203.157	2610.39
203.232	2567.97
203.306	2548
203.381	2517.42
203.456	2495.18
203.53	2474.4
203.605	2456.03
203.68	2436.84
203.754	2429.46
203.829	2415.89
203.904	2396.57
203.978	2387.19
204.053	2390
204.127	2378.57
204.202	2378.14
204.277	2361.96
204.351	2354.49
204.426	2348.06
204.5	2338.49
204.575	2308.08
204.65	2314.75
204.724	2309.18
204.799	2318.55
204.873	2312.36
204.948	2308.93
205.022	2296.09
205.097	2284.85
205.171	2301.07
205.246	2304.5
205.32	2305.31
205.395	2305.36
205.469	2298.6
205.544	2302.37
205.618	2283.04
205.693	2296.27
205.767	2286.42
205.842	2306.37
205.916	2299.56
205.991	2291.62
206.065	2297.76
206.14	2311.36
206.214	2304.84
206.289	2297.41
206.363	2309.12
206.438	2310.36
206.512	2317.88
206.586	2337.19
206.661	2343.81
206.735	2323.69
206.81	2327.26
206.884	2342.06
206.958	2330.21
207.033	2347.19
207.107	2356.77
207.181	2391.91
207.256	2385.91
207.33	2404.04
207.405	2418.24
207.479	2438.23
207.553	2443.42
207.628	2428.53
207.702	2437.76
207.776	2438.24
207.851	2439.9
207.925	2453.62
207.999	2451.57
208.073	2450.86
208.148	2453.1
208.222	2444.34
208.296	2472.23
208.371	2486.71
208.445	2498.33
208.519	2524.99
208.593	2535.46
208.668	2531.7
208.742	2530.22
208.816	2530.41
208.89	2544.42
208.965	2542.89
209.039	2551.32
209.113	2566.61
209.187	2587.64
209.261	2584.17
209.336	2600.27
209.41	2622.7
209.484	2620.32
209.558	2641.9
209.632	2654.28
209.707	2667.57
209.781	2690.86
209.855	2707.82
209.929	2722.37
210.003	2725.94
210.077	2727.89
210.151	2772.77
210.226	2804.28
210.3	2831.37
210.374	2856.37
210.448	2858.66
210.522	2868.72
210.596	2874.77
210.67	2884.92
210.744	2929.26
210.818	2960.03
210.892	2980.63
210.966	2976.01
211.041	2992.78
211.115	2991.54
211.189	3014.76
211.263	3028.96
211.337	3034.3
211.411	3044.22
211.485	3038.97
211.559	3053.75
211.633	3055.23
211.707	3024.12
211.781	3030.95
211.855	2999.76
211.929	2989.04
212.003	2973.13
212.077	2984.05
212.151	2999.45
212.225	3011.42
212.299	3003.16
212.373	2996.73
212.447	2993.01
212.52	3020.62
212.594	3028.34
212.668	3043.08
212.742	3037.78
212.816	3044.13
212.89	3042.22
212.964	3050.71
213.038	3061.11
213.112	3081.43
213.186	3103.32
213.26	3092.07
213.333	3059.55
213.407	3074.28
213.481	3090.24
213.555	3112.5
213.629	3110.3
213.703	3105.34
213.777	3115.6
213.85	3109.64
213.924	3155.45
213.998	3170.86
214.072	3176.11
214.146	3179.64
214.219	3192.14
214.293	3203.16
214.367	3214.46
214.441	3248.68
214.515	3254.69
214.588	3257.74
214.662	3239.47
214.736	3244.57
214.81	3279.24
214.883	3311.24
214.957	3325.69
215.031	3336.99
215.105	3344.34
215.178	3359.61
215.252	3384.38
215.326	3390.11
215.4	3402.22
215.473	3387.08
215.547	3398.06
215.621	3421.13
215.694	3460.68
215.768	3473.23
215.842	3497.77
215.915	3521.51
215.989	3526.9
216.063	3555.95
216.136	3590.48
216.21	3636.21
216.284	3688.43
216.357	3727.84
216.431	3767.02
216.504	3817.18
216.578	3886.96
216.652	3940.3
216.725	3987.67
216.799	4041.13
216.873	4089.64
216.946	4150.72
217.02	4196.45
217.093	4250.39
217.167	4284.82
217.24	4319.6
217.314	4368.99
217.387	4414.47
217.461	4461.25
217.535	4533.21
217.608	4577.42
217.682	4632.31
217.755	4694.44
217.829	4737.19
217.902	4792.68
217.976	4845.71
218.049	4892.16
218.123	4935.18
218.196	4996.28
218.27	5046.48
218.343	5092.86
218.417	5154.65
218.49	5209.18
218.563	5285.75
218.637	5345.27
218.71	5425.9
218.784	5497.91
218.857	5574.8
218.931	5647.22
219.004	5719.39
219.077	5786.5
219.151	5856.23
219.224	5919.93
219.298	5988.25
219.371	6065.31
219.444	6122.97
219.518	6197.92
219.591	6272.25
219.665	6362.42
219.738	6435.43
219.811	6496.24
219.885	6574.26
219.958	6654.79
220.031	6722.82
220.105	6796.17
220.178	6866.15
220.251	6929.81
220.325	6998.95
220.398	7069.05
220.471	7141.46
220.544	7210.65
220.618	7273.76
220.691	7348.44
220.764	7422.56
220.838	7492.6
220.911	7563.23
220.984	7654.09
221.057	7728.62
221.131	7797.28
221.204	7845.38
221.277	7934.41
221.35	8029.87
221.424	8094.86
221.497	8169.43
221.57	8242.3
221.643	8312.26
221.716	8392.22
221.79	8448.8
221.863	8521.23
221.936	8590.48
222.009	8661.94
222.082	8740.72
222.155	8804.4
222.229	8889.6
222.302	8961.61
222.375	9029.92
222.448	9097.08
222.521	9163.38
222.594	9229.53
222.667	9286.38
222.74	9362.22
222.814	9420.06
222.887	9487.58
222.96	9561.64
223.033	9630.18
223.106	9694.03
223.179	9766.38
223.252	9833.33
223.325	9910.48
223.398	9975.27
223.471	10041.26
223.544	10097.42
223.617	10161.54
223.69	10223.54
223.763	10275.28
223.837	10338.78
223.91	10402.57
223.983	10453.39
224.056	10501
224.129	10563.58
224.202	10638.93
224.275	10689.33
224.348	10742.72
224.42	10783.39
224.493	10827.14
224.566	10872.35
224.639	10946.02
224.712	10996.53
224.785	11045.88
224.858	11102.79
224.931	11154.02
225.004	11202.36
225.077	11268.52
225.15	11302.21
225.223	11366.98
225.296	11443.76
225.369	11487.86
225.442	11543.63
225.514	11606.67
225.587	11675.16
225.66	11730.44
225.733	11789.44
225.806	11852.82
225.879	11903.43
225.952	11959.53
226.025	12031.45
226.097	12104.04
226.17	12151.04
226.243	12186.99
226.316	12250.19
226.389	12312.23
226.461	12374.41
226.534	12438.95
226.607	12492.75
226.68	12573.15
226.753	12628.54
226.825	12667.3
226.898	12741.19
226.971	12792.34
227.044	12851.05
227.117	12907.45
227.189	12971.23
227.262	13036.79
227.335	13095.27
227.407	13150.61
227.48	13214.86
227.553	13278.79
227.626	13332.44
227.698	13396.31
227.771	13462.69
227.844	13504.87
227.916	13550.14
227.989	13595.21
228.062	13645.01
228.134	13717.17
228.207	13766.92
228.28	13818.94
228.352	13865.02
228.425	13912.31
228.498	13970.31
228.57	14012.73
228.643	14072.26
228.716	14117.86
228.788	14170.84
228.861	14211.96
228.934	14277.23
229.006	14323.75
229.079	14366.61
229.151	14410.86
229.224	14440.5
229.296	14498.35
229.369	14582.13
229.442	14652.65
229.514	14694.01
229.587	14756.73
229.659	14785.17
229.732	14838.86
229.804	14887.07
229.877	14960.82
229.949	15018.9
230.022	15095.26
230.094	15146.21
230.167	15197.01
230.239	15233.26
230.312	15270.52
230.384	15342.49
230.457	15389.19
230.529	15441.25
230.602	15488.39
230.674	15540.98
230.747	15606.73
230.819	15664.33
230.892	15670.64
230.964	15719.08
231.037	15770.18
231.109	15809.8
231.181	15869.13
231.254	15904.56
231.326	15947.41
231.399	15980.62
231.471	16021.78
231.544	16038.65
231.616	16091.52
231.688	16130.13
231.761	16180.69
231.833	16224.45
231.905	16248.89
231.978	16286.43
232.05	16327.55
232.122	16366.1
232.195	16399.36
232.267	16446.16
232.339	16475.75
232.412	16529.73
232.484	16553.73
232.556	16589.4
232.629	16650.71
232.701	16687.86
232.773	16719.63
232.846	16756.98
232.918	16792.98
232.99	16828.5
233.062	16868.55
233.135	16901.61
233.207	16926.82
233.279	16957.47
233.351	16986.19
233.424	17009.09
233.496	17033.04
233.568	17070.15
233.64	17086.2
233.713	17114.63
233.785	17134.44
233.857	17154.78
233.929	17171.02
234.001	17207.74
234.074	17251.31
234.146	17247.79
234.218	17271.74
234.29	17296.03
234.362	17310.88
234.434	17318.83
234.507	17331.21
234.579	17337.33
234.651	17356.76
234.723	17382.35
234.795	17409.53
234.867	17425
234.939	17456.8
235.012	17478.39
235.084	17505.86
235.156	17538.1
235.228	17543.41
235.3	17551.31
235.372	17575.12
235.444	17612.75
235.516	17617.09
235.588	17632.08
235.66	17653.77
235.732	17651.4
235.804	17714.97
235.876	17737.81
235.948	17761.81
236.02	17772.37
236.092	17777.09
236.164	17786.44
236.236	17787.4
236.308	17789.86
236.38	17802.05
236.452	17802.58
236.524	17819.88
236.596	17842.29
236.668	17859.35
236.74	17870
236.812	17890.43
236.884	17904.84
236.956	17908.07
237.028	17901.33
237.1	17894.05
237.172	17913.37
237.244	17943.06
237.316	17912.46
237.388	17906.34
237.46	17905.81
237.532	17920.7
237.604	17920.94
237.675	17934.91
237.747	17951.49
237.819	17941.81
237.891	17945.85
237.963	17942.53
238.035	17926.87
238.107	17890.43
238.178	17901.23
238.25	17892.8
238.322	17909.08
238.394	17875.11
238.466	17865.18
238.538	17871.78
238.609	17871.4
238.681	17846
238.753	17824.89
238.825	17822.58
238.897	17820.32
238.968	17831.45
239.04	17815.64
239.112	17828.75
239.184	17816.32
239.255	17799.3
239.327	17801.76
239.399	17798.97
239.471	17798.05
239.542	17796.46
239.614	17795.59
239.686	17754.58
239.758	17758.53
239.829	17727.02
239.901	17746.15
239.973	17732.75
240.044	17720.37
240.116	17702.58
240.188	17695.31
240.259	17686.54
240.331	17663.02
240.403	17663.45
240.474	17628.8
240.546	17604.22
240.618	17582.92
240.689	17559.55
240.761	17547.45
240.833	17548.42
240.904	17528.08
240.976	17507.89
241.048	17498.11
241.119	17492.18
241.191	17478.39
241.262	17475.5
241.334	17460.85
241.405	17426.2
241.477	17398.44
241.549	17382.15
241.62	17371.36
241.692	17353.67
241.763	17343.79
241.835	17331.17
241.906	17307.74
241.978	17277.48
242.049	17274.73
242.121	17264.03
242.192	17250.78
242.264	17215.11
242.335	17180.99
242.407	17161.38
242.478	17137.72
242.55	17115.64
242.621	17087.74
242.693	17064.03
242.764	17037.81
242.836	17016.17
242.907	17006.05
242.979	16996.46
243.05	16973.13
243.122	16959.45
243.193	16937.23
243.264	16894.14
243.336	16874.29
243.407	16865.18
243.479	16857.37
243.55	16838.53
243.622	16816.5
243.693	16795.29
243.764	16787.15
243.836	16748.93
243.907	16724.74
243.978	16704.06
244.05	16680.59
244.121	16636.78
244.192	16627.09
244.264	16583.66
244.335	16555.04
244.407	16518.17
244.478	16489.73
244.549	16460.09
244.62	16422.06
244.692	16386.01
244.763	16368.08
244.834	16329.43
244.906	16284.46
244.977	16275.25
245.048	16258.29
245.119	16222.77
245.191	16180.21
245.262	16133.7
245.333	16129.74
245.405	16106.75
245.476	16083.76
245.547	16064.05
245.618	16050.02
245.689	16020.24
245.761	16005.05
245.832	15979.75
245.903	15956.86
245.974	15941.91
246.045	15918.06
246.117	15906.82
246.188	15873.95
246.259	15839.3
246.33	15810.91
246.401	15789.65
246.473	15739.47
246.544	15698.46
246.615	15685.88
246.686	15665.44
246.757	15655.46
246.828	15616.76
246.899	15601.81
246.97	15553.08
247.042	15516.35
247.113	15498.57
247.184	15488.06
247.255	15448.92
247.326	15416
247.397	15387.8
247.468	15352.81
247.539	15323.74
247.61	15280.7
247.681	15264.93
247.752	15252.69
247.823	15218.9
247.894	15190.12
247.965	15156.38
248.037	15125.68
248.108	15077.23
248.179	15040.21
248.25	15008.35
248.321	14987.72
248.392	14945.01
248.463	14945.49
248.534	14913.49
248.605	14895.8
248.675	14863.16
248.746	14847.98
248.817	14834.82
248.888	14821.85
248.959	14775.43
249.03	14754.13
249.101	14732.53
249.172	14704.09
249.243	14648.75
249.314	14635.93
249.385	14612.74
249.456	14588.78
249.527	14565.02
249.598	14551.23
249.669	14531.32
249.739	14517.73
249.81	14496.37
249.881	14453.47
249.952	14423.78
250.023	14398.18
250.094	14348.38
250.165	14312.71
250.235	14281.38
250.306	14255.69
250.377	14212.78
250.448	14199.62
250.519	14153.88
250.59	14133.77
250.66	14100.51
250.731	14098.54
250.802	14066
250.873	14043.68
250.944	14028.3
251.014	13999.42
251.085	13995.23
251.156	13977.01
251.227	13958.5
251.297	13939.7
251.368	13932.47
251.439	13918
251.51	13914.39
251.58	13890.09
251.651	13863.58
251.722	13848.59
251.792	13799.61
251.863	13770.06
251.934	13760.32
252.005	13770.2
252.075	13744.85
252.146	13731.4
252.217	13721.47
252.287	13708.88
252.358	13677.5
252.429	13666.56
252.499	13635.08
252.57	13610.25
252.641	13590.78
252.711	13568.07
252.782	13528.98
252.852	13523.53
252.923	13494.46
252.994	13462.5
253.064	13453.24
253.135	13420.08
253.205	13390.53
253.276	13391.49
253.347	13386.53
253.417	13354.9
253.488	13320.34
253.558	13296.09
253.629	13270.4
253.699	13245.67
253.77	13237.28
253.841	13212.98
253.911	13198.95
253.982	13176.49
254.052	13158.94
254.123	13143.04
254.193	13120.09
254.264	13138.31
254.334	13106.83
254.405	13073.81
254.475	13040.36
254.546	13017.46
254.616	13011.67
254.687	12992.34
254.757	12970.46
254.827	12952.96
254.898	12936.52
254.968	12917.77
255.039	12892.75
255.109	12879.78
255.18	12856.35
255.25	12808.49
255.321	12796.34
255.391	12752.76
255.461	12758.79
255.532	12713.47
255.602	12680.4
255.673	12637.74
255.743	12609.74
255.813	12565.87
255.884	12555.41
255.954	12540.51
256.024	12530.87
256.095	12506
256.165	12478.38
256.235	12462.9
256.306	12431.62
256.376	12419.81
256.446	12405.06
256.517	12388.81
256.587	12383.32
256.657	12359.36
256.728	12335.07
256.798	12317.18
256.868	12287.73
256.938	12254.09
257.009	12236.64
257.079	12226.71
257.149	12229.41
257.219	12178.89
257.29	12161.01
257.36	12122.35
257.43	12114.83
257.5	12068.65
257.571	12044.17
257.641	12032.5
257.711	11995.92
257.781	11980.35
257.852	11960.54
257.922	11925.06
257.992	11899.76
258.062	11877.82
258.132	11872.09
258.202	11857.68
258.273	11834.39
258.343	11837.62
258.413	11812.7
258.483	11797.23
258.553	11768.41
258.623	11738.38
258.693	11730.57
258.764	11732.07
258.834	11728.89
258.904	11710.76
258.974	11689.65
259.044	11666.71
259.114	11653.41
259.184	11642.61
259.254	11622.18
259.324	11580.92
259.394	11571.86
259.464	11571.23
259.535	11543.37
259.605	11512.62
259.675	11494.55
259.745	11485.25
259.815	11452.91
259.885	11424.37
259.955	11429.63
260.025	11404.95
260.095	11388.76
260.165	11369.1
260.235	11363.31
260.305	11339.46
260.375	11305
260.445	11311.31
260.515	11313.24
260.585	11298.35
260.655	11279.65
260.725	11268.75
260.795	11260.47
260.865	11255.79
260.934	11227.36
261.004	11217.38
261.074	11202.87
261.144	11195.21
261.214	11184.03
261.284	11166.87
261.354	11165.57
261.424	11139.11
261.494	11141.81
261.564	11126.63
261.634	11124.17
261.703	11088.13
261.773	11077.86
261.843	11072.08
261.913	11051.12
261.983	11009.91
262.053	11003.31
262.123	10984.81
262.192	10955.27
262.262	10952.86
262.332	10917.92
262.402	10911.27
262.472	10891.27
262.541	10846.85
262.611	10840.78
