Data from 20250630_urea_2M_MAYP1162681_09-22-26-706.txt Node
Date: Tue Jul 01 09:22:26 BST 2025
User: adleo
Spectrometer: MAYP116268
Trigger mode: 0
Integration Time (sec): 1.000000E0
Scans to average: 1
Electric dark correction enabled: true
Nonlinearity correction enabled: true
Boxcar width: 10
XAxis mode: Wavelengths
Number of Pixels in Spectrum: 2068
>>>>>Begin Spectral Data<<<<<
179.565	1090.57
179.642	1140.06
179.718	1179.09
179.795	1215.11
179.871	1244.21
179.948	1258.75
180.024	1278.92
180.101	1302.23
180.177	1316.62
180.254	1338.25
180.33	1356.92
180.407	1403.82
180.483	1491.23
180.56	1571.52
180.636	1648.33
180.712	1635.98
180.789	1646.62
180.865	1655.02
180.942	1664
181.018	1673.27
181.095	1683.96
181.171	1690.56
181.248	1692.13
181.324	1709.1
181.4	1713.52
181.477	1723.16
181.553	1736.75
181.63	1754.47
181.706	1766.64
181.782	1773.34
181.859	1773.01
181.935	1780.18
182.011	1774.43
182.088	1790.12
182.164	1808.42
182.24	1821.68
182.317	1831.09
182.393	1828.52
182.469	1845.25
182.546	1857.42
182.622	1860.27
182.698	1856.85
182.775	1865.97
182.851	1878.57
182.927	1869.11
183.003	1868.21
183.08	1865.31
183.156	1873.29
183.232	1870.15
183.308	1859.13
183.385	1867.73
183.461	1881.09
183.537	1879.9
183.613	1891.59
183.69	1882.23
183.766	1872.76
183.842	1878.23
183.918	1881.51
183.995	1894.11
184.071	1897.34
184.147	1893.02
184.223	1884.23
184.299	1897.3
184.375	1887.13
184.452	1892.36
184.528	1946.15
184.604	1953.99
184.68	1962.07
184.756	1968.78
184.832	1973.72
184.908	1977.86
184.985	1976.67
185.061	1963.4
185.137	1974.29
185.213	1963.5
185.289	1965.78
185.365	1958.99
185.441	1955.8
185.517	1969.93
185.593	1968.74
185.669	1962.84
185.745	1974.59
185.822	1989.22
185.898	1982.9
185.974	1993.36
186.05	1985.51
186.126	1944.7
186.202	1938.33
186.278	1935.81
186.354	1928.39
186.43	1932.15
186.506	1933.24
186.582	1932.77
186.658	1939.19
186.734	1918.84
186.81	1920.98
186.886	1921.5
186.962	1934.72
187.038	1933.01
187.114	1921.59
187.19	1926.2
187.266	1915.32
187.341	1915.98
187.417	1908.71
187.493	1905.05
187.569	1905.1
187.645	1903.25
187.721	1894.54
187.797	1904.53
187.873	1907.43
187.949	1897.78
188.025	1892.83
188.101	1892.64
188.176	1898.82
188.252	1895.78
188.328	1904.19
188.404	1905.57
188.48	1902.05
188.556	1895.4
188.632	1895.21
188.707	1899.06
188.783	1897.82
188.859	1897.44
188.935	1883.27
189.011	1893.45
189.086	1892.59
189.162	1886.41
189.238	1880.56
189.314	1878.81
189.39	1868.73
189.465	1861.69
189.541	1880.42
189.617	1867.16
189.693	1863.36
189.768	1865.74
189.844	1889.18
189.92	1880.3
189.996	1887.48
190.071	1899.17
190.147	1898.36
190.223	1906.78
190.298	1898.03
190.374	1885.05
190.45	1897.13
190.526	1908.34
190.601	1902.16
190.677	1900.88
190.753	1925.81
190.828	1933.17
190.904	1947.06
190.98	1962.89
191.055	1974.59
191.131	1965.84
191.207	1985
191.282	1993.36
191.358	1983.76
191.433	1967.58
191.509	1979.84
191.585	1978.37
191.66	1980.56
191.736	1987.59
191.811	1979.65
191.887	1995.35
191.963	2015.89
192.038	2018.93
192.114	2017.13
192.189	2020.12
192.265	2016.22
192.34	1996.2
192.416	1993.49
192.491	1988.21
192.567	1992.77
192.642	1995.39
192.718	1994.44
192.793	1984.45
192.869	1981.69
192.944	1984.21
193.02	1991.54
193.095	1995.72
193.171	2000.19
193.246	1997.05
193.322	1992.11
193.397	1994.25
193.473	1981.36
193.548	1963.62
193.624	1969.8
193.699	1971.09
193.775	1985.4
193.85	1988.54
193.925	1996.96
194.001	1996.06
194.076	1988.16
194.152	1977.17
194.227	1970.14
194.302	1962.01
194.378	1964.01
194.453	1960.49
194.529	1971.33
194.604	1956.64
194.679	1949.7
194.755	1932.3
194.83	1945
194.905	1943.29
194.981	1951.23
195.056	1945.15
195.131	1951.76
195.207	1949.38
195.282	1940.06
195.357	1921.13
195.433	1934.49
195.508	1921.27
195.583	1927.12
195.659	1941.62
195.734	1947.66
195.809	1947.9
195.884	1954.6
195.96	1954.79
196.035	1970.86
196.11	1964.92
196.185	1975.81
196.261	1979.75
196.336	2011.14
196.411	1996.77
196.486	2001.72
196.561	1993.77
196.637	1999.34
196.712	2016.46
196.787	2019.51
196.862	2034.86
196.937	2046.8
197.013	2053.89
197.088	2065.3
197.163	2087.52
197.238	2101.13
197.313	2100.13
197.388	2111.74
197.464	2142.9
197.539	2152.51
197.614	2143.52
197.689	2157.6
197.764	2176.06
197.839	2196.47
197.914	2187.81
197.989	2208.13
198.065	2224.11
198.14	2270.48
198.215	2296.27
198.29	2308.84
198.365	2320.59
198.44	2330.58
198.515	2354.72
198.59	2367.95
198.665	2390.6
198.74	2394.7
198.815	2398.94
198.89	2421.4
198.965	2449.69
199.04	2446.21
199.115	2462.92
199.19	2505.33
199.265	2506.09
199.34	2512.76
199.415	2541.82
199.49	2560.76
199.565	2569.29
199.64	2591.29
199.715	2589.62
199.79	2595.57
199.865	2598.91
199.94	2600.53
200.015	2627.15
200.09	2633.3
200.165	2638.78
200.24	2647.54
200.315	2690.26
200.39	2701.5
200.464	2706.55
200.539	2708.03
200.614	2720.93
200.689	2741.37
200.764	2744.61
200.839	2764.33
200.914	2770
200.989	2760.13
201.063	2776.47
201.138	2762.29
201.213	2762.52
201.288	2742.99
201.363	2748.71
201.438	2749.18
201.512	2761.71
201.587	2747.08
201.662	2746.75
201.737	2759.33
201.812	2765.48
201.886	2731.19
201.961	2741.39
202.036	2729.72
202.111	2726.82
202.186	2699.68
202.26	2686.57
202.335	2668.52
202.41	2661.56
202.485	2645.32
202.559	2627.03
202.634	2601.98
202.709	2610.79
202.784	2591.02
202.858	2590.07
202.933	2576.21
203.008	2570.11
203.082	2552.68
203.157	2551.92
203.232	2517.7
203.306	2495.31
203.381	2466.78
203.456	2445.69
203.53	2423.96
203.605	2405.88
203.68	2384.11
203.754	2378.36
203.829	2361.6
203.904	2344.27
203.978	2333.89
204.053	2338.37
204.127	2326.95
204.202	2324.09
204.277	2308.15
204.351	2299.25
204.426	2295.68
204.5	2287.59
204.575	2255.75
204.65	2262.94
204.724	2254.71
204.799	2259.46
204.873	2255.32
204.948	2252.89
205.022	2242.19
205.097	2235.14
205.171	2249.37
205.246	2254.75
205.32	2254.99
205.395	2254.84
205.469	2246.47
205.544	2249.61
205.618	2231.72
205.693	2242.43
205.767	2231.63
205.842	2253.43
205.916	2250.86
205.991	2240.39
206.065	2245.72
206.14	2260.22
206.214	2255.08
206.289	2248.23
206.363	2262.65
206.438	2269.17
206.512	2276.12
206.586	2294.67
206.661	2303.01
206.735	2282.17
206.81	2284.7
206.884	2299.21
206.958	2286.17
207.033	2300.01
207.107	2309.44
207.181	2337.19
207.256	2334.96
207.33	2354.66
207.405	2366.24
207.479	2383.08
207.553	2389.51
207.628	2372.62
207.702	2383.47
207.776	2380.95
207.851	2385.42
207.925	2398.09
207.999	2391.8
208.073	2390.52
208.148	2392.85
208.222	2381.19
208.296	2414.07
208.371	2427.74
208.445	2437.59
208.519	2465.86
208.593	2477.53
208.668	2471.43
208.742	2477.05
208.816	2477.43
208.89	2486.67
208.965	2481.48
209.039	2489.2
209.113	2506
209.187	2524.94
209.261	2521.37
209.336	2540.08
209.41	2558.61
209.484	2557.56
209.558	2576.28
209.632	2588.47
209.707	2596.9
209.781	2616.76
209.855	2629.1
209.929	2644.16
210.003	2652.73
210.077	2653.26
210.151	2699.17
210.226	2731.53
210.3	2755.99
210.374	2776.52
210.448	2780.14
210.522	2790.34
210.596	2798.96
210.67	2807.3
210.744	2852.01
210.818	2882.21
210.892	2899.75
210.966	2893.8
211.041	2911
211.115	2908.91
211.189	2929.25
211.263	2949.42
211.337	2956.85
211.411	2970.15
211.485	2969.39
211.559	2977.92
211.633	2983.68
211.707	2953.78
211.781	2963.22
211.855	2933.09
211.929	2928.62
212.003	2915.61
212.077	2928.2
212.151	2947.8
212.225	2959.19
212.299	2949.32
212.373	2943.79
212.447	2942.64
212.52	2974.11
212.594	2982.12
212.668	3000.38
212.742	2995.7
212.816	2994.46
212.89	2999.95
212.964	3006.05
213.038	3014.73
213.112	3038.68
213.186	3058.32
213.26	3052.27
213.333	3020.42
213.407	3035.76
213.481	3053.82
213.555	3079.08
213.629	3079.89
213.703	3075.5
213.777	3090.77
213.85	3095.58
213.924	3141.97
213.998	3160.81
214.072	3179
214.146	3187.78
214.219	3208.25
214.293	3230.9
214.367	3258.63
214.441	3290.22
214.515	3303.63
214.588	3309.64
214.662	3305.92
214.736	3318.61
214.81	3357.91
214.883	3400.51
214.957	3425.65
215.031	3448.31
215.105	3461.05
215.178	3488.74
215.252	3520.34
215.326	3540.53
215.4	3557.38
215.473	3555.76
215.547	3582.46
215.621	3608.74
215.694	3654.7
215.768	3681.6
215.842	3712.45
215.915	3745.95
215.989	3770.71
216.063	3817.02
216.136	3869.78
216.21	3918.99
216.284	3981.37
216.357	4031.75
216.431	4081.42
216.504	4147.68
216.578	4223.44
216.652	4293.41
216.725	4349.9
216.799	4419.9
216.873	4480.27
216.946	4549.33
217.02	4601.08
217.093	4659.56
217.167	4702.69
217.24	4747.97
217.314	4807.42
217.387	4869.55
217.461	4928.59
217.535	5006.32
217.608	5062.36
217.682	5128.86
217.755	5207.05
217.829	5266.37
217.902	5337.73
217.976	5408.56
218.049	5462.49
218.123	5512.06
218.196	5588.82
218.27	5651.05
218.343	5708.32
218.417	5778.54
218.49	5851.87
218.563	5945.01
218.637	6023.51
218.71	6120.58
218.784	6212.39
218.857	6298.82
218.931	6379.97
219.004	6461.58
219.077	6544.42
219.151	6623.93
219.224	6698.32
219.298	6775.36
219.371	6865.53
219.444	6931.77
219.518	7009.16
219.591	7094.43
219.665	7209.1
219.738	7290.9
219.811	7365.42
219.885	7457.86
219.958	7546.94
220.031	7627.55
220.105	7711.12
220.178	7793.01
220.251	7861.78
220.325	7944.76
220.398	8023.78
220.471	8107.08
220.544	8192.71
220.618	8260.35
220.691	8341.27
220.764	8420.22
220.838	8499.86
220.911	8571.04
220.984	8668.29
221.057	8754.53
221.131	8829.32
221.204	8872.64
221.277	8961.32
221.35	9068.52
221.424	9135.59
221.497	9212.33
221.57	9277.56
221.643	9355.19
221.716	9438.69
221.79	9515.3
221.863	9584.89
221.936	9660.65
222.009	9730.14
222.082	9805.04
222.155	9875.06
222.229	9962.68
222.302	10043.08
222.375	10113.21
222.448	10195.83
222.521	10266.12
222.594	10332.41
222.667	10401.2
222.74	10489.03
222.814	10553.98
222.887	10622.17
222.96	10706.78
223.033	10780.41
223.106	10862.85
223.179	10941.49
223.252	11010.98
223.325	11078.59
223.398	11147.17
223.471	11213.53
223.544	11288.65
223.617	11360.27
223.69	11434.25
223.763	11490.2
223.837	11555.75
223.91	11627.18
223.983	11672.77
224.056	11722.61
224.129	11788.45
224.202	11860.6
224.275	11908.75
224.348	11962.54
224.42	12004.28
224.493	12039.76
224.566	12096.44
224.639	12166.82
224.712	12212.47
224.785	12265.15
224.858	12325.46
224.931	12382.53
225.004	12436.71
225.077	12488.43
225.15	12518.22
225.223	12563.78
225.296	12640.23
225.369	12682.02
225.442	12733.84
225.514	12796.12
225.587	12862.79
225.66	12925.6
225.733	12985.38
225.806	13047.18
225.879	13101.56
225.952	13154.2
226.025	13230.8
226.097	13299.25
226.17	13349.48
226.243	13390.07
226.316	13448.16
226.389	13506.1
226.461	13565.16
226.534	13624.98
226.607	13680.03
226.68	13764.78
226.753	13829.95
226.825	13860.52
226.898	13938.85
226.971	13998.29
227.044	14055.41
227.117	14113.31
227.189	14171.73
227.262	14231.6
227.335	14293.79
227.407	14347.2
227.48	14410.3
227.553	14465.88
227.626	14514.43
227.698	14569.81
227.771	14630.07
227.844	14677.94
227.916	14726.86
227.989	14766.78
228.062	14814.79
228.134	14889.02
228.207	14932.02
228.28	14975.69
228.352	15021.25
228.425	15060.87
228.498	15106.28
228.57	15141.32
228.643	15196.9
228.716	15235.12
228.788	15284.62
228.861	15328.54
228.934	15385.46
229.006	15427.78
229.079	15468.42
229.151	15500.08
229.224	15536.57
229.296	15595.52
229.369	15661.7
229.442	15719.93
229.514	15753.23
229.587	15798.4
229.659	15823.36
229.732	15866.6
229.804	15919.18
229.877	15987.48
229.949	16042.09
230.022	16113.86
230.094	16162.15
230.167	16202.01
230.239	16239.8
230.312	16271.71
230.384	16333.21
230.457	16378.95
230.529	16423.53
230.602	16468.69
230.674	16516.4
230.747	16560.6
230.819	16603.21
230.892	16616.46
230.964	16658.39
231.037	16710.25
231.109	16756.04
231.181	16802.88
231.254	16836.72
231.326	16877.01
231.399	16915.37
231.471	16946.65
231.544	16957.93
231.616	17003.28
231.688	17048.68
231.761	17080.15
231.833	17117.79
231.905	17129.11
231.978	17160.05
232.05	17197.31
232.122	17232.49
232.195	17268.3
232.267	17313.16
232.339	17344.63
232.412	17386.9
232.484	17419.04
232.556	17446.56
232.629	17493.31
232.701	17524.54
232.773	17548.39
232.846	17571.81
232.918	17598.85
232.99	17629.69
233.062	17661.11
233.135	17690.95
233.207	17692.58
233.279	17729.98
233.351	17757.16
233.424	17780.68
233.496	17795.52
233.568	17841.64
233.64	17847.42
233.713	17866.22
233.785	17889.5
233.857	17912
233.929	17920.53
234.001	17946.31
234.074	17978.6
234.146	17978.26
234.218	18002.31
234.29	18022.41
234.362	18036.43
234.434	18037.15
234.507	18039.08
234.579	18042.98
234.651	18052.33
234.723	18081.58
234.795	18097.87
234.867	18109.34
234.939	18129.25
235.012	18139.9
235.084	18143.85
235.156	18171.99
235.228	18175.61
235.3	18181.63
235.372	18185.63
235.444	18200.13
235.516	18191.22
235.588	18197.29
235.66	18212.18
235.732	18210.69
235.804	18275.41
235.876	18294.15
235.948	18309.33
236.02	18320.85
236.092	18328.18
236.164	18336.66
236.236	18331.16
236.308	18332.22
236.38	18338.92
236.452	18331.84
236.524	18342.87
236.596	18359.11
236.668	18361.72
236.74	18367.16
236.812	18370.05
236.884	18380.37
236.956	18386.92
237.028	18377.67
237.1	18363.93
237.172	18376.65
237.244	18386.73
237.316	18343.79
237.388	18334.68
237.46	18330.73
237.532	18337.43
237.604	18318.73
237.675	18329.72
237.747	18338.1
237.819	18322.92
237.891	18316.13
237.963	18307.79
238.035	18296.66
238.107	18252.42
238.178	18254.59
238.25	18250.25
238.322	18266.25
238.394	18240.37
238.466	18227.31
238.538	18224.37
238.609	18228.37
238.681	18197.87
238.753	18174.45
238.825	18163.94
238.897	18154.26
238.968	18162.01
239.04	18139.85
239.112	18167.46
239.184	18139.03
239.255	18126.79
239.327	18116.33
239.399	18107.9
239.471	18115.08
239.542	18110.21
239.614	18123.22
239.686	18078.93
239.758	18075.9
239.829	18046.26
239.901	18042.5
239.973	18022.65
240.044	18012.29
240.116	17994.94
240.188	17978.6
240.259	17969.83
240.331	17945.11
240.403	17934.6
240.474	17901.16
240.546	17877.11
240.618	17840.73
240.689	17816.77
240.761	17789.83
240.833	17786.94
240.904	17762.75
240.976	17726.99
241.048	17702.22
241.119	17680.01
241.191	17676.54
241.262	17663.19
241.334	17635.33
241.405	17616.54
241.477	17594.47
241.549	17568.35
241.62	17553.21
241.692	17542.51
241.763	17529.12
241.835	17513.94
241.906	17485.5
241.978	17451.33
242.049	17449.26
242.121	17432.3
242.192	17430.66
242.264	17404.44
242.335	17369.07
242.407	17355.86
242.478	17332.87
242.55	17320.25
242.621	17287.43
242.693	17258.46
242.764	17228.44
242.836	17193.93
242.907	17168.68
242.979	17150.94
243.05	17135.09
243.122	17116.34
243.193	17088.82
243.264	17038.75
243.336	17013.06
243.407	17001.98
243.479	16996.72
243.55	16963.52
243.622	16939.61
243.693	16905.11
243.764	16894.55
243.836	16863.03
243.907	16841.25
243.978	16810.98
244.05	16775.17
244.121	16736.28
244.192	16716.23
244.264	16677.09
244.335	16656.56
244.407	16616.17
244.478	16603.06
244.549	16567.78
244.62	16518.72
244.692	16483.54
244.763	16471.39
244.834	16438.09
244.906	16394.95
244.977	16361.21
245.048	16347.38
245.119	16311.28
245.191	16278.03
245.262	16225.44
245.333	16212.04
245.405	16178.3
245.476	16165.15
245.547	16150.4
245.618	16134.4
245.689	16106.25
245.761	16083.21
245.832	16061.52
245.903	16047.11
245.974	16020.26
246.045	15994.33
246.117	15985.32
246.188	15952.2
246.259	15913.4
246.33	15882.17
246.401	15858.07
246.473	15822.69
246.544	15792.71
246.615	15773.67
246.686	15741.28
246.757	15726.2
246.828	15689.47
246.899	15672.65
246.97	15623.19
247.042	15581.5
247.113	15558.22
247.184	15561.4
247.255	15526.89
247.326	15497.87
247.397	15466.25
247.468	15425.18
247.539	15388.55
247.61	15350.81
247.681	15331.91
247.752	15314.51
247.823	15277.59
247.894	15248.23
247.965	15204.51
248.037	15165.08
248.108	15120.06
248.179	15090.99
248.25	15068.63
248.321	15047.56
248.392	15006.78
248.463	15007.56
248.534	14981.53
248.605	14962.58
248.675	14913.95
248.746	14894.86
248.817	14865.89
248.888	14841.45
248.959	14799.75
249.03	14787.27
249.101	14763.94
249.172	14727.93
249.243	14685.46
249.314	14668.68
249.385	14640
249.456	14624.24
249.527	14591.07
249.598	14575.26
249.669	14553.09
249.739	14528.7
249.81	14507.92
249.881	14472.54
249.952	14439.37
250.023	14416.28
250.094	14372.8
250.165	14343.69
250.235	14315.78
250.306	14292.01
250.377	14255.76
250.448	14239.13
250.519	14198.01
250.59	14182.73
250.66	14151.92
250.731	14142.91
250.802	14119
250.873	14106.51
250.944	14087.95
251.014	14073.11
251.085	14067.47
251.156	14040.66
251.227	14022.97
251.297	14003.69
251.368	13990.63
251.439	13979.06
251.51	13960.74
251.58	13927.77
251.651	13896.91
251.722	13884.19
251.792	13846.87
251.863	13820.31
251.934	13806.82
252.005	13808.16
252.075	13781.89
252.146	13774.66
252.217	13751.33
252.287	13743.33
252.358	13720.28
252.429	13708.76
252.499	13669.23
252.57	13641.18
252.641	13632.74
252.711	13606.18
252.782	13567.42
252.852	13553.49
252.923	13522.01
252.994	13494.48
253.064	13484.51
253.135	13454.76
253.205	13419.14
253.276	13408.63
253.347	13398.55
253.417	13369.82
253.488	13334.97
253.558	13302.57
253.629	13274.95
253.699	13260.06
253.77	13240.34
253.841	13206.16
253.911	13185.87
253.982	13169.62
254.052	13157.71
254.123	13131.2
254.193	13111.1
254.264	13124.64
254.334	13093.02
254.405	13061.01
254.475	13036.33
254.546	13014.35
254.616	13000.51
254.687	12984.46
254.757	12965.13
254.827	12945.12
254.898	12929.02
254.968	12908.78
255.039	12882.84
255.109	12867.71
255.18	12836.13
255.25	12790.34
255.321	12781.18
255.391	12741.7
255.461	12739.53
255.532	12697.35
255.602	12671.51
255.673	12627.6
255.743	12588.4
255.813	12548.68
255.884	12536.49
255.954	12523.18
256.024	12518.7
256.095	12501.06
256.165	12466.98
256.235	12454.78
256.306	12431.79
256.376	12422.44
256.446	12415.45
256.517	12404.99
256.587	12393.66
256.657	12375
256.728	12364.06
256.798	12336.25
256.868	12320.2
256.938	12287.32
257.009	12268.72
257.079	12256.13
257.149	12265.05
257.219	12224.22
257.29	12208.37
257.36	12167.88
257.43	12153.13
257.5	12109.36
257.571	12084.2
257.641	12080.68
257.711	12048.34
257.781	12033.87
257.852	12014.69
257.922	11972.75
257.992	11949.67
258.062	11925.85
258.132	11915.73
258.202	11887.29
258.273	11868.3
258.343	11862.71
258.413	11836.83
258.483	11818.99
258.553	11785.74
258.623	11758.89
258.693	11746.89
258.764	11738.55
258.834	11737.15
258.904	11720.04
258.974	11693.58
259.044	11671.55
259.114	11643.36
259.184	11625.43
259.254	11603.06
259.324	11564.02
259.394	11545.71
259.464	11540.84
259.535	11523.97
259.605	11502.38
259.675	11474.96
259.745	11464.02
259.815	11436.83
259.885	11416.25
259.955	11422.04
260.025	11396.79
260.095	11376.25
260.165	11366.86
260.235	11366.08
260.305	11342.23
260.375	11313.79
260.445	11318.42
260.515	11320.15
260.585	11320.3
260.655	11303.14
260.725	11294.71
260.795	11290.08
260.865	11296.54
260.934	11265.45
261.004	11253.02
261.074	11229.5
261.144	11226.37
261.214	11212.1
261.284	11193.65
261.354	11184.25
261.424	11152.63
261.494	11152.54
261.564	11135.72
261.634	11124.87
261.703	11089.11
261.773	11076.83
261.843	11059.62
261.913	11040.01
261.983	10999.29
262.053	10985.65
262.123	10969.51
262.192	10939.24
262.262	10932.3
262.332	10897.37
262.402	10889.75
262.472	10872.55
262.541	10837.57
