Data from 20250630_urea_2M_MAYP1162681_03-32-27-420.txt Node
Date: Tue Jul 01 03:32:27 BST 2025
User: adleo
Spectrometer: MAYP116268
Trigger mode: 0
Integration Time (sec): 1.000000E0
Scans to average: 1
Electric dark correction enabled: true
Nonlinearity correction enabled: true
Boxcar width: 10
XAxis mode: Wavelengths
Number of Pixels in Spectrum: 2068
>>>>>Begin Spectral Data<<<<<
179.565	1071.88
179.642	1122.43
179.718	1157.37
179.795	1191.53
179.871	1220.66
179.948	1236.31
180.024	1254.51
180.101	1273.46
180.177	1288.58
180.254	1308.12
180.33	1327.14
180.407	1371.51
180.483	1457.55
180.56	1534.37
180.636	1609.62
180.712	1598.02
180.789	1609.38
180.865	1618.64
180.942	1626.66
181.018	1637.25
181.095	1650.28
181.171	1653.03
181.248	1651.13
181.324	1664.1
181.4	1668.95
181.477	1679.21
181.553	1689.76
181.63	1707.81
181.706	1722.02
181.782	1726.1
181.859	1725.53
181.935	1732.38
182.011	1727.91
182.088	1739.89
182.164	1759.52
182.24	1771.06
182.317	1777.71
182.393	1773.68
182.469	1786.7
182.546	1797.86
182.622	1800.1
182.698	1795.77
182.775	1807.99
182.851	1822.86
182.927	1817.3
183.003	1815.49
183.08	1810.08
183.156	1817.97
183.232	1815.26
183.308	1802.71
183.385	1811.26
183.461	1828.52
183.537	1829.61
183.613	1840.35
183.69	1835.12
183.766	1824.85
183.842	1832.6
183.918	1840.45
183.995	1852.14
184.071	1858.51
184.147	1854.23
184.223	1843.4
184.299	1854.71
184.375	1845.35
184.452	1850.3
184.528	1902.93
184.604	1910.82
184.68	1921.18
184.756	1928.5
184.832	1931.83
184.908	1938.86
184.985	1937.53
185.061	1922.13
185.137	1928.64
185.213	1917.62
185.289	1917.24
185.365	1912.86
185.441	1908.87
185.517	1918.1
185.593	1914.72
185.669	1908.3
185.745	1918.38
185.822	1934.16
185.898	1925.6
185.974	1930.92
186.05	1923.03
186.126	1886.6
186.202	1880.62
186.278	1875.15
186.354	1866.16
186.43	1871.06
186.506	1867.4
186.582	1867.26
186.658	1874.1
186.734	1853.95
186.81	1855.19
186.886	1858.09
186.962	1867.36
187.038	1865.45
187.114	1859.51
187.19	1866.64
187.266	1857.61
187.341	1854.76
187.417	1849.77
187.493	1851.24
187.569	1854.47
187.645	1850.05
187.721	1839.93
187.797	1845.96
187.873	1851.1
187.949	1846.58
188.025	1842.4
188.101	1845.15
188.176	1849.33
188.252	1844.11
188.328	1854.32
188.404	1857.41
188.48	1852.8
188.556	1843.01
188.632	1844.58
188.707	1842.77
188.783	1842.58
188.859	1841.06
188.935	1833.93
189.011	1840.92
189.086	1836.02
189.162	1831.55
189.238	1828.8
189.314	1823.95
189.39	1820.77
189.465	1814.06
189.541	1830.08
189.617	1815.54
189.693	1813.12
189.768	1817.63
189.844	1839.55
189.92	1831.9
189.996	1837.94
190.071	1848.3
190.147	1850.39
190.223	1858.38
190.298	1853.48
190.374	1839.56
190.45	1849.54
190.526	1856.53
190.601	1852.63
190.677	1853.05
190.753	1877.17
190.828	1880.21
190.904	1893.85
190.98	1908.12
191.055	1918.1
191.131	1908.59
191.207	1929.03
191.282	1940.1
191.358	1932.36
191.433	1919.66
191.509	1929.97
191.585	1925.93
191.66	1925.12
191.736	1930.44
191.811	1918.7
191.887	1932.92
191.963	1954.46
192.038	1957.69
192.114	1958.31
192.189	1961.73
192.265	1957.93
192.34	1936.43
192.416	1934.19
192.491	1931.2
192.567	1933.29
192.642	1935.95
192.718	1937.57
192.793	1924.16
192.869	1919.31
192.944	1915.75
193.02	1921.22
193.095	1924.69
193.171	1931.3
193.246	1934.53
193.322	1934.53
193.397	1935.81
193.473	1922.12
193.548	1906.9
193.624	1913.94
193.699	1909.57
193.775	1923.36
193.85	1925.64
193.925	1937.38
194.001	1938.33
194.076	1931.58
194.152	1920.31
194.227	1913.37
194.302	1901.21
194.378	1905.82
194.453	1902.3
194.529	1918.08
194.604	1905.44
194.679	1899.73
194.755	1882.34
194.83	1893.42
194.905	1891.04
194.981	1900.93
195.056	1896.18
195.131	1901.55
195.207	1898.03
195.282	1892.9
195.357	1873.07
195.433	1886.19
195.508	1871.36
195.583	1877.82
195.659	1891.85
195.734	1899.88
195.809	1900.79
195.884	1910.43
195.96	1910.91
196.035	1926.65
196.11	1919.94
196.185	1929.97
196.261	1933.2
196.336	1965.58
196.411	1949.6
196.486	1955.54
196.561	1951.6
196.637	1957.44
196.712	1971.9
196.787	1976.85
196.862	1992.02
196.937	2001.62
197.013	2010.42
197.088	2020.45
197.163	2041.76
197.238	2056.56
197.313	2057.28
197.388	2068.83
197.464	2097.47
197.539	2109.65
197.614	2102.51
197.689	2115.02
197.764	2133.86
197.839	2153.93
197.914	2146.42
197.989	2167.01
198.065	2178.71
198.14	2219.79
198.215	2244.34
198.29	2254.48
198.365	2265.33
198.44	2272.66
198.515	2300.88
198.59	2311.06
198.665	2335.14
198.74	2342.28
198.815	2343.57
198.89	2358.94
198.965	2386.08
199.04	2382.22
199.115	2393.17
199.19	2431.77
199.265	2434.96
199.34	2442.38
199.415	2473.35
199.49	2493.29
199.565	2503.67
199.64	2525.28
199.715	2524
199.79	2531.52
199.865	2536.66
199.94	2534
200.015	2565.91
200.09	2569.39
200.165	2573.1
200.24	2580.96
200.315	2616.99
200.39	2629.04
200.464	2638.62
200.539	2638.9
200.614	2652.9
200.689	2675.15
200.764	2679.58
200.839	2696.29
200.914	2698.24
200.989	2688.66
201.063	2699.24
201.138	2683.15
201.213	2683.58
201.288	2667.33
201.363	2672.33
201.438	2674.29
201.512	2691.14
201.587	2675.56
201.662	2679.94
201.737	2690.71
201.812	2698
201.886	2669.2
201.961	2680.83
202.036	2669.6
202.111	2665.31
202.186	2641.12
202.26	2625.69
202.335	2606.63
202.41	2601.78
202.485	2588.4
202.559	2570.73
202.634	2547.2
202.709	2555.53
202.784	2535.49
202.858	2533.01
202.933	2515.92
203.008	2509.35
203.082	2490.25
203.157	2487.78
203.232	2448.51
203.306	2429.22
203.381	2398.46
203.456	2374.37
203.53	2352.31
203.605	2334.95
203.68	2315.33
203.754	2307.96
203.829	2293.2
203.904	2274.22
203.978	2264.03
204.053	2267.79
204.127	2255.04
204.202	2253.08
204.277	2235.24
204.351	2231.58
204.426	2226.44
204.5	2221.35
204.575	2190.47
204.65	2200.28
204.724	2191.95
204.799	2197.89
204.873	2196.51
204.948	2195.27
205.022	2183.86
205.097	2173.96
205.171	2186.42
205.246	2194.65
205.32	2197.17
205.395	2198.27
205.469	2192.61
205.544	2197.28
205.618	2181.19
205.693	2193.56
205.767	2181.63
205.842	2203.47
205.916	2199.95
205.991	2190.95
206.065	2192.14
206.14	2205.74
206.214	2202.65
206.289	2195.51
206.363	2209.54
206.438	2212.35
206.512	2219.97
206.586	2239.85
206.661	2250.23
206.735	2230.44
206.81	2230.68
206.884	2240.1
206.958	2229.35
207.033	2243.52
207.107	2249.76
207.181	2278.27
207.256	2272.18
207.33	2289.93
207.405	2302.07
207.479	2318.68
207.553	2326.58
207.628	2313.12
207.702	2325.39
207.776	2319.68
207.851	2323.3
207.925	2335.82
207.999	2329.73
208.073	2325.83
208.148	2327.16
208.222	2315.5
208.296	2348.14
208.371	2362.04
208.445	2372.8
208.519	2399.64
208.593	2408.68
208.668	2404.26
208.742	2406.35
208.816	2408.92
208.89	2422.92
208.965	2421.97
209.039	2428.26
209.113	2442.59
209.187	2463.57
209.261	2459
209.336	2475.9
209.41	2496.95
209.484	2496.28
209.558	2520.37
209.632	2534.8
209.707	2546.22
209.781	2563.94
209.855	2576.7
209.929	2591.86
210.003	2595.67
210.077	2594.43
210.151	2640.19
210.226	2671.07
210.3	2696.67
210.374	2717.38
210.448	2720.91
210.522	2730.63
210.596	2741.78
210.67	2751.97
210.744	2791.43
210.818	2819.67
210.892	2840.69
210.966	2833.74
211.041	2849.03
211.115	2845.46
211.189	2867.81
211.263	2884.58
211.337	2894.59
211.411	2907.36
211.485	2904.31
211.559	2919.32
211.633	2922.89
211.707	2897
211.781	2907.78
211.855	2880.18
211.929	2875.36
212.003	2864.46
212.077	2874.23
212.151	2892.16
212.225	2905.89
212.299	2903.98
212.373	2903.98
212.447	2905.46
212.52	2942.36
212.594	2955.28
212.668	2978.26
212.742	2976.92
212.816	2986.32
212.89	2994.13
212.964	3005.97
213.038	3024.28
213.112	3055.96
213.186	3092.67
213.26	3094.43
213.333	3075.02
213.407	3101
213.481	3127.22
213.555	3162.68
213.629	3184.78
213.703	3197.76
213.777	3227.68
213.85	3244.81
213.924	3306.25
213.998	3343.53
214.072	3374.48
214.146	3404.51
214.219	3440.26
214.293	3481.36
214.367	3527.58
214.441	3583.98
214.515	3624.72
214.588	3656.48
214.662	3675.59
214.736	3709.64
214.81	3774.77
214.883	3843.77
214.957	3895.16
215.031	3952.53
215.105	3996.37
215.178	4049.15
215.252	4112.88
215.326	4160.65
215.4	4211.41
215.473	4242.12
215.547	4301.11
215.621	4362.9
215.694	4445.32
215.768	4509.39
215.842	4581.31
215.915	4651.45
215.989	4710.48
216.063	4786.24
216.136	4873.35
216.21	4964.85
216.284	5061.89
216.357	5152.73
216.431	5237.29
216.504	5339.5
216.578	5456.39
216.652	5567.8
216.725	5666.34
216.799	5773.02
216.873	5872.43
216.946	5987.72
217.02	6088.54
217.093	6192.05
217.167	6278.43
217.24	6369.31
217.314	6474.38
217.387	6569.57
217.461	6666.04
217.535	6789.84
217.608	6891.34
217.682	7004.34
217.755	7124.12
217.829	7228.36
217.902	7341.69
217.976	7455.35
218.049	7560.2
218.123	7653.15
218.196	7764.46
218.27	7872.52
218.343	7968.24
218.417	8089.55
218.49	8201.64
218.563	8325.51
218.637	8435.12
218.71	8566.77
218.784	8684.63
218.857	8800.81
218.931	8926.32
219.004	9045.83
219.077	9164.61
219.151	9274.09
219.224	9376.79
219.298	9479.79
219.371	9603.89
219.444	9695
219.518	9806.73
219.591	9916.45
219.665	10047.81
219.738	10161.01
219.811	10257.11
219.885	10375.19
219.958	10483.78
220.031	10583.66
220.105	10694.77
220.178	10805.49
220.251	10898.54
220.325	11007.45
220.398	11110.38
220.471	11212.93
220.544	11317.65
220.618	11406.76
220.691	11519.68
220.764	11621.56
220.838	11724.51
220.911	11807.41
220.984	11929.31
221.057	12029.27
221.131	12122.68
221.204	12192.05
221.277	12300.45
221.35	12432.43
221.424	12518.23
221.497	12609.15
221.57	12704.59
221.643	12796.08
221.716	12889.26
221.79	12974.39
221.863	13066.56
221.936	13155.36
222.009	13236.2
222.082	13319.3
222.155	13401.11
222.229	13491.88
222.302	13581.16
222.375	13663.79
222.448	13756.63
222.521	13835.35
222.594	13917.83
222.667	13985.37
222.74	14073.3
222.814	14141.46
222.887	14198.73
222.96	14283.47
223.033	14365.13
223.106	14433.92
223.179	14514.13
223.252	14586.78
223.325	14664.15
223.398	14728.26
223.471	14798.11
223.544	14871.33
223.617	14945.47
223.69	15012.61
223.763	15074.79
223.837	15145.6
223.91	15218.82
223.983	15260.62
224.056	15310.12
224.129	15368.2
224.202	15453.57
224.275	15500.61
224.348	15549.39
224.42	15594.12
224.493	15632.4
224.566	15680.07
224.639	15742.15
224.712	15798.01
224.785	15852.81
224.858	15905.88
224.931	15955.91
225.004	15998.91
225.077	16051.3
225.15	16078.15
225.223	16140.61
225.296	16211.8
225.369	16242.11
225.442	16280.48
225.514	16339.33
225.587	16388.15
225.66	16450.66
225.733	16503.24
225.806	16561.03
225.879	16622
225.952	16664.27
226.025	16735.89
226.097	16801.1
226.17	16853.73
226.243	16876.57
226.316	16928.33
226.389	16983.32
226.461	17024.96
226.534	17083.52
226.607	17133.21
226.68	17205.4
226.753	17238.32
226.825	17252.15
226.898	17312.54
226.971	17360.3
227.044	17405.07
227.117	17460.15
227.189	17503.52
227.262	17537.93
227.335	17591.48
227.407	17620.01
227.48	17678.51
227.553	17709.4
227.626	17739.52
227.698	17774.17
227.771	17818.03
227.844	17843.66
227.916	17878.46
227.989	17908.72
228.062	17940.72
228.134	17992.82
228.207	18017.54
228.28	18057.01
228.352	18097.68
228.425	18125.97
228.498	18162.16
228.57	18196.37
228.643	18246.54
228.716	18273
228.788	18306.25
228.861	18328.66
228.934	18373.14
229.006	18399.98
229.079	18428.89
229.151	18451.25
229.224	18468.79
229.296	18506.09
229.369	18556.11
229.442	18604.83
229.514	18629.51
229.587	18668.25
229.659	18680.93
229.732	18721.89
229.804	18765.36
229.877	18812.53
229.949	18850.89
230.022	18908.33
230.094	18929.54
230.167	18952.62
230.239	18971.42
230.312	19000.67
230.384	19043.07
230.457	19073.38
230.529	19109.14
230.602	19150.83
230.674	19190.29
230.747	19242.34
230.819	19284.02
230.892	19293.27
230.964	19310.57
231.037	19347.3
231.109	19370.47
231.181	19399.34
231.254	19411.92
231.326	19424.45
231.399	19439.63
231.471	19463.05
231.544	19452.4
231.616	19487.24
231.688	19503.77
231.761	19520.01
231.833	19536.2
231.905	19534.8
231.978	19544.15
232.05	19552.49
232.122	19558.75
232.195	19568.78
232.267	19587.57
232.339	19588.73
232.412	19604.15
232.484	19621.3
232.556	19632.48
232.629	19673.64
232.701	19696.63
232.773	19713.97
232.846	19724.09
232.918	19743.61
232.99	19753.25
233.062	19771.56
233.135	19786.74
233.207	19794.36
233.279	19810.07
233.351	19822.88
233.424	19836.43
233.496	19840.86
233.568	19873.44
233.64	19865.53
233.713	19863.65
233.785	19862.98
233.857	19875.08
233.929	19869.92
234.001	19880.76
234.074	19891.27
234.146	19864.95
234.218	19869.1
234.29	19869.58
234.362	19858.26
234.434	19840.04
234.507	19826.74
234.579	19808.96
234.651	19801.63
234.723	19799.13
234.795	19799.8
234.867	19789.87
234.939	19794.36
235.012	19793.2
235.084	19786.31
235.156	19798.89
235.228	19797.97
235.3	19789.54
235.372	19786.74
235.444	19787.99
235.516	19756.24
235.588	19751.71
235.66	19745.25
235.732	19724.48
235.804	19771.66
235.876	19779.42
235.948	19786.69
236.02	19785.49
236.092	19782.21
236.164	19780
236.236	19767.13
236.308	19752
236.38	19747.9
236.452	19736.91
236.524	19731.76
236.596	19731.52
236.668	19724.29
236.74	19715.42
236.812	19713.11
236.884	19701.78
236.956	19695.13
237.028	19679.71
237.1	19656.05
237.172	19665.54
237.244	19666.6
237.316	19610.56
237.388	19589.45
237.46	19560.3
237.532	19557.11
237.604	19529.36
237.675	19519.67
237.747	19506.42
237.819	19488.54
237.891	19477.31
237.963	19440.64
238.035	19407.68
238.107	19354.28
238.178	19346.96
238.25	19326.91
238.322	19326.67
238.394	19292.26
238.466	19276.12
238.538	19262.72
238.609	19251.11
238.681	19206.77
238.753	19171.11
238.825	19152.56
238.897	19133.67
238.968	19134.97
239.04	19099.02
239.112	19110.06
239.184	19071.84
239.255	19053.82
239.327	19036.95
239.399	19007.46
239.471	19000.91
239.542	18997.58
239.614	18993.82
239.686	18940.57
239.758	18920.48
239.829	18880.14
239.901	18866.46
239.973	18824.77
240.044	18806.94
240.116	18781.98
240.188	18762.46
240.259	18737.84
240.331	18714.37
240.403	18697.99
240.474	18650.57
240.546	18626.95
240.618	18582.67
240.689	18555.68
240.761	18524.84
240.833	18506.43
240.904	18479.78
240.976	18450.05
241.048	18410.58
241.119	18384.22
241.191	18374
241.262	18363.45
241.334	18329.04
241.405	18294.78
241.477	18275.46
241.549	18235.22
241.62	18208.13
241.692	18185.1
241.763	18168.04
241.835	18138.26
241.906	18101.34
241.978	18070.5
242.049	18049.49
242.121	18034.31
242.192	18014.98
242.264	17973.2
242.335	17927.9
242.407	17902.55
242.478	17873.93
242.55	17856.48
242.621	17815.13
242.693	17772.05
242.764	17740.97
242.836	17704.78
242.907	17684.54
242.979	17656.39
243.05	17643.43
243.122	17625.69
243.193	17586.22
243.264	17538.61
243.336	17497.98
243.407	17471
243.479	17457.07
243.55	17430.76
243.622	17397.7
243.693	17369.5
243.764	17350.27
243.836	17309.65
243.907	17273.64
243.978	17236.1
244.05	17205.11
244.121	17161.35
244.192	17137.64
244.264	17078.31
244.335	17058.89
244.407	17009.2
244.478	16980.58
244.549	16944.43
244.62	16894.21
244.692	16863.08
244.763	16844.81
244.834	16810.88
244.906	16777.92
244.977	16745.48
245.048	16724.61
245.119	16687.41
245.191	16658.2
245.262	16613.91
245.333	16609.14
245.405	16592.12
245.476	16567.5
245.547	16543.11
245.618	16529.23
245.689	16510.82
245.761	16501.9
245.832	16457.66
245.903	16438.91
245.974	16414.33
246.045	16379.53
246.117	16360.25
246.188	16313.69
246.259	16273.93
246.33	16250.98
246.401	16223.27
246.473	16179.7
246.544	16135.7
246.615	16108.32
246.686	16065.95
246.757	16048.17
246.828	16000.31
246.899	15976.54
246.97	15932.39
247.042	15887.28
247.113	15856.43
247.184	15831.9
247.255	15791.03
247.326	15762.73
247.397	15728.17
247.468	15695.4
247.539	15665.17
247.61	15625.7
247.681	15604.63
247.752	15587.81
247.823	15541.73
247.894	15508.04
247.965	15467.6
248.037	15437.42
248.108	15388.6
248.179	15353.36
248.25	15323.38
248.321	15305.59
248.392	15257.05
248.463	15246.4
248.534	15218.73
248.605	15195.07
248.675	15167.45
248.746	15143.92
248.817	15124.45
248.888	15095.82
248.959	15053.88
249.03	15027.08
249.101	15002.83
249.172	14976.13
249.243	14918.91
249.314	14908.06
249.385	14877.7
249.456	14856.53
249.527	14823.95
249.598	14807.46
249.669	14780.42
249.739	14751.06
249.81	14718.91
249.881	14681.5
249.952	14650.8
250.023	14618.65
250.094	14578.4
250.165	14533.61
250.235	14499.82
250.306	14472.44
250.377	14443.9
250.448	14420.14
250.519	14372.46
250.59	14358.82
250.66	14327.59
250.731	14319.53
250.802	14286.85
250.873	14267.28
250.944	14244.29
251.014	14216.91
251.085	14218.3
251.156	14199.31
251.227	14191.26
251.297	14178.15
251.368	14165.71
251.439	14155.44
251.51	14140.4
251.58	14107.33
251.651	14081.11
251.722	14067.08
251.792	14022.68
251.863	13988.5
251.934	13978
252.005	13994.53
252.075	13964.16
252.146	13947.67
252.217	13936.06
252.287	13919.28
252.358	13885.05
252.429	13866.74
252.499	13833.95
252.57	13806.67
252.641	13792.16
252.711	13761.84
252.782	13721.49
252.852	13712.38
252.923	13677.96
252.994	13665.28
253.064	13650.96
253.135	13625.17
253.205	13595.19
253.276	13591.33
253.347	13586.27
253.417	13556.09
253.488	13517.05
253.558	13485.61
253.629	13458.19
253.699	13433.89
253.77	13416.39
253.841	13399.66
253.911	13390.74
253.982	13374.93
254.052	13356.57
254.123	13333.86
254.193	13316.12
254.264	13334.05
254.334	13299.92
254.405	13264.54
254.475	13223.66
254.546	13202.26
254.616	13188.52
254.687	13165.28
254.757	13144.46
254.827	13125.42
254.898	13100.98
254.968	13077.88
255.039	13051.9
255.109	13035.7
255.18	12999.94
255.25	12962.29
255.321	12941.08
255.391	12903.43
255.461	12901.07
255.532	12856.33
255.602	12831.46
255.673	12785.32
255.743	12757.99
255.813	12720.44
255.884	12713.11
255.954	12702.17
256.024	12693.01
256.095	12669.34
256.165	12637.62
256.235	12621.57
256.306	12588.98
256.376	12579.63
256.446	12565.75
256.517	12555.19
256.587	12555.43
256.657	12545.16
256.728	12522.51
256.798	12508
256.868	12483.51
256.938	12456.76
257.009	12439.65
257.079	12422.82
257.149	12426.92
257.219	12380.98
257.29	12365.07
257.36	12324.49
257.43	12313.79
257.5	12273.25
257.571	12250.74
257.641	12239.6
257.711	12204.17
257.781	12189.04
257.852	12164.84
257.922	12124.35
257.992	12105.02
258.062	12080
258.132	12068.58
258.202	12051.08
258.273	12033.05
258.343	12028.23
258.413	11992.9
258.483	11971.55
258.553	11939.88
258.623	11912.69
258.693	11901.03
258.764	11893.51
258.834	11895.15
258.904	11869.75
258.974	11852.01
259.044	11829.6
259.114	11812.54
259.184	11797.45
259.254	11773.54
259.324	11735.8
259.394	11730.21
259.464	11720.19
259.535	11692.66
259.605	11662.83
259.675	11640.66
259.745	11620.17
259.815	11592.46
259.885	11574.14
259.955	11586.44
260.025	11561.95
260.095	11543.78
260.165	11518.24
260.235	11514.53
260.305	11485.42
260.375	11459.24
260.445	11462.23
260.515	11458.96
260.585	11455.48
260.655	11438.66
260.725	11440.54
260.795	11437.85
260.865	11441.17
260.934	11410.23
261.004	11391.39
261.074	11380.98
261.144	11370.85
261.214	11366.37
261.284	11348.25
261.354	11338.47
261.424	11306.46
261.494	11307.04
261.564	11281.74
261.634	11274.18
261.703	11236.73
261.773	11231.19
261.843	11219.77
261.913	11191.28
261.983	11155
262.053	11138.61
262.123	11121.07
262.192	11084.44
262.262	11077.12
262.332	11037.84
262.402	11037.98
262.472	11029.84
262.541	10994.08
