Data from 20250630_urea_2M_MAYP1162681_09-02-26-813.txt Node
Date: Tue Jul 01 09:02:26 BST 2025
User: adleo
Spectrometer: MAYP116268
Trigger mode: 0
Integration Time (sec): 1.000000E0
Scans to average: 1
Electric dark correction enabled: true
Nonlinearity correction enabled: true
Boxcar width: 10
XAxis mode: Wavelengths
Number of Pixels in Spectrum: 2068
>>>>>Begin Spectral Data<<<<<
179.565	1099.35
179.642	1144.21
179.718	1179.41
179.795	1212
179.871	1241.84
179.948	1257.98
180.024	1275.45
180.101	1297.07
180.177	1310.01
180.254	1332.63
180.33	1355.62
180.407	1401.04
180.483	1487.08
180.56	1567.6
180.636	1644.42
180.712	1630.44
180.789	1640.42
180.865	1649.3
180.942	1658.94
181.018	1667.26
181.095	1682.61
181.171	1684.89
181.248	1688.4
181.324	1703.85
181.4	1711.12
181.477	1718.91
181.553	1730.22
181.63	1750.32
181.706	1763.81
181.782	1768.94
181.859	1766.33
181.935	1767.9
182.011	1762.1
182.088	1778.26
182.164	1798.04
182.24	1809.11
182.317	1814.81
182.393	1813.48
182.469	1827.79
182.546	1837.58
182.622	1842.99
182.698	1836.43
182.775	1846.37
182.851	1858.77
182.927	1854.26
183.003	1849.32
183.08	1846.23
183.156	1857.21
183.232	1852.45
183.308	1842.99
183.385	1854.45
183.461	1870.66
183.537	1871.04
183.613	1883.87
183.69	1874.51
183.766	1864.8
183.842	1872.74
183.918	1881.11
183.995	1892.47
184.071	1894.04
184.147	1891.38
184.223	1880.59
184.299	1893.57
184.375	1882.88
184.452	1886.25
184.528	1938.61
184.604	1949.35
184.68	1960.95
184.756	1965.47
184.832	1971.22
184.908	1974.31
184.985	1970.61
185.061	1956.11
185.137	1966.52
185.213	1954.92
185.289	1957.44
185.365	1949.45
185.441	1948.22
185.517	1959.2
185.593	1957.68
185.669	1957.11
185.745	1967
185.822	1983.11
185.898	1975.79
185.974	1985.91
186.05	1980.78
186.126	1941.54
186.202	1937.21
186.278	1932.27
186.354	1925.75
186.43	1932.51
186.506	1931.27
186.582	1931.94
186.658	1938.31
186.734	1920.24
186.81	1924.14
186.886	1925.9
186.962	1936.78
187.038	1932.41
187.114	1925.23
187.19	1930.22
187.266	1919.76
187.341	1917.96
187.417	1909.45
187.493	1908.78
187.569	1910.07
187.645	1903.27
187.721	1893
187.797	1898.23
187.873	1901.84
187.949	1894.47
188.025	1887.19
188.101	1889.29
188.176	1893.75
188.252	1888.62
188.328	1895.32
188.404	1896.13
188.48	1892.66
188.556	1885.67
188.632	1884.53
188.707	1887.1
188.783	1882.39
188.859	1878.68
188.935	1869.41
189.011	1877.59
189.086	1871.7
189.162	1866.42
189.238	1867.13
189.314	1865.61
189.39	1860.24
189.465	1855.44
189.541	1870.79
189.617	1854.87
189.693	1851.92
189.768	1857.16
189.844	1878.98
189.92	1871.71
189.996	1876.84
190.071	1886.45
190.147	1886.31
190.223	1896.67
190.298	1888.44
190.374	1878.04
190.45	1889.63
190.526	1896.05
190.601	1890.92
190.677	1891.15
190.753	1916.03
190.828	1918.79
190.904	1929.82
190.98	1943.37
191.055	1952.69
191.131	1946.41
191.207	1967.09
191.282	1975.46
191.358	1965.71
191.433	1954.77
191.509	1966.46
191.585	1965.79
191.66	1966.6
191.736	1972.59
191.811	1962.94
191.887	1978.11
191.963	2000.03
192.038	2004.45
192.114	2004.74
192.189	2009.25
192.265	2006.26
192.34	1986.18
192.416	1984
192.491	1981
192.567	1982.81
192.642	1982.19
192.718	1979.72
192.793	1968.59
192.869	1964.03
192.944	1964.98
193.02	1973.49
193.095	1975.87
193.171	1980.63
193.246	1979.1
193.322	1978.39
193.397	1979.77
193.473	1965.74
193.548	1949.19
193.624	1954.8
193.699	1956.89
193.775	1972.97
193.85	1974.21
193.925	1981.2
194.001	1982.24
194.076	1974.92
194.152	1967.31
194.227	1962.41
194.302	1954.62
194.378	1958.56
194.453	1957.09
194.529	1969.17
194.604	1954.09
194.679	1949.39
194.755	1933.46
194.83	1945.55
194.905	1942.98
194.981	1951.54
195.056	1947.16
195.131	1953.96
195.207	1953.72
195.282	1943.98
195.357	1926.57
195.433	1941.07
195.508	1931.7
195.583	1939.55
195.659	1955.34
195.734	1959.33
195.809	1958.86
195.884	1966.13
195.96	1967.36
196.035	1982.91
196.11	1981.39
196.185	1991.71
196.261	1993.18
196.336	2020.9
196.411	2008.01
196.486	2014.38
196.561	2009.01
196.637	2014.1
196.712	2028.94
196.787	2030.6
196.862	2044.92
196.937	2052.29
197.013	2057.33
197.088	2065.89
197.163	2085.06
197.238	2100.1
197.313	2100.63
197.388	2114.85
197.464	2144.21
197.539	2152.96
197.614	2143.35
197.689	2151.67
197.764	2169.52
197.839	2188.02
197.914	2181.98
197.989	2203.72
198.065	2218
198.14	2263.37
198.215	2287.78
198.29	2299.3
198.365	2311.29
198.44	2323
198.515	2346.55
198.59	2360.69
198.665	2386.25
198.74	2393.96
198.815	2394.82
198.89	2418.62
198.965	2444.95
199.04	2439.86
199.115	2458.09
199.19	2496.74
199.265	2502.45
199.34	2512.83
199.415	2544.98
199.49	2566.88
199.565	2574.88
199.64	2597.55
199.715	2595.4
199.79	2605.36
199.865	2611.65
199.94	2609.46
200.015	2639.33
200.09	2650
200.165	2657.38
200.24	2662.19
200.315	2701.62
200.39	2714.48
200.464	2718.53
200.539	2720.1
200.614	2734.25
200.689	2749.87
200.764	2758.21
200.839	2773.64
200.914	2772.36
200.989	2763.49
201.063	2778.22
201.138	2762.31
201.213	2761.79
201.288	2744.54
201.363	2745.64
201.438	2743.73
201.512	2758.35
201.587	2739.1
201.662	2742.72
201.737	2750.54
201.812	2757.97
201.886	2721.26
201.961	2731.98
202.036	2718.7
202.111	2715.74
202.186	2688.99
202.26	2677.65
202.335	2658.35
202.41	2651.73
202.485	2637.49
202.559	2619.39
202.634	2591.29
202.709	2598.9
202.784	2576.85
202.858	2574.57
202.933	2557.95
203.008	2551.23
203.082	2532.76
203.157	2531.28
203.232	2488.96
203.306	2473.15
203.381	2444.52
203.456	2425.48
203.53	2403.7
203.605	2389.29
203.68	2366.52
203.754	2362.1
203.829	2348.2
203.904	2327.73
203.978	2315.88
204.053	2316.88
204.127	2305.93
204.202	2306.41
204.277	2293.32
204.351	2290.23
204.426	2283.37
204.5	2277.61
204.575	2245.69
204.65	2255.07
204.724	2248.45
204.799	2254.87
204.873	2249.06
204.948	2246.78
205.022	2236.65
205.097	2226.31
205.171	2236.69
205.246	2245.11
205.32	2245.21
205.395	2244.54
205.469	2238.41
205.544	2242.12
205.618	2232.03
205.693	2242.78
205.767	2230.98
205.842	2248.41
205.916	2241.7
205.991	2233.42
206.065	2240.32
206.14	2254.68
206.214	2252.11
206.289	2246.63
206.363	2260.24
206.438	2264.14
206.512	2270.66
206.586	2287.41
206.661	2295.89
206.735	2276.81
206.81	2277.72
206.884	2291.33
206.958	2279.53
207.033	2295.46
207.107	2304.18
207.181	2330.22
207.256	2324.27
207.33	2342.35
207.405	2352.16
207.479	2370.01
207.553	2375.53
207.628	2358.26
207.702	2371.77
207.776	2363.87
207.851	2367.92
207.925	2380.68
207.999	2376.3
208.073	2373.11
208.148	2376.78
208.222	2363.78
208.296	2394.09
208.371	2407.71
208.445	2416.24
208.519	2441.03
208.593	2450.22
208.668	2449.46
208.742	2451.89
208.816	2453.41
208.89	2461.51
208.965	2459.51
209.039	2465.17
209.113	2484.6
209.187	2503.39
209.261	2499.97
209.336	2519.54
209.41	2534.73
209.484	2534.2
209.558	2556.35
209.632	2570.35
209.707	2581.59
209.781	2604.97
209.855	2620.26
209.929	2637.52
210.003	2646.95
210.077	2646.9
210.151	2693.62
210.226	2722.32
210.3	2751.12
210.374	2772.74
210.448	2781.84
210.522	2792.8
210.596	2803.61
210.67	2809.9
210.744	2853.99
210.818	2885.72
210.892	2907.5
210.966	2906.17
211.041	2922.9
211.115	2923.28
211.189	2947.49
211.263	2963.12
211.337	2969.94
211.411	2985.96
211.485	2980.52
211.559	2991
211.633	2996.86
211.707	2969.39
211.781	2980.27
211.855	2944.89
211.929	2940.94
212.003	2921.64
212.077	2935.85
212.151	2950.25
212.225	2960.69
212.299	2954.01
212.373	2944.43
212.447	2943.38
212.52	2975.38
212.594	2983.63
212.668	2999.5
212.742	2992.02
212.816	2993.07
212.89	2996.4
212.964	3001.51
213.038	3013.34
213.112	3034.9
213.186	3056.06
213.26	3047.1
213.333	3016.63
213.407	3037.17
213.481	3050.99
213.555	3079.2
213.629	3076.67
213.703	3078.77
213.777	3095.13
213.85	3096.13
213.924	3147.53
213.998	3166.95
214.072	3181.89
214.146	3193.63
214.219	3211.86
214.293	3230.79
214.367	3259.8
214.441	3294.35
214.515	3311.54
214.588	3322.32
214.662	3321.99
214.736	3337.78
214.81	3373.79
214.883	3411.75
214.957	3436.37
215.031	3464.29
215.105	3476.54
215.178	3505.37
215.252	3538.75
215.326	3559.9
215.4	3581.81
215.473	3579.23
215.547	3604.31
215.621	3633.27
215.694	3679.47
215.768	3706.03
215.842	3743.38
215.915	3778.89
215.989	3805.51
216.063	3843.9
216.136	3894.37
216.21	3944.63
216.284	4012.29
216.357	4071.18
216.431	4125.91
216.504	4192.19
216.578	4272.74
216.652	4344.29
216.725	4405.85
216.799	4475.82
216.873	4537.72
216.946	4609.14
217.02	4670.33
217.093	4732.31
217.167	4778.65
217.24	4831.85
217.314	4894.27
217.387	4956.69
217.461	5015.55
217.535	5095.11
217.608	5154.65
217.682	5225.18
217.755	5306.78
217.829	5362.67
217.902	5435.19
217.976	5508.34
218.049	5566.78
218.123	5622.89
218.196	5703.34
218.27	5771.25
218.343	5833.33
218.417	5913.06
218.49	5990.34
218.563	6076.32
218.637	6159.68
218.71	6258.93
218.784	6339.62
218.857	6430
218.931	6513.27
219.004	6595.37
219.077	6679.43
219.151	6760.62
219.224	6830.12
219.298	6910.83
219.371	6999.81
219.444	7067.69
219.518	7145.38
219.591	7230.52
219.665	7332.33
219.738	7414.86
219.811	7493.01
219.885	7580.99
219.958	7668.74
220.031	7745.66
220.105	7830.59
220.178	7907.73
220.251	7974.3
220.325	8059.97
220.398	8134.91
220.471	8222.08
220.544	8308.34
220.618	8382.68
220.691	8472.51
220.764	8559.22
220.838	8635.59
220.911	8712.27
220.984	8816.13
221.057	8905.94
221.131	8987.24
221.204	9044.97
221.277	9133.65
221.35	9242.32
221.424	9314.15
221.497	9390
221.57	9467.56
221.643	9553
221.716	9635.11
221.79	9716.83
221.863	9792.06
221.936	9870.04
222.009	9941.94
222.082	10023.88
222.155	10092.52
222.229	10181.31
222.302	10263.3
222.375	10330.12
222.448	10410.14
222.521	10471.47
222.594	10539.7
222.667	10599.29
222.74	10680.24
222.814	10751.12
222.887	10809.19
222.96	10887.98
223.033	10965.66
223.106	11038.03
223.179	11112.44
223.252	11180.49
223.325	11246.27
223.398	11311
223.471	11380.54
223.544	11441.5
223.617	11509.55
223.69	11579.05
223.763	11627.3
223.837	11682.77
223.91	11762.3
223.983	11802.02
224.056	11863.28
224.129	11930.42
224.202	12008.79
224.275	12058.34
224.348	12111.12
224.42	12158.46
224.493	12203.38
224.566	12251.2
224.639	12320.22
224.712	12364.38
224.785	12414.51
224.858	12473.32
224.931	12531.12
225.004	12583.76
225.077	12655.05
225.15	12683.78
225.223	12737.96
225.296	12817.21
225.369	12872.12
225.442	12916.47
225.514	12985.88
225.587	13045.66
225.66	13107.12
225.733	13164.92
225.806	13228.27
225.879	13279.22
225.952	13333.98
226.025	13406.73
226.097	13489.06
226.17	13540.16
226.243	13577.42
226.316	13643.95
226.389	13698.18
226.461	13752.56
226.534	13816.29
226.607	13863.48
226.68	13940.95
226.753	14000.48
226.825	14032.64
226.898	14097.91
226.971	14150.93
227.044	14213.46
227.117	14265.18
227.189	14320.76
227.262	14381.45
227.335	14442.82
227.407	14491.94
227.48	14550.99
227.553	14598.13
227.626	14640.31
227.698	14693.14
227.771	14757.21
227.844	14800.35
227.916	14855.69
227.989	14907.89
228.062	14949.49
228.134	15017.6
228.207	15064.02
228.28	15107.26
228.352	15155.8
228.425	15199.91
228.498	15260.79
228.57	15292.22
228.643	15352.85
228.716	15401.54
228.788	15437.4
228.861	15480.83
228.934	15543.83
229.006	15581.76
229.079	15627.6
229.151	15658.16
229.224	15692.77
229.296	15745.06
229.369	15805.02
229.442	15857.95
229.514	15889.9
229.587	15940.13
229.659	15959.31
229.732	16007.94
229.804	16059.13
229.877	16134.8
229.949	16187.1
230.022	16243.68
230.094	16292.07
230.167	16329.28
230.239	16350.2
230.312	16402.35
230.384	16459.7
230.457	16504.23
230.529	16553.83
230.602	16597.54
230.674	16640.15
230.747	16690.75
230.819	16745.55
230.892	16764.2
230.964	16810.52
231.037	16856.69
231.109	16898.62
231.181	16947.88
231.254	16979.3
231.326	17016.8
231.399	17035.5
231.471	17068.89
231.544	17086.2
231.616	17132.03
231.688	17172.37
231.761	17210.58
231.833	17237.62
231.905	17243.02
231.978	17276.13
232.05	17303.26
232.122	17333.48
232.195	17368.32
232.267	17416.37
232.339	17435.45
232.412	17486.44
232.484	17508.32
232.556	17527.45
232.629	17580.17
232.701	17618.1
232.773	17648.75
232.846	17666.54
232.918	17698.63
232.99	17730.82
233.062	17761.86
233.135	17786.58
233.207	17798.15
233.279	17829.66
233.351	17864.8
233.424	17894.05
233.496	17903.11
233.568	17957.47
233.64	17972.6
233.713	17992.79
233.785	18001.42
233.857	18021.13
233.929	18019.59
234.001	18041.51
234.074	18090.91
234.146	18091.2
234.218	18100.02
234.29	18109.94
234.362	18125.56
234.434	18118.23
234.507	18117.99
234.579	18123.58
234.651	18138.72
234.723	18157.36
234.795	18177.6
234.867	18178.52
234.939	18200.88
235.012	18217.46
235.084	18215.77
235.156	18230.23
235.228	18228.49
235.3	18233.89
235.372	18236.93
235.444	18263.87
235.516	18259.14
235.588	18261.6
235.66	18260.97
235.732	18266.47
235.804	18327.53
235.876	18344.78
235.948	18369.64
236.02	18380.92
236.092	18384.97
236.164	18387.28
236.236	18387.28
236.308	18389.64
236.38	18399.33
236.452	18390.99
236.524	18398.32
236.596	18417.64
236.668	18430.8
236.74	18435.66
236.812	18434.51
236.884	18450.55
236.956	18453.64
237.028	18448.34
237.1	18432.29
237.172	18446.99
237.244	18461.06
237.316	18424.24
237.388	18411.33
237.46	18405.16
237.532	18414.17
237.604	18401.93
237.675	18411.95
237.747	18415.38
237.819	18400.73
237.891	18386.12
237.963	18382.37
238.035	18364.25
238.107	18327.04
238.178	18329.16
238.25	18313.5
238.322	18337.31
238.394	18297.89
238.466	18268.97
238.538	18268.54
238.609	18263.62
238.681	18237.55
238.753	18220.49
238.825	18210.61
238.897	18202.04
238.968	18211.77
239.04	18192.93
239.112	18205.89
239.184	18174.71
239.255	18162.71
239.327	18145.8
239.399	18129.65
239.471	18122.96
239.542	18118.09
239.614	18114.72
239.686	18077.56
239.758	18086.23
239.829	18053.95
239.901	18077.03
239.973	18071.73
240.044	18059.87
240.116	18048.94
240.188	18028.16
240.259	18006.05
240.331	17980.7
240.403	17971.83
240.474	17936.94
240.546	17904.46
240.618	17871.06
240.689	17853.62
240.761	17835.88
240.833	17845.42
240.904	17833.28
240.976	17812.61
241.048	17799.16
241.119	17781.96
241.191	17769.96
241.262	17760.08
241.334	17742.78
241.405	17702.49
241.477	17682.1
241.549	17655.79
241.62	17635.74
241.692	17628.13
241.763	17626.01
241.835	17608.51
241.906	17588.03
241.978	17550.78
242.049	17539.12
242.121	17525.04
242.192	17519.55
242.264	17478.83
242.335	17433.33
242.407	17416.37
242.478	17387.07
242.55	17361.91
242.621	17328.42
242.693	17296.75
242.764	17266.15
242.836	17228.32
242.907	17205.62
242.979	17177.23
243.05	17152.66
243.122	17134.82
243.193	17099.79
243.264	17043.26
243.336	17011.59
243.407	16994.96
243.479	16987.69
243.55	16963.49
243.622	16942.82
243.693	16910
243.764	16900.94
243.836	16867.59
243.907	16839.87
243.978	16809.85
244.05	16781.8
244.121	16745.41
244.192	16723.14
244.264	16678.18
244.335	16654.71
244.407	16618.41
244.478	16600.68
244.549	16575.47
244.62	16532.29
244.692	16504.19
244.763	16492.19
244.834	16466.55
244.906	16427.12
244.977	16400.52
245.048	16391.8
245.119	16353.14
245.191	16315.74
245.262	16268.7
245.333	16251.54
245.405	16223.39
245.476	16205.7
245.547	16183.68
245.618	16165.99
245.689	16139.24
245.761	16119.72
245.832	16098.61
245.903	16085.31
245.974	16048.77
246.045	16019.23
246.117	16003.75
246.188	15965.19
246.259	15924.66
246.33	15894.97
246.401	15868.75
246.473	15821.17
246.544	15785.27
246.615	15766.18
246.686	15728.68
246.757	15718.7
246.828	15683.32
246.899	15666.21
246.97	15620.13
247.042	15583.16
247.113	15555.83
247.184	15546.67
247.255	15513.99
247.326	15477.41
247.397	15445.45
247.468	15429.01
247.539	15411.04
247.61	15370.79
247.681	15360.28
247.752	15349.24
247.823	15307.93
247.894	15286.24
247.965	15255.63
248.037	15223.34
248.108	15179.71
248.179	15156.04
248.25	15130.3
248.321	15105.29
248.392	15064.07
248.463	15053.18
248.534	15027.39
248.605	15010.62
248.675	14980.15
248.746	14955.09
248.817	14935.47
248.888	14908.09
248.959	14863.36
249.03	14834.53
249.101	14806.67
249.172	14768.06
249.243	14715.37
249.314	14703.99
249.385	14667.79
249.456	14648.08
249.527	14619.64
249.598	14598.67
249.669	14567.81
249.739	14542.22
249.81	14512.76
249.881	14472.99
249.952	14448.07
250.023	14424.4
250.094	14380.88
250.165	14348.43
250.235	14317.53
250.306	14292.08
250.377	14253.81
250.448	14233.27
250.519	14186.27
250.59	14169.98
250.66	14137.77
250.731	14125.1
250.802	14094.92
250.873	14074.62
250.944	14050.09
251.014	14014.42
251.085	14010.32
251.156	13991.52
251.227	13976.53
251.297	13973.39
251.368	13959.94
251.439	13948.28
251.51	13926.49
251.58	13896.26
251.651	13867.68
251.722	13855
251.792	13806.21
251.863	13780.86
251.934	13773.82
252.005	13776.23
252.075	13758.78
252.146	13749.28
252.217	13739.98
252.287	13723.88
252.358	13696.88
252.429	13691.43
252.499	13664.53
252.57	13640.82
252.641	13632.28
252.711	13599.79
252.782	13555.78
252.852	13551.92
252.923	13525.7
252.994	13503.43
253.064	13490.7
253.135	13452.81
253.205	13423.69
253.276	13423.07
253.347	13414.44
253.417	13378.28
253.488	13349.36
253.558	13312.29
253.629	13284.86
253.699	13264.32
253.77	13253.28
253.841	13225.52
253.911	13202.57
253.982	13183.14
254.052	13168.15
254.123	13143.37
254.193	13124.14
254.264	13138.84
254.334	13104.76
254.405	13063.98
254.475	13035
254.546	13007.58
254.616	12999.91
254.687	12979.38
254.757	12959.95
254.827	12939.75
254.898	12919.36
254.968	12889.62
255.039	12867.01
255.109	12857.46
255.18	12828.68
255.25	12781.64
255.321	12768.23
255.391	12734.64
255.461	12734.01
255.532	12688.45
255.602	12662.23
255.673	12618.27
255.743	12579.94
255.813	12537.33
255.884	12532.32
255.954	12517.62
256.024	12518.29
256.095	12494.53
256.165	12459.82
256.235	12441.02
256.306	12410.41
256.376	12401.78
256.446	12389.39
256.517	12374.21
256.587	12358.16
256.657	12337
256.728	12319.84
256.798	12297.08
256.868	12267.87
256.938	12230.56
257.009	12215.52
257.079	12201.45
257.149	12211.38
257.219	12172.43
257.29	12158.6
257.36	12118.59
257.43	12100.46
257.5	12052.89
257.571	12033.8
257.641	12029.99
257.711	12003.34
257.781	11993.94
257.852	11973.07
257.922	11936.87
257.992	11920.96
258.062	11903.8
258.132	11887.22
258.202	11858.69
258.273	11847.26
258.343	11846.01
258.413	11825.82
258.483	11801.86
258.553	11770.48
258.623	11732.02
258.693	11722.14
258.764	11718.47
258.834	11717.85
258.904	11700.11
258.974	11679
259.044	11652.59
259.114	11637.07
259.184	11622.61
259.254	11598.85
259.324	11564.48
259.394	11559.61
259.464	11547.47
259.535	11527.71
259.605	11510.31
259.675	11490.31
259.745	11467.03
259.815	11435.31
259.885	11408.04
259.955	11422.01
260.025	11399.36
260.095	11384.23
260.165	11367.65
260.235	11366.49
260.305	11332.37
260.375	11306.06
260.445	11314.44
260.515	11310.97
260.585	11303.46
260.655	11281.24
260.725	11273.82
260.795	11260.37
260.865	11263.7
260.934	11242.15
261.004	11227.12
261.074	11207.07
261.144	11210.92
261.214	11207.07
261.284	11191.55
261.354	11190.39
261.424	11159.84
261.494	11156.9
261.564	11145.48
261.634	11136.37
261.703	11101.43
261.773	11095.74
261.843	11089.48
261.913	11066.87
261.983	11035.21
262.053	11019.5
262.123	11000.47
262.192	10969
262.262	10962.79
262.332	10923.51
262.402	10911.27
262.472	10898.45
262.541	10862.55
262.611	10853.01
