Data from 20250630_urea_2M_MAYP1162681_07-32-27-277.txt Node
Date: Tue Jul 01 07:32:27 BST 2025
User: adleo
Spectrometer: MAYP116268
Trigger mode: 0
Integration Time (sec): 1.000000E0
Scans to average: 1
Electric dark correction enabled: true
Nonlinearity correction enabled: true
Boxcar width: 10
XAxis mode: Wavelengths
Number of Pixels in Spectrum: 2068
>>>>>Begin Spectral Data<<<<<
179.565	1088.95
179.642	1139.89
179.718	1173.48
179.795	1205.9
179.871	1235.79
179.948	1251.67
180.024	1266.79
180.101	1286.88
180.177	1299.13
180.254	1320.38
180.33	1341.27
180.407	1385.22
180.483	1472.54
180.56	1553.11
180.636	1628.07
180.712	1616.38
180.789	1626.98
180.865	1635.71
180.942	1645.83
181.018	1656.33
181.095	1670.07
181.171	1674.63
181.248	1674.2
181.324	1691.59
181.4	1696.91
181.477	1706.08
181.553	1720.05
181.63	1742.24
181.706	1757.16
181.782	1764.57
181.859	1762.62
181.935	1764.29
182.011	1761.53
182.088	1775.79
182.164	1793.24
182.24	1807.44
182.317	1816.38
182.393	1814.57
182.469	1829.02
182.546	1837.24
182.622	1837.91
182.698	1833.01
182.775	1843.47
182.851	1856.3
182.927	1849.88
183.003	1847.55
183.08	1842.47
183.156	1846.41
183.232	1843.13
183.308	1833.63
183.385	1842.56
183.461	1860.58
183.537	1865.9
183.613	1879.73
183.69	1869.09
183.766	1860.76
183.842	1865.52
183.918	1869.65
183.995	1878.92
184.071	1882.16
184.147	1878.69
184.223	1873.36
184.299	1882.87
184.375	1873.08
184.452	1879.93
184.528	1934.53
184.604	1946.46
184.68	1957.96
184.756	1966.42
184.832	1970.51
184.908	1975.46
184.985	1975.84
185.061	1959.44
185.137	1967.66
185.213	1952.4
185.289	1955.78
185.365	1950.45
185.441	1947.55
185.517	1961.73
185.593	1960.25
185.669	1956.64
185.745	1966.24
185.822	1979.12
185.898	1972.94
185.974	1980.55
186.05	1970.8
186.126	1929.23
186.202	1919.43
186.278	1915.16
186.354	1904.27
186.43	1909.98
186.506	1905.41
186.582	1904.22
186.658	1910.07
186.734	1889.63
186.81	1893.34
186.886	1895.38
186.962	1900.47
187.038	1900.37
187.114	1890.52
187.19	1899.84
187.266	1890.48
187.341	1890.81
187.417	1885.35
187.493	1885.25
187.569	1889.63
187.645	1886.73
187.721	1875.65
187.797	1885.39
187.873	1888.29
187.949	1884.82
188.025	1878.5
188.101	1881.11
188.176	1885.72
188.252	1883.58
188.328	1891.04
188.404	1890.71
188.48	1887.72
188.556	1884.01
188.632	1884.1
188.707	1887.29
188.783	1884.48
188.859	1881.3
188.935	1869.84
189.011	1877.4
189.086	1870.37
189.162	1862.9
189.238	1861.48
189.314	1859.58
189.39	1853.68
189.465	1847.17
189.541	1865.62
189.617	1850.84
189.693	1848.46
189.768	1851.6
189.844	1874.38
189.92	1865.3
189.996	1873.62
190.071	1883.7
190.147	1883.65
190.223	1891.59
190.298	1883.13
190.374	1869.2
190.45	1879.66
190.526	1889.02
190.601	1880.65
190.677	1883.84
190.753	1907.62
190.828	1909.81
190.904	1921.88
190.98	1936.53
191.055	1949.6
191.131	1936.15
191.207	1954.35
191.282	1962.76
191.358	1952.45
191.433	1936.61
191.509	1950.39
191.585	1948.68
191.66	1948.53
191.736	1956.05
191.811	1949.25
191.887	1961.23
191.963	1981.53
192.038	1985.34
192.114	1987
192.189	1993.32
192.265	1993.04
192.34	1972.92
192.416	1970.11
192.491	1967.64
192.567	1971.11
192.642	1969.35
192.718	1969.73
192.793	1960.18
192.869	1959.37
192.944	1961.27
193.02	1965.79
193.095	1969.3
193.171	1972.92
193.246	1970.92
193.322	1969.49
193.397	1965.6
193.473	1955.42
193.548	1938.59
193.624	1942.53
193.699	1940.73
193.775	1953.42
193.85	1949.39
193.925	1956.57
194.001	1955.38
194.076	1948.29
194.152	1937.21
194.227	1928.51
194.302	1921.95
194.378	1924.38
194.453	1918.05
194.529	1931.8
194.604	1921.91
194.679	1916.35
194.755	1901.42
194.83	1915.31
194.905	1912.74
194.981	1924.49
195.056	1916.12
195.131	1923.58
195.207	1924.39
195.282	1913.98
195.357	1899.62
195.433	1915.97
195.508	1906.23
195.583	1915.64
195.659	1930.81
195.734	1935.37
195.809	1942.5
195.884	1951.96
195.96	1953.72
196.035	1971.74
196.11	1965.04
196.185	1976.21
196.261	1978.06
196.336	2003.4
196.411	1989.61
196.486	1995.13
196.561	1986.28
196.637	1994.46
196.712	2010.25
196.787	2014.44
196.862	2031.08
196.937	2038.83
197.013	2043.35
197.088	2052.67
197.163	2073.69
197.238	2087.88
197.313	2091.87
197.388	2099.39
197.464	2126.79
197.539	2136.45
197.614	2126.7
197.689	2138.78
197.764	2153.25
197.839	2173.98
197.914	2168.47
197.989	2190.54
198.065	2203.72
198.14	2252.56
198.215	2275.64
198.29	2284.16
198.365	2295.44
198.44	2304.05
198.515	2327.94
198.59	2341.74
198.665	2365.68
198.74	2370.02
198.815	2371.87
198.89	2387.72
198.965	2416.77
199.04	2411.62
199.115	2428.23
199.19	2466.65
199.265	2468.69
199.34	2480.69
199.415	2510.51
199.49	2531.12
199.565	2536.64
199.64	2561.12
199.715	2557.4
199.79	2565.31
199.865	2574.17
199.94	2571.83
200.015	2601.51
200.09	2605.7
200.165	2611.08
200.24	2615.65
200.315	2656.84
200.39	2670.61
200.464	2679.56
200.539	2678.8
200.614	2694.09
200.689	2715.34
200.764	2721.82
200.839	2742.25
200.914	2743.48
200.989	2734.9
201.063	2748.53
201.138	2734.34
201.213	2731.48
201.288	2713.14
201.363	2718.67
201.438	2715
201.512	2730.62
201.587	2715.66
201.662	2722.52
201.737	2736.1
201.812	2745.44
201.886	2712.3
201.961	2722.6
202.036	2710.5
202.111	2708.4
202.186	2681.89
202.26	2664.64
202.335	2644.48
202.41	2634.86
202.485	2619.06
202.559	2601.1
202.634	2576.19
202.709	2584.9
202.784	2567.85
202.858	2569.38
202.933	2551.95
203.008	2546.95
203.082	2528.99
203.157	2525.66
203.232	2484.87
203.306	2467.53
203.381	2437.81
203.456	2417.1
203.53	2393.46
203.605	2379.05
203.68	2357.09
203.754	2352.39
203.829	2336.91
203.904	2320.87
203.978	2310.35
204.053	2313.5
204.127	2303.22
204.202	2302.07
204.277	2287.32
204.351	2281.28
204.426	2270.76
204.5	2265.66
204.575	2236.93
204.65	2245.21
204.724	2238.88
204.799	2245.73
204.873	2238.82
204.948	2237.92
205.022	2225.89
205.097	2219.08
205.171	2230.12
205.246	2239.59
205.32	2238.02
205.395	2239.3
205.469	2227.04
205.544	2231.51
205.618	2215.81
205.693	2222.57
205.767	2211.72
205.842	2228.61
205.916	2219.91
205.991	2212.15
206.065	2218.48
206.14	2231.84
206.214	2227.37
206.289	2220.13
206.363	2232.89
206.438	2236.22
206.512	2240.88
206.586	2259.44
206.661	2264.72
206.735	2242.46
206.81	2241.37
206.884	2256.07
206.958	2245.36
207.033	2264.34
207.107	2274.86
207.181	2303.71
207.256	2300.33
207.33	2320.41
207.405	2330.17
207.479	2350.21
207.553	2359.44
207.628	2340.93
207.702	2350.74
207.776	2344.36
207.851	2345.93
207.925	2358.69
207.999	2355.88
208.073	2356.31
208.148	2356.4
208.222	2347.74
208.296	2378.33
208.371	2395.86
208.445	2405.81
208.519	2433.32
208.593	2443.51
208.668	2437.18
208.742	2437.32
208.816	2439.03
208.89	2450.13
208.965	2452.56
209.039	2458.37
209.113	2473.46
209.187	2494.35
209.261	2490.45
209.336	2508.92
209.41	2527.82
209.484	2527.44
209.558	2547.3
209.632	2558.97
209.707	2570.92
209.781	2590.11
209.855	2603.64
209.929	2616.56
210.003	2621.94
210.077	2618.65
210.151	2664.75
210.226	2694.44
210.3	2723.57
210.374	2743.57
210.448	2748.95
210.522	2760.39
210.596	2769.25
210.67	2778.55
210.744	2819.87
210.818	2848.78
210.892	2868.89
210.966	2866.75
211.041	2880.85
211.115	2884.33
211.189	2907.82
211.263	2925.31
211.337	2935.7
211.411	2951.01
211.485	2947.95
211.559	2962.87
211.633	2965.39
211.707	2936.25
211.781	2947.27
211.855	2917.24
211.929	2911.71
212.003	2897.99
212.077	2905.19
212.151	2921.74
212.225	2931.41
212.299	2927.79
212.373	2924.07
212.447	2926.88
212.52	2959.11
212.594	2969.22
212.668	2981.52
212.742	2977.33
212.816	2978.57
212.89	2977.09
212.964	2981.71
213.038	2994.78
213.112	3015.1
213.186	3044.8
213.26	3040.18
213.333	3011.67
213.407	3031.68
213.481	3052.65
213.555	3078.29
213.629	3086.5
213.703	3088.88
213.777	3109.06
213.85	3112.88
213.924	3163.6
213.998	3184.07
214.072	3204.36
214.146	3222.45
214.219	3248.17
214.293	3268.92
214.367	3299.7
214.441	3342.22
214.515	3367.85
214.588	3381.98
214.662	3383.56
214.736	3398.83
214.81	3442.24
214.883	3493.19
214.957	3524.12
215.031	3556.71
215.105	3578.23
215.178	3608.51
215.252	3648.95
215.326	3667.81
215.4	3696.94
215.473	3702.44
215.547	3737.94
215.621	3774.51
215.694	3829.34
215.768	3861.79
215.842	3909.29
215.915	3954.89
215.989	3987.31
216.063	4034.5
216.136	4090.87
216.21	4154.93
216.284	4228.15
216.357	4288.84
216.431	4347.29
216.504	4417.47
216.578	4506.48
216.652	4582.24
216.725	4654.12
216.799	4735.33
216.873	4816.41
216.946	4897.74
217.02	4968.19
217.093	5035.19
217.167	5089.89
217.24	5146.1
217.314	5220.92
217.387	5289.51
217.461	5359.14
217.535	5446.75
217.608	5515.39
217.682	5598.63
217.755	5687.14
217.829	5754.04
217.902	5835.53
217.976	5913.46
218.049	5984.27
218.123	6046.13
218.196	6137.77
218.27	6212.06
218.343	6276.53
218.417	6356.94
218.49	6435.52
218.563	6530.19
218.637	6615.19
218.71	6721.18
218.784	6816.96
218.857	6907.5
218.931	6995.73
219.004	7085.77
219.077	7183.82
219.151	7275.64
219.224	7355.58
219.298	7444.42
219.371	7543.4
219.444	7620.94
219.518	7711.66
219.591	7803.01
219.665	7913.79
219.738	8001.85
219.811	8082.79
219.885	8182.85
219.958	8275.79
220.031	8363.44
220.105	8458.95
220.178	8545.03
220.251	8618.62
220.325	8704.92
220.398	8798.48
220.471	8891.99
220.544	8987.12
220.618	9061.98
220.691	9147.33
220.764	9235.05
220.838	9319.37
220.911	9396.55
220.984	9501.67
221.057	9588.35
221.131	9675.41
221.204	9730.27
221.277	9826.51
221.35	9936.61
221.424	10003.33
221.497	10085.6
221.57	10164.02
221.643	10247.41
221.716	10342.37
221.79	10427.3
221.863	10504.54
221.936	10572.28
222.009	10652.02
222.082	10727.14
222.155	10801.39
222.229	10895.26
222.302	10966.24
222.375	11033.99
222.448	11113.89
222.521	11184.83
222.594	11260.39
222.667	11328.34
222.74	11412.58
222.814	11484.35
222.887	11549.27
222.96	11635.98
223.033	11718.74
223.106	11795.32
223.179	11874.13
223.252	11937.75
223.325	12011.02
223.398	12088
223.471	12167
223.544	12231.1
223.617	12304.04
223.69	12370.27
223.763	12425.12
223.837	12499.5
223.91	12572.58
223.983	12623.38
224.056	12676.79
224.129	12746.26
224.202	12818.13
224.275	12869.23
224.348	12917.82
224.42	12967.61
224.493	13006.37
224.566	13056.22
224.639	13122.16
224.712	13163.67
224.785	13222
224.858	13269.38
224.931	13312.53
225.004	13355.92
225.077	13412.99
225.15	13439.46
225.223	13497.11
225.296	13577.62
225.369	13622.98
225.442	13673.93
225.514	13740.07
225.587	13802.74
225.66	13863.19
225.733	13922.05
225.806	13989.1
225.879	14038.37
225.952	14092.89
226.025	14171.76
226.097	14242.43
226.17	14287.93
226.243	14329.92
226.316	14386.13
226.389	14446.67
226.461	14507.31
226.534	14575.04
226.607	14631.92
226.68	14707.7
226.753	14762.17
226.825	14790.71
226.898	14856.89
226.971	14904.91
227.044	14960.48
227.117	15016.74
227.189	15063.78
227.262	15125.24
227.335	15172.29
227.407	15220.44
227.48	15271.97
227.553	15322.34
227.626	15366.88
227.698	15422.02
227.771	15476.49
227.844	15509.8
227.916	15554.67
227.989	15593.86
228.062	15637.1
228.134	15696.38
228.207	15747.09
228.28	15794.23
228.352	15833.9
228.425	15880.89
228.498	15935.26
228.57	15975.36
228.643	16031.37
228.716	16075.18
228.788	16105.45
228.861	16156.11
228.934	16214.43
229.006	16261.85
229.079	16300.8
229.151	16330.1
229.224	16357.09
229.296	16405.82
229.369	16481
229.442	16539.37
229.514	16575.13
229.587	16624.53
229.659	16645.93
229.732	16682.56
229.804	16725.17
229.877	16803.24
229.949	16851.97
230.022	16912.69
230.094	16941.51
230.167	16983.78
230.239	17020.41
230.312	17064.26
230.384	17129.37
230.457	17160.7
230.529	17206.72
230.602	17247.74
230.674	17293.38
230.747	17348.7
230.819	17403.11
230.892	17410
230.964	17450.92
231.037	17497.09
231.109	17529.72
231.181	17581.28
231.254	17611.4
231.326	17647.45
231.399	17665.72
231.471	17688.7
231.544	17699.35
231.616	17749.09
231.688	17781.47
231.761	17801.18
231.833	17817.38
231.905	17813.81
231.978	17860.99
232.05	17880.7
232.122	17906.29
232.195	17921.9
232.267	17953.13
232.339	17968.17
232.412	18015.64
232.484	18032.6
232.556	18056.07
232.629	18092.4
232.701	18127.2
232.773	18153.41
232.846	18168.11
232.918	18193.84
232.99	18219.77
233.062	18249.99
233.135	18273.12
233.207	18273.79
233.279	18301.6
233.351	18335.38
233.424	18351.91
233.496	18349.89
233.568	18392.49
233.64	18402.46
233.713	18430.51
233.785	18451.18
233.857	18469.69
233.929	18468.96
234.001	18489.35
234.074	18507.61
234.146	18506.36
234.218	18512
234.29	18522.84
234.362	18535.08
234.434	18527.9
234.507	18528.86
234.579	18524.77
234.651	18528.48
234.723	18546.07
234.795	18560.33
234.867	18572.38
234.939	18595.27
235.012	18605.25
235.084	18606.06
235.156	18623.12
235.228	18622.3
235.3	18621.68
235.372	18626.83
235.444	18635.6
235.516	18625.2
235.588	18635.51
235.66	18642.4
235.732	18636.95
235.804	18693.96
235.876	18706.73
235.948	18728.51
236.02	18732.85
236.092	18739.36
236.164	18742.01
236.236	18733
236.308	18725.58
236.38	18722.25
236.452	18707.12
236.524	18716.66
236.596	18724.23
236.668	18721.86
236.74	18724.13
236.812	18724.18
236.884	18727.74
236.956	18733.04
237.028	18724.52
237.1	18712.9
237.172	18723.79
237.244	18737.57
237.316	18692.81
237.388	18673.77
237.46	18649.1
237.532	18653.97
237.604	18643.99
237.675	18651.27
237.747	18662.69
237.819	18651.8
237.891	18637.15
237.963	18632.86
238.035	18615.85
238.107	18573.68
238.178	18576.91
238.25	18563.51
238.322	18569.15
238.394	18531.47
238.466	18518.98
238.538	18510.26
238.609	18514.6
238.681	18485.3
238.753	18458.31
238.825	18441.64
238.897	18428.68
238.968	18438.56
239.04	18420.68
239.112	18422.12
239.184	18386.03
239.255	18354.99
239.327	18338.8
239.399	18333.16
239.471	18324.54
239.542	18305.89
239.614	18309.16
239.686	18262.52
239.758	18249.36
239.829	18225.46
239.901	18228.01
239.973	18198.66
240.044	18187.05
240.116	18151.49
240.188	18132.55
240.259	18110.38
240.331	18082.77
240.403	18076.02
240.474	18041.18
240.546	18012.02
240.618	17975.2
240.689	17956.55
240.761	17944.17
240.833	17947.78
240.904	17915.11
240.976	17894.72
241.048	17877.38
241.119	17860.6
241.191	17850.34
241.262	17840.03
241.334	17807.21
241.405	17787.11
241.477	17760.32
241.549	17731.64
241.62	17713.72
241.692	17694.83
241.763	17694.49
241.835	17682.87
241.906	17659.84
241.978	17623.26
242.049	17614.59
242.121	17604.42
242.192	17596.47
242.264	17558.3
242.335	17511.6
242.407	17500.56
242.478	17463.69
242.55	17441.53
242.621	17408.22
242.693	17376.32
242.764	17349.72
242.836	17320.95
242.907	17292.8
242.979	17271.69
243.05	17260.46
243.122	17238.39
243.193	17209.86
243.264	17152.66
243.336	17120.85
243.407	17100.85
243.479	17083.35
243.55	17053.91
243.622	17024.99
243.693	16997.52
243.764	16989.71
243.836	16958
243.907	16926.38
243.978	16899.97
244.05	16878.82
244.121	16835.01
244.192	16826.43
244.264	16788.5
244.335	16765.65
244.407	16727.58
244.478	16715.58
244.549	16681.17
244.62	16640.15
244.692	16608.78
244.763	16597.16
244.834	16565.59
244.906	16529.69
244.977	16517.3
245.048	16498.74
245.119	16462.07
245.191	16422.79
245.262	16368.66
245.333	16355.74
245.405	16326.68
245.476	16301.47
245.547	16274
245.618	16254.19
245.689	16214.96
245.761	16185.27
245.832	16150.57
245.903	16128.35
245.974	16095.81
246.045	16067.47
246.117	16055.13
246.188	16017.97
246.259	15976.13
246.33	15950.73
246.401	15913.52
246.473	15865.42
246.544	15827.78
246.615	15810.19
246.686	15770.47
246.757	15756.68
246.828	15712.43
246.899	15692.87
246.97	15653.29
247.042	15621.53
247.113	15601.14
247.184	15599.4
247.255	15558.24
247.326	15540.89
247.397	15506.81
247.468	15482.18
247.539	15448.97
247.61	15409.83
247.681	15388.72
247.752	15370.54
247.823	15332.51
247.894	15310.58
247.965	15276.94
248.037	15243.48
248.108	15205.89
248.179	15179.09
248.25	15147.8
248.321	15132.67
248.392	15094.06
248.463	15087.69
248.534	15051.83
248.605	15031.01
248.675	14994.9
248.746	14979.53
248.817	14949.45
248.888	14931.32
248.959	14881.29
249.03	14858.58
249.101	14833.57
249.172	14803.54
249.243	14753.79
249.314	14735.33
249.385	14714.69
249.456	14686.06
249.527	14662.44
249.598	14630.24
249.669	14610.09
249.739	14589.8
249.81	14559.38
249.881	14521.1
249.952	14489.58
250.023	14465.81
250.094	14415.29
250.165	14377.94
250.235	14356.34
250.306	14336.77
250.377	14292.42
250.448	14268.89
250.519	14221.03
250.59	14209.12
250.66	14173.78
250.731	14164.82
250.802	14135.7
250.873	14112.47
250.944	14096.56
251.014	14061.56
251.085	14064.07
251.156	14042.76
251.227	14022.56
251.297	14009.45
251.368	13996.1
251.439	13983.52
251.51	13967.41
251.58	13943.5
251.651	13908.17
251.722	13898.29
251.792	13851.33
251.863	13827.76
251.934	13824.19
252.005	13828.82
252.075	13798.4
252.146	13792.33
252.217	13776.95
252.287	13765.82
252.358	13735.98
252.429	13726.33
252.499	13699.92
252.57	13676.44
252.641	13661.98
252.711	13637.25
252.782	13598.1
252.852	13592.51
252.923	13565.08
252.994	13541.56
253.064	13529.31
253.135	13505.4
253.205	13474.7
253.276	13470.6
253.347	13465.05
253.417	13435.26
253.488	13406.63
253.558	13377.32
253.629	13353.17
253.699	13330.51
253.77	13312.29
253.841	13288.18
253.911	13262.3
253.982	13239.21
254.052	13223.59
254.123	13199.1
254.193	13178.08
254.264	13189.99
254.334	13157.98
254.405	13122.69
254.475	13086.87
254.546	13063.06
254.616	13051.2
254.687	13025.8
254.757	13004.15
254.827	12985.11
254.898	12960.19
254.968	12943.99
255.039	12915.74
255.109	12898.73
255.18	12871.01
255.25	12826.47
255.321	12808.05
255.391	12769.87
255.461	12768.67
255.532	12713.86
255.602	12685.61
255.673	12643.96
255.743	12613.69
255.813	12566.54
255.884	12558.78
255.954	12552.23
256.024	12548.61
256.095	12525.52
256.165	12490.33
256.235	12474.91
256.306	12442.85
256.376	12432.54
256.446	12409.54
256.517	12391.27
256.587	12379.95
256.657	12362.88
256.728	12347.99
256.798	12327.55
256.868	12311.54
256.938	12282.77
257.009	12272.55
257.079	12259.82
257.149	12270.52
257.219	12228.88
257.29	12217.5
257.36	12173.35
257.43	12164.19
257.5	12120.71
257.571	12094.3
257.641	12082.1
257.711	12049.85
257.781	12040.74
257.852	12026.09
257.922	11986.47
257.992	11967.04
258.062	11938.8
258.132	11932.48
258.202	11907.56
258.273	11887.17
258.343	11879.85
258.413	11848.18
258.483	11830.49
258.553	11796.32
258.623	11762.91
258.693	11755.11
258.764	11753.9
258.834	11755.68
258.904	11731.34
258.974	11708.55
259.044	11689.8
259.114	11672.83
259.184	11660.64
259.254	11633.84
259.324	11590.56
259.394	11577.21
259.464	11580.63
259.535	11563.86
259.605	11531.95
259.675	11516.62
259.745	11505.15
259.815	11479.17
259.885	11460.09
259.955	11464.67
260.025	11442.84
260.095	11422.83
260.165	11401.58
260.235	11391.99
260.305	11355.65
260.375	11319.7
260.445	11322.06
260.515	11315.99
260.585	11308.71
260.655	11289.48
260.725	11287.21
260.795	11279.89
260.865	11288.51
260.934	11262.63
261.004	11249.91
261.074	11228.56
261.144	11219.89
261.214	11211.45
261.284	11190.54
261.354	11184.22
261.424	11161.86
261.494	11169.52
261.564	11153.09
261.634	11143.21
261.703	11110.87
261.773	11102.39
261.843	11099.16
261.913	11077.53
261.983	11045.87
262.053	11036.03
262.123	11019.36
262.192	10987.12
262.262	10979.07
262.332	10947.7
262.402	10935.7
262.472	10920.33
262.541	10893.15
