Data from 20250630_urea_2M_MAYP1162681_00-52-27-198.txt Node
Date: Tue Jul 01 00:52:27 BST 2025
User: adleo
Spectrometer: MAYP116268
Trigger mode: 0
Integration Time (sec): 1.000000E0
Scans to average: 1
Electric dark correction enabled: true
Nonlinearity correction enabled: true
Boxcar width: 10
XAxis mode: Wavelengths
Number of Pixels in Spectrum: 2068
>>>>>Begin Spectral Data<<<<<
179.565	1087
179.642	1135.98
179.718	1176.28
179.795	1212.67
179.871	1241.01
179.948	1254.41
180.024	1274.09
180.101	1294.69
180.177	1306.24
180.254	1326.41
180.33	1347.18
180.407	1390.75
180.483	1477.08
180.56	1558.36
180.636	1634.61
180.712	1621.39
180.789	1631.32
180.865	1643.05
180.942	1651.08
181.018	1660.49
181.095	1671.99
181.171	1678.73
181.248	1680.35
181.324	1694.37
181.4	1699.12
181.477	1708.2
181.553	1723.78
181.63	1742.36
181.706	1756.47
181.782	1766.45
181.859	1767.16
181.935	1773.43
182.011	1770.58
182.088	1787.69
182.164	1806.19
182.24	1817.4
182.317	1827.76
182.393	1825.1
182.469	1839.21
182.546	1850.24
182.622	1856.89
182.698	1854.14
182.775	1865.88
182.851	1879.66
182.927	1874.15
183.003	1871.25
183.08	1868.16
183.156	1876.57
183.232	1873.77
183.308	1861.84
183.385	1867.26
183.461	1882.04
183.537	1882.23
183.613	1894.07
183.69	1886.22
183.766	1873.53
183.842	1881.18
183.918	1884.65
183.995	1895.2
184.071	1896.58
184.147	1893.87
184.223	1882.61
184.299	1894.5
184.375	1882.71
184.452	1889.75
184.528	1938.92
184.604	1946
184.68	1957.79
184.756	1962.78
184.832	1965.44
184.908	1969.43
184.985	1971.48
185.061	1957.5
185.137	1962.45
185.213	1953.32
185.289	1950.8
185.365	1946.52
185.441	1947.33
185.517	1959.17
185.593	1958.51
185.669	1956.46
185.745	1966.31
185.822	1978.38
185.898	1974.71
185.974	1981.13
186.05	1971.24
186.126	1934.48
186.202	1932.2
186.278	1926.25
186.354	1917.98
186.43	1923.54
186.506	1924.02
186.582	1920.84
186.658	1928.73
186.734	1912.85
186.81	1914.56
186.886	1918.13
186.962	1929.11
187.038	1923.78
187.114	1915.84
187.19	1924.21
187.266	1915.32
187.341	1913.18
187.417	1910.9
187.493	1905.48
187.569	1910.09
187.645	1906.95
187.721	1893.31
187.797	1899.77
187.873	1903.48
187.949	1898.49
188.025	1893.5
188.101	1896.73
188.176	1904.24
188.252	1896.16
188.328	1903.9
188.404	1904.81
188.48	1900.1
188.556	1892.64
188.632	1892.4
188.707	1895.97
188.783	1891.45
188.859	1888.36
188.935	1877.38
189.011	1881.61
189.086	1876.24
189.162	1870.58
189.238	1867.16
189.314	1867.73
189.39	1860.22
189.465	1854.13
189.541	1869.49
189.617	1856.28
189.693	1851.19
189.768	1853.66
189.844	1876.77
189.92	1868.03
189.996	1876.54
190.071	1887.28
190.147	1887.47
190.223	1896.22
190.298	1885.14
190.374	1871.36
190.45	1882.29
190.526	1891.08
190.601	1888.47
190.677	1891.51
190.753	1916.01
190.828	1918.48
190.904	1932.41
190.98	1947.86
191.055	1958.23
191.131	1949.19
191.207	1969.68
191.282	1977.48
191.358	1965.64
191.433	1953.51
191.509	1966.2
191.585	1959.35
191.66	1957.6
191.736	1964.54
191.811	1955.31
191.887	1972.1
191.963	1998.02
192.038	2002.96
192.114	2004.48
192.189	2006.81
192.265	2002.54
192.34	1981.41
192.416	1981.56
192.491	1977.85
192.567	1980.41
192.642	1983.84
192.718	1986.45
192.793	1972.9
192.869	1970.91
192.944	1975.71
193.02	1982.41
193.095	1986.31
193.171	1993.25
193.246	1995.77
193.322	1994.39
193.397	1996.25
193.473	1982.5
193.548	1963.19
193.624	1968.38
193.699	1969.42
193.775	1985.4
193.85	1986.92
193.925	1993.82
194.001	1993.3
194.076	1987.97
194.152	1979.36
194.227	1971.28
194.302	1961.06
194.378	1964.43
194.453	1962.01
194.529	1974.9
194.604	1962.49
194.679	1953.36
194.755	1935.63
194.83	1947.57
194.905	1945.38
194.981	1949.38
195.056	1942.67
195.131	1948.57
195.207	1946.67
195.282	1934.97
195.357	1916.8
195.433	1932.68
195.508	1923.41
195.583	1929.45
195.659	1939.96
195.734	1946
195.809	1946.24
195.884	1955.79
195.96	1956.55
196.035	1969.77
196.11	1963.21
196.185	1971.62
196.261	1976.66
196.336	2007.99
196.411	1991.82
196.486	1996.01
196.561	1992.06
196.637	2001.14
196.712	2015.93
196.787	2017.79
196.862	2032.1
196.937	2040.14
197.013	2042.61
197.088	2053.26
197.163	2075
197.238	2092.23
197.313	2091.85
197.388	2104.17
197.464	2130.01
197.539	2139.66
197.614	2135.72
197.689	2147.7
197.764	2165.88
197.839	2187.29
197.914	2182.19
197.989	2205.17
198.065	2217.64
198.14	2266.62
198.215	2290.94
198.29	2300.75
198.365	2313.5
198.44	2323.44
198.515	2349.86
198.59	2365.99
198.665	2388.36
198.74	2395.65
198.815	2397.41
198.89	2415.83
198.965	2443.83
199.04	2439.35
199.115	2455.01
199.19	2493.91
199.265	2497.81
199.34	2505.71
199.415	2535.58
199.49	2554.43
199.565	2561.24
199.64	2584.58
199.715	2580.81
199.79	2586.81
199.865	2592.05
199.94	2592.43
200.015	2623.01
200.09	2628.54
200.165	2632.25
200.24	2639.06
200.315	2675.68
200.39	2687.54
200.464	2691.64
200.539	2689.78
200.614	2707.35
200.689	2729.27
200.764	2734.89
200.839	2753.04
200.914	2758.13
200.989	2747.17
201.063	2759.65
201.138	2746.89
201.213	2749.09
201.288	2731.84
201.363	2738.27
201.438	2738.99
201.512	2750.22
201.587	2732.5
201.662	2738.84
201.737	2751.94
201.812	2758.09
201.886	2727.86
201.961	2737.15
202.036	2727.58
202.111	2728.63
202.186	2697.68
202.26	2681.72
202.335	2662.28
202.41	2651.27
202.485	2636.08
202.559	2619.41
202.634	2595.17
202.709	2603.12
202.784	2580.78
202.858	2579.93
202.933	2563.83
203.008	2561.07
203.082	2547.64
203.157	2548.59
203.232	2503.99
203.306	2484.5
203.381	2454.08
203.456	2430.08
203.53	2406.4
203.605	2391.84
203.68	2367.22
203.754	2364.46
203.829	2351.03
203.904	2330.28
203.978	2324.09
204.053	2326.23
204.127	2314.62
204.202	2309.72
204.277	2293.73
204.351	2288.11
204.426	2282.73
204.5	2275.45
204.575	2239.63
204.65	2246.1
204.724	2237.1
204.799	2247.99
204.873	2244.28
204.948	2247.28
205.022	2240.28
205.097	2235.66
205.171	2247.32
205.246	2256.6
205.32	2257.6
205.395	2255.37
205.469	2249.66
205.544	2253.99
205.618	2239.81
205.693	2252.47
205.767	2245
205.842	2265.9
205.916	2261.33
205.991	2248.53
206.065	2252.62
206.14	2267.55
206.214	2263.65
206.289	2257.79
206.363	2268.88
206.438	2268.21
206.512	2269.93
206.586	2285.3
206.661	2292.3
206.735	2274.5
206.81	2276.55
206.884	2286.97
206.958	2277.22
207.033	2290.39
207.107	2294.06
207.181	2320.43
207.256	2312.91
207.33	2329.28
207.405	2340.57
207.479	2359.37
207.553	2365.94
207.628	2349.29
207.702	2361.56
207.776	2354.66
207.851	2359.14
207.925	2369.37
207.999	2369.71
208.073	2371.61
208.148	2376.18
208.222	2366.52
208.296	2393.69
208.371	2406.74
208.445	2417.74
208.519	2445.58
208.593	2459.15
208.668	2455.53
208.742	2459.82
208.816	2462.63
208.89	2476.06
208.965	2470.86
209.039	2476.1
209.113	2494.86
209.187	2514.99
209.261	2509.23
209.336	2529.13
209.41	2546.66
209.484	2549.51
209.558	2571.42
209.632	2583.47
209.707	2593.9
209.781	2611.85
209.855	2626.72
209.929	2646.5
210.003	2653.74
210.077	2655.65
210.151	2701.9
210.226	2737.31
210.3	2762.01
210.374	2780.91
210.448	2787.35
210.522	2797.78
210.596	2809.93
210.67	2819.03
210.744	2864.41
210.818	2897.61
210.892	2916.73
210.966	2910.82
211.041	2930.22
211.115	2928.55
211.189	2950.09
211.263	2968.16
211.337	2979.45
211.411	2996.09
211.485	2988.32
211.559	3002.9
211.633	3007.67
211.707	2980.28
211.781	2989.63
211.855	2962.89
211.929	2962.32
212.003	2949.36
212.077	2968.53
212.151	2987.79
212.225	3008.11
212.299	3005.01
212.373	3005.82
212.447	3015.4
212.52	3055.94
212.594	3069.72
212.668	3093.52
212.742	3098
212.816	3106.68
212.89	3117.74
212.964	3134.69
213.038	3161.07
213.112	3195.72
213.186	3232.4
213.26	3238.88
213.333	3225.43
213.407	3262.72
213.481	3298.4
213.555	3347.37
213.629	3372.49
213.703	3395.4
213.777	3428.73
213.85	3454.13
213.924	3526.54
213.998	3574.7
214.072	3617.42
214.146	3657.83
214.219	3712.29
214.293	3769.61
214.367	3832.44
214.441	3906.99
214.515	3963.6
214.588	4008.86
214.662	4046.82
214.736	4098.11
214.81	4182.36
214.883	4269.78
214.957	4340.98
215.031	4414.85
215.105	4472.09
215.178	4546.17
215.252	4630.78
215.326	4707.89
215.4	4781.64
215.473	4844.01
215.547	4922.76
215.621	5013.33
215.694	5120.86
215.768	5202.17
215.842	5293.55
215.915	5392.74
215.989	5474.53
216.063	5573.27
216.136	5685.81
216.21	5800.99
216.284	5932.39
216.357	6050.08
216.431	6166.3
216.504	6287.29
216.578	6430.45
216.652	6565.73
216.725	6687.89
216.799	6822.68
216.873	6944.4
216.946	7084.65
217.02	7202.41
217.093	7327.93
217.167	7436.61
217.24	7549.88
217.314	7681.93
217.387	7808.23
217.461	7928.22
217.535	8077.12
217.608	8200.94
217.682	8336.37
217.755	8480.71
217.829	8605.31
217.902	8733.47
217.976	8864.76
218.049	8996.17
218.123	9115.09
218.196	9257.93
218.27	9389.33
218.343	9506.3
218.417	9648.89
218.49	9773.14
218.563	9914.3
218.637	10052.06
218.71	10208.62
218.784	10350.59
218.857	10495.26
218.931	10634.11
219.004	10764
219.077	10899.98
219.151	11026.71
219.224	11150.6
219.298	11279.42
219.371	11417.01
219.444	11536.91
219.518	11662.51
219.591	11789.79
219.665	11932.03
219.738	12050.31
219.811	12165.31
219.885	12296.8
219.958	12419.48
220.031	12552.56
220.105	12681.56
220.178	12800.14
220.251	12899.68
220.325	13022.22
220.398	13139.07
220.471	13255.72
220.544	13379.61
220.618	13474.43
220.691	13606.28
220.764	13714.83
220.838	13832.94
220.911	13933.5
220.984	14055.31
221.057	14163.29
221.131	14265.1
221.204	14343.19
221.277	14456.77
221.35	14583.25
221.424	14671.81
221.497	14771.93
221.57	14855.08
221.643	14955.63
221.716	15058.98
221.79	15148.59
221.863	15241.33
221.936	15325.73
222.009	15412.06
222.082	15505.91
222.155	15597.59
222.229	15684.15
222.302	15781.08
222.375	15846.01
222.448	15935.27
222.521	16018.22
222.594	16102.81
222.667	16170.34
222.74	16255.75
222.814	16331.08
222.887	16408.29
222.96	16499.24
223.033	16572.6
223.106	16660.31
223.179	16736.94
223.252	16807.31
223.325	16878.16
223.398	16941.2
223.471	17006.93
223.544	17070.94
223.617	17132.91
223.69	17198.84
223.763	17261.06
223.837	17328.77
223.91	17407.09
223.983	17444.24
224.056	17496.29
224.129	17559.28
224.202	17636.2
224.275	17697.83
224.348	17746.41
224.42	17786.36
224.493	17828.19
224.566	17887.57
224.639	17934.46
224.712	17970.55
224.785	18007.56
224.858	18065.63
224.931	18106.06
225.004	18146.83
225.077	18200.18
225.15	18223.17
225.223	18267.7
225.296	18325.86
225.369	18351.6
225.442	18383.16
225.514	18438.63
225.587	18482.43
225.66	18524.74
225.733	18574.38
225.806	18613.94
225.879	18658.18
225.952	18691.29
226.025	18745.69
226.097	18795.14
226.17	18832.77
226.243	18854.02
226.316	18896.43
226.389	18931.42
226.461	18978.5
226.534	19027.12
226.607	19060.33
226.68	19130.2
226.753	19164.95
226.825	19170.05
226.898	19217.52
226.971	19253.9
227.044	19289.95
227.117	19320.65
227.189	19360.84
227.262	19399.97
227.335	19437.22
227.407	19470.23
227.48	19508.2
227.553	19540.49
227.626	19570.37
227.698	19602.41
227.771	19643.28
227.844	19671.37
227.916	19706.6
227.989	19724.38
228.062	19745.78
228.134	19799.18
228.207	19818.93
228.28	19843.32
228.352	19875.99
228.425	19898.4
228.498	19925.87
228.57	19941.53
228.643	19980.32
228.716	20003.36
228.788	20011.02
228.861	20029.58
228.934	20059.74
229.006	20086.39
229.079	20103.36
229.151	20103.12
229.224	20107.93
229.296	20132.42
229.369	20178.1
229.442	20209.91
229.514	20218.39
229.587	20247.31
229.659	20240.61
229.732	20256.66
229.804	20285.28
229.877	20333.67
229.949	20366.73
230.022	20404.95
230.094	20417.52
230.167	20432.61
230.239	20433.28
230.312	20460.22
230.384	20497.14
230.457	20513.57
230.529	20531.02
230.602	20545.48
230.674	20572.75
230.747	20600.99
230.819	20635.6
230.892	20614.1
230.964	20633.96
231.037	20663.31
231.109	20676.08
231.181	20704.47
231.254	20708.66
231.326	20711.41
231.399	20718.3
231.471	20722.97
231.544	20708.47
231.616	20735.02
231.688	20751.17
231.761	20771.02
231.833	20771.99
231.905	20760.85
231.978	20774.64
232.05	20771.89
232.122	20782.59
232.195	20776.37
232.267	20801.14
232.339	20805.19
232.412	20826.97
232.484	20811.41
232.556	20803.7
232.629	20835.55
232.701	20844.23
232.773	20854.64
232.846	20860.81
232.918	20861.48
232.99	20870.5
233.062	20885.1
233.135	20885.39
233.207	20877.19
233.279	20877.68
233.351	20881.05
233.424	20869
233.496	20854.11
233.568	20868.42
233.64	20847.46
233.713	20849.29
233.785	20834.88
233.857	20816.71
233.929	20804.85
234.001	20818.25
234.074	20828.08
234.146	20786.54
234.218	20772.42
234.29	20752.95
234.362	20733.57
234.434	20705.57
234.507	20675.55
234.579	20647.21
234.651	20630.25
234.723	20630.34
234.795	20614.73
234.867	20599.5
234.939	20612.27
235.012	20600.17
235.084	20592.37
235.156	20597.23
235.228	20586.49
235.3	20576.9
235.372	20561.81
235.444	20561.38
235.516	20528.89
235.588	20518.34
235.66	20511.35
235.732	20484.46
235.804	20532.8
235.876	20530.92
235.948	20532.03
236.02	20520.75
236.092	20505.57
236.164	20496.17
236.236	20469.57
236.308	20451.79
236.38	20432.17
236.452	20392.9
236.524	20376.71
236.596	20370.01
236.668	20353.14
236.74	20333.43
236.812	20313.04
236.884	20310.34
236.956	20282.25
237.028	20256.37
237.1	20232.42
237.172	20227.55
237.244	20236.18
237.316	20174.54
237.388	20152.22
237.46	20119.93
237.532	20104.8
237.604	20071.17
237.675	20063.6
237.747	20049.48
237.819	20028.61
237.891	20007.65
237.963	19979.17
238.035	19957.63
238.107	19895.8
238.178	19883.41
238.25	19860.43
238.322	19861.68
238.394	19816.14
238.466	19794.98
238.538	19770.36
238.609	19742.6
238.681	19694.41
238.753	19650.22
238.825	19613.93
238.897	19588.29
238.968	19582.99
239.04	19552.34
239.112	19562.46
239.184	19521.55
239.255	19489.17
239.327	19465.31
239.399	19438.13
239.471	19427.82
239.542	19398.09
239.614	19396.59
239.686	19336.16
239.758	19308.94
239.829	19263.06
239.901	19255.59
239.973	19215.5
240.044	19192.08
240.116	19161.91
240.188	19138.78
240.259	19105.62
240.331	19085.29
240.403	19063.79
240.474	19020.04
240.546	18981.2
240.618	18926.26
240.689	18888.29
240.761	18868.14
240.833	18842.56
240.904	18814.08
240.976	18779.67
241.048	18756.59
241.119	18725.17
241.191	18714.8
241.262	18710.61
241.334	18671.53
241.405	18634.13
241.477	18601.9
241.549	18565.17
241.62	18541.95
241.692	18515.97
241.763	18505.52
241.835	18464.51
241.906	18425.47
241.978	18372.75
242.049	18352.17
242.121	18336.8
242.192	18322.25
242.264	18265.72
242.335	18215.22
242.407	18189.53
242.478	18156.38
242.55	18129.44
242.621	18089.63
242.693	18051.75
242.764	18001.92
242.836	17980.34
242.907	17947.76
242.979	17920.1
243.05	17901.01
243.122	17871.33
243.193	17832.15
243.264	17768.49
243.336	17744.73
243.407	17724.92
243.479	17712.97
243.55	17688.78
243.622	17659.62
243.693	17623.33
243.764	17611.09
243.836	17578.56
243.907	17538.42
243.978	17497.74
244.05	17461.4
244.121	17417.21
244.192	17392.83
244.264	17348.97
244.335	17311.86
244.407	17267.14
244.478	17251.38
244.549	17216.87
244.62	17170.03
244.692	17141.11
244.763	17118.12
244.834	17070.84
244.906	17027.42
244.977	17000.19
245.048	16977.64
245.119	16932.96
245.191	16891.85
245.262	16832.38
245.333	16818.98
245.405	16788.57
245.476	16770.78
245.547	16739.55
245.618	16711.12
245.689	16668.32
245.761	16637.91
245.832	16596.27
245.903	16572.99
245.974	16536.7
246.045	16497.8
246.117	16473.95
246.188	16428.5
246.259	16389.94
246.33	16358.18
246.401	16320.77
246.473	16273.11
246.544	16232.38
246.615	16213.1
246.686	16175.7
246.757	16163.99
246.828	16115.21
246.899	16097.91
246.97	16045.81
247.042	16004.02
247.113	15982.04
247.184	15967.68
247.255	15931.91
247.326	15906.32
247.397	15868.58
247.468	15842.65
247.539	15822.45
247.61	15782.4
247.681	15761.91
247.752	15739.16
247.823	15703.59
247.894	15673.42
247.965	15633.5
248.037	15590.37
248.108	15542.45
248.179	15512.86
248.25	15477.72
248.321	15454.44
248.392	15411.11
248.463	15404.84
248.534	15376.74
248.605	15351.58
248.675	15318.85
248.746	15297.98
248.817	15272.19
248.888	15245.44
248.959	15194.01
249.03	15160.6
249.101	15129.75
249.172	15093.94
249.243	15050.17
249.314	15039.47
249.385	15022.31
249.456	14999.41
249.527	14981.86
249.598	14952.46
249.669	14929.13
249.739	14907.15
249.81	14887.72
249.881	14850.46
249.952	14818.69
250.023	14788.61
250.094	14747.26
250.165	14704.93
250.235	14666.51
250.306	14636.44
250.377	14600.67
250.448	14575.46
250.519	14531.83
250.59	14525.37
250.66	14493.75
250.731	14476.68
250.802	14448.58
250.873	14416.38
250.944	14390.69
251.014	14351.83
251.085	14352.17
251.156	14331.68
251.227	14315.24
251.297	14292.73
251.368	14271.67
251.439	14250.07
251.51	14228.86
251.58	14191.36
251.651	14167.54
251.722	14156.99
251.792	14117.26
251.863	14094.65
251.934	14086.8
252.005	14083.71
252.075	14052.47
252.146	14042.98
252.217	14029.72
252.287	14011.5
252.358	13986.05
252.429	13983.06
252.499	13959.1
252.57	13938.47
252.641	13917.45
252.711	13890.55
252.782	13850.88
252.852	13840.17
252.923	13816.07
252.994	13797.27
253.064	13791.87
253.135	13762.8
253.205	13727.9
253.276	13727.32
253.347	13714.64
253.417	13678.2
253.488	13647.59
253.558	13622.38
253.629	13594.03
253.699	13573.3
253.77	13547.08
253.841	13517.48
253.911	13490.72
253.982	13465.27
254.052	13451.68
254.123	13432.15
254.193	13410.75
254.264	13427.19
254.334	13398.07
254.405	13366.54
254.475	13330.78
254.546	13307.78
254.616	13296.89
254.687	13278.37
254.757	13256.59
254.827	13230.31
254.898	13213.49
254.968	13194.54
255.039	13163.07
255.109	13145.13
255.18	13115.87
255.25	13080.54
255.321	13077.55
255.391	13039.42
255.461	13041.01
255.532	12990.05
255.602	12959.2
255.673	12913.69
255.743	12876.72
255.813	12832.85
255.884	12827.6
255.954	12823.02
256.024	12817.96
256.095	12793.33
256.165	12763.87
256.235	12746.81
256.306	12714.99
256.376	12706.31
256.446	12694.26
256.517	12679.8
256.587	12668.52
256.657	12644.66
256.728	12611.45
256.798	12579.15
256.868	12562.18
256.938	12525.88
257.009	12512.24
257.079	12503.37
257.149	12512.63
257.219	12472.52
257.29	12460.42
257.36	12417.47
257.43	12396.79
257.5	12351.58
257.571	12336.49
257.641	12320.68
257.711	12280.77
257.781	12275.37
257.852	12255.75
257.922	12215.45
257.992	12197.28
258.062	12177.42
258.132	12169.61
258.202	12161.71
258.273	12144.98
258.343	12137.41
258.413	12118.76
258.483	12099.76
258.553	12065.59
258.623	12028.23
258.693	12015.7
258.764	12013.43
258.834	12007.65
258.904	11983.84
258.974	11956.32
259.044	11931.93
259.114	11917.03
259.184	11903.68
259.254	11879.82
259.324	11837.99
259.394	11828.15
259.464	11818.8
259.535	11793.06
259.605	11769.2
259.675	11745.44
259.745	11730.6
259.815	11702.16
259.885	11672.18
259.955	11677.24
260.025	11649.24
260.095	11634.92
260.165	11619.84
260.235	11614.01
260.305	11587.64
260.375	11562.15
260.445	11568.7
260.515	11560.89
260.585	11554.1
260.655	11532.55
260.725	11526
260.795	11515.73
260.865	11517.42
260.934	11490.04
261.004	11479.63
261.074	11465.32
261.144	11464.31
261.214	11452.88
261.284	11430.04
261.354	11422.76
261.424	11397.02
261.494	11403.63
261.564	11384.93
261.634	11376.93
261.703	11347.09
261.773	11336.44
261.843	11330.18
261.913	11306.56
261.983	11275.52
262.053	11265.16
262.123	11249.98
262.192	11216.68
262.262	11213.26
262.332	11184.2
262.402	11173.88
