Data from 20250630_urea_2M_MAYP1162681_18-22-27-086.txt Node
Date: Mon Jun 30 18:22:27 BST 2025
User: adleo
Spectrometer: MAYP116268
Trigger mode: 0
Integration Time (sec): 1.000000E0
Scans to average: 1
Electric dark correction enabled: true
Nonlinearity correction enabled: true
Boxcar width: 10
XAxis mode: Wavelengths
Number of Pixels in Spectrum: 2068
>>>>>Begin Spectral Data<<<<<
179.565	1103.76
179.642	1155.01
179.718	1193.55
179.795	1228.51
179.871	1259.27
179.948	1274.59
180.024	1291.09
180.101	1310.15
180.177	1323.47
180.254	1345.08
180.33	1365.92
180.407	1411.87
180.483	1498.9
180.56	1580.62
180.636	1657.71
180.712	1646.55
180.789	1655.62
180.865	1666.93
180.942	1672.25
181.018	1682.74
181.095	1696.72
181.171	1702.8
181.248	1704.03
181.324	1716.68
181.4	1723.95
181.477	1735.73
181.553	1749.03
181.63	1767.19
181.706	1784.3
181.782	1790.76
181.859	1790.52
181.935	1795.6
182.011	1789.43
182.088	1804.83
182.164	1822.84
182.24	1835.72
182.317	1844.8
182.393	1842.52
182.469	1855.73
182.546	1868.75
182.622	1872.32
182.698	1868.99
182.775	1877.88
182.851	1891.43
182.927	1886.53
183.003	1883.35
183.08	1875.27
183.156	1884.11
183.232	1884.06
183.308	1873.27
183.385	1882.68
183.461	1898.08
183.537	1898.61
183.613	1913.34
183.69	1907.4
183.766	1898.84
183.842	1908.59
183.918	1915.43
183.995	1927.41
184.071	1929.27
184.147	1925.04
184.223	1914.77
184.299	1926.99
184.375	1915.77
184.452	1919.77
184.528	1973.51
184.604	1982.88
184.68	1993.67
184.756	1998.85
184.832	2003.75
184.908	2006.08
184.985	2004.89
185.061	1990.39
185.137	1997.05
185.213	1985.49
185.289	1984.88
185.365	1977.79
185.441	1970.52
185.517	1983.6
185.593	1977.7
185.669	1977.32
185.745	1988.16
185.822	2006.37
185.898	1995.33
185.974	2005.89
186.05	1996.57
186.126	1957.61
186.202	1952.19
186.278	1947.39
186.354	1938.74
186.43	1941.68
186.506	1941.11
186.582	1939.5
186.658	1948.24
186.734	1931.66
186.81	1936.36
186.886	1938.64
186.962	1949.2
187.038	1947.48
187.114	1935.54
187.19	1943.82
187.266	1934.26
187.341	1935.17
187.417	1927.37
187.493	1928.37
187.569	1932.31
187.645	1929.94
187.721	1917.57
187.797	1925.09
187.873	1931.46
187.949	1927.99
188.025	1923.56
188.101	1927.65
188.176	1932.12
188.252	1923.42
188.328	1931.74
188.404	1928.93
188.48	1924.94
188.556	1918
188.632	1920.04
188.707	1921.42
188.783	1919.95
188.859	1917.52
188.935	1904.31
189.011	1910.2
189.086	1904.45
189.162	1895.84
189.238	1896.27
189.314	1895.51
189.39	1887.76
189.465	1880.39
189.541	1892.56
189.617	1879.73
189.693	1871.6
189.768	1875.45
189.844	1900.85
189.92	1891.34
189.996	1900.62
190.071	1911.65
190.147	1910.27
190.223	1919.02
190.298	1914.36
190.374	1906.18
190.45	1914.21
190.526	1922.06
190.601	1917.25
190.677	1917.92
190.753	1945.51
190.828	1945.51
190.904	1956.5
190.98	1970.24
191.055	1980.98
191.131	1973.57
191.207	1993.63
191.282	2005.27
191.358	1998.95
191.433	1984.35
191.509	1997.84
191.585	1994.42
191.66	1994.75
191.736	2004.02
191.811	1994.99
191.887	2007.4
191.963	2023.14
192.038	2027.52
192.114	2028.37
192.189	2032.56
192.265	2031.7
192.34	2010.24
192.416	2010.53
192.491	2009.82
192.567	2011.2
192.642	2015.71
192.718	2018.57
192.793	2006.35
192.869	2000.26
192.944	2000.55
193.02	2008.2
193.095	2013.1
193.171	2018.76
193.246	2019.85
193.322	2017.95
193.397	2016.62
193.473	2004.82
193.548	1989.75
193.624	1994.6
193.699	1993.79
193.775	2010.35
193.85	2011.63
193.925	2018.91
194.001	2014.91
194.076	2006.54
194.152	1996.94
194.227	1987.04
194.302	1978.34
194.378	1982.01
194.453	1980.34
194.529	1992.66
194.604	1978.01
194.679	1969.93
194.755	1952.25
194.83	1962.52
194.905	1960.29
194.981	1969.51
195.056	1964.71
195.131	1970.32
195.207	1969.94
195.282	1961.15
195.357	1940.98
195.433	1955.53
195.508	1942.64
195.583	1952.67
195.659	1967.03
195.734	1975.93
195.809	1977.31
195.884	1982.63
195.96	1982.35
196.035	1999.89
196.11	1994.85
196.185	2006.64
196.261	2009.21
196.336	2037.45
196.411	2022.75
196.486	2027.61
196.561	2022.52
196.637	2026.84
196.712	2043.07
196.787	2046.78
196.862	2060.18
196.937	2069.65
197.013	2075.02
197.088	2084.91
197.163	2104.85
197.238	2121.51
197.313	2120.42
197.388	2131.98
197.464	2160.38
197.539	2172.08
197.614	2165.61
197.689	2177.17
197.764	2193.35
197.839	2213.19
197.914	2210.72
197.989	2233.79
198.065	2248.26
198.14	2293.77
198.215	2320.47
198.29	2331.32
198.365	2344.22
198.44	2354.31
198.515	2382.73
198.59	2396.34
198.665	2420.28
198.74	2425.66
198.815	2426.52
198.89	2448.94
198.965	2474.08
199.04	2471.22
199.115	2485.17
199.19	2525.74
199.265	2531.3
199.34	2540.16
199.415	2570.99
199.49	2590.41
199.565	2600.79
199.64	2620.99
199.715	2621.32
199.79	2625.84
199.865	2633.08
199.94	2629.47
200.015	2662.1
200.09	2666.15
200.165	2670.82
200.24	2680.11
200.315	2719.1
200.39	2733.01
200.464	2736.92
200.539	2740.45
200.614	2757.74
200.689	2779.18
200.764	2782.52
200.839	2795.04
200.914	2800.09
200.989	2791.03
201.063	2801.04
201.138	2784.13
201.213	2782.99
201.288	2762.17
201.363	2767.31
201.438	2763.17
201.512	2777.79
201.587	2761.3
201.662	2765.11
201.737	2780.46
201.812	2787.99
201.886	2756.37
201.961	2765
202.036	2757
202.111	2754.33
202.186	2723.62
202.26	2707.56
202.335	2684.98
202.41	2684.12
202.485	2666.02
202.559	2649.83
202.634	2625.3
202.709	2630.58
202.784	2612.77
202.858	2614.24
202.933	2600.2
203.008	2594.91
203.082	2578.67
203.157	2576.86
203.232	2539.34
203.306	2516.52
203.381	2486.42
203.456	2465.95
203.53	2445.41
203.605	2426.37
203.68	2403.6
203.754	2398.75
203.829	2384.04
203.904	2367.67
203.978	2353.33
204.053	2358.62
204.127	2340.96
204.202	2341.01
204.277	2326.4
204.351	2321.12
204.426	2312.64
204.5	2303.84
204.575	2272.1
204.65	2280.44
204.724	2273.39
204.799	2279.29
204.873	2276.62
204.948	2273.62
205.022	2262.82
205.097	2254.54
205.171	2266.96
205.246	2274.67
205.32	2274.43
205.395	2274.19
205.469	2265.2
205.544	2269.34
205.618	2255.45
205.693	2270.15
205.767	2259.45
205.842	2278.15
205.916	2271.06
205.991	2259.02
206.065	2265.4
206.14	2281.09
206.214	2279.28
206.289	2272.19
206.363	2283.04
206.438	2285.28
206.512	2292.56
206.586	2309.4
206.661	2316.88
206.735	2295.9
206.81	2295.62
206.884	2310.08
206.958	2297.95
207.033	2315.88
207.107	2326.26
207.181	2355.45
207.256	2350.26
207.33	2367.49
207.405	2379.02
207.479	2396.58
207.553	2404.48
207.628	2388.59
207.702	2398.29
207.776	2391.01
207.851	2394.34
207.925	2408.49
207.999	2408.25
208.073	2407.34
208.148	2411.44
208.222	2397.97
208.296	2428.85
208.371	2446.05
208.445	2456.09
208.519	2483.79
208.593	2494.84
208.668	2491.55
208.742	2494.89
208.816	2498.65
208.89	2510.32
208.965	2510.46
209.039	2519.46
209.113	2538.41
209.187	2557.97
209.261	2555.07
209.336	2574.83
209.41	2592.83
209.484	2589.97
209.558	2604.74
209.632	2617.12
209.707	2624.26
209.781	2645.12
209.855	2661.56
209.929	2676.82
210.003	2683.63
210.077	2683.58
210.151	2731.51
210.226	2762.06
210.3	2785.38
210.374	2810.1
210.448	2819.45
210.522	2830.65
210.596	2840.94
210.67	2848.23
210.744	2893.09
210.818	2926
210.892	2944.07
210.966	2937.16
211.041	2956.7
211.115	2958.94
211.189	2987.31
211.263	3008.99
211.337	3020.58
211.411	3035.98
211.485	3035.26
211.559	3050.42
211.633	3058.85
211.707	3029.89
211.781	3042.64
211.855	3019.27
211.929	3016.55
212.003	3005.59
212.077	3022.72
212.151	3047.18
212.225	3067.83
212.299	3071.98
212.373	3073.94
212.447	3086.77
212.52	3136.04
212.594	3159.76
212.668	3194.15
212.742	3201.07
212.816	3221.63
212.89	3247.06
212.964	3275.28
213.038	3309.75
213.112	3355.24
213.186	3409.88
213.26	3431.11
213.333	3430.25
213.407	3480.27
213.481	3528.99
213.555	3590.54
213.629	3632.97
213.703	3671.14
213.777	3732.63
213.85	3775.69
213.924	3874.54
213.998	3943.85
214.072	4008.95
214.146	4069.91
214.219	4142.65
214.293	4221.06
214.367	4302.7
214.441	4395.75
214.515	4474.48
214.588	4544.35
214.662	4609.68
214.736	4686.84
214.81	4797.23
214.883	4914.1
214.957	5013.17
215.031	5116.51
215.105	5209.79
215.178	5319.78
215.252	5437.78
215.326	5542.83
215.4	5654.33
215.473	5739.44
215.547	5854.44
215.621	5978.66
215.694	6125.67
215.768	6245.04
215.842	6375.84
215.915	6514.18
215.989	6636.17
216.063	6780.72
216.136	6941.75
216.21	7094.51
216.284	7262.91
216.357	7425.89
216.431	7584.19
216.504	7751.85
216.578	7940.75
216.652	8126.84
216.725	8288.29
216.799	8465.6
216.873	8632.18
216.946	8815.95
217.02	8986.4
217.093	9156.76
217.167	9306.63
217.24	9460.04
217.314	9629.71
217.387	9799.26
217.461	9965.76
217.535	10155.62
217.608	10317.04
217.682	10490.53
217.755	10680.16
217.829	10847.11
217.902	11028.53
217.976	11207.64
218.049	11378.62
218.123	11534.05
218.196	11705.29
218.27	11873.63
218.343	12030.67
218.417	12202.73
218.49	12367.34
218.563	12553.64
218.637	12728.22
218.71	12921.52
218.784	13096.69
218.857	13280.29
218.931	13452
219.004	13617.43
219.077	13785.67
219.151	13949.95
219.224	14098.47
219.298	14254.32
219.371	14418.16
219.444	14556.41
219.518	14707.39
219.591	14857.11
219.665	15036.66
219.738	15183.01
219.811	15322.22
219.885	15472.46
219.958	15629.11
220.031	15772.8
220.105	15913.2
220.178	16054.28
220.251	16181.38
220.325	16321.39
220.398	16452.64
220.471	16585.95
220.544	16721.29
220.618	16842.98
220.691	16984.87
220.764	17126.37
220.838	17252.54
220.911	17373.41
220.984	17510.33
221.057	17638.95
221.131	17758.13
221.204	17844.93
221.277	17973.79
221.35	18116.78
221.424	18231.47
221.497	18338.31
221.57	18440.57
221.643	18554.21
221.716	18663.26
221.79	18760.41
221.863	18856.12
221.936	18951.2
222.009	19043.92
222.082	19155
222.155	19246.22
222.229	19345.44
222.302	19433.15
222.375	19508.66
222.448	19595.94
222.521	19671.74
222.594	19744.56
222.667	19811.93
222.74	19895.54
222.814	19961.56
222.887	20027.77
222.96	20105.56
223.033	20184.49
223.106	20254.13
223.179	20325.51
223.252	20393.41
223.325	20459.14
223.398	20519.24
223.471	20582.08
223.544	20640.2
223.617	20684.3
223.69	20738.86
223.763	20779.53
223.837	20823.87
223.91	20886.86
223.983	20921.51
224.056	20963.44
224.129	21016.22
224.202	21073.47
224.275	21113.38
224.348	21149.19
224.42	21176.81
224.493	21195.36
224.566	21225.68
224.639	21274.17
224.712	21292.43
224.785	21316.63
224.858	21355.33
224.931	21390.37
225.004	21420.98
225.077	21461.47
225.15	21478.09
225.223	21511.93
225.296	21563.65
225.369	21573.29
225.442	21593.97
225.514	21621.93
225.587	21657.64
225.66	21680.39
225.733	21709.89
225.806	21735.39
225.879	21754.62
225.952	21771.49
226.025	21814.06
226.097	21851.03
226.17	21868.48
226.243	21873.64
226.316	21895.33
226.389	21908.29
226.461	21927.87
226.534	21941.65
226.607	21948.98
226.68	21980.12
226.753	21991.73
226.825	21983.92
226.898	22025.38
226.971	22038.3
227.044	22054.3
227.117	22063.7
227.189	22086.36
227.262	22105.45
227.335	22125.31
227.407	22134.9
227.48	22148.74
227.553	22159.68
227.626	22152.64
227.698	22157.65
227.771	22177.27
227.844	22173.75
227.916	22178.43
227.989	22183.83
228.062	22188.17
228.134	22220.47
228.207	22230.06
228.28	22231.17
228.352	22227.84
228.425	22230.59
228.498	22242.11
228.57	22238.79
228.643	22249.29
228.716	22242.5
228.788	22232.04
228.861	22234.16
228.934	22249.05
229.006	22254.79
229.079	22247.85
229.151	22244.67
229.224	22237.82
229.296	22242.83
229.369	22268.09
229.442	22284.53
229.514	22265.35
229.587	22278.22
229.659	22258.36
229.732	22254.31
229.804	22262.99
229.877	22287.09
229.949	22300.83
230.022	22313.65
230.094	22312.3
230.167	22311.24
230.239	22297.17
230.312	22295.48
230.384	22306.28
230.457	22305.84
230.529	22301.02
230.602	22306.38
230.674	22314.14
230.747	22323.97
230.819	22318.43
230.892	22285.5
230.964	22281.21
231.037	22280.87
231.109	22265.06
231.181	22270.03
231.254	22253.2
231.326	22235.66
231.399	22218.59
231.471	22187.74
231.544	22157.08
231.616	22161.37
231.688	22152.55
231.761	22137.07
231.833	22127.62
231.905	22089.3
231.978	22071.42
232.05	22058.59
232.122	22043.65
232.195	22022.87
232.267	22011.83
232.339	22002.67
232.412	22008.8
232.484	21985.95
232.556	21970.71
232.629	21984.07
232.701	21970.67
232.773	21956.16
232.846	21942.66
232.918	21932.01
232.99	21932.73
233.062	21933.6
233.135	21920.97
233.207	21895.23
233.279	21887.85
233.351	21880.96
233.424	21860.81
233.496	21831.7
233.568	21838.74
233.64	21807.65
233.713	21784.8
233.785	21769.28
233.857	21752.41
233.929	21713.94
234.001	21715.53
234.074	21706.76
234.146	21663.62
234.218	21644.53
234.29	21627.08
234.362	21604.04
234.434	21564.57
234.507	21523.45
234.579	21480.02
234.651	21447.3
234.723	21434.86
234.795	21417.41
234.867	21389.36
234.939	21383.34
235.012	21370.13
235.084	21339.33
235.156	21323.04
235.228	21298.8
235.3	21272.72
235.372	21246.89
235.444	21243.51
235.516	21202.54
235.588	21192.95
235.66	21170.97
235.732	21132.8
235.804	21166.45
235.876	21145.09
235.948	21130.25
236.02	21110.68
236.092	21093.14
236.164	21070.97
236.236	21038.97
236.308	21009.38
236.38	20987.11
236.452	20956.75
236.524	20945.32
236.596	20936.89
236.668	20910.19
236.74	20888.41
236.812	20862.96
236.884	20838.86
236.956	20808.84
237.028	20768.59
237.1	20729.51
237.172	20716.69
237.244	20709.94
237.316	20639.19
237.388	20596.97
237.46	20561.84
237.532	20546.66
237.604	20500.82
237.675	20489.64
237.747	20471.72
237.819	20436.01
237.891	20403.14
237.963	20366.61
238.035	20327.04
238.107	20261.5
238.178	20250.61
238.25	20207.48
238.322	20200.3
238.394	20157.7
238.466	20121.02
238.538	20092.11
238.609	20064.69
238.681	20016.49
238.753	19971.34
238.825	19947.92
238.897	19932.98
238.968	19924.16
239.04	19884.64
239.112	19882.23
239.184	19837.27
239.255	19796.16
239.327	19773.08
239.399	19746.05
239.471	19721.32
239.542	19686.53
239.614	19672.84
239.686	19621.96
239.758	19604.66
239.829	19555.55
239.901	19530.59
239.973	19502.93
240.044	19489.91
240.116	19455.6
240.188	19422.79
240.259	19394.88
240.331	19351.56
240.403	19329.68
240.474	19276.48
240.546	19231.47
240.618	19183.47
240.689	19142.08
240.761	19116.06
240.833	19097.26
240.904	19051.63
240.976	19005.51
241.048	18975.39
241.119	18949.71
241.191	18921.51
241.262	18910.09
241.334	18869.57
241.405	18834.39
241.477	18789.67
241.549	18740.75
241.62	18709.96
241.692	18674.2
241.763	18650.21
241.835	18619.8
241.906	18583.75
241.978	18539.66
242.049	18523.95
242.121	18494.55
242.192	18477.49
242.264	18426.22
242.335	18372.92
242.407	18353.88
242.478	18329.45
242.55	18301.16
242.621	18254.23
242.693	18214.71
242.764	18165.6
242.836	18129.94
242.907	18110.09
242.979	18077.66
243.05	18049.66
243.122	18018.57
243.193	17993.85
243.264	17926.43
243.336	17874.05
243.407	17840.7
243.479	17828.36
243.55	17794.97
243.622	17764.27
243.693	17726
243.764	17714.68
243.836	17675.6
243.907	17640.99
243.978	17600.46
244.05	17566.01
244.121	17520.75
244.192	17499.79
244.264	17453.62
244.335	17420.22
244.407	17364.61
244.478	17338.78
244.549	17301.52
244.62	17253.67
244.692	17215.88
244.763	17200.56
244.834	17167.5
244.906	17129.23
244.977	17093.52
245.048	17070.1
245.119	17032.41
245.191	16992.84
245.262	16934.14
245.333	16913.27
245.405	16868.93
245.476	16839.44
245.547	16806.09
245.618	16777.85
245.689	16747.1
245.761	16712.88
245.832	16676.3
245.903	16649.02
245.974	16622.22
246.045	16583.57
246.117	16564.92
246.188	16514.36
246.259	16469.49
246.33	16439.6
246.401	16397.53
246.473	16349.14
246.544	16304.8
246.615	16285.71
246.686	16253.85
246.757	16235.83
246.828	16195.34
246.899	16177.8
246.97	16137.7
247.042	16100.97
247.113	16076.15
247.184	16053.4
247.255	16024.04
247.326	15997.01
247.397	15969.58
247.468	15937.67
247.539	15918.83
247.61	15876.75
247.681	15858.96
247.752	15838.91
247.823	15803.58
247.894	15782.76
247.965	15744.29
248.037	15712.48
248.108	15668.86
248.179	15635.27
248.25	15603.89
248.321	15579.54
248.392	15534.04
248.463	15523.34
248.534	15493.55
248.605	15472.83
248.675	15442.99
248.746	15416.14
248.817	15393.2
248.888	15374.35
248.959	15329.24
249.03	15303.88
249.101	15278.72
249.172	15244.79
249.243	15200.83
249.314	15185.45
249.385	15150.89
249.456	15131.22
249.527	15098.39
249.598	15066.72
249.669	15031.58
249.739	15005.7
249.81	14979.86
249.881	14949.83
249.952	14919.17
250.023	14892.85
250.094	14857.09
250.165	14808.16
250.235	14779.96
250.306	14750.66
250.377	14704.28
250.448	14682.35
250.519	14626.58
250.59	14612.89
250.66	14585.7
250.731	14579.29
250.802	14553.4
250.873	14532.19
250.944	14510.26
251.014	14481.96
251.085	14481.96
251.156	14465.28
251.227	14449.23
251.297	14439.88
251.368	14427.73
251.439	14412.64
251.51	14394.86
251.58	14352.19
251.651	14322.93
251.722	14308.62
251.792	14268.7
251.863	14242.57
251.934	14223.2
252.005	14227.87
252.075	14203.62
252.146	14193.55
252.217	14176.53
252.287	14160.58
252.358	14139.56
252.429	14125.92
252.499	14097.52
252.57	14074.67
252.641	14060.74
252.711	14034.9
252.782	13985.4
252.852	13970.36
252.923	13935.21
252.994	13915.88
253.064	13911.01
253.135	13881.8
253.205	13846.03
253.276	13837.16
253.347	13830.89
253.417	13802.93
253.488	13776.47
253.558	13747.93
253.629	13720.12
253.699	13692.78
253.77	13668.63
253.841	13642.17
253.911	13630.02
253.982	13607.7
254.052	13593.57
254.123	13567.88
254.193	13545.75
254.264	13566.53
254.334	13534.33
254.405	13505.11
254.475	13463.56
254.546	13440.18
254.616	13438.44
254.687	13425.57
254.757	13409.86
254.827	13384.07
254.898	13359.72
254.968	13331.57
255.039	13298.16
255.109	13283.36
255.18	13248.08
255.25	13199.58
255.321	13183.14
255.391	13146.75
255.461	13141.11
255.532	13091.74
255.602	13066.53
255.673	13024.11
255.743	12992.78
255.813	12949.58
255.884	12937.48
255.954	12924.85
256.024	12913.91
256.095	12885.28
256.165	12850.04
256.235	12829.31
256.306	12800.97
256.376	12794.36
256.446	12785.11
256.517	12775.18
256.587	12765.63
256.657	12748.42
256.728	12738.15
256.798	12713.67
256.868	12683.54
256.938	12655.67
257.009	12641.41
257.079	12627.04
257.149	12633.89
257.219	12589.92
257.29	12574.79
257.36	12539.07
257.43	12527.88
257.5	12486.72
257.571	12461.75
257.641	12453.31
257.711	12417.98
257.781	12399.18
257.852	12384.96
257.922	12343.12
257.992	12319.55
258.062	12288.74
258.132	12282.43
258.202	12259.63
258.273	12236.2
258.343	12239.53
258.413	12211.62
258.483	12188.48
258.553	12158.74
258.623	12125.05
258.693	12113.33
258.764	12116.95
258.834	12112.03
258.904	12089.57
258.974	12063.73
259.044	12041.47
259.114	12023.2
259.184	12013.7
259.254	11997.99
259.324	11952.1
259.394	11946.89
259.464	11934.75
259.535	11909.06
259.605	11881.15
259.675	11852.62
259.745	11842.83
259.815	11811.07
259.885	11787.06
259.955	11806.05
260.025	11782.2
260.095	11761.9
260.165	11751.4
260.235	11740.65
260.305	11713.61
260.375	11692.06
260.445	11698.72
260.515	11700.79
260.585	11690.57
260.655	11668.11
260.725	11663.19
260.795	11657.31
260.865	11652.16
260.934	11623.53
261.004	11619.38
261.074	11604.58
261.144	11613.07
261.214	11599.81
261.284	11578.56
261.354	11574.7
261.424	11538.89
261.494	11537.92
261.564	11524.62
261.634	11509.58
261.703	11473.2
261.773	11461.39
261.843	11449.05
261.913	11428.13
261.983	11391.79
262.053	11379.7
262.123	11363.02
262.192	11334.25
262.262	11327.16
