Data from 20250630_urea_2M_MAYP1162681_06-32-27-546.txt Node
Date: Tue Jul 01 06:32:27 BST 2025
User: adleo
Spectrometer: MAYP116268
Trigger mode: 0
Integration Time (sec): 1.000000E0
Scans to average: 1
Electric dark correction enabled: true
Nonlinearity correction enabled: true
Boxcar width: 10
XAxis mode: Wavelengths
Number of Pixels in Spectrum: 2068
>>>>>Begin Spectral Data<<<<<
179.565	1088.54
179.642	1136.56
179.718	1172.67
179.795	1204.97
179.871	1231.1
179.948	1245.12
180.024	1258.72
180.101	1278.4
180.177	1290.86
180.254	1310.11
180.33	1329.47
180.407	1372.8
180.483	1458.17
180.56	1537.18
180.636	1609.86
180.712	1594.6
180.789	1601.3
180.865	1611.46
180.942	1618.59
181.018	1627.8
181.095	1636.26
181.171	1638.64
181.248	1640.73
181.324	1654.84
181.4	1660.64
181.477	1673.61
181.553	1685.67
181.63	1709.38
181.706	1724.69
181.782	1733.95
181.859	1733.71
181.935	1739.46
182.011	1736.61
182.088	1751.48
182.164	1771.45
182.24	1782.47
182.317	1794.11
182.393	1794.25
182.469	1806.52
182.546	1820.16
182.622	1822.48
182.698	1820.82
182.775	1833.89
182.851	1845.63
182.927	1837.98
183.003	1835.08
183.08	1827.9
183.156	1835.89
183.232	1831.51
183.308	1819.01
183.385	1822.58
183.461	1839.64
183.537	1837.88
183.613	1848.39
183.69	1839.88
183.766	1827.75
183.842	1836.64
183.918	1840.64
183.995	1852.42
184.071	1853.33
184.147	1846.67
184.223	1838.74
184.299	1849.1
184.375	1838.26
184.452	1841.02
184.528	1893.32
184.604	1903.3
184.68	1913.62
184.756	1920.04
184.832	1924.88
184.908	1930.78
184.985	1931.87
185.061	1915.57
185.137	1924.98
185.213	1913.67
185.289	1916.95
185.365	1912.53
185.441	1913.14
185.517	1923.32
185.593	1921.85
185.669	1919.23
185.745	1929.83
185.822	1944.42
185.898	1939.43
185.974	1948.03
186.05	1941.9
186.126	1903.86
186.202	1897.92
186.278	1895.4
186.354	1885.7
186.43	1889.74
186.506	1888.98
186.582	1888.89
186.658	1896.54
186.734	1879.52
186.81	1883.7
186.886	1884.23
186.962	1893.21
187.038	1888.55
187.114	1881.09
187.19	1886.08
187.266	1877.19
187.341	1877
187.417	1872.53
187.493	1871.72
187.569	1872.96
187.645	1869.11
187.721	1859.36
187.797	1865.35
187.873	1869.49
187.949	1863.55
188.025	1859.13
188.101	1861.22
188.176	1866.87
188.252	1862.17
188.328	1870.06
188.404	1870.1
188.48	1864.54
188.556	1859.93
188.632	1858.74
188.707	1860.36
188.783	1856.08
188.859	1853.47
188.935	1841.49
189.011	1846.86
189.086	1840.3
189.162	1833.98
189.238	1833.22
189.314	1830.03
189.39	1824.57
189.465	1816.44
189.541	1834.6
189.617	1819.67
189.693	1815.11
189.768	1817.92
189.844	1841.03
189.92	1832.95
189.996	1841.55
190.071	1853.25
190.147	1852.15
190.223	1860.33
190.298	1852.06
190.374	1841.22
190.45	1848.78
190.526	1858.62
190.601	1852.39
190.677	1852.91
190.753	1878.5
190.828	1879.21
190.904	1893.19
190.98	1907.79
191.055	1917.72
191.131	1909.16
191.207	1928.46
191.282	1939.16
191.358	1928.51
191.433	1914.52
191.509	1926.17
191.585	1921.22
191.66	1921.46
191.736	1927.07
191.811	1920.46
191.887	1935.39
191.963	1957.55
192.038	1965.49
192.114	1966.82
192.189	1971.29
192.265	1966.68
192.34	1946.22
192.416	1945.89
192.491	1944.37
192.567	1944.56
192.642	1948.41
192.718	1948.98
192.793	1940.09
192.869	1935
192.944	1940.23
193.02	1947.36
193.095	1949.17
193.171	1954.83
193.246	1955.49
193.322	1953.83
193.397	1953.59
193.473	1942.61
193.548	1925.73
193.624	1932.81
193.699	1931.53
193.775	1946.56
193.85	1950.79
193.925	1958.44
194.001	1960.11
194.076	1949.46
194.152	1943.04
194.227	1934.57
194.302	1924.02
194.378	1924.31
194.453	1921.36
194.529	1930.25
194.604	1918.08
194.679	1914.42
194.755	1895.98
194.83	1904.87
194.905	1903.31
194.981	1911.67
195.056	1905.64
195.131	1913.86
195.207	1910.29
195.282	1900.55
195.357	1882.57
195.433	1894.93
195.508	1884.76
195.583	1891.65
195.659	1907.25
195.734	1913.95
195.809	1915.28
195.884	1927.02
195.96	1928.16
196.035	1940.33
196.11	1936.81
196.185	1943.85
196.261	1945.99
196.336	1977.7
196.411	1967.14
196.486	1972.85
196.561	1968.76
196.637	1976.93
196.712	1987.68
196.787	1989.44
196.862	2003.8
196.937	2011.27
197.013	2019.73
197.088	2029.34
197.163	2047.41
197.238	2063.36
197.313	2060.27
197.388	2070.3
197.464	2098.85
197.539	2110.17
197.614	2104.65
197.689	2117.92
197.764	2137.62
197.839	2158.03
197.914	2149.51
197.989	2168.11
198.065	2179.81
198.14	2222.51
198.215	2246.97
198.29	2257.3
198.365	2270.43
198.44	2280.9
198.515	2311.17
198.59	2322.4
198.665	2347.86
198.74	2355.67
198.815	2355.57
198.89	2376.27
198.965	2406.22
199.04	2400.41
199.115	2411.83
199.19	2451.77
199.265	2453.43
199.34	2462.81
199.415	2493.39
199.49	2514.62
199.565	2522.67
199.64	2545.28
199.715	2544.19
199.79	2547.47
199.865	2555.62
199.94	2553.33
200.015	2582.05
200.09	2584.39
200.165	2592.43
200.24	2598.53
200.315	2633.61
200.39	2647.38
200.464	2653.9
200.539	2653.81
200.614	2669.28
200.689	2693.53
200.764	2701.11
200.839	2717.49
200.914	2721.06
200.989	2708.86
201.063	2723.68
201.138	2709.25
201.213	2706.92
201.288	2691.29
201.363	2699.39
201.438	2701.73
201.512	2718.44
201.587	2703.62
201.662	2705.19
201.737	2715.25
201.812	2722.92
201.886	2694.27
201.961	2703.8
202.036	2693.89
202.111	2690.85
202.186	2661.23
202.26	2643.84
202.335	2622.64
202.41	2617.79
202.485	2601.74
202.559	2588.02
202.634	2562.49
202.709	2566.78
202.784	2551.63
202.858	2547.83
202.933	2531.4
203.008	2523.92
203.082	2507.78
203.157	2502.87
203.232	2463.61
203.306	2445.75
203.381	2412.94
203.456	2392.42
203.53	2370.5
203.605	2353.89
203.68	2334.51
203.754	2329.66
203.829	2315.48
203.904	2299.39
203.978	2290.01
204.053	2293.53
204.127	2278.73
204.202	2276.97
204.277	2266.36
204.351	2259.84
204.426	2251.8
204.5	2242.19
204.575	2211.26
204.65	2218.55
204.724	2213.03
204.799	2220.06
204.873	2215.21
204.948	2217.06
205.022	2205.84
205.097	2198.51
205.171	2209.11
205.246	2215.3
205.32	2214.26
205.395	2215.78
205.469	2206.89
205.544	2207.69
205.618	2188.57
205.693	2202.03
205.767	2193.99
205.842	2214.84
205.916	2210.03
205.991	2203.28
206.065	2211.13
206.14	2223.97
206.214	2215.26
206.289	2209.4
206.363	2223.44
206.438	2224.1
206.512	2227.05
206.586	2245.42
206.661	2252.99
206.735	2232.49
206.81	2232.35
206.884	2248.76
206.958	2237.25
207.033	2252.09
207.107	2258.23
207.181	2290.21
207.256	2282.12
207.33	2297.16
207.405	2305.54
207.479	2321.15
207.553	2328.05
207.628	2310.64
207.702	2319.3
207.776	2316.4
207.851	2318.06
207.925	2330.63
207.999	2330.73
208.073	2331.3
208.148	2331.16
208.222	2319.25
208.296	2348.7
208.371	2363.61
208.445	2371.8
208.519	2399.5
208.593	2408.87
208.668	2407.97
208.742	2410.92
208.816	2414.64
208.89	2425.25
208.965	2424.83
209.039	2431.64
209.113	2448.15
209.187	2465.95
209.261	2468.61
209.336	2488.61
209.41	2510.75
209.484	2511.37
209.558	2528.85
209.632	2538.89
209.707	2550.46
209.781	2571.89
209.855	2588.75
209.929	2602.43
210.003	2610.1
210.077	2606.62
210.151	2651.96
210.226	2682.41
210.3	2705.29
210.374	2727.25
210.448	2733.3
210.522	2742.21
210.596	2752.21
210.67	2759.41
210.744	2803.01
210.818	2830.97
210.892	2849.65
210.966	2844.94
211.041	2862.09
211.115	2861
211.189	2885.16
211.263	2904.07
211.337	2913.89
211.411	2927.38
211.485	2924.19
211.559	2938.1
211.633	2943.11
211.707	2915.49
211.781	2925.13
211.855	2896.95
211.929	2888.71
212.003	2873.18
212.077	2886.63
212.151	2903.98
212.225	2921.05
212.299	2918.71
212.373	2911.56
212.447	2911.85
212.52	2943.94
212.594	2953
212.668	2973.3
212.742	2970.01
212.816	2971.3
212.89	2975.93
212.964	2983.8
213.038	3000.25
213.112	3021.19
213.186	3051.42
213.26	3047.65
213.333	3022.76
213.407	3043.4
213.481	3065.65
213.555	3095.81
213.629	3103.88
213.703	3108.22
213.777	3129.17
213.85	3134.56
213.924	3187.1
213.998	3213.34
214.072	3232.1
214.146	3249.14
214.219	3274.1
214.293	3303.63
214.367	3333.69
214.441	3374.26
214.515	3401.48
214.588	3416.99
214.662	3424.15
214.736	3444.06
214.81	3492.96
214.883	3545.21
214.957	3579.82
215.031	3612.65
215.105	3643.67
215.178	3681.5
215.252	3724.87
215.326	3754.3
215.4	3790.88
215.473	3802.26
215.547	3839.73
215.621	3884.1
215.694	3946.44
215.768	3980.85
215.842	4026.64
215.915	4081.3
215.989	4119.6
216.063	4171.79
216.136	4238.55
216.21	4306.02
216.284	4384.77
216.357	4453.81
216.431	4521.14
216.504	4601.2
216.578	4702.93
216.652	4783.75
216.725	4856.81
216.799	4941.25
216.873	5017.54
216.946	5102.82
217.02	5180.97
217.093	5259.84
217.167	5320.74
217.24	5381.56
217.314	5467.91
217.387	5549.43
217.461	5628.25
217.535	5728.56
217.608	5805.86
217.682	5893.17
217.755	5985.22
217.829	6055.99
217.902	6137.23
217.976	6223.7
218.049	6302.61
218.123	6371.85
218.196	6459.21
218.27	6548.04
218.343	6626.13
218.417	6722.48
218.49	6802.68
218.563	6905.57
218.637	7002.43
218.71	7113.52
218.784	7222.8
218.857	7322.71
218.931	7417.28
219.004	7509.05
219.077	7605.41
219.151	7698.87
219.224	7786.1
219.298	7881.85
219.371	7982.31
219.444	8068.39
219.518	8155.74
219.591	8253.2
219.665	8368.64
219.738	8471.6
219.811	8549.6
219.885	8645.22
219.958	8738.59
220.031	8839.31
220.105	8933.81
220.178	9022.05
220.251	9108.13
220.325	9194.61
220.398	9279.54
220.471	9371.74
220.544	9468.28
220.618	9545.38
220.691	9636.97
220.764	9719.66
220.838	9807.37
220.911	9894.6
220.984	9999.69
221.057	10097.14
221.131	10191.36
221.204	10250.48
221.277	10341.78
221.35	10455.86
221.424	10547.16
221.497	10628.06
221.57	10706.01
221.643	10792.03
221.716	10881.56
221.79	10954.03
221.863	11039.42
221.936	11119.61
222.009	11199.84
222.082	11280.95
222.155	11358.35
222.229	11455.7
222.302	11547.42
222.375	11616.53
222.448	11696.39
222.521	11771.92
222.594	11843.3
222.667	11900.8
222.74	11987.95
222.814	12067.19
222.887	12134.53
222.96	12207.99
223.033	12291.53
223.106	12368.07
223.179	12448.53
223.252	12519.24
223.325	12591.31
223.398	12651.08
223.471	12729.65
223.544	12802.63
223.617	12873.88
223.69	12946
223.763	12993.19
223.837	13055.57
223.91	13133.47
223.983	13189.53
224.056	13244.05
224.129	13310.77
224.202	13382.84
224.275	13432.01
224.348	13478
224.42	13526.3
224.493	13572.29
224.566	13622.81
224.639	13690.2
224.712	13739.33
224.785	13793.17
224.858	13850.92
224.931	13910.02
225.004	13955.39
225.077	14012.99
225.15	14043.56
225.223	14093.59
225.296	14184.36
225.369	14227.36
225.442	14271.28
225.514	14321.85
225.587	14383.6
225.66	14440.82
225.733	14504.64
225.806	14568.27
225.879	14618.93
225.952	14668.87
226.025	14735.25
226.097	14803.55
226.17	14850.79
226.243	14879.28
226.316	14937.13
226.389	14990.54
226.461	15046.31
226.534	15107.14
226.607	15148.02
226.68	15227.79
226.753	15279.8
226.825	15302.75
226.898	15371.96
226.971	15428.79
227.044	15490.59
227.117	15538.5
227.189	15591.42
227.262	15647.24
227.335	15696.93
227.407	15748.7
227.48	15805.72
227.553	15859.27
227.626	15900.24
227.698	15958.32
227.771	16021.08
227.844	16057.8
227.916	16115.31
227.989	16147.98
228.062	16192.09
228.134	16268.96
228.207	16301.64
228.28	16347.86
228.352	16391.38
228.425	16428.59
228.498	16478.38
228.57	16510.67
228.643	16566.82
228.716	16609.43
228.788	16635.5
228.861	16677
228.934	16730.16
229.006	16767.94
229.079	16806.59
229.151	16839.56
229.224	16857.25
229.296	16905.01
229.369	16968.48
229.442	17020.87
229.514	17059.57
229.587	17104
229.659	17121.88
229.732	17164.44
229.804	17222.51
229.877	17273.64
229.949	17327.28
230.022	17378.08
230.094	17420.63
230.167	17458.27
230.239	17479.86
230.312	17514.03
230.384	17573.64
230.457	17615.09
230.529	17657.21
230.602	17698.99
230.674	17743.47
230.747	17801.83
230.819	17842.22
230.892	17849.4
230.964	17890.75
231.037	17929.4
231.109	17958.36
231.181	18002.21
231.254	18025.92
231.326	18041.92
231.399	18068.52
231.471	18093.54
231.544	18104.28
231.616	18148.04
231.688	18172.86
231.761	18196.81
231.833	18224.71
231.905	18230.01
231.978	18248.66
232.05	18272.08
232.122	18289
232.195	18301
232.267	18327.45
232.339	18341.57
232.412	18376.85
232.484	18372.41
232.556	18392.7
232.629	18445.33
232.701	18462.87
232.773	18493.95
232.846	18505.13
232.918	18537.13
232.99	18552.93
233.062	18576.84
233.135	18590.28
233.207	18598.86
233.279	18632.59
233.351	18665.31
233.424	18678.9
233.496	18693.46
233.568	18725.84
233.64	18733.94
233.713	18757.12
233.785	18763.38
233.857	18777.93
233.929	18785.35
234.001	18827.04
234.074	18851.28
234.146	18825.83
234.218	18836.05
234.29	18851.57
234.362	18861.21
234.434	18848.77
234.507	18843.57
234.579	18839.09
234.651	18840.34
234.723	18860.77
234.795	18874.31
234.867	18879.61
234.939	18896
235.012	18903.32
235.084	18913.88
235.156	18931.71
235.228	18929.68
235.3	18932
235.372	18938.16
235.444	18941.63
235.516	18918.65
235.588	18917.15
235.66	18929.73
235.732	18919.9
235.804	18959.9
235.876	18979.9
235.948	19001.87
236.02	19003.27
236.092	19008.62
236.164	19009.92
236.236	18997.34
236.308	18983.61
236.38	18980.62
236.452	18967.56
236.524	18963.08
236.596	18970.5
236.668	18959.85
236.74	18949.2
236.812	18952.96
236.884	18954.4
236.956	18943.66
237.028	18925.25
237.1	18912.77
237.172	18921.92
237.244	18934.36
237.316	18891.71
237.388	18869.93
237.46	18842.03
237.532	18851.18
237.604	18835.47
237.675	18841.06
237.747	18839.13
237.819	18829.45
237.891	18807.47
237.963	18793.64
238.035	18775.67
238.107	18730.37
238.178	18733.98
238.25	18722.08
238.322	18727.29
238.394	18704.49
238.466	18697.5
238.538	18703.19
238.609	18694.08
238.681	18657.12
238.753	18637.36
238.825	18622.62
238.897	18612.02
238.968	18627.29
239.04	18603.05
239.112	18604.84
239.184	18576.4
239.255	18551.49
239.327	18527.39
239.399	18516.79
239.471	18501.37
239.542	18487.88
239.614	18484.79
239.686	18440.22
239.758	18434.77
239.829	18401.18
239.901	18397.62
239.973	18375.35
240.044	18353.81
240.116	18329.77
240.188	18311.12
240.259	18288.37
240.331	18261.14
240.403	18243.12
240.474	18203.46
240.546	18176.04
240.618	18136.28
240.689	18109.15
240.761	18093.15
240.833	18093.58
240.904	18064.77
240.976	18044.48
241.048	18029.83
241.119	18018.02
241.191	18005.15
241.262	17997.68
241.334	17967.76
241.405	17943.66
241.477	17914.8
241.549	17891.47
241.62	17877.45
241.692	17869.4
241.763	17857.69
241.835	17834.99
241.906	17805.16
241.978	17754.03
242.049	17742.9
242.121	17733.88
242.192	17722.46
242.264	17690.03
242.335	17642.9
242.407	17633.64
242.478	17599.48
242.55	17572.87
242.621	17533.5
242.693	17507.28
242.764	17468.2
242.836	17439.24
242.907	17410.37
242.979	17389.07
243.05	17359.86
243.122	17336.15
243.193	17298.03
243.264	17244.44
243.336	17212.58
243.407	17193.26
243.479	17195.33
243.55	17168.58
243.622	17144.92
243.693	17112.73
243.764	17096.87
243.836	17068.2
243.907	17030.36
243.978	17006.46
244.05	16981.45
244.121	16933.01
244.192	16907.23
244.264	16870.55
244.335	16851.9
244.407	16805.58
244.478	16781.15
244.549	16744.76
244.62	16699.02
244.692	16665.91
244.763	16645.96
244.834	16617.18
244.906	16586.87
244.977	16558.34
245.048	16535.83
245.119	16486.19
245.191	16446.33
245.262	16390.37
245.333	16381.41
245.405	16358.76
245.476	16339.43
245.547	16312.73
245.618	16295.38
245.689	16263.76
245.761	16246.94
245.832	16209.2
245.903	16189.44
245.974	16167.41
246.045	16145.82
246.117	16129.82
246.188	16099.84
246.259	16062.43
246.33	16030.86
246.401	15989.99
246.473	15953.36
246.544	15916.92
246.615	15909.11
246.686	15883.47
246.757	15872.53
246.828	15828.48
246.899	15808.76
246.97	15766.54
247.042	15729.57
247.113	15705.33
247.184	15693.42
247.255	15650.14
247.326	15621.46
247.397	15588.1
247.468	15555.66
247.539	15514.84
247.61	15472.85
247.681	15442.05
247.752	15424.31
247.823	15388.35
247.894	15367.92
247.965	15323.57
248.037	15303.28
248.108	15263.42
248.179	15233.58
248.25	15202.44
248.321	15180.6
248.392	15141.56
248.463	15126.71
248.534	15095.14
248.605	15072.68
248.675	15047.08
248.746	15025.1
248.817	15002.01
248.888	14982.44
248.959	14939.88
249.03	14922.33
249.101	14899.48
249.172	14867.48
249.243	14816.52
249.314	14802.88
249.385	14773.09
249.456	14753.04
249.527	14714.43
249.598	14694.28
249.669	14660.15
249.739	14641.49
249.81	14622.89
249.881	14580.03
249.952	14543.06
250.023	14514.38
250.094	14468.15
250.165	14423.08
250.235	14394.16
250.306	14366.54
250.377	14328.79
250.448	14307.53
250.519	14265.5
250.59	14258.55
250.66	14231.85
250.731	14225.49
250.802	14202.88
250.873	14188.99
250.944	14161.23
251.014	14123.82
251.085	14112.39
251.156	14093.93
251.227	14077.49
251.297	14058.07
251.368	14043.03
251.439	14031.7
251.51	14014.05
251.58	13987.01
251.651	13957.32
251.722	13940.49
251.792	13902.99
251.863	13871.85
251.934	13863.41
252.005	13859.99
252.075	13829.62
252.146	13818.96
252.217	13807.3
252.287	13786.42
252.358	13754.66
252.429	13743.95
252.499	13719.13
252.57	13687.65
252.641	13667.93
252.711	13635.39
252.782	13591.09
252.852	13584.68
252.923	13560.38
252.994	13543.03
253.064	13533.68
253.135	13502.87
253.205	13472.07
253.276	13464.65
253.347	13460.5
253.417	13426.85
253.488	13401.98
253.558	13373.58
253.629	13343.69
253.699	13316.31
253.77	13296.5
253.841	13272.59
253.911	13255.33
253.982	13235.23
254.052	13223.08
254.123	13207.03
254.193	13192.76
254.264	13207.61
254.334	13172.8
254.405	13142.1
254.475	13098.81
254.546	13074.17
254.616	13063.47
254.687	13046.21
254.757	13024.57
254.827	13002.59
254.898	12987.31
254.968	12964.55
255.039	12939.48
255.109	12928.78
255.18	12894.7
255.25	12847.22
255.321	12823.84
255.391	12791.59
255.461	12794.48
255.532	12748.21
255.602	12718.03
255.673	12678.89
255.743	12646.25
255.813	12601.47
255.884	12589.13
255.954	12584.89
256.024	12576.35
256.095	12554.08
256.165	12517.3
256.235	12502.65
256.306	12471.65
256.376	12460.57
256.446	12442.97
256.517	12426.82
256.587	12414.72
256.657	12406.58
256.728	12396.94
256.798	12383.54
256.868	12357.31
256.938	12318.32
257.009	12308.63
257.079	12302.07
257.149	12307.71
257.219	12267.85
257.29	12260.95
257.36	12223.69
257.43	12209.19
257.5	12170.53
257.571	12152.16
257.641	12144.16
257.711	12114.66
257.781	12104.06
257.852	12079.62
257.922	12047.18
257.992	12019.37
258.062	11987.65
258.132	11972.61
258.202	11950.39
258.273	11935.4
258.343	11933.28
258.413	11915.44
258.483	11898.62
258.553	11867.63
258.623	11833.36
258.693	11821.45
258.764	11814.08
258.834	11800.58
258.904	11778.12
258.974	11752.72
259.044	11733.83
259.114	11721.34
259.184	11697.29
259.254	11679.07
259.324	11646.06
259.394	11634.01
259.464	11640.32
259.535	11627.11
259.605	11606.39
259.675	11580.17
259.745	11562.63
259.815	11537.71
259.885	11512.65
259.955	11513.32
260.025	11487.1
260.095	11467.49
260.165	11448.83
260.235	11440.93
260.305	11420.93
260.375	11398.95
260.445	11402.86
260.515	11395.92
260.585	11383.72
260.655	11368.78
260.725	11357.02
260.795	11343.48
260.865	11345.21
260.934	11314.85
261.004	11303.24
261.074	11283.67
261.144	11280.3
261.214	11273.84
261.284	11252.34
261.354	11242.03
261.424	11213.98
261.494	11212.82
261.564	11193.69
261.634	11187.71
261.703	11153.59
261.773	11144.82
261.843	11129.69
261.913	11108.58
261.983	11074.61
262.053	11064.78
262.123	11049.6
262.192	11017.5
262.262	11010.9
262.332	10979.63
262.402	10967.77
262.472	10951.43
262.541	10919.1
