Data from 20250630_urea_2M_MAYP1162681_17-02-27-464.txt Node
Date: Mon Jun 30 17:02:27 BST 2025
User: adleo
Spectrometer: MAYP116268
Trigger mode: 0
Integration Time (sec): 1.000000E0
Scans to average: 1
Electric dark correction enabled: true
Nonlinearity correction enabled: true
Boxcar width: 10
XAxis mode: Wavelengths
Number of Pixels in Spectrum: 2068
>>>>>Begin Spectral Data<<<<<
179.565	1050.76
179.642	1100.91
179.718	1136.97
179.795	1171.51
179.871	1199.92
179.948	1214.24
180.024	1231.22
180.101	1249.42
180.177	1262.34
180.254	1281.45
180.33	1301.97
180.407	1343.44
180.483	1425.25
180.56	1501.74
180.636	1574.04
180.712	1564.35
180.789	1571.81
180.865	1581.16
180.942	1589.42
181.018	1599.59
181.095	1612.46
181.171	1618.02
181.248	1617.45
181.324	1632.18
181.4	1637.98
181.477	1647.43
181.553	1657.55
181.63	1678.22
181.706	1692.38
181.782	1700.07
181.859	1700.59
181.935	1705.3
182.011	1703.21
182.088	1720.69
182.164	1741.84
182.24	1753.05
182.317	1760.37
182.393	1757.14
182.469	1770.11
182.546	1780.38
182.622	1788.03
182.698	1784.89
182.775	1795.73
182.851	1809.13
182.927	1802
183.003	1799.15
183.08	1793.26
183.156	1802.9
183.232	1800.43
183.308	1789.12
183.385	1795.58
183.461	1810.6
183.537	1812.17
183.613	1822.77
183.69	1813.02
183.766	1801.47
183.842	1806.84
183.918	1811.12
183.995	1824.61
184.071	1826.37
184.147	1821.38
184.223	1809.93
184.299	1819.3
184.375	1808.7
184.452	1813.12
184.528	1863.42
184.604	1872.12
184.68	1884.28
184.756	1889.61
184.832	1890.94
184.908	1898.11
184.985	1897.54
185.061	1881
185.137	1885.52
185.213	1874.83
185.289	1877.72
185.365	1873.26
185.441	1873.5
185.517	1886.81
185.593	1882.82
185.669	1880.35
185.745	1890.23
185.822	1904.87
185.898	1897.5
185.974	1907.34
186.05	1900.25
186.126	1864.5
186.202	1858.8
186.278	1854.61
186.354	1844.63
186.43	1850.29
186.506	1849.77
186.582	1850.34
186.658	1857.89
186.734	1838.93
186.81	1841.97
186.886	1843.73
186.962	1852.81
187.038	1850.58
187.114	1842.49
187.19	1853.52
187.266	1845.4
187.341	1847.39
187.417	1840.88
187.493	1838.79
187.569	1842.02
187.645	1838.74
187.721	1827.9
187.797	1832.89
187.873	1837.41
187.949	1834.94
188.025	1832.8
188.101	1834.03
188.176	1838.31
188.252	1836.13
188.328	1844.82
188.404	1843.77
188.48	1840.02
188.556	1830.7
188.632	1830.13
188.707	1831.51
188.783	1825.47
188.859	1822.15
188.935	1812.73
189.011	1819.72
189.086	1817.87
189.162	1808.65
189.238	1804.85
189.314	1801.9
189.39	1795.15
189.465	1787.59
189.541	1802.76
189.617	1786.98
189.693	1780.9
189.768	1781.13
189.844	1801.24
189.92	1793.74
189.996	1802.96
190.071	1812.18
190.147	1811.56
190.223	1820.17
190.298	1810.9
190.374	1800.63
190.45	1812.7
190.526	1819.07
190.601	1815.22
190.677	1812.89
190.753	1837.19
190.828	1839.61
190.904	1852.64
190.98	1868.8
191.055	1877.36
191.131	1870.08
191.207	1887.1
191.282	1898.5
191.358	1893.56
191.433	1879.68
191.509	1895.4
191.585	1890.41
191.66	1891.32
191.736	1899.68
191.811	1892.98
191.887	1907.72
191.963	1928.73
192.038	1932.77
192.114	1933.29
192.189	1935.81
192.265	1935.67
192.34	1916.84
192.416	1915.46
192.491	1913.42
192.567	1917.22
192.642	1920.55
192.718	1918.22
192.793	1907.29
192.869	1901.87
192.944	1903.06
193.02	1909.9
193.095	1911.47
193.171	1917.6
193.246	1915.84
193.322	1915.32
193.397	1910.71
193.473	1900.34
193.548	1880.71
193.624	1882.18
193.699	1882.42
193.775	1896.64
193.85	1897.59
193.925	1906.15
194.001	1908.05
194.076	1899.97
194.152	1886.61
194.227	1881.33
194.302	1875.77
194.378	1879.81
194.453	1877
194.529	1888.89
194.604	1877.24
194.679	1870.87
194.755	1852.67
194.83	1862.8
194.905	1861.19
194.981	1872.74
195.056	1866.65
195.131	1874.88
195.207	1876.06
195.282	1865.51
195.357	1846.3
195.433	1862.37
195.508	1851.44
195.583	1856.85
195.659	1871.45
195.734	1880.39
195.809	1880.34
195.884	1886.57
195.96	1889.42
196.035	1905.63
196.11	1899.54
196.185	1909.81
196.261	1912.28
196.336	1943.52
196.411	1931.72
196.486	1935.43
196.561	1928.21
196.637	1933.81
196.712	1949.27
196.787	1952.41
196.862	1968.48
196.937	1978.08
197.013	1981.08
197.088	1991.63
197.163	2012.61
197.238	2026.12
197.313	2025.03
197.388	2036.68
197.464	2063.89
197.539	2070.45
197.614	2063.32
197.689	2075.16
197.764	2089.48
197.839	2110.88
197.914	2102.75
197.989	2124.53
198.065	2137.18
198.14	2181.82
198.215	2206.23
198.29	2213.99
198.365	2223.79
198.44	2232.54
198.515	2257.33
198.59	2273.32
198.665	2294.93
198.74	2301.97
198.815	2305.3
198.89	2326.91
198.965	2355.38
199.04	2351.38
199.115	2367.56
199.19	2403.92
199.265	2410.01
199.34	2420.63
199.415	2447.44
199.49	2470.05
199.565	2479.47
199.64	2502.23
199.715	2501.18
199.79	2506.04
199.865	2513.27
199.94	2514.56
200.015	2544.47
200.09	2550.56
200.165	2553.28
200.24	2560.99
200.315	2598.46
200.39	2611.08
200.464	2618.17
200.539	2612.55
200.614	2630.36
200.689	2652.13
200.764	2661.95
200.839	2675.85
200.914	2680.23
200.989	2672.65
201.063	2681.47
201.138	2664.81
201.213	2665.62
201.288	2652.61
201.363	2656.66
201.438	2655.95
201.512	2670.09
201.587	2653.32
201.662	2652.79
201.737	2663.18
201.812	2667.66
201.886	2632.62
201.961	2638.1
202.036	2624.96
202.111	2626.96
202.186	2598.64
202.26	2581.68
202.335	2559.38
202.41	2552.19
202.485	2535.01
202.559	2517.2
202.634	2494.48
202.709	2501.15
202.784	2483
202.858	2479.96
202.933	2466.25
203.008	2462.44
203.082	2445.01
203.157	2442.58
203.232	2405.85
203.306	2388.13
203.381	2360.42
203.456	2343.14
203.53	2324.95
203.605	2308.68
203.68	2287.82
203.754	2281.64
203.829	2267.5
203.904	2248.95
203.978	2240.57
204.053	2246.23
204.127	2235.96
204.202	2232.2
204.277	2221.06
204.351	2213.83
204.426	2204.65
204.5	2195.37
204.575	2164.97
204.65	2172.73
204.724	2165.3
204.799	2176.05
204.873	2172.14
204.948	2172.76
205.022	2160.68
205.097	2152.78
205.171	2164.2
205.246	2170.67
205.32	2170.48
205.395	2170.15
205.469	2162.11
205.544	2166.49
205.618	2151.84
205.693	2158.31
205.767	2150.84
205.842	2166.45
205.916	2161.64
205.991	2156.46
206.065	2162.83
206.14	2173.15
206.214	2167.87
206.289	2161.87
206.363	2171.81
206.438	2174.48
206.512	2181
206.586	2198.64
206.661	2208.78
206.735	2187.53
206.81	2190.05
206.884	2201.51
206.958	2189.29
207.033	2205.84
207.107	2210.46
207.181	2237.49
207.256	2233.92
207.33	2248.62
207.405	2258.62
207.479	2275.13
207.553	2280.61
207.628	2265.86
207.702	2279.23
207.776	2277.09
207.851	2283.13
207.925	2294.32
207.999	2291.8
208.073	2289.85
208.148	2294.46
208.222	2281.71
208.296	2309.86
208.371	2323.01
208.445	2337.38
208.519	2366.84
208.593	2376.69
208.668	2373.64
208.742	2374.12
208.816	2376.21
208.89	2392.45
208.965	2391.21
209.039	2400.73
209.113	2415.97
209.187	2434.8
209.261	2431.19
209.336	2447.37
209.41	2462.47
209.484	2466.04
209.558	2486.28
209.632	2498.27
209.707	2507.94
209.781	2525.74
209.855	2542.51
209.929	2559.86
210.003	2563.81
210.077	2559.1
210.151	2603.14
210.226	2634.39
210.3	2662.76
210.374	2687.23
210.448	2691.42
210.522	2703.43
210.596	2710.96
210.67	2720.53
210.744	2762.56
210.818	2793.04
210.892	2813.91
210.966	2811.82
211.041	2825.73
211.115	2825.2
211.189	2849.98
211.263	2869.52
211.337	2880.91
211.411	2898.5
211.485	2894.64
211.559	2908.79
211.633	2918.03
211.707	2896.47
211.781	2913.02
211.855	2889.04
211.929	2888.14
212.003	2880.47
212.077	2898.83
212.151	2922.57
212.225	2944.74
212.299	2949.61
212.373	2953.95
212.447	2965.35
212.52	3009.12
212.594	3031.73
212.668	3062.15
212.742	3071.64
212.816	3090.2
212.89	3110.56
212.964	3136.52
213.038	3170.26
213.112	3214.49
213.186	3262.62
213.26	3279.22
213.333	3276.07
213.407	3323.05
213.481	3370.81
213.555	3430.63
213.629	3469.79
213.703	3506.37
213.777	3559.15
213.85	3599.94
213.924	3689.24
213.998	3754.66
214.072	3813.46
214.146	3874.78
214.219	3950.27
214.293	4018.22
214.367	4101.04
214.441	4193.18
214.515	4269.68
214.588	4339.66
214.662	4404.2
214.736	4483.14
214.81	4589.22
214.883	4699.49
214.957	4795.79
215.031	4893.24
215.105	4983.24
215.178	5087.48
215.252	5205.49
215.326	5304.01
215.4	5408.99
215.473	5493.53
215.547	5605.47
215.621	5730.06
215.694	5867.37
215.768	5981.86
215.842	6113.36
215.915	6240.38
215.989	6365.35
216.063	6501.92
216.136	6645.16
216.21	6792.78
216.284	6952.89
216.357	7111.88
216.431	7264.88
216.504	7426.95
216.578	7606.31
216.652	7782.98
216.725	7947.16
216.799	8109.65
216.873	8279.4
216.946	8457.29
217.02	8618.79
217.093	8782.8
217.167	8929.75
217.24	9084.66
217.314	9251.27
217.387	9420.92
217.461	9587.68
217.535	9774.29
217.608	9932.45
217.682	10110.57
217.755	10288.02
217.829	10453.89
217.902	10629.65
217.976	10798.03
218.049	10962
218.123	11117.85
218.196	11284.24
218.27	11446.41
218.343	11607.91
218.417	11777.6
218.49	11943.88
218.563	12128.28
218.637	12308.17
218.71	12496.73
218.784	12660.71
218.857	12833.08
218.931	12998.03
219.004	13158.84
219.077	13319.02
219.151	13483.16
219.224	13637.61
219.298	13798.95
219.371	13962.9
219.444	14101.73
219.518	14260.8
219.591	14418.77
219.665	14594.81
219.738	14741.35
219.811	14885.62
219.885	15033.41
219.958	15177.97
220.031	15321.38
220.105	15470.85
220.178	15604.84
220.251	15728.86
220.325	15878.86
220.398	16013.1
220.471	16151.67
220.544	16287.93
220.618	16409.62
220.691	16532.29
220.764	16659.82
220.838	16785.56
220.911	16900.22
220.984	17048.51
221.057	17168.32
221.131	17280.13
221.204	17365.92
221.277	17507.17
221.35	17635.61
221.424	17752.47
221.497	17863.07
221.57	17967.02
221.643	18063.31
221.716	18163.36
221.79	18263.79
221.863	18358.91
221.936	18451.83
222.009	18545.89
222.082	18643.82
222.155	18723.72
222.229	18833.49
222.302	18927.18
222.375	19011.22
222.448	19111.02
222.521	19189.14
222.594	19273.95
222.667	19352.65
222.74	19443.53
222.814	19507.48
222.887	19584.39
222.96	19657.16
223.033	19742.41
223.106	19815.66
223.179	19902.65
223.252	19979.51
223.325	20042.79
223.398	20109.63
223.471	20179.41
223.544	20237.86
223.617	20301.62
223.69	20377.33
223.763	20430.87
223.837	20486.63
223.91	20545.04
223.983	20575.84
224.056	20616.32
224.129	20671.79
224.202	20729.29
224.275	20764.9
224.348	20806.16
224.42	20831.75
224.493	20861.82
224.566	20904.23
224.639	20955.47
224.712	20986.99
224.785	21021.98
224.858	21062.75
224.931	21096.78
225.004	21128.68
225.077	21169.75
225.15	21181.8
225.223	21207.05
225.296	21265.08
225.369	21283.88
225.442	21310.63
225.514	21348.18
225.587	21374.01
225.66	21396.23
225.733	21422.4
225.806	21461.25
225.879	21482.07
225.952	21515.52
226.025	21554.37
226.097	21582.76
226.17	21604.26
226.243	21606.52
226.316	21619.11
226.389	21650.34
226.461	21677.24
226.534	21699.55
226.607	21716.18
226.68	21769.01
226.753	21787.81
226.825	21778.99
226.898	21812.97
226.971	21826.61
227.044	21843.53
227.117	21854.95
227.189	21870.09
227.262	21887.78
227.335	21900.55
227.407	21909.62
227.48	21926.39
227.553	21936.75
227.626	21931.64
227.698	21942.25
227.771	21963.75
227.844	21976.47
227.916	21975.17
227.989	21959.99
228.062	21956.28
228.134	21978.35
228.207	21960.66
228.28	21960.9
228.352	21963.84
228.425	21963.56
228.498	21981.01
228.57	21984.19
228.643	22008.05
228.716	22003.08
228.788	22009.64
228.861	22004.82
228.934	22016.87
229.006	22001.01
229.079	22001.73
229.151	22002.55
229.224	21976.57
229.296	21966.16
229.369	21979.75
229.442	21989.2
229.514	21989.59
229.587	22012.24
229.659	21984.77
229.732	22000.48
229.804	22007.71
229.877	22031.96
229.949	22044.35
230.022	22048.83
230.094	22044.16
230.167	22039.58
230.239	22045.46
230.312	22035.67
230.384	22058.62
230.457	22053.9
230.529	22060.26
230.602	22054.86
230.674	22062.14
230.747	22077.8
230.819	22090.24
230.892	22064.45
230.964	22069.85
231.037	22071.63
231.109	22050.47
231.181	22062.62
231.254	22031.05
231.326	22022.56
231.399	22007.38
231.471	21990.65
231.544	21963.32
231.616	21965.68
231.688	21945.72
231.761	21923.65
231.833	21911.21
231.905	21886.14
231.978	21881.27
232.05	21872.21
232.122	21868.36
232.195	21844.88
232.267	21849.03
232.339	21826.51
232.412	21829.6
232.484	21805.69
232.556	21786.46
232.629	21806.32
232.701	21808.87
232.773	21809.79
232.846	21794.17
232.918	21777.4
232.99	21765.83
233.062	21765.83
233.135	21744.57
233.207	21724.52
233.279	21716.71
233.351	21703.84
233.424	21681.38
233.496	21661.91
233.568	21665.96
233.64	21633.95
233.713	21616.31
233.785	21588.88
233.857	21574.09
233.929	21541.6
234.001	21529.74
234.074	21523.91
234.146	21471.56
234.218	21445.87
234.29	21426.79
234.362	21400.42
234.434	21357.48
234.507	21320.94
234.579	21290.24
234.651	21278.05
234.723	21272.89
234.795	21253.8
234.867	21240.84
234.939	21225.85
235.012	21202.33
235.084	21176.06
235.156	21174.52
235.228	21149.89
235.3	21127.52
235.372	21105.16
235.444	21103.96
235.516	21067.95
235.588	21046.22
235.66	21034.75
235.732	21001.44
235.804	21020.96
235.876	21000.67
235.948	20996.19
236.02	20967.08
236.092	20925.68
236.164	20885.63
236.236	20852.62
236.308	20831.46
236.38	20810.21
236.452	20769.77
236.524	20744.62
236.596	20728.13
236.668	20697.62
236.74	20662.25
236.812	20638.59
236.884	20618.25
236.956	20584.9
237.028	20561
237.1	20525.67
237.172	20517.33
237.244	20502.87
237.316	20444.61
237.388	20420.22
237.46	20391.74
237.532	20381.04
237.604	20361.71
237.675	20354.92
237.747	20340.46
237.819	20303.26
237.891	20264.61
237.963	20233.48
238.035	20199.12
238.107	20139.79
238.178	20120.76
238.25	20098.3
238.322	20087.41
238.394	20046.69
238.466	20008.33
238.538	19982.35
238.609	19960.42
238.681	19898.35
238.753	19855.7
238.825	19817.63
238.897	19790.21
238.968	19763.66
239.04	19726.46
239.112	19716.1
239.184	19666.65
239.255	19633.16
239.327	19607.43
239.399	19573.6
239.471	19561.45
239.542	19537.6
239.614	19528.44
239.686	19473.02
239.758	19451.19
239.829	19407.92
239.901	19387.73
239.973	19361.61
240.044	19332.55
240.116	19305.08
240.188	19281.18
240.259	19255.45
240.331	19227.4
240.403	19197.96
240.474	19162.73
240.546	19121.72
240.618	19077.14
240.689	19047.55
240.761	19008.23
240.833	18988.72
240.904	18953.39
240.976	18915.66
241.048	18879.52
241.119	18847.09
241.191	18820.82
241.262	18806.94
241.334	18765.64
241.405	18735.04
241.477	18691
241.549	18649.31
241.62	18604.3
241.692	18571.44
241.763	18556.55
241.835	18526.33
241.906	18497.66
241.978	18444.51
242.049	18427.69
242.121	18394.34
242.192	18380.37
242.264	18336.7
242.335	18289.82
242.407	18275.94
242.478	18236.76
242.55	18216.04
242.621	18173.34
242.693	18133.92
242.764	18081.97
242.836	18045.78
242.907	18009.63
242.979	17988.24
243.05	17956.62
243.122	17935.32
243.193	17905.78
243.264	17842.99
243.336	17795.42
243.407	17765.4
243.479	17752.73
243.55	17720.82
243.622	17690.75
243.693	17650.71
243.764	17637.55
243.836	17591.48
243.907	17544.1
243.978	17511.96
244.05	17477.31
244.121	17431.04
244.192	17412.83
244.264	17372.39
244.335	17345.02
244.407	17294.9
244.478	17262.8
244.549	17239.19
244.62	17188.68
244.692	17153.35
244.763	17130.36
244.834	17103.13
244.906	17064
244.977	17026.94
245.048	17006.46
245.119	16976.92
245.191	16926.94
245.262	16868
245.333	16858.02
245.405	16831.8
245.476	16802.59
245.547	16770.21
245.618	16747.22
245.689	16717.77
245.761	16693.48
245.832	16663.55
245.903	16645.33
245.974	16615.5
246.045	16575.3
246.117	16558.92
246.188	16519.97
246.259	16473.42
246.33	16435.97
246.401	16388.15
246.473	16349.26
246.544	16302.46
246.615	16274.89
246.686	16240.91
246.757	16222.02
246.828	16171.94
246.899	16149.87
246.97	16106.63
247.042	16067.21
247.113	16045.32
247.184	16025.76
247.255	15983.24
247.326	15951.05
247.397	15928.59
247.468	15900.05
247.539	15874.84
247.61	15841.88
247.681	15820.14
247.752	15810.55
247.823	15773.67
247.894	15758.01
247.965	15721.91
248.037	15691.35
248.108	15640.64
248.179	15604.68
248.25	15570.22
248.321	15551.71
248.392	15501.1
248.463	15491.99
248.534	15458.39
248.605	15439.5
248.675	15406.33
248.746	15385.22
248.817	15353.79
248.888	15320.01
248.959	15273.78
249.03	15249.97
249.101	15214.54
249.172	15181.57
249.243	15128.3
249.314	15114.71
249.385	15089.65
249.456	15066.27
249.527	15040.82
249.598	15024.48
249.669	15009.92
249.739	14984.51
249.81	14957.95
249.881	14922.86
249.952	14888.88
250.023	14863.33
250.094	14814.74
250.165	14774.25
250.235	14744.75
250.306	14725.56
250.377	14684.11
250.448	14657.84
250.519	14608.72
250.59	14594.4
250.66	14563.5
250.731	14551.59
250.802	14523.92
250.873	14497.51
250.944	14480.35
251.014	14444.44
251.085	14440.24
251.156	14418.93
251.227	14411.7
251.297	14402.74
251.368	14398.74
251.439	14385.62
251.51	14367.64
251.58	14333.85
251.651	14307.77
251.722	14290.13
251.792	14247.13
251.863	14221.73
251.934	14217.53
252.005	14218.93
252.075	14196.71
252.146	14176.89
252.217	14163.4
252.287	14146.67
252.358	14119.91
252.429	14104.87
252.499	14074.65
252.57	14048.23
252.641	14033.48
252.711	14006.24
252.782	13962.23
252.852	13952.01
252.923	13930.71
252.994	13908.63
253.064	13895.52
253.135	13856.56
253.205	13831.35
253.276	13824.31
253.347	13822.92
253.417	13789.41
253.488	13761.98
253.558	13734.46
253.629	13708.62
253.699	13678.88
253.77	13657.04
253.841	13627.97
253.911	13613.46
253.982	13597.84
254.052	13582.85
254.123	13554.94
254.193	13532.47
254.264	13542.06
254.334	13503.26
254.405	13462.23
254.475	13429.02
254.546	13415.86
254.616	13417.07
254.687	13394.17
254.757	13373.49
254.827	13344.47
254.898	13320.8
254.968	13293.8
255.039	13260.01
255.109	13251.72
255.18	13224.38
255.25	13181.53
255.321	13164.42
255.391	13122.48
255.461	13119.53
255.532	13066.56
255.602	13042.31
255.673	12998.97
255.743	12968.99
255.813	12927.82
255.884	12918.9
255.954	12902.46
256.024	12888.1
256.095	12864.52
256.165	12834.06
256.235	12819.84
256.306	12794.24
256.376	12782.53
256.446	12773.51
256.517	12758.18
256.587	12746.9
256.657	12730.8
256.728	12711.47
256.798	12699.18
256.868	12675.37
256.938	12647.46
257.009	12647.84
257.079	12632.42
257.149	12637.28
257.219	12592.31
257.29	12574.96
257.36	12535.86
257.43	12528.54
257.5	12482.36
257.571	12454.45
257.641	12445.43
257.711	12406.05
257.781	12392.36
257.852	12378.52
257.922	12330.08
257.992	12309.83
258.062	12284.48
258.132	12271.95
258.202	12258.06
258.273	12233.34
258.343	12227.89
258.413	12198
258.483	12168.31
258.553	12132.16
258.623	12104.2
258.693	12104.25
258.764	12109.12
258.834	12100.83
258.904	12075.37
258.974	12056.62
259.044	12030.89
259.114	12013.2
259.184	12001.96
259.254	11977
259.324	11940.31
259.394	11941.33
259.464	11943.25
259.535	11920.6
259.605	11902.28
259.675	11873.94
259.745	11861.36
259.815	11829.65
259.885	11806.61
259.955	11819.72
260.025	11799.09
260.095	11774.61
260.165	11751.42
260.235	11741.64
260.305	11715.71
260.375	11685.63
260.445	11687.51
260.515	11688.33
260.585	11677.63
260.655	11659.36
260.725	11648.08
260.795	11634.59
260.865	11630.44
260.934	11601.62
261.004	11594
261.074	11568.46
261.144	11565.28
261.214	11552.55
261.284	11539.88
261.354	11525.95
261.424	11487.05
261.494	11492.64
261.564	11481.75
261.634	11472.26
261.703	11433.51
261.773	11428.64
261.843	11424.88
261.913	11405.36
261.983	11367.72
262.053	11355.72
262.123	11333.98
262.192	11304.2
262.262	11295.14
