Data from 20250630_urea_2M_MAYP1162681_06-52-27-456.txt Node
Date: Tue Jul 01 06:52:27 BST 2025
User: adleo
Spectrometer: MAYP116268
Trigger mode: 0
Integration Time (sec): 1.000000E0
Scans to average: 1
Electric dark correction enabled: true
Nonlinearity correction enabled: true
Boxcar width: 10
XAxis mode: Wavelengths
Number of Pixels in Spectrum: 2068
>>>>>Begin Spectral Data<<<<<
179.565	1086
179.642	1134.4
179.718	1175.12
179.795	1207.89
179.871	1234.89
179.948	1250.23
180.024	1269.16
180.101	1288.53
180.177	1302.14
180.254	1322.87
180.33	1342.48
180.407	1387.71
180.483	1470.52
180.56	1549.34
180.636	1625.96
180.712	1613.7
180.789	1621.73
180.865	1632.36
180.942	1641.44
181.018	1651.6
181.095	1662.44
181.171	1662.82
181.248	1663.29
181.324	1676.27
181.4	1681.82
181.477	1694.32
181.553	1705.72
181.63	1724.92
181.706	1738.51
181.782	1745.16
181.859	1743.64
181.935	1747.68
182.011	1743.4
182.088	1763.22
182.164	1782.57
182.24	1795.54
182.317	1804.66
182.393	1802.86
182.469	1813.41
182.546	1826.15
182.622	1828.24
182.698	1825.1
182.775	1838.31
182.851	1853.43
182.927	1847.39
183.003	1844.25
183.08	1839.03
183.156	1847.58
183.232	1846.15
183.308	1836.89
183.385	1844.68
183.461	1861.13
183.537	1861.36
183.613	1874.06
183.69	1862.41
183.766	1852.76
183.842	1857.18
183.918	1861.74
183.995	1873.96
184.071	1879.76
184.147	1873.48
184.223	1865.78
184.299	1878.24
184.375	1867.83
184.452	1872.4
184.528	1922.32
184.604	1933.16
184.68	1942.52
184.756	1949.61
184.832	1951.42
184.908	1956.12
184.985	1953.84
185.061	1941.76
185.137	1951.65
185.213	1939.15
185.289	1944.05
185.365	1934.45
185.441	1934.11
185.517	1945.38
185.593	1943.53
185.669	1939.25
185.745	1946.71
185.822	1963.35
185.898	1954.69
185.974	1964.77
186.05	1957.45
186.126	1918.07
186.202	1910.47
186.278	1907.66
186.354	1897.58
186.43	1904.43
186.506	1902.91
186.582	1903.67
186.658	1907.57
186.734	1889.22
186.81	1891.5
186.886	1890.65
186.962	1904.19
187.038	1900.15
187.114	1896.4
187.19	1903.05
187.266	1895.31
187.341	1897.45
187.417	1888.75
187.493	1888.13
187.569	1888.6
187.645	1883.28
187.721	1876.15
187.797	1883.61
187.873	1884.32
187.949	1878.76
188.025	1871.01
188.101	1873.43
188.176	1878.09
188.252	1874.29
188.328	1880.9
188.404	1881.32
188.48	1879.14
188.556	1872.72
188.632	1871.15
188.707	1867.58
188.783	1868.06
188.859	1862.45
188.935	1849.66
189.011	1857.79
189.086	1852.37
189.162	1846.53
189.238	1844.29
189.314	1841.87
189.39	1837.54
189.465	1835.5
189.541	1853.47
189.617	1839.4
189.693	1835.7
189.768	1838.12
189.844	1861.14
189.92	1854.01
189.996	1861.19
190.071	1871.36
190.147	1871.27
190.223	1880.3
190.298	1874.69
190.374	1858.67
190.45	1872.64
190.526	1881.58
190.601	1876.54
190.677	1877.73
190.753	1903.6
190.828	1905.79
190.904	1918.29
190.98	1930.7
191.055	1934.98
191.131	1924.9
191.207	1945.86
191.282	1952.33
191.358	1943.72
191.433	1930.74
191.509	1944.28
191.585	1940.91
191.66	1941.48
191.736	1948.32
191.811	1938.96
191.887	1955.7
191.963	1977.9
192.038	1979.99
192.114	1979.75
192.189	1982.42
192.265	1981.32
192.34	1960.49
192.416	1959.73
192.491	1955.68
192.567	1959.97
192.642	1965.05
192.718	1966.34
192.793	1954.31
192.869	1952.5
192.944	1955.59
193.02	1960.49
193.095	1959.63
193.171	1966.34
193.246	1962.87
193.322	1962.06
193.397	1963.82
193.473	1949.79
193.548	1932.52
193.624	1938.23
193.699	1938.09
193.775	1952.21
193.85	1954.35
193.925	1960.96
194.001	1961.15
194.076	1955.07
194.152	1944.56
194.227	1936.76
194.302	1927.2
194.378	1930.1
194.453	1928.25
194.529	1939.14
194.604	1927.3
194.679	1926.06
194.755	1908.67
194.83	1921.65
194.905	1917.75
194.981	1925.5
195.056	1918.75
195.131	1924.08
195.207	1922.7
195.282	1914.71
195.357	1897.16
195.433	1906.58
195.508	1895.4
195.583	1900.78
195.659	1914.99
195.734	1923.6
195.809	1924.7
195.884	1932.97
195.96	1933.68
196.035	1947.47
196.11	1943.19
196.185	1952.55
196.261	1955.83
196.336	1986.98
196.411	1972.19
196.486	1975.94
196.561	1971.62
196.637	1980.03
196.712	1995.11
196.787	1996.44
196.862	2009.08
196.937	2018.5
197.013	2026.58
197.088	2036.28
197.163	2059.45
197.238	2074.06
197.313	2071.88
197.388	2084.29
197.464	2110.6
197.539	2120.68
197.614	2114.83
197.689	2127.2
197.764	2141.9
197.839	2161.17
197.914	2156.07
197.989	2180.43
198.065	2194.37
198.14	2239.4
198.215	2263.34
198.29	2277.86
198.365	2291.13
198.44	2302.79
198.515	2330.01
198.59	2343.43
198.665	2369.04
198.74	2371.85
198.815	2372.18
198.89	2392.4
198.965	2419.02
199.04	2419.4
199.115	2433.11
199.19	2470.14
199.265	2473.57
199.34	2482.18
199.415	2512.15
199.49	2529.43
199.565	2536.71
199.64	2559.95
199.715	2557.19
199.79	2566.71
199.865	2569.9
199.94	2568.28
200.015	2596.62
200.09	2601.24
200.165	2606.58
200.24	2614.01
200.315	2653.19
200.39	2666.62
200.464	2671.57
200.539	2672.57
200.614	2683.86
200.689	2705.44
200.764	2714.69
200.839	2731.5
200.914	2736.93
200.989	2727.15
201.063	2743.02
201.138	2727.79
201.213	2725.69
201.288	2708.64
201.363	2711.11
201.438	2710.02
201.512	2722.54
201.587	2707.63
201.662	2709.34
201.737	2722.73
201.812	2726.49
201.886	2696.74
201.961	2705.28
202.036	2694.42
202.111	2692.56
202.186	2667.04
202.26	2654.08
202.335	2630.69
202.41	2623.26
202.485	2607.98
202.559	2588.07
202.634	2559.49
202.709	2569.58
202.784	2553.06
202.858	2552.53
202.933	2535.39
203.008	2529.15
203.082	2513.54
203.157	2510.3
203.232	2471.84
203.306	2451.88
203.381	2424.45
203.456	2402.84
203.53	2382.35
203.605	2364.32
203.68	2342.65
203.754	2336.14
203.829	2320.95
203.904	2303.96
203.978	2293.82
204.053	2297.77
204.127	2285.54
204.202	2284.92
204.277	2267.89
204.351	2260.89
204.426	2254.18
204.5	2244.09
204.575	2214.6
204.65	2227.45
204.724	2221.69
204.799	2232.34
204.873	2225.63
204.948	2221.35
205.022	2211.26
205.097	2202.36
205.171	2218.54
205.246	2225.68
205.32	2227.53
205.395	2224.25
205.469	2216.12
205.544	2220.02
205.618	2205.36
205.693	2220.59
205.767	2210.6
205.842	2227.54
205.916	2223.12
205.991	2215.74
206.065	2225.78
206.14	2241.62
206.214	2232.71
206.289	2227.67
206.363	2233.76
206.438	2241.76
206.512	2250.46
206.586	2266.88
206.661	2274.87
206.735	2252.71
206.81	2254.99
206.884	2265.98
206.958	2258.75
207.033	2275.16
207.107	2281.83
207.181	2309.87
207.256	2298.78
207.33	2313.91
207.405	2324.86
207.479	2343.33
207.553	2348.66
207.628	2331.2
207.702	2340.67
207.776	2336.38
207.851	2336.67
207.925	2355.19
207.999	2349.38
208.073	2348
208.148	2350.91
208.222	2343
208.296	2372.5
208.371	2385.84
208.445	2398.93
208.519	2422.3
208.593	2433.2
208.668	2432.92
208.742	2435.01
208.816	2439.06
208.89	2450.06
208.965	2453.87
209.039	2458.92
209.113	2474.77
209.187	2493.32
209.261	2486.42
209.336	2506.09
209.41	2525.09
209.484	2522.99
209.558	2542.33
209.632	2553.51
209.707	2561.85
209.781	2580.37
209.855	2596.95
209.929	2611.82
210.003	2617.63
210.077	2620.11
210.151	2662.92
210.226	2691.37
210.3	2716.45
210.374	2738.97
210.448	2745.26
210.522	2751.22
210.596	2762.51
210.67	2774.9
210.744	2816.45
210.818	2850.89
210.892	2868.24
210.966	2865.43
211.041	2880.49
211.115	2880.68
211.189	2903.98
211.263	2921.28
211.337	2923.95
211.411	2939.2
211.485	2939.82
211.559	2952.26
211.633	2957.12
211.707	2931.51
211.781	2940.86
211.855	2912.02
211.929	2905.73
212.003	2892.25
212.077	2905.26
212.151	2919.43
212.225	2932.97
212.299	2929.48
212.373	2922.43
212.447	2924.77
212.52	2957.42
212.594	2968.68
212.668	2985.12
212.742	2982.69
212.816	2988.51
212.89	2995.75
212.964	2997.28
213.038	3009.68
213.112	3030.77
213.186	3057.04
213.26	3049.46
213.333	3021.04
213.407	3042.68
213.481	3064.13
213.555	3092.1
213.629	3100.97
213.703	3106.65
213.777	3124.59
213.85	3127.98
213.924	3186.06
213.998	3215.03
214.072	3230.6
214.146	3245.87
214.219	3273.5
214.293	3297.88
214.367	3327.75
214.441	3368.6
214.515	3399.06
214.588	3412.42
214.662	3421.02
214.736	3440.21
214.81	3488.48
214.883	3542.64
214.957	3573.85
215.031	3608.88
215.105	3635.13
215.178	3668.75
215.252	3711.02
215.326	3736.67
215.4	3772.11
215.473	3777.41
215.547	3807.71
215.621	3856.14
215.694	3914.61
215.768	3955.14
215.842	4002.55
215.915	4054.34
215.989	4095.22
216.063	4148.27
216.136	4211.82
216.21	4275.18
216.284	4352.4
216.357	4420.66
216.431	4483
216.504	4560.66
216.578	4650.84
216.652	4733.08
216.725	4805.03
216.799	4888.8
216.873	4965.35
216.946	5050.58
217.02	5118.09
217.093	5194.25
217.167	5256.84
217.24	5323.41
217.314	5391.97
217.387	5467.72
217.461	5537.9
217.535	5630.29
217.608	5700.97
217.682	5782.07
217.755	5875.79
217.829	5948.24
217.902	6031.19
217.976	6116.98
218.049	6197.22
218.123	6264.19
218.196	6352.21
218.27	6436.89
218.343	6505.95
218.417	6599.06
218.49	6685.21
218.563	6792.3
218.637	6892.08
218.71	6994.03
218.784	7089.46
218.857	7191.17
218.931	7282.65
219.004	7378.86
219.077	7474.92
219.151	7570.86
219.224	7654.03
219.298	7738.71
219.371	7837.59
219.444	7918.95
219.518	8008.93
219.591	8098.54
219.665	8218.53
219.738	8310.27
219.811	8389.3
219.885	8482.93
219.958	8572.1
220.031	8654.82
220.105	8745.45
220.178	8830.03
220.251	8911.38
220.325	9004.15
220.398	9098.36
220.471	9192.72
220.544	9288.34
220.618	9364.47
220.691	9451.77
220.764	9542.39
220.838	9636.4
220.911	9718.85
220.984	9831.02
221.057	9922.1
221.131	10007.07
221.204	10062.76
221.277	10165.99
221.35	10287.44
221.424	10373.19
221.497	10454.37
221.57	10542.67
221.643	10628.25
221.716	10715.89
221.79	10793.95
221.863	10880.3
221.936	10960.83
222.009	11042.21
222.082	11121.68
222.155	11198.78
222.229	11292.86
222.302	11377.43
222.375	11447.7
222.448	11531.9
222.521	11598.36
222.594	11675.96
222.667	11746.37
222.74	11827.44
222.814	11896.18
222.887	11950.69
222.96	12032.63
223.033	12110.77
223.106	12188.23
223.179	12266.27
223.252	12338.38
223.325	12417.19
223.398	12480.24
223.471	12550.96
223.544	12619.46
223.617	12691.67
223.69	12762.04
223.763	12817.09
223.837	12887.14
223.91	12957.28
223.983	13002.88
224.056	13050.12
224.129	13118.72
224.202	13191.56
224.275	13253.31
224.348	13298.67
224.42	13356.76
224.493	13406.36
224.566	13468.45
224.639	13532.52
224.712	13579.14
224.785	13629.56
224.858	13680.56
224.931	13736.48
225.004	13783.19
225.077	13837.67
225.15	13863.36
225.223	13912.92
225.296	13988.45
225.369	14030.78
225.442	14078.07
225.514	14140.3
225.587	14201.96
225.66	14245.92
225.733	14302.32
225.806	14362.48
225.879	14421
225.952	14464.39
226.025	14533.71
226.097	14597
226.17	14642.89
226.243	14685.02
226.316	14748.79
226.389	14806.83
226.461	14859.61
226.534	14918.33
226.607	14977.81
226.68	15063.81
226.753	15119.87
226.825	15156.79
226.898	15228.22
226.971	15287.46
227.044	15343.67
227.117	15397.27
227.189	15463.74
227.262	15519.22
227.335	15575.04
227.407	15629.7
227.48	15697.13
227.553	15740.27
227.626	15790.2
227.698	15841.68
227.771	15900.1
227.844	15926.7
227.916	15978.66
227.989	16015.1
228.062	16053.37
228.134	16119.98
228.207	16160.95
228.28	16202.93
228.352	16238.12
228.425	16273.06
228.498	16316.34
228.57	16351.53
228.643	16410.9
228.716	16441.7
228.788	16475.58
228.861	16510.72
228.934	16564.07
229.006	16602.1
229.079	16640.41
229.151	16670.54
229.224	16691.55
229.296	16729.82
229.369	16803.51
229.442	16858.35
229.514	16890.98
229.587	16947.42
229.659	16961.39
229.732	16999.37
229.804	17054.84
229.877	17119.71
229.949	17165.21
230.022	17218.51
230.094	17260.78
230.167	17307.14
230.239	17339.91
230.312	17377.35
230.384	17435.76
230.457	17470.7
230.529	17504.53
230.602	17551.09
230.674	17584.24
230.747	17643.19
230.819	17697.45
230.892	17698.75
230.964	17724.15
231.037	17768
231.109	17801.45
231.181	17849.64
231.254	17867.76
231.326	17888.19
231.399	17918.12
231.471	17944.24
231.544	17955.28
231.616	17993.83
231.688	18007.18
231.761	18035.51
231.833	18059.95
231.905	18065.3
231.978	18087.17
232.05	18107.08
232.122	18134.93
232.195	18161.53
232.267	18195.41
232.339	18212.81
232.412	18257
232.484	18274.01
232.556	18297.04
232.629	18338.2
232.701	18363.11
232.773	18394.15
232.846	18422
232.918	18437.62
232.99	18467.16
233.062	18502.82
233.135	18521.47
233.207	18536.74
233.279	18556.84
233.351	18585.27
233.424	18599.49
233.496	18613.41
233.568	18657.65
233.64	18658.33
233.713	18679.77
233.785	18686.81
233.857	18700.25
233.929	18692.93
234.001	18732.54
234.074	18754.18
234.146	18743.62
234.218	18748.87
234.29	18756.39
234.362	18763.77
234.434	18759.28
234.507	18755.43
234.579	18746.51
234.651	18743.86
234.723	18757.26
234.795	18775.48
234.867	18779.09
234.939	18798.41
235.012	18805.4
235.084	18804.82
235.156	18812.15
235.228	18800
235.3	18801.93
235.372	18810.8
235.444	18830.75
235.516	18802.61
235.588	18807.57
235.66	18804.39
235.732	18800
235.804	18853.88
235.876	18855.86
235.948	18868
236.02	18872.63
236.092	18877.59
236.164	18891.37
236.236	18894.02
236.308	18884.67
236.38	18892.29
236.452	18884.96
236.524	18882.94
236.596	18895.42
236.668	18904.67
236.74	18905.88
236.812	18911.95
236.884	18904.29
236.956	18908
237.028	18895.71
237.1	18877.35
237.172	18898.75
237.244	18907.85
237.316	18871.28
237.388	18852.68
237.46	18839.13
237.532	18844.97
237.604	18823.86
237.675	18829.79
237.747	18822.36
237.819	18808.73
237.891	18796.29
237.963	18770.95
238.035	18756.54
238.107	18712.83
238.178	18710.61
238.25	18697.41
238.322	18700.59
238.394	18679.43
238.466	18656.11
238.538	18653.22
238.609	18651.24
238.681	18606.91
238.753	18580.45
238.825	18570.14
238.897	18567.39
238.968	18569.95
239.04	18540.89
239.112	18555.39
239.184	18524.12
239.255	18500.89
239.327	18496.41
239.399	18483.3
239.471	18476.6
239.542	18465.61
239.614	18456.65
239.686	18413.28
239.758	18408.46
239.829	18374.15
239.901	18367.4
239.973	18345.72
240.044	18331.07
240.116	18306.54
240.188	18287.55
240.259	18270.73
240.331	18239.99
240.403	18216.66
240.474	18183.51
240.546	18160.71
240.618	18115.51
240.689	18087.37
240.761	18073.59
240.833	18061.1
240.904	18032.14
240.976	18013.97
241.048	17989.35
241.119	17974.89
241.191	17957.93
241.262	17950.17
241.334	17929.88
241.405	17902.36
241.477	17882.8
241.549	17852.2
241.62	17836.92
241.692	17828.15
241.763	17820.49
241.835	17800
241.906	17782.08
241.978	17741.16
242.049	17732.34
242.121	17724.92
242.192	17715.28
242.264	17678.9
242.335	17636.39
242.407	17616.01
242.478	17585.84
242.55	17565.89
242.621	17527.53
242.693	17500.54
242.764	17467.04
242.836	17434.47
242.907	17416.78
242.979	17392.83
243.05	17368.15
243.122	17349.36
243.193	17313.21
243.264	17256.15
243.336	17223.14
243.407	17205.4
243.479	17195.04
243.55	17164.49
243.622	17137.93
243.693	17103.33
243.764	17090.8
243.836	17049.83
243.907	17024.53
243.978	16998.36
244.05	16985.93
244.121	16946.02
244.192	16927.47
244.264	16886.36
244.335	16855.51
244.407	16804.52
244.478	16777.15
244.549	16751.36
244.62	16703.12
244.692	16669.67
244.763	16655.74
244.834	16616.61
244.906	16584.8
244.977	16566.53
245.048	16550.87
245.119	16512.84
245.191	16481.13
245.262	16426.28
245.333	16418.81
245.405	16382.9
245.476	16361.6
245.547	16328.15
245.618	16313.31
245.689	16283.47
245.761	16259.71
245.832	16234.55
245.903	16213.44
245.974	16188.23
246.045	16158.49
246.117	16143.65
246.188	16105.62
246.259	16064.26
246.33	16034.19
246.401	15997.08
246.473	15952.54
246.544	15905.31
246.615	15882.07
246.686	15845.1
246.757	15832.04
246.828	15784.13
246.899	15771.31
246.97	15722.53
247.042	15673.56
247.113	15648.11
247.184	15637.89
247.255	15599.24
247.326	15566.41
247.397	15540.67
247.468	15508.23
247.539	15480.08
247.61	15440.56
247.681	15422.19
247.752	15413.03
247.823	15385.42
247.894	15363.24
247.965	15322.56
248.037	15293.11
248.108	15254.26
248.179	15230.25
248.25	15205.81
248.321	15193.86
248.392	15158.19
248.463	15156.55
248.534	15134.28
248.605	15111.63
248.675	15081.89
248.746	15063.57
248.817	15040.62
248.888	15013.78
248.959	14964.17
249.03	14939.69
249.101	14909.8
249.172	14879.33
249.243	14823.85
249.314	14799.99
249.385	14762.78
249.456	14742.77
249.527	14714.48
249.598	14696.21
249.669	14665.79
249.739	14633.69
249.81	14605.15
249.881	14558
249.952	14524.98
250.023	14493.99
250.094	14454.12
250.165	14410.88
250.235	14381.43
250.306	14360.7
250.377	14323.39
250.448	14306.95
250.519	14259.04
250.59	14251.61
250.66	14225.05
250.731	14213.58
250.802	14190.63
250.873	14170.92
250.944	14147.87
251.014	14116.44
251.085	14109.89
251.156	14090.56
251.227	14077.2
251.297	14067.08
251.368	14053.78
251.439	14031.17
251.51	14013.91
251.58	13983.25
251.651	13947.77
251.722	13931.28
251.792	13889.1
251.863	13866.93
251.934	13864.28
252.005	13870.4
252.075	13841.14
252.146	13823.93
252.217	13806.67
252.287	13791.24
252.358	13765.02
252.429	13759.86
252.499	13735.32
252.57	13711.03
252.641	13696.47
252.711	13672.27
252.782	13625.22
252.852	13616.88
252.923	13595.24
252.994	13584.15
253.064	13577.74
253.135	13551.37
253.205	13515.89
253.276	13507.93
253.347	13498.44
253.417	13459.97
253.488	13430.95
253.558	13406.85
253.629	13382.84
253.699	13376.04
253.77	13358.64
253.841	13334.01
253.911	13311.54
253.982	13287.15
254.052	13263.96
254.123	13235.81
254.193	13212.09
254.264	13229.49
254.334	13195.99
254.405	13158.15
254.475	13120.79
254.546	13084.63
254.616	13081.69
254.687	13067.81
254.757	13042.84
254.827	13020.28
254.898	13002.25
254.968	12980.41
255.039	12948.26
255.109	12935.87
255.18	12892.68
255.25	12849.24
255.321	12832.18
255.391	12794.82
255.461	12792.89
255.532	12751.82
255.602	12724.83
255.673	12683.9
255.743	12650.59
255.813	12609.95
255.884	12601.28
255.954	12582.09
256.024	12579.63
256.095	12552.44
256.165	12519.86
256.235	12505.93
256.306	12471.7
256.376	12462.74
256.446	12445.62
256.517	12427.45
256.587	12415.4
256.657	12399.44
256.728	12384.55
256.798	12365.7
256.868	12347.05
256.938	12317.45
257.009	12298.26
257.079	12292.05
257.149	12302.12
257.219	12268.28
257.29	12255.12
257.36	12217.72
257.43	12211.07
257.5	12178.77
257.571	12151.44
257.641	12139.48
257.711	12115.82
257.781	12104.83
257.852	12088.68
257.922	12051.13
257.992	12032.67
258.062	12006.4
258.132	11995.07
258.202	11969.48
258.273	11952.75
258.343	11940.51
258.413	11917.61
258.483	11903.73
258.553	11867.48
258.623	11831.43
258.693	11811.76
258.764	11805.16
258.834	11797.79
258.904	11770.99
258.974	11735.08
259.044	11716.14
259.114	11695.46
259.184	11677.92
259.254	11660.66
259.324	11617.57
259.394	11610.78
259.464	11607.88
259.535	11587.01
259.605	11564.55
259.675	11542.48
259.745	11514.81
259.815	11483.44
259.885	11452.45
259.955	11462.76
260.025	11435.15
260.095	11415.53
260.165	11401.56
260.235	11393.6
260.305	11370.23
260.375	11343.29
260.445	11356.59
260.515	11360.78
260.585	11357.75
260.655	11333.26
260.725	11319.14
260.795	11316.93
260.865	11315.09
260.934	11284.78
261.004	11278.66
261.074	11259.04
261.144	11253.89
261.214	11253.55
261.284	11240.73
261.354	11238.66
261.424	11207.76
261.494	11216.68
261.564	11201.02
261.634	11197.79
261.703	11169.16
261.773	11160.29
261.843	11154.41
261.913	11130.22
261.983	11090.18
262.053	11074.61
262.123	11053.84
262.192	11029.36
262.262	11012.25
262.332	10983.19
262.402	10972.83
262.472	10954.66
262.541	10916.5
