Data from 20250630_urea_2M_MAYP1162681_23-32-27-590.txt Node
Date: Mon Jun 30 23:32:27 BST 2025
User: adleo
Spectrometer: MAYP116268
Trigger mode: 0
Integration Time (sec): 1.000000E0
Scans to average: 1
Electric dark correction enabled: true
Nonlinearity correction enabled: true
Boxcar width: 10
XAxis mode: Wavelengths
Number of Pixels in Spectrum: 2068
>>>>>Begin Spectral Data<<<<<
179.565	1105.6
179.642	1157.59
179.718	1196.37
179.795	1232.31
179.871	1261.53
179.948	1277.62
180.024	1297.28
180.101	1319.68
180.177	1333.9
180.254	1356.32
180.33	1377.18
180.407	1422.56
180.483	1511.35
180.56	1593.68
180.636	1671.63
180.712	1660.08
180.789	1669.02
180.865	1680.75
180.942	1687.4
181.018	1698.8
181.095	1713.63
181.171	1719.86
181.248	1719.33
181.324	1734.45
181.4	1740.58
181.477	1750.98
181.553	1762.62
181.63	1778.97
181.706	1791.71
181.782	1798.83
181.859	1797.84
181.935	1801.83
182.011	1797.79
182.088	1812.14
182.164	1828.83
182.24	1840.85
182.317	1848.31
182.393	1844.94
182.469	1857.11
182.546	1867.99
182.622	1873.13
182.698	1867.37
182.775	1880.4
182.851	1894.66
182.927	1888.43
183.003	1883.16
183.08	1876.22
183.156	1886.01
183.232	1886.2
183.308	1874.75
183.385	1882.63
183.461	1896.94
183.537	1899.89
183.613	1913.01
183.69	1906.17
183.766	1895.37
183.842	1900.36
183.918	1906.69
183.995	1920.57
184.071	1922.52
184.147	1919.33
184.223	1905.74
184.299	1918.72
184.375	1906.88
184.452	1911.02
184.528	1962.96
184.604	1976.08
184.68	1989.62
184.756	1994.76
184.832	1996.99
184.908	2003.13
184.985	2004.08
185.061	1990.34
185.137	1996.19
185.213	1987.15
185.289	1989.39
185.365	1985.87
185.441	1985.58
185.517	1999.09
185.593	1995.62
185.669	1996.43
185.745	2007.18
185.822	2022.34
185.898	2012.68
185.974	2021.57
186.05	2017.24
186.126	1978
186.202	1971.4
186.278	1966.83
186.354	1959.56
186.43	1965.07
186.506	1964.93
186.582	1960.51
186.658	1966.88
186.734	1947.01
186.81	1947.87
186.886	1949.53
186.962	1960.65
187.038	1960.75
187.114	1951.05
187.19	1957.66
187.266	1947.2
187.341	1946.96
187.417	1941.97
187.493	1943.44
187.569	1943.3
187.645	1935.31
187.721	1924.47
187.797	1932.31
187.873	1934.93
187.949	1929.46
188.025	1924.42
188.101	1924.14
188.176	1929.51
188.252	1925.56
188.328	1936.21
188.404	1936.97
188.48	1931.93
188.556	1924.61
188.632	1923.56
188.707	1925.8
188.783	1923.85
188.859	1918.1
188.935	1905.68
189.011	1913.77
189.086	1908.06
189.162	1902.45
189.238	1902.26
189.314	1901.31
189.39	1892.28
189.465	1886.67
189.541	1900.93
189.617	1890.57
189.693	1886.67
189.768	1890.29
189.844	1912.64
189.92	1902.94
189.996	1913.45
190.071	1925.67
190.147	1926.39
190.223	1933.19
190.298	1927.29
190.374	1916.12
190.45	1930.42
190.526	1938.65
190.601	1930.85
190.677	1931.28
190.753	1960.01
190.828	1964.1
190.904	1977.99
190.98	1993.2
191.055	2004.76
191.131	1995.53
191.207	2011.41
191.282	2021.59
191.358	2011.56
191.433	1996.67
191.509	2009.07
191.585	2005.98
191.66	2006.79
191.736	2015.25
191.811	2008.4
191.887	2024.19
191.963	2042.41
192.038	2045.4
192.114	2046.93
192.189	2053.96
192.265	2050.06
192.34	2026.56
192.416	2023.14
192.491	2019.24
192.567	2021.81
192.642	2021.62
192.718	2021.85
192.793	2011.11
192.869	2006.45
192.944	2010.77
193.02	2020.43
193.095	2025.04
193.171	2027.7
193.246	2025.9
193.322	2021.33
193.397	2019.62
193.473	2004.25
193.548	1989.99
193.624	1994.93
193.699	1991.7
193.775	2005.54
193.85	2006.68
193.925	2014.86
194.001	2013.87
194.076	2005.4
194.152	1992.42
194.227	1985.47
194.302	1977.11
194.378	1979.34
194.453	1977.96
194.529	1988.57
194.604	1973.73
194.679	1967.27
194.755	1947.44
194.83	1958.43
194.905	1956.96
194.981	1962.62
195.056	1955.72
195.131	1961.1
195.207	1959.43
195.282	1952.97
195.357	1934.84
195.433	1952.77
195.508	1942.74
195.583	1951.29
195.659	1962.8
195.734	1971.22
195.809	1972.98
195.884	1982.96
195.96	1983.29
196.035	1996.04
196.11	1992.09
196.185	2005.41
196.261	2008.69
196.336	2040.55
196.411	2026.08
196.486	2030.46
196.561	2027.32
196.637	2036.83
196.712	2051.62
196.787	2051.2
196.862	2063.32
196.937	2072.83
197.013	2075.3
197.088	2085.1
197.163	2104.09
197.238	2121.79
197.313	2123.93
197.388	2137.39
197.464	2166.47
197.539	2179.74
197.614	2172.56
197.689	2187.26
197.764	2201.11
197.839	2219.76
197.914	2214.9
197.989	2237.22
198.065	2251.73
198.14	2299.49
198.215	2323.47
198.29	2336.18
198.365	2352.36
198.44	2364.12
198.515	2387.87
198.59	2402.2
198.665	2426.47
198.74	2435.14
198.815	2437.52
198.89	2458.04
198.965	2484.32
199.04	2479.32
199.115	2491.94
199.19	2534.07
199.265	2535.83
199.34	2544.07
199.415	2575.7
199.49	2596.56
199.565	2603.98
199.64	2625.27
199.715	2620.65
199.79	2628.18
199.865	2633.37
199.94	2631.27
200.015	2659.71
200.09	2666.43
200.165	2671.24
200.24	2677.05
200.315	2714.43
200.39	2728.2
200.464	2733.82
200.539	2737.39
200.614	2752.11
200.689	2774.65
200.764	2780.28
200.839	2795.04
200.914	2798.75
200.989	2789.08
201.063	2801.66
201.138	2787.14
201.213	2786.66
201.288	2766.89
201.363	2771.65
201.438	2769.18
201.512	2784.46
201.587	2771.03
201.662	2775.22
201.737	2786.85
201.812	2795.14
201.886	2762.09
201.961	2770.67
202.036	2760.15
202.111	2755.91
202.186	2728.77
202.26	2712.33
202.335	2690.98
202.41	2688.22
202.485	2673.88
202.559	2656.3
202.634	2630.72
202.709	2637.2
202.784	2618.05
202.858	2619.57
202.933	2602.29
203.008	2597.67
203.082	2580.71
203.157	2576.76
203.232	2536.53
203.306	2518.57
203.381	2486.95
203.456	2467.28
203.53	2447.41
203.605	2428.8
203.68	2406.6
203.754	2400.23
203.829	2385.28
203.904	2368.29
203.978	2355.1
204.053	2358.81
204.127	2347.77
204.202	2342.72
204.277	2329.35
204.351	2324.07
204.426	2316.78
204.5	2311.55
204.575	2279
204.65	2286.15
204.724	2278
204.799	2287.13
204.873	2282.18
204.948	2281.04
205.022	2270.57
205.097	2260.77
205.171	2276.56
205.246	2284.8
205.32	2284.42
205.395	2283.71
205.469	2273.96
205.544	2277.19
205.618	2259.25
205.693	2269.15
205.767	2258.73
205.842	2278.2
205.916	2273.06
205.991	2265.83
206.065	2268.92
206.14	2285
206.214	2280.62
206.289	2275.48
206.363	2285.14
206.438	2287.61
206.512	2296.04
206.586	2314.93
206.661	2320.93
206.735	2298.99
206.81	2298.8
206.884	2311.32
206.958	2299.47
207.033	2316.4
207.107	2324.98
207.181	2357.73
207.256	2352.45
207.33	2373.58
207.405	2382.34
207.479	2398.72
207.553	2406.24
207.628	2389.06
207.702	2399.96
207.776	2398.2
207.851	2403.29
207.925	2416.58
207.999	2415.53
208.073	2413.91
208.148	2413.77
208.222	2407.1
208.296	2435.03
208.371	2452
208.445	2464.8
208.519	2494.6
208.593	2503.12
208.668	2498.41
208.742	2497.64
208.816	2498.88
208.89	2510.84
208.965	2509.93
209.039	2516.98
209.113	2534.51
209.187	2555.06
209.261	2549.83
209.336	2565.68
209.41	2583.16
209.484	2585.83
209.558	2603.03
209.632	2615.55
209.707	2624.79
209.781	2645.03
209.855	2661.95
209.929	2678.11
210.003	2684.07
210.077	2684.21
210.151	2732.65
210.226	2764.49
210.3	2793.24
210.374	2817.2
210.448	2822.06
210.522	2832.88
210.596	2844.94
210.67	2853.99
210.744	2900.33
210.818	2934.29
210.892	2954.84
210.966	2951.5
211.041	2967.18
211.115	2969
211.189	2992.45
211.263	3011.03
211.337	3019.09
211.411	3037.12
211.485	3035.11
211.559	3048.08
211.633	3055.8
211.707	3034.14
211.781	3049.6
211.855	3021.6
211.929	3019.32
212.003	3010.93
212.077	3028.53
212.151	3050.47
212.225	3067.83
212.299	3067.07
212.373	3067.21
212.447	3078.13
212.52	3119.2
212.594	3138.14
212.668	3165.61
212.742	3169.67
212.816	3185.6
212.89	3203.92
212.964	3221.29
213.038	3249.02
213.112	3287.97
213.186	3326.42
213.26	3333.53
213.333	3324.84
213.407	3366.01
213.481	3409.95
213.555	3461.09
213.629	3494.04
213.703	3523.75
213.777	3569.37
213.85	3600.41
213.924	3687.43
213.998	3736.45
214.072	3788.51
214.146	3838.31
214.219	3898.77
214.293	3963.46
214.367	4033.26
214.441	4108.22
214.515	4170.58
214.588	4221.94
214.662	4269.86
214.736	4334.81
214.81	4429.67
214.883	4524.46
214.957	4604.59
215.031	4679.32
215.105	4752.57
215.178	4833.54
215.252	4925.05
215.326	5002.88
215.4	5091.33
215.473	5149.56
215.547	5240.19
215.621	5335.89
215.694	5451.78
215.768	5542.35
215.842	5647.69
215.915	5757.5
215.989	5859.4
216.063	5978.07
216.136	6108.35
216.21	6234.59
216.284	6377.76
216.357	6508.4
216.431	6639.74
216.504	6776.99
216.578	6941.04
216.652	7092.25
216.725	7233.76
216.799	7383.45
216.873	7528.84
216.946	7680.4
217.02	7819.95
217.093	7964.83
217.167	8093.3
217.24	8221.7
217.314	8368.16
217.387	8504.74
217.461	8640.48
217.535	8799.93
217.608	8932.14
217.682	9078.73
217.755	9238.27
217.829	9367.5
217.902	9517.69
217.976	9665
218.049	9810.83
218.123	9940.79
218.196	10088.33
218.27	10225.52
218.343	10361.38
218.417	10512.04
218.49	10651.42
218.563	10813.21
218.637	10961.96
218.71	11128.06
218.784	11287.86
218.857	11437.4
218.931	11591.8
219.004	11735.85
219.077	11883.1
219.151	12028.27
219.224	12160.43
219.298	12296.65
219.371	12449.44
219.444	12566.82
219.518	12703.09
219.591	12836.95
219.665	12998.77
219.738	13127.91
219.811	13259.32
219.885	13392.89
219.958	13527.34
220.031	13658.31
220.105	13787.89
220.178	13916.45
220.251	14033.54
220.325	14147.16
220.398	14270.76
220.471	14388.77
220.544	14517.52
220.618	14624.05
220.691	14747.51
220.764	14861.51
220.838	14975.94
220.911	15081.75
220.984	15214.69
221.057	15324.74
221.131	15436.42
221.204	15498.31
221.277	15629.18
221.35	15757.1
221.424	15856.68
221.497	15953.56
221.57	16057
221.643	16159.32
221.716	16258.03
221.79	16346.62
221.863	16448.12
221.936	16543.36
222.009	16636.28
222.082	16732.96
222.155	16815.28
222.229	16914.23
222.302	17012.5
222.375	17091.78
222.448	17185.32
222.521	17255.2
222.594	17339.78
222.667	17407.74
222.74	17505.47
222.814	17569.23
222.887	17636.07
222.96	17719.98
223.033	17805.47
223.106	17879.88
223.179	17953.8
223.252	18021.17
223.325	18091.34
223.398	18156.4
223.471	18216.83
223.544	18278.56
223.617	18337.84
223.69	18402.75
223.763	18450.99
223.837	18506.74
223.91	18567.94
223.983	18599.27
224.056	18650.01
224.129	18699.07
224.202	18769.86
224.275	18824.41
224.348	18860.41
224.42	18898.43
224.493	18928.12
224.566	18960.4
224.639	19003.24
224.712	19034.71
224.785	19081.36
224.858	19124.39
224.931	19156.54
225.004	19191.28
225.077	19232.92
225.15	19248
225.223	19290.89
225.296	19364.81
225.369	19395.56
225.442	19432.62
225.514	19481.39
225.587	19531.65
225.66	19578.68
225.733	19615.35
225.806	19650.97
225.879	19691.16
225.952	19726.05
226.025	19779.3
226.097	19835.44
226.17	19875.49
226.243	19895.92
226.316	19938.33
226.389	19978.09
226.461	20021.02
226.534	20061.79
226.607	20092.35
226.68	20151.28
226.753	20179.91
226.825	20176.01
226.898	20218.27
226.971	20242.08
227.044	20273.02
227.117	20305.11
227.189	20328.68
227.262	20363.57
227.335	20394.46
227.407	20418.32
227.48	20447.67
227.553	20469.02
227.626	20481.64
227.698	20505.84
227.771	20545.02
227.844	20551.38
227.916	20575.57
227.989	20588.82
228.062	20612.49
228.134	20664.73
228.207	20684.34
228.28	20706.32
228.352	20724.15
228.425	20743.38
228.498	20775.38
228.57	20789.74
228.643	20813.79
228.716	20837.31
228.788	20845.07
228.861	20853.75
228.934	20884.16
229.006	20899.48
229.079	20909.03
229.151	20924.88
229.224	20934.38
229.296	20945.94
229.369	20990.04
229.442	21015.54
229.514	21022.96
229.587	21046.48
229.659	21034.29
229.732	21043.69
229.804	21067.64
229.877	21106.87
229.949	21131.94
230.022	21174.26
230.094	21190.06
230.167	21210.74
230.239	21213.39
230.312	21226.4
230.384	21258.75
230.457	21270.41
230.529	21292.77
230.602	21311.28
230.674	21331.19
230.747	21338.32
230.819	21361.07
230.892	21334.99
230.964	21338.99
231.037	21356.34
231.109	21359.86
231.181	21372.63
231.254	21377.65
231.326	21380.39
231.399	21380.01
231.471	21379.86
231.544	21348.2
231.616	21357.16
231.688	21358.13
231.761	21357.02
231.833	21360.49
231.905	21341.55
231.978	21344.44
232.05	21343.38
232.122	21348.68
232.195	21331.23
232.267	21346.17
232.339	21336.92
232.412	21357.21
232.484	21346.85
232.556	21333.88
232.629	21351.43
232.701	21359.48
232.773	21357.79
232.846	21348.82
232.918	21339.62
232.99	21337.4
233.062	21347.57
233.135	21346.27
233.207	21324.39
233.279	21320.48
233.351	21316.92
233.424	21308.1
233.496	21298.31
233.568	21311.52
233.64	21281.83
233.713	21274.41
233.785	21270.07
233.857	21260.67
233.929	21238.4
234.001	21252
234.074	21258.21
234.146	21230.11
234.218	21222.11
234.29	21215.65
234.362	21193.58
234.434	21173.58
234.507	21138.06
234.579	21107.21
234.651	21087.45
234.723	21090.92
234.795	21078.73
234.867	21064.85
234.939	21064.8
235.012	21045.28
235.084	21022.91
235.156	21020.75
235.228	21007.01
235.3	20985.13
235.372	20975.68
235.444	20968.94
235.516	20932.4
235.588	20915.44
235.66	20894.04
235.732	20862.9
235.804	20887.44
235.876	20886.33
235.948	20880.93
236.02	20875.15
236.092	20856.93
236.164	20845.6
236.236	20813.02
236.308	20789.55
236.38	20765.7
236.452	20737.65
236.524	20719.43
236.596	20704.54
236.668	20688.97
236.74	20666.27
236.812	20643.57
236.884	20631.28
236.956	20609.36
237.028	20567.91
237.1	20529.45
237.172	20524.97
237.244	20518.8
237.316	20463.14
237.388	20428.29
237.46	20390.99
237.532	20377.83
237.604	20343.91
237.675	20329.93
237.747	20305.16
237.819	20273.45
237.891	20248.49
237.963	20214.71
238.035	20188.63
238.107	20133.74
238.178	20120.92
238.25	20088.97
238.322	20088.68
238.394	20034.13
238.466	20002.61
238.538	19986.86
238.609	19967.87
238.681	19922.86
238.753	19888.3
238.825	19854.04
238.897	19833.13
238.968	19828.79
239.04	19785.71
239.112	19788.5
239.184	19747.92
239.255	19727.49
239.327	19715.2
239.399	19683.4
239.471	19663.45
239.542	19627.98
239.614	19611.84
239.686	19548.18
239.758	19527.07
239.829	19478.93
239.901	19469.34
239.973	19437.87
240.044	19417.92
240.116	19391.37
240.188	19360.19
240.259	19321.63
240.331	19287.47
240.403	19257.78
240.474	19204.68
240.546	19169.55
240.618	19129.45
240.689	19092.68
240.761	19053.65
240.833	19031.1
240.904	18995.92
240.976	18953.22
241.048	18924.31
241.119	18904.12
241.191	18885.23
241.262	18864.17
241.334	18827.45
241.405	18784.03
241.477	18739.79
241.549	18702.54
241.62	18673.1
241.692	18642.93
241.763	18625.24
241.835	18591.37
241.906	18551.08
241.978	18501.83
242.049	18479.9
242.121	18447.28
242.192	18422.7
242.264	18380.58
242.335	18329.84
242.407	18305.12
242.478	18271.96
242.55	18239.82
242.621	18198.57
242.693	18162.71
242.764	18125.37
242.836	18090.96
242.907	18068.12
242.979	18044.16
243.05	18013.27
243.122	17979.83
243.193	17944.26
243.264	17886.58
243.336	17849.33
243.407	17831.79
243.479	17824.36
243.55	17788.32
243.622	17762.82
243.693	17734.44
243.764	17716.85
243.836	17676.61
243.907	17631.02
243.978	17600.37
244.05	17583.26
244.121	17528.61
244.192	17504.71
244.264	17456.66
244.335	17425.81
244.407	17370.92
244.478	17343.16
244.549	17299.98
244.62	17256.13
244.692	17222.87
244.763	17197.86
244.834	17156.75
244.906	17115.74
244.977	17086.19
245.048	17071.16
245.119	17021.81
245.191	16973.81
245.262	16920.17
245.333	16900.79
245.405	16872.02
245.476	16841.22
245.547	16799.58
245.618	16777.99
245.689	16741.65
245.761	16716.54
245.832	16675.43
245.903	16657.31
245.974	16622.03
246.045	16589.16
246.117	16571.09
246.188	16521.54
246.259	16472.67
246.33	16440.23
246.401	16405.34
246.473	16355.07
246.544	16305.09
246.615	16282.92
246.686	16250.38
246.757	16226.09
246.828	16170.13
246.899	16158.76
246.97	16115.96
247.042	16072.15
247.113	16046.02
247.184	16037.97
247.255	16005.73
247.326	15973.44
247.397	15944.08
247.468	15909.72
247.539	15882.1
247.61	15845.9
247.681	15831.39
247.752	15814.33
247.823	15779
247.894	15746.75
247.965	15702.65
248.037	15675.51
248.108	15625.05
248.179	15596.03
248.25	15567.3
248.321	15555.68
248.392	15506.95
248.463	15501.7
248.534	15477.65
248.605	15451.81
248.675	15419.86
248.746	15387.46
248.817	15369.2
248.888	15335.36
248.959	15296.31
249.03	15272.17
249.101	15239.1
249.172	15204.25
249.243	15158.94
249.314	15145.78
249.385	15110.2
249.456	15094.73
249.527	15068.41
249.598	15054.48
249.669	15020.84
249.739	14994.81
249.81	14971.86
249.881	14932.43
249.952	14896.08
250.023	14862.63
250.094	14821.08
250.165	14769.98
250.235	14745.3
250.306	14717.54
250.377	14685.34
250.448	14660.32
250.519	14615.2
250.59	14596.59
250.66	14562.27
250.731	14551.52
250.802	14523.71
250.873	14511.46
250.944	14483.17
251.014	14447.35
251.085	14434.63
251.156	14411.1
251.227	14395.87
251.297	14380.3
251.368	14367.76
251.439	14347.42
251.51	14333.73
251.58	14297.29
251.651	14274.73
251.722	14260.27
251.792	14216.78
251.863	14183.96
251.934	14173.5
252.005	14169.88
252.075	14144.28
252.146	14133.82
252.217	14117.14
252.287	14099.11
252.358	14060.84
252.429	14052.5
252.499	14015.91
252.57	13997.59
252.641	13986.17
252.711	13956.28
252.782	13909.04
252.852	13904.02
252.923	13879.44
252.994	13852.15
253.064	13840.58
253.135	13805.39
253.205	13768.18
253.276	13763.36
253.347	13753.57
253.417	13727.11
253.488	13700.54
253.558	13665.02
253.629	13639.23
253.699	13617.44
253.77	13603.65
253.841	13588.37
253.911	13570.72
253.982	13551.59
254.052	13530.13
254.123	13503.23
254.193	13486.94
254.264	13510.75
254.334	13478.07
254.405	13441.39
254.475	13411.83
254.546	13383.49
254.616	13370.09
254.687	13349.99
254.757	13328.87
254.827	13302.02
254.898	13280.52
254.968	13257.19
255.039	13237.95
255.109	13223.64
255.18	13196.79
255.25	13149.83
255.321	13124.91
255.391	13084.32
255.461	13079.26
255.532	13029.27
255.602	13003.96
255.673	12961.92
255.743	12919.36
255.813	12871.54
255.884	12867.87
255.954	12850.95
256.024	12848.69
256.095	12823.53
256.165	12792.87
256.235	12769.97
256.306	12745.29
256.376	12733.04
256.446	12715.11
256.517	12701.81
256.587	12684.55
256.657	12663.29
256.728	12645.94
256.798	12625.69
256.868	12604.63
256.938	12582.64
257.009	12572.91
257.079	12560.47
257.149	12562.69
257.219	12527.06
257.29	12514.24
257.36	12470.42
257.43	12463.68
257.5	12421.21
257.571	12404.72
257.641	12388
257.711	12353.72
257.781	12338.25
257.852	12321.81
257.922	12284.02
257.992	12263.15
258.062	12241.99
258.132	12230.76
258.202	12204.82
258.273	12187.28
258.343	12188.19
258.413	12155.03
258.483	12135.56
258.553	12101.43
258.623	12071.11
258.693	12060.5
258.764	12057.13
258.834	12060.26
258.904	12037.32
258.974	12018.38
259.044	11999.43
259.114	11985.74
259.184	11979.24
259.254	11964.73
259.324	11921.44
259.394	11914.31
259.464	11905.73
259.535	11887.99
259.605	11861.1
259.675	11841.77
259.745	11836.71
259.815	11794.24
259.885	11774.96
259.955	11785.14
260.025	11761.04
260.095	11740.55
260.165	11725.61
260.235	11721.8
260.305	11691.49
260.375	11659.96
260.445	11660.45
260.515	11650.08
260.585	11648.54
260.655	11622.51
260.725	11606.75
260.795	11600.39
260.865	11597.74
260.934	11572.58
261.004	11557.64
261.074	11543.08
261.144	11535.37
261.214	11521.2
261.284	11507.47
261.354	11499.03
261.424	11465.39
261.494	11469.24
261.564	11461.34
261.634	11443.7
261.703	11405.38
261.773	11390.68
261.843	11380.85
261.913	11362.88
261.983	11329.14
262.053	11308.95
262.123	11289.57
262.192	11263.12
262.262	11252.85
262.332	11225.28
