Data from 20250630_background_MAYP1162681_16-16-59-695.txt Node
Date: Mon Jun 30 16:16:59 BST 2025
User: adleo
Spectrometer: MAYP116268
Trigger mode: 0
Integration Time (sec): 1.000000E0
Scans to average: 1
Electric dark correction enabled: true
Nonlinearity correction enabled: true
Boxcar width: 10
XAxis mode: Wavelengths
Number of Pixels in Spectrum: 2068
>>>>>Begin Spectral Data<<<<<
179.565	983.8
179.642	1029.03
179.718	1064.61
179.795	1096.53
179.871	1121.94
179.948	1136.5
180.024	1151.94
180.101	1171.91
180.177	1181.23
180.254	1201.54
180.33	1220.15
180.407	1258.3
180.483	1336.5
180.56	1408.05
180.636	1477.12
180.712	1464.91
180.789	1476.55
180.865	1487.32
180.942	1495.49
181.018	1501.9
181.095	1508.55
181.171	1515.43
181.248	1515.1
181.324	1526.98
181.4	1530.77
181.477	1540.46
181.553	1550.72
181.63	1570.29
181.706	1582.78
181.782	1591.19
181.859	1588.48
181.935	1595.13
182.011	1589.43
182.088	1602.78
182.164	1621.97
182.24	1632.56
182.317	1641.4
182.393	1638.64
182.469	1652.47
182.546	1661.45
182.622	1667.05
182.698	1664.77
182.775	1674.22
182.851	1687.29
182.927	1680.83
183.003	1679.36
183.08	1673.75
183.156	1681.3
183.232	1675.65
183.308	1665.43
183.385	1673.65
183.461	1691.33
183.537	1691.28
183.613	1704.16
183.69	1695.7
183.766	1685.1
183.842	1692.8
183.918	1696.98
183.995	1710.57
184.071	1710.14
184.147	1708.95
184.223	1700.16
184.299	1714.52
184.375	1703.64
184.452	1707.06
184.528	1758.63
184.604	1767.65
184.68	1777.25
184.756	1784.28
184.832	1791.36
184.908	1796.73
184.985	1794.88
185.061	1778.2
185.137	1781.76
185.213	1771.03
185.289	1774.83
185.365	1770.12
185.441	1768.32
185.517	1782.53
185.593	1775.26
185.669	1774.21
185.745	1780.3
185.822	1792.55
185.898	1783.38
185.974	1792.5
186.05	1788.6
186.126	1751.01
186.202	1745.11
186.278	1744.35
186.354	1736.46
186.43	1740.79
186.506	1739.79
186.582	1740.84
186.658	1749.1
186.734	1734.76
186.81	1737.89
186.886	1737.8
186.962	1747.4
187.038	1744.07
187.114	1733.89
187.19	1743.21
187.266	1735.65
187.341	1738.36
187.417	1734.37
187.493	1734.8
187.569	1736.04
187.645	1733.23
187.721	1722.92
187.797	1727.77
187.873	1730.38
187.949	1723.97
188.025	1720.07
188.101	1720.07
188.176	1723.49
188.252	1717.93
188.328	1724.01
188.404	1724.01
188.48	1721.3
188.556	1713.42
188.632	1712.65
188.707	1711.85
188.783	1709.99
188.859	1705.53
188.935	1694.31
189.011	1702.39
189.086	1695.6
189.162	1690.04
189.238	1684.77
189.314	1684.96
189.39	1680.77
189.465	1673.31
189.541	1690.94
189.617	1675.46
189.693	1670.47
189.768	1672.99
189.844	1696.28
189.92	1688.92
189.996	1696.19
190.071	1705.12
190.147	1708.4
190.223	1717.62
190.298	1713.96
190.374	1703.32
190.45	1714.19
190.526	1724.27
190.601	1716.62
190.677	1719.37
190.753	1742.95
190.828	1745.9
190.904	1757.49
190.98	1772.94
191.055	1783.96
191.131	1775.08
191.207	1793.46
191.282	1804.11
191.358	1796.88
191.433	1782.48
191.509	1795.44
191.585	1789.46
191.66	1791.41
191.736	1796.35
191.811	1787.13
191.887	1801.77
191.963	1822.35
192.038	1826.1
192.114	1825.58
192.189	1830.14
192.265	1829.1
192.34	1809.27
192.416	1808.89
192.491	1805.47
192.567	1808.37
192.642	1810.32
192.718	1809.08
192.793	1797.44
192.869	1791.97
192.944	1794.92
193.02	1800.91
193.095	1804.09
193.171	1813.41
193.246	1812.7
193.322	1809.51
193.397	1810.7
193.473	1798.15
193.548	1782.56
193.624	1787.26
193.699	1785.17
193.775	1800.1
193.85	1799.96
193.925	1808.18
194.001	1807.37
194.076	1800.05
194.152	1787.5
194.227	1780.9
194.302	1773.06
194.378	1776.76
194.453	1775.15
194.529	1784.99
194.604	1773.44
194.679	1764.51
194.755	1746.12
194.83	1757.24
194.905	1754.2
194.981	1762.71
195.056	1755.16
195.131	1759.91
195.207	1758.77
195.282	1751.07
195.357	1731.91
195.433	1743.41
195.508	1735.14
195.583	1742.13
195.659	1755.25
195.734	1763.71
195.809	1762.47
195.884	1772.16
195.96	1774.78
196.035	1788.32
196.11	1784.47
196.185	1794.97
196.261	1799.96
196.336	1830.28
196.411	1817.78
196.486	1822.06
196.561	1814.78
196.637	1822.2
196.712	1835.22
196.787	1837.84
196.862	1850.57
196.937	1862.46
197.013	1868.11
197.088	1875.57
197.163	1893.79
197.238	1907.06
197.313	1904.49
197.388	1917.42
197.464	1941.01
197.539	1949.61
197.614	1943.77
197.689	1953.09
197.764	1967.97
197.839	1986.99
197.914	1977.52
197.989	1996.69
198.065	2012.14
198.14	2056.25
198.215	2080.4
198.29	2091.25
198.365	2101
198.44	2110.08
198.515	2133.68
198.59	2147
198.665	2168.31
198.74	2175.16
198.815	2177.68
198.89	2198.76
198.965	2224.31
199.04	2222.22
199.115	2234.3
199.19	2273.84
199.265	2277.93
199.34	2285.83
199.415	2314.92
199.49	2334.47
199.565	2343.04
199.64	2360.5
199.715	2356.55
199.79	2362.83
199.865	2366.54
199.94	2366.69
200.015	2395.15
200.09	2396.63
200.165	2401.06
200.24	2410.58
200.315	2444.64
200.39	2457.4
200.464	2462.92
200.539	2461.92
200.614	2473.96
200.689	2497.58
200.764	2501.11
200.839	2519.38
200.914	2522.19
200.989	2510.28
201.063	2521.61
201.138	2508.67
201.213	2512
201.288	2497.15
201.363	2499.1
201.438	2496.58
201.512	2510.67
201.587	2494.14
201.662	2499.33
201.737	2511
201.812	2516.38
201.886	2486.89
201.961	2495.61
202.036	2481.95
202.111	2480.85
202.186	2457.25
202.26	2439.39
202.335	2420.73
202.41	2412.44
202.485	2395.55
202.559	2381.41
202.634	2359.09
202.709	2363.85
202.784	2348.61
202.858	2349.28
202.933	2333.24
203.008	2333.48
203.082	2317.82
203.157	2317.49
203.232	2281.05
203.306	2260.72
203.381	2228.93
203.456	2209.33
203.53	2189.13
203.605	2175.77
203.68	2155.88
203.754	2148.6
203.829	2137.04
203.904	2120.39
203.978	2110.64
204.053	2115.97
204.127	2104.84
204.202	2104.6
204.277	2090
204.351	2081.1
204.426	2073.2
204.5	2067.02
204.575	2035.16
204.65	2044.44
204.724	2037.64
204.799	2044.67
204.873	2044.19
204.948	2045.81
205.022	2037.02
205.097	2028.93
205.171	2042.91
205.246	2050.57
205.32	2051.8
205.395	2050.85
205.469	2042.34
205.544	2045.39
205.618	2029.74
205.693	2038.83
205.767	2027.08
205.842	2045.3
205.916	2041.11
205.991	2032.93
206.065	2039.64
206.14	2052.57
206.214	2046.52
206.289	2038.63
206.363	2049.66
206.438	2050.18
206.512	2055.75
206.586	2074.15
206.661	2079.91
206.735	2058.61
206.81	2057.94
206.884	2072.4
206.958	2062.13
207.033	2074.58
207.107	2082.82
207.181	2112.5
207.256	2107.41
207.33	2126.25
207.405	2139.39
207.479	2156.89
207.553	2163.17
207.628	2150.09
207.702	2161.84
207.776	2155.18
207.851	2161.65
207.925	2174.07
207.999	2172.03
208.073	2168.84
208.148	2170.79
208.222	2160.04
208.296	2189.43
208.371	2203.66
208.445	2209.7
208.519	2235.35
208.593	2246.72
208.668	2241.86
208.742	2244.77
208.816	2247.48
208.89	2259.33
208.965	2255.95
209.039	2260.52
209.113	2276.7
209.187	2293.15
209.261	2289.58
209.336	2306.76
209.41	2323.09
209.484	2324.56
209.558	2344.08
209.632	2355.64
209.707	2363.78
209.781	2386.05
209.855	2399.19
209.929	2413.58
210.003	2420.39
210.077	2420.2
210.151	2461.5
210.226	2489.65
210.3	2512.19
210.374	2535.18
210.448	2537.61
210.522	2547.18
210.596	2557.75
210.67	2565.51
210.744	2606
210.818	2633.51
210.892	2652.04
210.966	2648.14
211.041	2661.24
211.115	2656.52
211.189	2679.48
211.263	2692.77
211.337	2697.91
211.411	2706.77
211.485	2701.15
211.559	2712.39
211.633	2712.53
211.707	2684.89
211.781	2691.66
211.855	2659.26
211.929	2648.26
212.003	2631.7
212.077	2637.46
212.151	2645.56
212.225	2650.47
212.299	2641.55
212.373	2628.69
212.447	2624.21
212.52	2645.7
212.594	2646.13
212.668	2657.61
212.742	2643.89
212.816	2640.84
212.89	2633.5
212.964	2631.74
213.038	2633.36
213.112	2641.7
213.186	2651.56
213.26	2632.18
213.333	2591.7
213.407	2597.18
213.481	2597.56
213.555	2606.6
213.629	2596.74
213.703	2577.97
213.777	2575.4
213.85	2551.87
213.924	2579.5
213.998	2577.93
214.072	2568.54
214.146	2554.21
214.219	2548.54
214.293	2541.87
214.367	2536.78
214.441	2539.87
214.515	2526.77
214.588	2502.63
214.662	2466.73
214.736	2446.31
214.81	2448.45
214.883	2453.73
214.957	2438.31
215.031	2422.23
215.105	2396.11
215.178	2377.88
215.252	2368.31
215.326	2342.99
215.4	2324.82
215.473	2277.44
215.547	2249.73
215.621	2230.73
215.694	2225.5
215.768	2199.61
215.842	2180.01
215.915	2160.92
215.989	2131.71
216.063	2114.62
216.136	2107.58
216.21	2102.49
216.284	2102.3
216.357	2094.59
216.431	2078
216.504	2074.1
216.578	2087.46
216.652	2088.03
216.725	2079.8
216.799	2079.61
216.873	2073.76
216.946	2072.53
217.02	2059.5
217.093	2052.23
217.167	2026.07
217.24	2004.86
217.314	1993.4
217.387	1981.71
217.461	1968.58
217.535	1973.15
217.608	1956.89
217.682	1949.14
217.755	1948.52
217.829	1931.68
217.902	1926.45
217.976	1922.18
218.049	1909.48
218.123	1888.36
218.196	1887.65
218.27	1878.95
218.343	1860.07
218.417	1854.37
218.49	1846.71
218.563	1856.12
218.637	1855.13
218.71	1871.91
218.784	1877.61
218.857	1882.03
218.931	1886.31
219.004	1885.41
219.077	1887.69
219.151	1889.69
219.224	1883.41
219.298	1879.61
219.371	1888.78
219.444	1876.33
219.518	1875.38
219.591	1876.43
219.665	1902.26
219.738	1900.98
219.811	1892.42
219.885	1899.55
219.958	1907.21
220.031	1905.78
220.105	1910.63
220.178	1911.96
220.251	1901.93
220.325	1905.12
220.398	1907.87
220.471	1910.25
220.544	1917.19
220.618	1908.35
220.691	1912.2
220.764	1918.23
220.838	1925.98
220.911	1921.94
220.984	1939.77
221.057	1947.85
221.131	1956.59
221.204	1929.01
221.277	1947.55
221.35	1977.94
221.424	1976.32
221.497	1976.56
221.57	1980.65
221.643	1986.4
221.716	1997.34
221.79	1996.86
221.863	1997.58
221.936	1997.86
222.009	1999
222.082	2006.95
222.155	2008.42
222.229	2021.93
222.302	2031.82
222.375	2030.87
222.448	2041.05
222.521	2041.38
222.594	2042.9
222.667	2032.35
222.74	2044.04
222.814	2040.09
222.887	2033
222.96	2044.13
223.033	2053.98
223.106	2059.64
223.179	2063.3
223.252	2063.54
223.325	2072.1
223.398	2074.57
223.471	2084.13
223.544	2087.7
223.617	2089.84
223.69	2094.02
223.763	2084.6
223.837	2082.18
223.91	2087.03
223.983	2068.82
224.056	2058.55
224.129	2060.36
224.202	2072.53
224.275	2068.34
224.348	2060.35
224.42	2049.36
224.493	2033.15
224.566	2024.78
224.639	2026.77
224.712	2017.83
224.785	2010.51
224.858	2003.18
224.931	1994.72
225.004	1978.98
225.077	1977.27
225.15	1948.65
225.223	1945.65
225.296	1964.45
225.369	1944.77
225.442	1934.64
225.514	1938.72
225.587	1942
225.66	1939.91
225.733	1936.73
225.806	1937.49
225.879	1931.73
225.952	1921.14
226.025	1931.64
226.097	1940.44
226.17	1936.73
226.243	1919
226.316	1918.39
226.389	1920
226.461	1925.23
226.534	1929.84
226.607	1926.23
226.68	1946.81
226.753	1944.2
226.825	1918.79
226.898	1934.81
226.971	1932.2
227.044	1935.19
227.117	1935.48
227.189	1937.62
227.262	1943.37
227.335	1944.13
227.407	1940
227.48	1946.13
227.553	1945.42
227.626	1939.04
227.698	1935.33
227.771	1940.84
227.844	1931.05
227.916	1931.72
227.989	1919.12
228.062	1911.28
228.134	1926.06
228.207	1920.5
228.28	1913.37
228.352	1913.32
228.425	1910.76
228.498	1917.74
228.57	1906.2
228.643	1912.81
228.716	1907.1
228.788	1900.2
228.861	1893.64
228.934	1904.81
229.006	1901.49
229.079	1896.83
229.151	1888.79
229.224	1877.39
229.296	1880.1
229.369	1903.26
229.442	1912.15
229.514	1904.98
229.587	1916
229.659	1896.08
229.732	1898.7
229.804	1908.49
229.877	1930.18
229.949	1934.6
230.022	1948.3
230.094	1947.4
230.167	1947.73
230.239	1937.47
230.312	1931.38
230.384	1950.31
230.457	1946.89
230.529	1950.26
230.602	1952.31
230.674	1952.45
230.747	1962.52
230.819	1971.18
230.892	1938.99
230.964	1939.32
231.037	1943.21
231.109	1940.27
231.181	1951.34
231.254	1941.17
231.326	1935.7
231.399	1925.9
231.471	1918.72
231.544	1895.18
231.616	1906.68
231.688	1905.97
231.761	1901.03
231.833	1899.65
231.905	1874.06
231.978	1874.54
232.05	1870.36
232.122	1869.22
232.195	1863.13
232.267	1873.4
232.339	1866.51
232.412	1883.76
232.484	1873.77
232.556	1869.35
232.629	1884.62
232.701	1885.71
232.773	1887.38
232.846	1883.01
232.918	1883.62
232.99	1885.62
233.062	1894.65
233.135	1898.46
233.207	1883.48
233.279	1894.89
233.351	1899.59
233.424	1900.49
233.496	1890.18
233.568	1909.39
233.64	1898.98
233.713	1902.5
233.785	1898.17
233.857	1899.79
233.929	1883.15
234.001	1899.42
234.074	1910.68
234.146	1889.47
234.218	1888.62
234.29	1887.9
234.362	1882.92
234.434	1866.99
234.507	1857.24
234.579	1843.98
234.651	1832.34
234.723	1841.13
234.795	1841.84
234.867	1837.66
234.939	1849.97
235.012	1855.1
235.084	1852.3
235.156	1859.47
235.228	1852.3
235.3	1846.59
235.372	1849.02
235.444	1860.8
235.516	1836.79
235.588	1840.16
235.66	1842.68
235.732	1831.75
235.804	1877.72
235.876	1886.08
235.948	1902.01
236.02	1902.15
236.092	1901.91
236.164	1907.33
236.236	1906.14
236.308	1904.72
236.38	1911.94
236.452	1904.05
236.524	1907.61
236.596	1921.17
236.668	1924.98
236.74	1927.92
236.812	1932.06
236.884	1935.91
236.956	1937.67
237.028	1935.48
237.1	1925.5
237.172	1941.1
237.244	1959.26
237.316	1926.89
237.388	1923.66
237.46	1916.05
237.532	1927.6
237.604	1922.23
237.675	1938.07
237.747	1945.53
237.819	1939.45
237.891	1937.74
237.963	1935.46
238.035	1931.04
238.107	1901.88
238.178	1917.15
238.25	1918.29
238.322	1939.79
238.394	1923.06
238.466	1921.45
238.538	1930.9
238.609	1938.6
238.681	1923.86
238.753	1915.59
238.825	1918.77
238.897	1924.43
238.968	1942.41
239.04	1937.23
239.112	1968.18
239.184	1956.48
239.255	1957.14
239.327	1967.51
239.399	1969.88
239.471	1978.68
239.542	1983.29
239.614	1995.51
239.686	1972.77
239.758	1984.61
239.829	1974.76
239.901	1993.97
239.973	1995.06
240.044	1999.53
240.116	2000.86
240.188	2002.29
240.259	2004.76
240.331	2001.05
240.403	2005.71
240.474	1986.68
240.546	1984.02
240.618	1961.62
240.689	1955.92
240.761	1956.49
240.833	1968.52
240.904	1966.57
240.976	1962.39
241.048	1965.24
241.119	1973.37
241.191	1983.12
241.262	1996.96
241.334	1994.2
241.405	1991.35
241.477	1990.35
241.549	1988.17
241.62	1993.11
241.692	2002.1
241.763	2012.66
241.835	2013.28
241.906	2015.23
241.978	2008.62
242.049	2022.93
242.121	2038.86
242.192	2056.07
242.264	2044.38
242.335	2030.73
242.407	2039.05
242.478	2038.15
242.55	2042.14
242.621	2039.05
242.693	2036.81
242.764	2032.34
242.836	2030.96
242.907	2037.05
242.979	2043.04
243.05	2048.13
243.122	2053.07
243.193	2050.27
243.264	2030.06
243.336	2028.68
243.407	2036.57
243.479	2055.07
243.55	2056.93
243.622	2057.78
243.693	2055.5
243.764	2071.33
243.836	2061.59
243.907	2059.55
243.978	2062.11
244.05	2067.25
244.121	2051.85
244.192	2061.88
244.264	2046.37
244.335	2045.66
244.407	2032.49
244.478	2034.15
244.549	2033.49
244.62	2020.27
244.692	2017.51
244.763	2027.82
244.834	2025.3
244.906	2014.22
244.977	2014.41
245.048	2024.88
245.119	2017.46
245.191	2009.66
245.262	1994.07
245.333	2011.8
245.405	2012.75
245.476	2016.98
245.547	2019.6
245.618	2031.34
245.689	2029.91
245.761	2036.24
245.832	2035.91
245.903	2042.99
245.974	2048.94
246.045	2046.7
246.117	2065.72
246.188	2059.12
246.259	2051.61
246.33	2051.32
246.401	2055.08
246.473	2043.61
246.544	2037.19
246.615	2046.7
246.686	2041.76
246.757	2056.69
246.828	2047.65
246.899	2060.83
246.97	2047.57
247.042	2037.53
247.113	2043.96
247.184	2061.52
247.255	2057.05
247.326	2060.71
247.397	2060.23
247.468	2057.43
247.539	2057.76
247.61	2041.02
247.681	2049.15
247.752	2060.61
247.823	2055.85
247.894	2057.28
247.965	2053.05
248.037	2047.58
248.108	2035.4
248.179	2039.25
248.25	2035.4
248.321	2042.91
248.392	2029.59
248.463	2051.08
248.534	2055.89
248.605	2062.31
248.675	2056.36
248.746	2064.16
248.817	2068.68
248.888	2072.91
248.959	2059.79
249.03	2063.92
249.101	2066.73
249.172	2064.02
249.243	2045.24
249.314	2060.08
249.385	2060.79
249.456	2065.31
249.527	2063.5
249.598	2070.11
249.669	2066.55
249.739	2069.88
249.81	2071.44
249.881	2060.6
249.952	2056.61
250.023	2051.38
250.094	2034.16
250.165	2023.73
250.235	2015.22
250.306	2017.41
250.377	2009.52
250.448	2013.41
250.519	1996.92
250.59	2008.9
250.66	2007.52
250.731	2024.73
250.802	2020.83
250.873	2024.45
250.944	2028.34
251.014	2025.3
251.085	2045.29
251.156	2051.47
251.227	2059.94
251.297	2073.12
251.368	2083.01
251.439	2092.95
251.51	2106.7
251.58	2101.94
251.651	2099.18
251.722	2112.69
251.792	2094.52
251.863	2090.25
251.934	2103.99
252.005	2133.24
252.075	2134.76
252.146	2146.89
252.217	2159.4
252.287	2168.21
252.358	2167.49
252.429	2183.15
252.499	2177.63
252.57	2177.44
252.641	2188.05
252.711	2187.57
252.782	2170.92
252.852	2190.38
252.923	2186.86
252.994	2185.24
253.064	2197.8
253.135	2191.52
253.205	2185.05
253.276	2200.12
253.347	2215.2
253.417	2209.01
253.488	2199.35
253.558	2194.36
253.629	2189.79
253.699	2188.98
253.77	2193.55
253.841	2188.89
253.911	2189.84
253.982	2190.56
254.052	2197.56
254.123	2196.08
254.193	2195.08
254.264	2230.97
254.334	2221.07
254.405	2209.08
254.475	2200.14
254.546	2198
254.616	2212.75
254.687	2221.55
254.757	2225.69
254.827	2225.64
254.898	2229.87
254.968	2231.11
255.039	2222.36
255.109	2227.55
255.18	2217.65
255.25	2198.86
255.321	2205.9
255.391	2194.29
255.461	2215.79
255.532	2190.66
255.602	2188.37
255.673	2170.39
255.743	2158.3
255.813	2135.61
255.884	2147.17
255.954	2152.88
256.024	2167.16
256.095	2165.16
256.165	2150.27
256.235	2153.36
256.306	2145.51
256.376	2154.89
256.446	2161.03
256.517	2167.97
256.587	2176.01
256.657	2178.87
256.728	2180.2
256.798	2180.01
256.868	2174.73
256.938	2166.26
257.009	2172.68
257.079	2175.29
257.149	2200.6
257.219	2177.86
257.29	2183.47
257.36	2165.58
257.43	2172.72
257.5	2151.74
257.571	2144.61
257.641	2149.08
257.711	2136.23
257.781	2140.03
257.852	2138.27
257.922	2118.67
257.992	2114.97
258.062	2113.01
258.132	2118.77
258.202	2117.15
258.273	2118.15
258.343	2135.62
258.413	2126.82
258.483	2127.24
258.553	2115.5
258.623	2105.93
258.693	2110.4
258.764	2126.38
258.834	2143.88
258.904	2140.74
258.974	2133.33
259.044	2129.62
259.114	2132.14
259.184	2135.94
259.254	2133.42
259.324	2116.3
259.394	2124.71
259.464	2140.6
259.535	2133.66
259.605	2126.19
259.675	2117.82
259.745	2119.58
259.815	2107.54
259.885	2101.07
259.955	2124.93
260.025	2117.99
260.095	2113.95
260.165	2117.7
260.235	2127.79
260.305	2113.1
260.375	2099.68
260.445	2118.61
260.515	2130.12
260.585	2139.59
260.655	2137.54
260.725	2145.11
260.795	2149.77
260.865	2164.18
260.934	2153.38
261.004	2158.57
261.074	2159.09
261.144	2172.74
261.214	2178.88
261.284	2173.64
261.354	2184.49
261.424	2169.53
261.494	2187.32
261.564	2186.32
261.634	2193.03
261.703	2173.71
261.773	2179.22
261.843	2190.97
261.913	2187.45
261.983	2174.28
262.053	2179.46
262.123	2176.99
262.192	2163.25
262.262	2171.62
262.332	2157.01
262.402	2161.53
262.472	2160.44
262.541	2141.47
262.611	2151.22
262.681	2140.66
262.751	2147.41
262.821	2144.32
262.89	2132.94
262.96	2135.42
263.03	2152.46
263.1	2152.31
263.169	2154.5
263.239	2158.92
263.309	2171.97
263.379	2174.49
263.448	2175.77
263.518	2175.63
263.588	2174.73
263.657	2189.94
263.727	2195.89
263.797	2192.52
263.867	2190.61
263.936	2178.67
264.006	2191.65
264.076	2184.32
264.145	2180.99
264.215	2171.53
264.285	2177.09
264.354	2160.55
264.424	2150.98
264.494	2133.8
264.563	2127.14
264.633	2141.56
264.702	2144.41
264.772	2124.05
264.842	2116.82
264.911	2120.81
264.981	2105.01
265.05	2104.92
