Data from 20250630_urea_2M_MAYP1162681_22-32-26-847.txt Node
Date: Mon Jun 30 22:32:26 BST 2025
User: adleo
Spectrometer: MAYP116268
Trigger mode: 0
Integration Time (sec): 1.000000E0
Scans to average: 1
Electric dark correction enabled: true
Nonlinearity correction enabled: true
Boxcar width: 10
XAxis mode: Wavelengths
Number of Pixels in Spectrum: 2068
>>>>>Begin Spectral Data<<<<<
179.565	1123.86
179.642	1177.05
179.718	1215.37
179.795	1251.71
179.871	1284.48
179.948	1299.05
180.024	1320.24
180.101	1341.35
180.177	1353.99
180.254	1377.14
180.33	1396.47
180.407	1444.79
180.483	1532.64
180.56	1618.87
180.636	1696.96
180.712	1686.6
180.789	1694.15
180.865	1708.59
180.942	1721.23
181.018	1729.55
181.095	1742.05
181.171	1746.47
181.248	1744.85
181.324	1760.06
181.4	1766.33
181.477	1773.41
181.553	1786.38
181.63	1805.35
181.706	1819.47
181.782	1826.12
181.859	1824.69
181.935	1833.49
182.011	1830.02
182.088	1847.98
182.164	1861.58
182.24	1873.23
182.317	1879.88
182.393	1875.84
182.469	1886.68
182.546	1894.57
182.622	1899.89
182.698	1897.85
182.775	1908.64
182.851	1924.09
182.927	1916.81
183.003	1914.2
183.08	1909.35
183.156	1917.77
183.232	1913.63
183.308	1902.27
183.385	1911.68
183.461	1929.08
183.537	1924.61
183.613	1936.31
183.69	1928.08
183.766	1918.52
183.842	1926.56
183.918	1932.64
183.995	1945.05
184.071	1948.43
184.147	1945.76
184.223	1936.73
184.299	1946.29
184.375	1935.07
184.452	1941.83
184.528	1994.76
184.604	2001.85
184.68	2014.4
184.756	2020.87
184.832	2023.2
184.908	2029.9
184.985	2030.37
185.061	2014.06
185.137	2023.86
185.213	2012.02
185.289	2013.16
185.365	2007.65
185.441	2007.22
185.517	2019.78
185.593	2019.44
185.669	2020.11
185.745	2031.43
185.822	2043.36
185.898	2036.51
185.974	2044.83
186.05	2037.27
186.126	1999.17
186.202	1994.94
186.278	1990.94
186.354	1983.33
186.43	1990.89
186.506	1986.76
186.582	1984.33
186.658	1989.61
186.734	1971.93
186.81	1972.78
186.886	1973.4
186.962	1984.38
187.038	1978.96
187.114	1968.73
187.19	1973.35
187.266	1960.46
187.341	1961.08
187.417	1955.9
187.493	1955.09
187.569	1959.28
187.645	1951.95
187.721	1939.87
187.797	1945.15
187.873	1949.48
187.949	1943.87
188.025	1937.88
188.101	1941.11
188.176	1947.53
188.252	1942.35
188.328	1951.99
188.404	1952.14
188.48	1948.38
188.556	1940.39
188.632	1942.58
188.707	1944.2
188.783	1943.91
188.859	1940.87
188.935	1927.79
189.011	1934.92
189.086	1930.65
189.162	1922.37
189.238	1920.52
189.314	1919.38
189.39	1912.01
189.465	1902.74
189.541	1919.48
189.617	1903.88
189.693	1900.89
189.768	1904.27
189.844	1930.76
189.92	1920.45
189.996	1929.67
190.071	1940.08
190.147	1942.89
190.223	1948.88
190.298	1942.08
190.374	1928.58
190.45	1941.03
190.526	1947.78
190.601	1942.03
190.677	1941.27
190.753	1967.72
190.828	1971.43
190.904	1984.69
190.98	2002.38
191.055	2013.18
191.131	2003.52
191.207	2023.44
191.282	2031.57
191.358	2020.82
191.433	2005.79
191.509	2019.72
191.585	2015.29
191.66	2017.53
191.736	2023
191.811	2017.48
191.887	2031.8
191.963	2054.96
192.038	2059.1
192.114	2063.42
192.189	2069.32
192.265	2067.47
192.34	2048.48
192.416	2045.15
192.491	2041.87
192.567	2044.63
192.642	2045.3
192.718	2046.82
192.793	2036.4
192.869	2033.55
192.944	2034.26
193.02	2041.26
193.095	2041.88
193.171	2051.48
193.246	2049.2
193.322	2045.97
193.397	2043.54
193.473	2032.17
193.548	2013.34
193.624	2017.76
193.699	2014.05
193.775	2028.08
193.85	2027.99
193.925	2035.5
194.001	2036.55
194.076	2029.56
194.152	2018.38
194.227	2012.44
194.302	2002.69
194.378	2008.59
194.453	2007.4
194.529	2018.38
194.604	2002.17
194.679	1998.55
194.755	1975.88
194.83	1990.44
194.905	1988.49
194.981	1998.19
195.056	1990.91
195.131	1998.19
195.207	1995.14
195.282	1985.64
195.357	1966.18
195.433	1983.35
195.508	1971.17
195.583	1978.11
195.659	1993.53
195.734	2000.04
195.809	2000.9
195.884	2010.36
195.96	2007.12
196.035	2017.54
196.11	2018.2
196.185	2031.23
196.261	2035.04
196.336	2070.28
196.411	2054.05
196.486	2062.9
196.561	2055.81
196.637	2064.18
196.712	2080.64
196.787	2086.4
196.862	2102.23
196.937	2112.36
197.013	2115.6
197.088	2128.68
197.163	2150.66
197.238	2166.09
197.313	2167.94
197.388	2182.12
197.464	2208.39
197.539	2220.04
197.614	2215.67
197.689	2225.99
197.764	2243.65
197.839	2265.11
197.914	2256.45
197.989	2277.24
198.065	2287.38
198.14	2335.28
198.215	2361.83
198.29	2371.16
198.365	2381.92
198.44	2391.53
198.515	2418.14
198.59	2434.14
198.665	2457.61
198.74	2465.61
198.815	2464.9
198.89	2487.65
198.965	2514.71
199.04	2513.85
199.115	2528.75
199.19	2569.08
199.265	2572.45
199.34	2580.12
199.415	2606.95
199.49	2625.61
199.565	2636.52
199.64	2659
199.715	2654.56
199.79	2662.8
199.865	2666.19
199.94	2668.61
200.015	2699.68
200.09	2703.97
200.165	2708.87
200.24	2713.49
200.315	2753.22
200.39	2769.56
200.464	2775.71
200.539	2778.61
200.614	2791.29
200.689	2812.3
200.764	2818.31
200.839	2833.88
200.914	2836.88
200.989	2830.25
201.063	2844.36
201.138	2824.65
201.213	2822.69
201.288	2806.21
201.363	2810.78
201.438	2811.16
201.512	2823.83
201.587	2807.72
201.662	2809.92
201.737	2822.64
201.812	2830.84
201.886	2795.5
201.961	2802.22
202.036	2788.74
202.111	2783.69
202.186	2758.54
202.26	2746.1
202.335	2725.8
202.41	2722.04
202.485	2707.51
202.559	2687.84
202.634	2663.73
202.709	2672.3
202.784	2657.01
202.858	2654.63
202.933	2636.25
203.008	2631.58
203.082	2611.67
203.157	2609.86
203.232	2572.2
203.306	2552.71
203.381	2522.47
203.456	2503.56
203.53	2482.02
203.605	2462.27
203.68	2439.07
203.754	2432.46
203.829	2415.27
203.904	2396.18
203.978	2383.75
204.053	2388.13
204.127	2374.09
204.202	2373.09
204.277	2360.34
204.351	2354.53
204.426	2351.2
204.5	2339.49
204.575	2307.75
204.65	2318.8
204.724	2310.46
204.799	2320.64
204.873	2316.98
204.948	2313.31
205.022	2298.42
205.097	2291.32
205.171	2306.84
205.246	2318.41
205.32	2316.5
205.395	2317.08
205.469	2309.51
205.544	2313.84
205.618	2295
205.693	2308.28
205.767	2296.19
205.842	2314.75
205.916	2307.9
205.991	2296.19
206.065	2304.76
206.14	2318.36
206.214	2313.7
206.289	2307.27
206.363	2314.17
206.438	2314.41
206.512	2324.69
206.586	2344.86
206.661	2351.82
206.735	2328.98
206.81	2327.22
206.884	2341.64
206.958	2330.26
207.033	2344.96
207.107	2352.39
207.181	2384.1
207.256	2375.2
207.33	2395.24
207.405	2409.1
207.479	2425.53
207.553	2436.23
207.628	2422.34
207.702	2433.43
207.776	2425.72
207.851	2430.72
207.925	2446.24
207.999	2443.53
208.073	2441.53
208.148	2445.29
208.222	2434.29
208.296	2463.98
208.371	2479.99
208.445	2490.51
208.519	2514.46
208.593	2525.5
208.668	2522.79
208.742	2526.36
208.816	2531.5
208.89	2542.17
208.965	2540.84
209.039	2550.65
209.113	2564.42
209.187	2580.79
209.261	2577.98
209.336	2598.69
209.41	2614.13
209.484	2615.22
209.558	2634.23
209.632	2647.85
209.707	2654.8
209.781	2676.76
209.855	2694.1
209.929	2708.12
210.003	2713.93
210.077	2716.41
210.151	2759.99
210.226	2791.55
210.3	2814.77
210.374	2836.83
210.448	2844.12
210.522	2851.89
210.596	2865.66
210.67	2874.14
210.744	2920.86
210.818	2953.16
210.892	2973.9
210.966	2970.8
211.041	2988.68
211.115	2990.44
211.189	3016.24
211.263	3038.69
211.337	3043.98
211.411	3059.67
211.485	3057.67
211.559	3072.97
211.633	3078.21
211.707	3058.84
211.781	3074.11
211.855	3051.74
211.929	3053.12
212.003	3043.45
212.077	3062.2
212.151	3081.76
212.225	3105.46
212.299	3109.14
212.373	3111.14
212.447	3122.54
212.52	3168.53
212.594	3187.9
212.668	3216.38
212.742	3223.15
212.816	3238.76
212.89	3256.74
212.964	3278.6
213.038	3312.97
213.112	3356.7
213.186	3404.7
213.26	3416.39
213.333	3409.23
213.407	3450.31
213.481	3491.3
213.555	3546.74
213.629	3577.55
213.703	3609.03
213.777	3654.6
213.85	3689.72
213.924	3780.96
213.998	3841.19
214.072	3891.39
214.146	3943.93
214.219	4011.62
214.293	4076.77
214.367	4149.5
214.441	4241.75
214.515	4313.56
214.588	4374.08
214.662	4429.01
214.736	4496.52
214.81	4595.95
214.883	4699.05
214.957	4788.64
215.031	4878.18
215.105	4954.96
215.178	5054.01
215.252	5156.72
215.326	5245.64
215.4	5337.48
215.473	5405.19
215.547	5507.19
215.621	5617.94
215.694	5743.14
215.768	5850.55
215.842	5964.62
215.915	6084.69
215.989	6190.53
216.063	6312.28
216.136	6448.11
216.21	6580.23
216.284	6730.79
216.357	6871.38
216.431	7006.28
216.504	7153.36
216.578	7331.2
216.652	7492.07
216.725	7636.59
216.799	7799.33
216.873	7953.05
216.946	8109.61
217.02	8257.26
217.093	8405.88
217.167	8540.99
217.24	8679.93
217.314	8824.16
217.387	8976.86
217.461	9120.94
217.535	9285.78
217.608	9430.03
217.682	9588.46
217.755	9755.52
217.829	9900.64
217.902	10061.18
217.976	10223.36
218.049	10371.06
218.123	10500.23
218.196	10659.99
218.27	10810.52
218.343	10947.47
218.417	11108.71
218.49	11262.96
218.563	11428.63
218.637	11588.3
218.71	11756.89
218.784	11920.23
218.857	12086.8
218.931	12242.72
219.004	12400.53
219.077	12554.49
219.151	12712.54
219.224	12854.88
219.298	12993.91
219.371	13154.33
219.444	13281.88
219.518	13421.19
219.591	13558.24
219.665	13726.62
219.738	13860.1
219.811	13986.59
219.885	14119.16
219.958	14253.46
220.031	14385.34
220.105	14525.96
220.178	14652.11
220.251	14771.17
220.325	14903.29
220.398	15028.38
220.471	15157.95
220.544	15287.08
220.618	15399.54
220.691	15507.27
220.764	15626.42
220.838	15748.37
220.911	15843.85
220.984	15978.09
221.057	16105.86
221.131	16223.28
221.204	16307.96
221.277	16431.34
221.35	16564.95
221.424	16675.03
221.497	16777.01
221.57	16882.8
221.643	16981.84
221.716	17092.21
221.79	17189.22
221.863	17281.51
221.936	17372.4
222.009	17451.97
222.082	17541.71
222.155	17628.98
222.229	17727.49
222.302	17815.68
222.375	17895.54
222.448	17990.33
222.521	18064.83
222.594	18122.04
222.667	18196.2
222.74	18274.85
222.814	18340.25
222.887	18403.9
222.96	18480.82
223.033	18552.14
223.106	18622.4
223.179	18700.08
223.252	18756.46
223.325	18819.16
223.398	18881.42
223.471	18949.08
223.544	19019.44
223.617	19077.17
223.69	19137.21
223.763	19193.79
223.837	19253.01
223.91	19315.61
223.983	19358.79
224.056	19406.21
224.129	19464.9
224.202	19521.67
224.275	19568.51
224.348	19607.79
224.42	19643.4
224.493	19670.1
224.566	19715.83
224.639	19761.47
224.712	19797.32
224.785	19845.17
224.858	19891.44
224.931	19925.51
225.004	19959.68
225.077	20001.02
225.15	20016.54
225.223	20049.17
225.296	20109.07
225.369	20128.2
225.442	20163.91
225.514	20211.91
225.587	20249.36
225.66	20290.46
225.733	20333.93
225.806	20370.8
225.879	20415.81
225.952	20448.1
226.025	20494.51
226.097	20536.1
226.17	20567.62
226.243	20573.74
226.316	20597.98
226.389	20620.39
226.461	20659.77
226.534	20686.85
226.607	20717.99
226.68	20769.75
226.753	20801.12
226.825	20802.03
226.898	20840.4
226.971	20855.15
227.044	20862.47
227.117	20891.34
227.189	20916.88
227.262	20943.73
227.335	20965.32
227.407	20979.78
227.48	21010.96
227.553	21044.17
227.626	21054.97
227.698	21085.57
227.771	21114.58
227.844	21121.43
227.916	21141.19
227.989	21133.33
228.062	21145.96
228.134	21174.35
228.207	21187.99
228.28	21196.81
228.352	21222.69
228.425	21237.82
228.498	21262.65
228.57	21274.21
228.643	21291.32
228.716	21303.28
228.788	21308
228.861	21324.68
228.934	21351.52
229.006	21350.37
229.079	21347.76
229.151	21358.8
229.224	21343.52
229.296	21354.9
229.369	21398.66
229.442	21430.48
229.514	21435.73
229.587	21456.69
229.659	21441.75
229.732	21457.85
229.804	21487.06
229.877	21509.91
229.949	21532.9
230.022	21562.79
230.094	21578.16
230.167	21591.8
230.239	21587.37
230.312	21591.9
230.384	21617.83
230.457	21626.75
230.529	21647.33
230.602	21653.69
230.674	21663.52
230.747	21685.46
230.819	21706.95
230.892	21678.66
230.964	21684.06
231.037	21707.77
231.109	21706.42
231.181	21732.98
231.254	21731.68
231.326	21721.8
231.399	21720.01
231.471	21708.16
231.544	21688.3
231.616	21704.25
231.688	21706.08
231.761	21709.99
231.833	21713.84
231.905	21682.9
231.978	21677.98
232.05	21667.95
232.122	21671.91
232.195	21657.45
232.267	21667.28
232.339	21653.54
232.412	21670.27
232.484	21658.36
232.556	21641.64
232.629	21662.85
232.701	21654.84
232.773	21634.89
232.846	21625.59
232.918	21619.32
232.99	21623.13
233.062	21620.14
233.135	21607.61
233.207	21587.31
233.279	21586.88
233.351	21575.17
233.424	21565.14
233.496	21542.63
233.568	21557.05
233.64	21535.31
233.713	21525.86
233.785	21503.21
233.857	21487.78
233.929	21455.59
234.001	21451.73
234.074	21447.83
234.146	21413.03
234.218	21403.19
234.29	21393.89
234.362	21377.21
234.434	21351.72
234.507	21330.99
234.579	21304.77
234.651	21286.94
234.723	21269.88
234.795	21251.17
234.867	21228.28
234.939	21231.61
235.012	21215.36
235.084	21203.22
235.156	21196.81
235.228	21180.32
235.3	21163.02
235.372	21150.49
235.444	21143.6
235.516	21106.58
235.588	21093.86
235.66	21073.76
235.732	21042.96
235.804	21076.22
235.876	21063.16
235.948	21056.46
236.02	21024.12
236.092	20997.57
236.164	20978.58
236.236	20962.14
236.308	20938.91
236.38	20924.69
236.452	20885.85
236.524	20863.78
236.596	20846.76
236.668	20819.29
236.74	20795.15
236.812	20771.34
236.884	20755.34
236.956	20725.17
237.028	20696.83
237.1	20661.36
237.172	20647.96
237.244	20637.17
237.316	20577.64
237.388	20544.39
237.46	20505.35
237.532	20492.24
237.604	20460.34
237.675	20445.98
237.747	20424.92
237.819	20383.52
237.891	20350.46
237.963	20315.48
238.035	20288.3
238.107	20229.4
238.178	20212.25
238.25	20179.19
238.322	20178.85
238.394	20130.13
238.466	20105.5
238.538	20077.46
238.609	20051.63
238.681	20014.86
238.753	19975.58
238.825	19948.78
238.897	19923.19
238.968	19908.69
239.04	19872.35
239.112	19861.46
239.184	19815.44
239.255	19783.39
239.327	19765.32
239.399	19741.56
239.471	19716.26
239.542	19689.37
239.614	19671.88
239.686	19626.29
239.758	19608.12
239.829	19558.83
239.901	19547.12
239.973	19518.06
240.044	19495.31
240.116	19467.7
240.188	19426.3
240.259	19392.14
240.331	19350.11
240.403	19329.68
240.474	19281.68
240.546	19242.17
240.618	19195.81
240.689	19156.78
240.761	19123.04
240.833	19104.88
240.904	19073.79
240.976	19050.71
241.048	19015
241.119	18984.69
241.191	18956.5
241.262	18938.43
241.334	18902.48
241.405	18856.7
241.477	18807.45
241.549	18773.14
241.62	18747.45
241.692	18717.77
241.763	18691.17
241.835	18660.71
241.906	18620.95
241.978	18576.19
242.049	18548.67
242.121	18528.09
242.192	18511.03
242.264	18466.89
242.335	18416.29
242.407	18387.43
242.478	18342.85
242.55	18308.44
242.621	18266.08
242.693	18228.78
242.764	18189.07
242.836	18156.55
242.907	18130.28
242.979	18107.39
243.05	18076.31
243.122	18050.09
243.193	18017.85
243.264	17974.53
243.336	17940.55
243.407	17918.96
243.479	17902.19
243.55	17876.12
243.622	17846.73
243.693	17807.83
243.764	17782.29
243.836	17740.85
243.907	17688.94
243.978	17664.56
244.05	17640.37
244.121	17593.09
244.192	17567.21
244.264	17513.19
244.335	17473.72
244.407	17424.42
244.478	17396.17
244.549	17359.21
244.62	17307.69
244.692	17269.09
244.763	17234.68
244.834	17184.12
244.906	17140.12
244.977	17114.53
245.048	17097.23
245.119	17052.51
245.191	17014.05
245.262	16959.59
245.333	16944.89
245.405	16926.05
245.476	16884.74
245.547	16857.08
245.618	16831.92
245.689	16796.64
245.761	16773.6
245.832	16744.16
245.903	16721.55
245.974	16686.95
246.045	16653.55
246.117	16631.23
246.188	16591.95
246.259	16544.82
246.33	16516.77
246.401	16471.61
246.473	16418.54
246.544	16366.35
246.615	16344.99
246.686	16303.3
246.757	16287.21
246.828	16232.98
246.899	16213.17
246.97	16165.41
247.042	16121.64
247.113	16099.28
247.184	16090.61
247.255	16052.77
247.326	16021.49
247.397	15990.88
247.468	15965.92
247.539	15929.91
247.61	15885.23
247.681	15859.97
247.752	15847.3
247.823	15806.18
247.894	15792.11
247.965	15752.58
248.037	15728.24
248.108	15682.4
248.179	15660.28
248.25	15624.8
248.321	15605.91
248.392	15561.28
248.463	15557.23
248.534	15527.54
248.605	15504.45
248.675	15468.35
248.746	15443.09
248.817	15416.29
248.888	15382.4
248.959	15330.88
249.03	15311.88
249.101	15290.53
249.172	15250.09
249.243	15199.72
249.314	15190.36
249.385	15149.97
249.456	15124.95
249.527	15087.98
249.598	15069.91
249.669	15037.61
249.739	15018.62
249.81	14997.02
249.881	14954.27
249.952	14931.23
250.023	14898.54
250.094	14855.88
250.165	14811.15
250.235	14787.72
250.306	14758.27
250.377	14721.78
250.448	14702.6
250.519	14655.36
250.59	14640.17
250.66	14619.68
250.731	14614.91
250.802	14580.25
250.873	14562.13
250.944	14539.04
251.014	14505.63
251.085	14497.24
251.156	14476.95
251.227	14460.99
251.297	14446.15
251.368	14433.81
251.439	14404.55
251.51	14389.51
251.58	14348.92
251.651	14323.46
251.722	14307.7
251.792	14268.56
251.863	14248.94
251.934	14237.46
252.005	14235.44
252.075	14203.77
252.146	14193.5
252.217	14173.69
252.287	14161.4
252.358	14132.95
252.429	14127.99
252.499	14099.6
252.57	14075.4
252.641	14055.82
252.711	14025.89
252.782	13980.82
252.852	13973.92
252.923	13952.95
252.994	13928.17
253.064	13923.4
253.135	13888.6
253.205	13850.03
253.276	13841.45
253.347	13826.31
253.417	13784.42
253.488	13757.28
253.558	13730.58
253.629	13702.04
253.699	13678.18
253.77	13660.63
253.841	13635.08
253.911	13613.39
253.982	13600.18
254.052	13577.76
254.123	13561.23
254.193	13540.84
254.264	13551.87
254.334	13514.18
254.405	13478.41
254.475	13447.6
254.546	13422.49
254.616	13411.83
254.687	13395.69
254.757	13376.11
254.827	13354.76
254.898	13346.8
254.968	13323.57
255.039	13292.48
255.109	13278.21
255.18	13245.67
255.25	13196.69
255.321	13183.82
255.391	13145.88
255.461	13137.68
255.532	13093.53
255.602	13059.98
255.673	13013.41
255.743	12985.74
255.813	12943.12
255.884	12934.11
255.954	12915.5
256.024	12906.68
256.095	12882.58
256.165	12851.34
256.235	12836.3
256.306	12807.23
256.376	12794.89
256.446	12782.55
256.517	12766.45
256.587	12746.54
256.657	12727.02
256.728	12717.09
256.798	12691.88
256.868	12671.39
256.938	12638.95
257.009	12623.57
257.079	12612.63
257.149	12629.07
257.219	12585.97
257.29	12577.05
257.36	12537.09
257.43	12519.5
257.5	12483.83
257.571	12462.62
257.641	12444.2
257.711	12408.72
257.781	12400.72
257.852	12382.07
257.922	12340.03
257.992	12319.5
258.062	12297.13
258.132	12287.54
258.202	12260.59
258.273	12242.85
258.343	12238.76
258.413	12211.96
258.483	12195.9
258.553	12161.25
258.623	12122.39
258.693	12110.49
258.764	12103.98
258.834	12098
258.904	12089.28
258.974	12052.36
259.044	12034.86
259.114	12024.55
259.184	12011.48
259.254	11983.86
259.324	11943.86
259.394	11938.85
259.464	11932.1
259.535	11911.13
259.605	11884.91
259.675	11858.78
259.745	11847.36
259.815	11814.78
259.885	11792.61
259.955	11802.01
260.025	11777.14
260.095	11761.47
260.165	11745.13
260.235	11738.19
260.305	11710.24
260.375	11675.97
260.445	11686.28
260.515	11678.38
260.585	11666.42
260.655	11645.6
260.725	11639.86
260.795	11630.56
260.865	11629.21
260.934	11600.1
261.004	11589.79
261.074	11578.22
261.144	11582.75
261.214	11570.12
261.284	11554.8
261.354	11543.47
261.424	11509.63
261.494	11515.42
261.564	11496.43
261.634	11482.06
261.703	11442.06
261.773	11431.8
261.843	11424.52
261.913	11398.64
261.983	11366.54
262.053	11355.79
262.123	11334.88
262.192	11301.29
262.262	11291.02
262.332	11248.08
