Data from 20250630_urea_2M_MAYP1162681_08-22-27-031.txt Node
Date: Tue Jul 01 08:22:27 BST 2025
User: adleo
Spectrometer: MAYP116268
Trigger mode: 0
Integration Time (sec): 1.000000E0
Scans to average: 1
Electric dark correction enabled: true
Nonlinearity correction enabled: true
Boxcar width: 10
XAxis mode: Wavelengths
Number of Pixels in Spectrum: 2068
>>>>>Begin Spectral Data<<<<<
179.565	1078.46
179.642	1130.33
179.718	1169.15
179.795	1204.86
179.871	1234.6
179.948	1248.41
180.024	1267.16
180.101	1287.04
180.177	1300.69
180.254	1321.09
180.33	1340.75
180.407	1383.46
180.483	1471.35
180.56	1549.79
180.636	1623.37
180.712	1610.02
180.789	1618.57
180.865	1627.92
180.942	1634.29
181.018	1646.73
181.095	1659.23
181.171	1664.93
181.248	1664.6
181.324	1676.48
181.4	1682.32
181.477	1690.21
181.553	1703.27
181.63	1721.57
181.706	1735.92
181.782	1741.62
181.859	1742.33
181.935	1747.04
182.011	1746.42
182.088	1759.54
182.164	1781.4
182.24	1794.66
182.317	1803.83
182.393	1803.92
182.469	1817.18
182.546	1830.25
182.622	1834.25
182.698	1831.49
182.775	1844.13
182.851	1856.06
182.927	1852.35
183.003	1850.17
183.08	1846.84
183.156	1856.97
183.232	1852.97
183.308	1843.23
183.385	1851.12
183.461	1866.85
183.537	1867.61
183.613	1878.69
183.69	1870.7
183.766	1856.63
183.842	1863.57
183.918	1868.23
183.995	1880.49
184.071	1881.92
184.147	1877.3
184.223	1866.8
184.299	1878.5
184.375	1864.62
184.452	1869.38
184.528	1923.4
184.604	1928.77
184.68	1941.42
184.756	1946.74
184.832	1953.92
184.908	1955.35
184.985	1955.11
185.061	1939.28
185.137	1947.55
185.213	1937.38
185.289	1938.38
185.365	1936.29
185.441	1935.24
185.517	1947.75
185.593	1942.09
185.669	1940.95
185.745	1950.51
185.822	1965.9
185.898	1958.49
185.974	1970.75
186.05	1965.71
186.126	1923.33
186.202	1919.53
186.278	1915.91
186.354	1908.64
186.43	1912.73
186.506	1915.39
186.582	1914.87
186.658	1920.14
186.734	1903.41
186.81	1905.26
186.886	1909.83
186.962	1917.2
187.038	1916.34
187.114	1909.63
187.19	1918.14
187.266	1911.2
187.341	1912.58
187.417	1905.98
187.493	1904.98
187.569	1905.26
187.645	1899.46
187.721	1889.34
187.797	1897.8
187.873	1901.22
187.949	1894.61
188.025	1888.29
188.101	1890.86
188.176	1894.99
188.252	1893.76
188.328	1898.22
188.404	1898.65
188.48	1893.52
188.556	1888.71
188.632	1885.96
188.707	1887.1
188.783	1884.44
188.859	1878.78
188.935	1865.99
189.011	1871.41
189.086	1866.99
189.162	1860.76
189.238	1858.77
189.314	1858.43
189.39	1851.3
189.465	1843.79
189.541	1858.34
189.617	1845.03
189.693	1839.38
189.768	1842.51
189.844	1864.82
189.92	1859.4
189.996	1866.77
190.071	1876.52
190.147	1876.56
190.223	1884.12
190.298	1875.71
190.374	1863.82
190.45	1875.28
190.526	1884.93
190.601	1880.98
190.677	1881.98
190.753	1907.33
190.828	1912.04
190.904	1924.3
190.98	1937.95
191.055	1945.08
191.131	1937.95
191.207	1958.53
191.282	1968.51
191.358	1959.01
191.433	1943.74
191.509	1955.95
191.585	1953.95
191.66	1953.57
191.736	1959.8
191.811	1953.43
191.887	1965.89
191.963	1986.48
192.038	1991.95
192.114	1991.95
192.189	1997.27
192.265	1994.42
192.34	1973.96
192.416	1971.35
192.491	1967.92
192.567	1973.63
192.642	1978.25
192.718	1977.77
192.793	1966.93
192.869	1962.08
192.944	1965.64
193.02	1970.97
193.095	1974.77
193.171	1978.91
193.246	1981.29
193.322	1977.82
193.397	1979.91
193.473	1971.63
193.548	1956.61
193.624	1961.46
193.699	1960.22
193.775	1974.06
193.85	1976.25
193.925	1984.95
194.001	1985.57
194.076	1979.44
194.152	1968.35
194.227	1960.89
194.302	1951.05
194.378	1952.9
194.453	1951.76
194.529	1962.37
194.604	1951.48
194.679	1943.54
194.755	1927.85
194.83	1938.13
194.905	1936.46
194.981	1940.79
195.056	1934.23
195.131	1941.12
195.207	1939.41
195.282	1930.95
195.357	1912.21
195.433	1923.67
195.508	1911.83
195.583	1917.68
195.659	1929.66
195.734	1935.27
195.809	1937.22
195.884	1945.87
195.96	1946.63
196.035	1959.18
196.11	1957.57
196.185	1969.64
196.261	1976.11
196.336	2003.07
196.411	1988.18
196.486	1992.41
196.561	1989.18
196.637	1995.41
196.712	2009.11
196.787	2012.15
196.862	2026.56
196.937	2037.16
197.013	2046.91
197.088	2056.33
197.163	2077.74
197.238	2093.44
197.313	2092.73
197.388	2103
197.464	2129.55
197.539	2140.68
197.614	2135.02
197.689	2144.72
197.764	2159.76
197.839	2176.12
197.914	2173.32
197.989	2195.11
198.065	2208.81
198.14	2253.7
198.215	2280.63
198.29	2292.29
198.365	2301.57
198.44	2313.33
198.515	2337.08
198.59	2348.55
198.665	2371.77
198.74	2379.72
198.815	2382.96
198.89	2402.57
198.965	2431.57
199.04	2430.95
199.115	2445.23
199.19	2483.79
199.265	2485.93
199.34	2492.83
199.415	2523.93
199.49	2543.5
199.565	2551.17
199.64	2572.88
199.715	2570.92
199.79	2573.73
199.865	2576.07
199.94	2579.26
200.015	2607.46
200.09	2616.41
200.165	2622.08
200.24	2630.7
200.315	2666.12
200.39	2682.08
200.464	2693.23
200.539	2694.33
200.614	2708.71
200.689	2728.48
200.764	2734.82
200.839	2754.29
200.914	2759.1
200.989	2752.57
201.063	2765.49
201.138	2752.54
201.213	2753.16
201.288	2735.44
201.363	2742.2
201.438	2743.06
201.512	2755.63
201.587	2738.95
201.662	2740.67
201.737	2752.67
201.812	2758.44
201.886	2725.35
201.961	2732.65
202.036	2720.22
202.111	2716.26
202.186	2686.27
202.26	2671.07
202.335	2651.2
202.41	2647.49
202.485	2632.96
202.559	2612.1
202.634	2583.19
202.709	2587.05
202.784	2571.47
202.858	2571.95
202.933	2551.62
203.008	2544.81
203.082	2527.57
203.157	2524.9
203.232	2484.49
203.306	2465.82
203.381	2435.91
203.456	2417.3
203.53	2393.71
203.605	2372.87
203.68	2351.58
203.754	2349.53
203.829	2334.87
203.904	2316.64
203.978	2302.69
204.053	2306.41
204.127	2298.32
204.202	2299.84
204.277	2286.9
204.351	2279.14
204.426	2271.43
204.5	2268.33
204.575	2239.03
204.65	2247.6
204.724	2241.93
204.799	2249.4
204.873	2242.26
204.948	2240.97
205.022	2231.89
205.097	2223.65
205.171	2237.49
205.246	2246.35
205.32	2244.97
205.395	2245.06
205.469	2237.5
205.544	2241.79
205.618	2225.37
205.693	2234.46
205.767	2224.56
205.842	2242.89
205.916	2235.84
205.991	2226.95
206.065	2232.66
206.14	2247.02
206.214	2244.78
206.289	2237.26
206.363	2249.2
206.438	2252.49
206.512	2259.29
206.586	2274.23
206.661	2283.85
206.735	2262.54
206.81	2261.25
206.884	2276.19
206.958	2266.54
207.033	2282.14
207.107	2289.04
207.181	2317.27
207.256	2309.94
207.33	2328.22
207.405	2341.93
207.479	2360.64
207.553	2370.06
207.628	2354.36
207.702	2365.26
207.776	2357.92
207.851	2361.59
207.925	2373.21
207.999	2371.92
208.073	2370.11
208.148	2374.97
208.222	2360.45
208.296	2393.61
208.371	2411.14
208.445	2419.67
208.519	2446.37
208.593	2458.03
208.668	2453.75
208.742	2456.94
208.816	2459.32
208.89	2470.61
208.965	2467.98
209.039	2475.46
209.113	2489.98
209.187	2506.64
209.261	2502.07
209.336	2519.54
209.41	2537.97
209.484	2540.4
209.558	2562.4
209.632	2577.64
209.707	2585.69
209.781	2609.31
209.855	2622.98
209.929	2635.33
210.003	2640.81
210.077	2639.23
210.151	2682.05
210.226	2716.26
210.3	2742.39
210.374	2764.44
210.448	2769.59
210.522	2780.88
210.596	2790.37
210.67	2798.75
210.744	2845.79
210.818	2877.52
210.892	2897.82
210.966	2892.63
211.041	2906.26
211.115	2900.68
211.189	2920.32
211.263	2937.76
211.337	2943.24
211.411	2957.02
211.485	2955.06
211.559	2967.45
211.633	2971.12
211.707	2943.65
211.781	2952.24
211.855	2922.01
211.929	2915.53
212.003	2900.86
212.077	2912.4
212.151	2929.33
212.225	2940.91
212.299	2933.32
212.373	2925.84
212.447	2926.03
212.52	2959.88
212.594	2966.37
212.668	2986.81
212.742	2980.71
212.816	2984.81
212.89	2990.2
212.964	2996.78
213.038	3008.76
213.112	3031.89
213.186	3057.73
213.26	3051.06
213.333	3019.68
213.407	3036.55
213.481	3054.37
213.555	3080.16
213.629	3083.73
213.703	3082.78
213.777	3100.05
213.85	3100.67
213.924	3147.48
213.998	3170.24
214.072	3185.37
214.146	3201.73
214.219	3223.92
214.293	3246.2
214.367	3274.26
214.441	3311.43
214.515	3332.44
214.588	3339.65
214.662	3338.98
214.736	3351.24
214.81	3391.59
214.883	3438.58
214.957	3465.11
215.031	3493.45
215.105	3510.96
215.178	3539.61
215.252	3578.47
215.326	3601.01
215.4	3628.27
215.473	3633.48
215.547	3658.32
215.621	3691.06
215.694	3742.57
215.768	3766.32
215.842	3808.88
215.915	3849.95
215.989	3877.24
216.063	3922.28
216.136	3979.73
216.21	4039.23
216.284	4109.47
216.357	4170.34
216.431	4226.05
216.504	4296.68
216.578	4384.19
216.652	4457.82
216.725	4523.9
216.799	4594.6
216.873	4664.76
216.946	4741.13
217.02	4804.43
217.093	4874.28
217.167	4927
217.24	4981.6
217.314	5054.76
217.387	5117.25
217.461	5178.76
217.535	5263.37
217.608	5324.08
217.682	5395.15
217.755	5476.35
217.829	5538.92
217.902	5615.01
217.976	5691.2
218.049	5760.35
218.123	5816.72
218.196	5894.61
218.27	5964.89
218.343	6030.39
218.417	6106.55
218.49	6180.5
218.563	6276.58
218.637	6360.59
218.71	6461.55
218.784	6552.01
218.857	6644.64
218.931	6734.42
219.004	6821.64
219.077	6906.67
219.151	6994.34
219.224	7077.55
219.298	7156.65
219.371	7250.7
219.444	7319.41
219.518	7399.82
219.591	7480.66
219.665	7589.24
219.738	7675.39
219.811	7748.26
219.885	7841.56
219.958	7928.8
220.031	8007.32
220.105	8089.91
220.178	8172.08
220.251	8248.44
220.325	8335.82
220.398	8418.25
220.471	8502.45
220.544	8592.01
220.618	8668.43
220.691	8754.92
220.764	8837.99
220.838	8922.76
220.911	8997.81
220.984	9102.13
221.057	9186.81
221.131	9267.78
221.204	9313.28
221.277	9409.69
221.35	9525.55
221.424	9602.89
221.497	9684.52
221.57	9766.53
221.643	9851.54
221.716	9932.56
221.79	9996.14
221.863	10067.63
221.936	10138.48
222.009	10218.45
222.082	10295.58
222.155	10368.52
222.229	10458.43
222.302	10534.02
222.375	10607.59
222.448	10685.99
222.521	10754.41
222.594	10826.01
222.667	10897.95
222.74	10983.82
222.814	11047.86
222.887	11102.71
222.96	11175.33
223.033	11257.17
223.106	11341.6
223.179	11412.54
223.252	11478.47
223.325	11563.59
223.398	11641.86
223.471	11715.41
223.544	11778.45
223.617	11847.81
223.69	11917.65
223.763	11965.42
223.837	12028.85
223.91	12096.18
223.983	12146.12
224.056	12195.53
224.129	12261.32
224.202	12337.43
224.275	12399.42
224.348	12456.21
224.42	12513.62
224.493	12565.05
224.566	12610.22
224.639	12666.19
224.712	12724.51
224.785	12787.33
224.858	12835.53
224.931	12875.59
225.004	12918.69
225.077	12977.35
225.15	13008.59
225.223	13072.61
225.296	13155.43
225.369	13206.48
225.442	13260.13
225.514	13325.79
225.587	13392.07
225.66	13454.45
225.733	13505.6
225.806	13568.79
225.879	13623.12
225.952	13668.53
226.025	13732.07
226.097	13803.13
226.17	13862.08
226.243	13894.28
226.316	13949.87
226.389	14009.93
226.461	14071.73
226.534	14139.22
226.607	14199.67
226.68	14277.09
226.753	14323.17
226.825	14358.8
226.898	14425.85
226.971	14481.09
227.044	14537.83
227.117	14596.54
227.189	14651.98
227.262	14714.98
227.335	14762.7
227.407	14805.12
227.48	14862.58
227.553	14916.62
227.626	14960.24
227.698	14998.95
227.771	15060.8
227.844	15098.97
227.916	15149.83
227.989	15192
228.062	15235.82
228.134	15300.31
228.207	15339.94
228.28	15380.52
228.352	15419.85
228.425	15468.15
228.498	15517.37
228.57	15547.73
228.643	15605.62
228.716	15648.66
228.788	15685.82
228.861	15733.01
228.934	15797.89
229.006	15844.89
229.079	15883.35
229.151	15918.44
229.224	15959.55
229.296	16005.49
229.369	16079.23
229.442	16141.89
229.514	16179.58
229.587	16232.74
229.659	16251.59
229.732	16306.19
229.804	16361.91
229.877	16429.53
229.949	16479.36
230.022	16541.73
230.094	16591.04
230.167	16625.01
230.239	16652.29
230.312	16690.99
230.384	16747.96
230.457	16794.18
230.529	16843.29
230.602	16890.52
230.674	16937.42
230.747	16993.32
230.819	17046.82
230.892	17054.48
230.964	17096.36
231.037	17144.85
231.109	17184.51
231.181	17238.82
231.254	17259.89
231.326	17294.83
231.399	17317.24
231.471	17347.89
231.544	17357.62
231.616	17407.31
231.688	17445.33
231.761	17482.59
231.833	17513.48
231.905	17524.9
231.978	17554.78
232.05	17582.44
232.122	17609.24
232.195	17631.4
232.267	17665.28
232.339	17689.72
232.412	17727.35
232.484	17743.02
232.556	17756.37
232.629	17796.89
232.701	17824.46
232.773	17863.69
232.846	17886.92
232.918	17915.16
232.99	17936.84
233.062	17976.7
233.135	18002.86
233.207	18016.45
233.279	18051.44
233.351	18078.14
233.424	18095.83
233.496	18102.76
233.568	18141.75
233.64	18148.88
233.713	18174.81
233.785	18191.87
233.857	18209.75
233.929	18213.36
234.001	18244.88
234.074	18279.19
234.146	18279.87
234.218	18290.95
234.29	18299.53
234.362	18307.82
234.434	18317.16
234.507	18318.47
234.579	18308.68
234.651	18308.78
234.723	18323.96
234.795	18336.34
234.867	18339.91
234.939	18361.55
235.012	18377.21
235.084	18382.56
235.156	18406.46
235.228	18407.52
235.3	18405.16
235.372	18412.53
235.444	18438.12
235.516	18422.03
235.588	18430.46
235.66	18436.53
235.732	18434.89
235.804	18489.64
235.876	18496.09
235.948	18515.42
236.02	18533.78
236.092	18538.21
236.164	18542.21
236.236	18541.15
236.308	18532.29
236.38	18541.54
236.452	18541.59
236.524	18548.62
236.596	18564.52
236.668	18575.42
236.74	18577.63
236.812	18586.16
236.884	18591.03
236.956	18588.04
237.028	18578.11
237.1	18564.81
237.172	18584.43
237.244	18603.08
237.316	18562.36
237.388	18563.22
237.46	18545.87
237.532	18548.19
237.604	18540.53
237.675	18552.09
237.747	18552.81
237.819	18555.75
237.891	18555.66
237.963	18531.95
238.035	18514.21
238.107	18472.1
238.178	18465.59
238.25	18455.28
238.322	18462.94
238.394	18432.92
238.466	18425.93
238.538	18425.83
238.609	18428.34
238.681	18390.56
238.753	18363.76
238.825	18353.84
238.897	18340.97
238.968	18345.55
239.04	18313.74
239.112	18324.44
239.184	18294.03
239.255	18282.61
239.327	18259.48
239.399	18234.61
239.471	18228.98
239.542	18217.65
239.614	18222.81
239.686	18180.83
239.758	18175.05
239.829	18146.71
239.901	18142.23
239.973	18119.58
240.044	18106.96
240.116	18087.25
240.188	18072.02
240.259	18050
240.331	18028.74
240.403	18015.39
240.474	17979.69
240.546	17956.75
240.618	17915.88
240.689	17891.59
240.761	17864.89
240.833	17863.79
240.904	17851.5
240.976	17836.89
241.048	17822.05
241.119	17797.23
241.191	17790.05
241.262	17780.32
241.334	17748.75
241.405	17725.14
241.477	17695.07
241.549	17662.3
241.62	17643.4
241.692	17626.63
241.763	17622.01
241.835	17600.47
241.906	17578.92
241.978	17533.14
242.049	17530.88
242.121	17517.43
242.192	17505.24
242.264	17465.48
242.335	17418.15
242.407	17403.89
242.478	17377.14
242.55	17349.91
242.621	17313.57
242.693	17282.49
242.764	17256.18
242.836	17232.99
242.907	17216.22
242.979	17205.86
243.05	17185.96
243.122	17161.57
243.193	17140.46
243.264	17090.29
243.336	17053.76
243.407	17038
243.479	17034.63
243.55	17006.15
243.622	16987.83
243.693	16963.25
243.764	16957.66
243.836	16931.3
243.907	16892.98
243.978	16860.07
244.05	16836.69
244.121	16796.26
244.192	16782.91
244.264	16733.65
244.335	16716.88
244.407	16674.85
244.478	16646.42
244.549	16618.22
244.62	16576.58
244.692	16541.06
244.763	16521.64
244.834	16492.24
244.906	16446.88
244.977	16426.64
245.048	16412.38
245.119	16375.89
245.191	16338.44
245.262	16293.71
245.333	16277.66
245.405	16256.7
245.476	16236.07
245.547	16209.42
245.618	16196.35
245.689	16163.53
245.761	16140.25
245.832	16099.23
245.903	16086.7
245.974	16069.93
246.045	16040
246.117	16028.96
246.188	15990.4
246.259	15949.29
246.33	15915.45
246.401	15888.6
246.473	15847.39
246.544	15807.77
246.615	15792.98
246.686	15761.31
246.757	15749.21
246.828	15713.98
246.899	15696.87
246.97	15651.65
247.042	15615.31
247.113	15593.04
247.184	15582.63
247.255	15550.38
247.326	15526.91
247.397	15491.29
247.468	15454.08
247.539	15431.42
247.61	15387.46
247.681	15362.5
247.752	15358.11
247.823	15332.51
247.894	15301.71
247.965	15262.43
248.037	15229.99
248.108	15179.09
248.179	15154.12
248.25	15115.99
248.321	15098.44
248.392	15058.92
248.463	15052.22
248.534	15021.66
248.605	14997.99
248.675	14966.03
248.746	14945.16
248.817	14926.12
248.888	14900.28
248.959	14851.93
249.03	14825.9
249.101	14800.84
249.172	14773.7
249.243	14716.77
249.314	14704.76
249.385	14681.1
249.456	14658.87
249.527	14624.74
249.598	14611.97
249.669	14586.37
249.739	14567.72
249.81	14541.83
249.881	14500.04
249.952	14475.94
250.023	14449.95
250.094	14407.2
250.165	14368.54
250.235	14349.83
250.306	14319.8
250.377	14284.56
250.448	14271.06
250.519	14226.14
250.59	14219.48
250.66	14182.03
250.731	14176.48
250.802	14137.29
250.873	14116.85
250.944	14095.11
251.014	14071.97
251.085	14060.16
251.156	14036.16
251.227	14018.37
251.297	14003.71
251.368	13993.78
251.439	13970.79
251.51	13963.75
251.58	13930.92
251.651	13904.51
251.722	13884.02
251.792	13844.63
251.863	13812.82
251.934	13798.55
252.005	13800.77
252.075	13768.9
252.146	13761.81
252.217	13755.98
252.287	13749.09
252.358	13720.16
252.429	13718.96
252.499	13684.54
252.57	13664
252.641	13647.52
252.711	13622.5
252.782	13577.47
252.852	13564.36
252.923	13541.66
252.994	13510.9
253.064	13509.84
253.135	13478.89
253.205	13448.04
253.276	13443.75
253.347	13438.83
253.417	13408.36
253.488	13375.49
253.558	13344.97
253.629	13320.53
253.699	13286.84
253.77	13267.31
253.841	13242.92
253.911	13216.94
253.982	13194.09
254.052	13179.29
254.123	13156.92
254.193	13134.02
254.264	13148.63
254.334	13115.85
254.405	13084.32
254.475	13058
254.546	13030.38
254.616	13016.78
254.687	12999.38
254.757	12975.95
254.827	12945.34
254.898	12926.88
254.968	12906.01
255.039	12885.33
255.109	12873.13
255.18	12840.93
255.25	12797.74
255.321	12790.17
255.391	12757.1
255.461	12765.97
255.532	12714.53
255.602	12692.26
255.673	12652.83
255.743	12618.03
255.813	12574.4
255.884	12564.33
255.954	12542.06
256.024	12533.72
256.095	12513.09
256.165	12481.08
256.235	12466.23
256.306	12450.66
256.376	12435.86
256.446	12427.14
256.517	12408.53
256.587	12393.59
256.657	12381.97
256.728	12361.77
256.798	12329.91
256.868	12306.05
256.938	12277.61
257.009	12272.84
257.079	12251.29
257.149	12255.82
257.219	12222.03
257.29	12212.29
257.36	12167.76
257.43	12160.19
257.5	12117.87
257.571	12089.19
257.641	12078.53
257.711	12045.9
257.781	12030.33
257.852	12022.23
257.922	11980.39
257.992	11952.73
258.062	11932.15
258.132	11916.14
258.202	11897.59
258.273	11882.26
258.343	11876.86
258.413	11844.32
258.483	11825.09
258.553	11792.32
258.623	11765.66
258.693	11743.39
258.764	11735.34
258.834	11736.21
258.904	11711.44
258.974	11687.68
259.044	11670.95
259.114	11645.5
259.184	11624.63
259.254	11602.8
259.324	11561.01
259.394	11552.19
259.464	11553.44
259.535	11529.83
259.605	11504.09
259.675	11477.34
259.745	11462.74
259.815	11434.4
259.885	11411.84
259.955	11411.07
260.025	11395.22
260.095	11373.38
260.165	11365.34
260.235	11366.35
260.305	11342.68
260.375	11318.01
260.445	11319.74
260.515	11317.72
260.585	11312.42
260.655	11301.24
260.725	11289.96
260.795	11273.04
260.865	11269.38
260.934	11244.66
261.004	11237.62
261.074	11220.95
261.144	11217.77
261.214	11213.72
261.284	11193.72
261.354	11186.92
261.424	11159.35
261.494	11158.25
261.564	11140.9
261.634	11124.13
261.703	11084.75
261.773	11068.27
261.843	11056.32
261.913	11040.9
261.983	11007.31
262.053	10997.58
262.123	10977
262.192	10946.79
262.262	10949.68
262.332	10918.5
262.402	10912.38
