Data from 20250630_urea_2M_MAYP1162681_23-22-26-634.txt Node
Date: Mon Jun 30 23:22:26 BST 2025
User: adleo
Spectrometer: MAYP116268
Trigger mode: 0
Integration Time (sec): 1.000000E0
Scans to average: 1
Electric dark correction enabled: true
Nonlinearity correction enabled: true
Boxcar width: 10
XAxis mode: Wavelengths
Number of Pixels in Spectrum: 2068
>>>>>Begin Spectral Data<<<<<
179.565	1111.41
179.642	1157.01
179.718	1195.14
179.795	1226.47
179.871	1255.54
179.948	1269.58
180.024	1289.94
180.101	1313.42
180.177	1326.76
180.254	1346.45
180.33	1367.54
180.407	1415.05
180.483	1502.85
180.56	1585.8
180.636	1662.28
180.712	1648.73
180.789	1658.99
180.865	1669.49
180.942	1675.67
181.018	1686.55
181.095	1696.05
181.171	1700.85
181.248	1702.99
181.324	1717.96
181.4	1727.65
181.477	1736.54
181.553	1750.36
181.63	1770.04
181.706	1783.54
181.782	1790.76
181.859	1792.52
181.935	1798.74
182.011	1794.13
182.088	1811.29
182.164	1829.88
182.24	1842.05
182.317	1853.83
182.393	1854.69
182.469	1868.24
182.546	1884.02
182.622	1889.25
182.698	1887.39
182.775	1902.18
182.851	1915.15
182.927	1908.64
183.003	1903.17
183.08	1899.61
183.156	1909.12
183.232	1905.6
183.308	1895
183.385	1902.6
183.461	1918.96
183.537	1920.33
183.613	1932.55
183.69	1923.66
183.766	1913.06
183.842	1922.99
183.918	1924.13
183.995	1932.98
184.071	1935.4
184.147	1927.6
184.223	1916.91
184.299	1927.18
184.375	1912.64
184.452	1920.77
184.528	1973.27
184.604	1982.26
184.68	1992.05
184.756	1998.85
184.832	2001.51
184.908	2006.98
184.985	2007.5
185.061	1990.05
185.137	1995.9
185.213	1985.06
185.289	1986.3
185.365	1977.69
185.441	1973.84
185.517	1988.87
185.593	1985.4
185.669	1980.74
185.745	1991.58
185.822	2005.7
185.898	1997.33
185.974	2007.6
186.05	2001.37
186.126	1963.13
186.202	1957.37
186.278	1955.57
186.354	1946.15
186.43	1950.34
186.506	1946.49
186.582	1946.3
186.658	1954.9
186.734	1936.79
186.81	1939.26
186.886	1939.26
186.962	1951.38
187.038	1948.81
187.114	1938.78
187.19	1947.53
187.266	1941.39
187.341	1944.96
187.417	1940.49
187.493	1940.16
187.569	1942.4
187.645	1936.93
187.721	1925.66
187.797	1935.02
187.873	1937.97
187.949	1931.93
188.025	1930.79
188.101	1933.45
188.176	1936.4
188.252	1931.51
188.328	1942.2
188.404	1943.29
188.48	1940.11
188.556	1934.4
188.632	1934.97
188.707	1937.11
188.783	1933.17
188.859	1928.84
188.935	1915.72
189.011	1922.99
189.086	1918.76
189.162	1912.1
189.238	1911.53
189.314	1910.34
189.39	1903.88
189.465	1897.98
189.541	1914.67
189.617	1898.22
189.693	1896.51
189.768	1901.89
189.844	1925.09
189.92	1916.06
189.996	1922.06
190.071	1934.32
190.147	1935.41
190.223	1942.41
190.298	1934.8
190.374	1922.82
190.45	1931.85
190.526	1938.27
190.601	1931.75
190.677	1932.47
190.753	1958.11
190.828	1958.34
190.904	1973.32
190.98	1987.54
191.055	1997.58
191.131	1991.63
191.207	2010.31
191.282	2016.97
191.358	2004.7
191.433	1992.67
191.509	2006.55
191.585	2001.89
191.66	2001.22
191.736	2006.69
191.811	1997.94
191.887	2014.02
191.963	2036.89
192.038	2042.5
192.114	2045.26
192.189	2049.49
192.265	2044.98
192.34	2023.19
192.416	2021.81
192.491	2018.24
192.567	2018.81
192.642	2019.71
192.718	2017.19
192.793	2008.06
192.869	2004.45
192.944	2009.73
193.02	2016.2
193.095	2015.81
193.171	2022.8
193.246	2022.19
193.322	2019.67
193.397	2021.09
193.473	2007.25
193.548	1990.6
193.624	1996.69
193.699	1994.55
193.775	2009.87
193.85	2013.34
193.925	2020.95
194.001	2020.42
194.076	2011.34
194.152	2003.54
194.227	1997.88
194.302	1987.76
194.378	1989.94
194.453	1987
194.529	1998.03
194.604	1981.39
194.679	1975.54
194.755	1957.43
194.83	1968.42
194.905	1965.56
194.981	1975.36
195.056	1969.94
195.131	1975.51
195.207	1974.84
195.282	1966.38
195.357	1945.78
195.433	1960.19
195.508	1948.3
195.583	1955.91
195.659	1969.22
195.734	1976.31
195.809	1977.17
195.884	1985.87
195.96	1987.67
196.035	2002.17
196.11	1999.37
196.185	2012.16
196.261	2015.2
196.336	2047.11
196.411	2033.03
196.486	2037.55
196.561	2031.84
196.637	2038.11
196.712	2052.29
196.787	2052.39
196.862	2067.13
196.937	2075.73
197.013	2081.3
197.088	2096.23
197.163	2117.69
197.238	2134.88
197.313	2133.26
197.388	2141.87
197.464	2172.51
197.539	2179.84
197.614	2175.56
197.689	2187.07
197.764	2202.97
197.839	2224.23
197.914	2217.43
197.989	2239.6
198.065	2253.02
198.14	2297.39
198.215	2322.33
198.29	2334.85
198.365	2352.08
198.44	2360.45
198.515	2387.72
198.59	2402.67
198.665	2423.76
198.74	2431.1
198.815	2431.71
198.89	2455.04
198.965	2485.28
199.04	2483.47
199.115	2498.46
199.19	2537.4
199.265	2538.17
199.34	2547.45
199.415	2578.04
199.49	2596.22
199.565	2606.8
199.64	2631.37
199.715	2630.61
199.79	2640.32
199.865	2647.71
199.94	2639.28
200.015	2666.96
200.09	2673.87
200.165	2675.25
200.24	2684.16
200.315	2718.48
200.39	2731.63
200.464	2735.16
200.539	2735.25
200.614	2748.64
200.689	2771.8
200.764	2779.18
200.839	2797.28
200.914	2802.19
200.989	2791.13
201.063	2805.8
201.138	2788.42
201.213	2788.42
201.288	2769.7
201.363	2771.75
201.438	2770.22
201.512	2789.51
201.587	2777.12
201.662	2780.41
201.737	2796.18
201.812	2801.52
201.886	2772.86
201.961	2781.49
202.036	2770.96
202.111	2770.01
202.186	2740.87
202.26	2727.76
202.335	2704.36
202.41	2699.84
202.485	2682.22
202.559	2666.07
202.634	2642.25
202.709	2651.58
202.784	2631.34
202.858	2633.82
202.933	2619.62
203.008	2611.76
203.082	2591.62
203.157	2594.38
203.232	2553.4
203.306	2531.43
203.381	2499.52
203.456	2478.28
203.53	2456.41
203.605	2436.81
203.68	2414.71
203.754	2408
203.829	2392.29
203.904	2375.34
203.978	2363.06
204.053	2368.58
204.127	2352.63
204.202	2351.35
204.277	2335.12
204.351	2328.74
204.426	2318.22
204.5	2306.13
204.575	2273.35
204.65	2283.82
204.724	2273.06
204.799	2281.86
204.873	2280.14
204.948	2280.95
205.022	2271.34
205.097	2264.72
205.171	2280.99
205.246	2287.37
205.32	2287.37
205.395	2285.37
205.469	2275.53
205.544	2279.67
205.618	2263.3
205.693	2277.77
205.767	2263.68
205.842	2282.87
205.916	2281.1
205.991	2270.11
206.065	2279.15
206.14	2296.32
206.214	2291.28
206.289	2285.61
206.363	2298.98
206.438	2302.46
206.512	2307.41
206.586	2323.97
206.661	2333.06
206.735	2311.89
206.81	2313.42
206.884	2329.07
206.958	2317.94
207.033	2335.97
207.107	2343.25
207.181	2372.77
207.256	2366.92
207.33	2385.81
207.405	2395.43
207.479	2409.9
207.553	2416.52
207.628	2398.82
207.702	2408.34
207.776	2406.72
207.851	2405.91
207.925	2417.34
207.999	2413.2
208.073	2411.77
208.148	2415.63
208.222	2405.2
208.296	2435.27
208.371	2453.47
208.445	2461.14
208.519	2485.55
208.593	2497.6
208.668	2496.55
208.742	2496.65
208.816	2498.41
208.89	2509.79
208.965	2510.41
209.039	2520.56
209.113	2541.41
209.187	2562.11
209.261	2561.54
209.336	2578.59
209.41	2598.55
209.484	2597.78
209.558	2617.74
209.632	2633.55
209.707	2642.79
209.781	2661.6
209.855	2676.95
209.929	2689.39
210.003	2695.54
210.077	2700.2
210.151	2742.36
210.226	2773.58
210.3	2801.67
210.374	2823.34
210.448	2831.1
210.522	2839.64
210.596	2848.21
210.67	2854.5
210.744	2902.51
210.818	2932.81
210.892	2953.55
210.966	2949.17
211.041	2968.19
211.115	2966.95
211.189	2989.02
211.263	3006.27
211.337	3014.8
211.411	3030.64
211.485	3030.16
211.559	3047.79
211.633	3053.27
211.707	3031.71
211.781	3042.02
211.855	3017.5
211.929	3016.55
212.003	3004.93
212.077	3027.01
212.151	3049.05
212.225	3069.41
212.299	3067.45
212.373	3068.64
212.447	3075.47
212.52	3118.3
212.594	3136.28
212.668	3167.62
212.742	3173.87
212.816	3190.42
212.89	3206.93
212.964	3229.74
213.038	3261.87
213.112	3299.43
213.186	3342.47
213.26	3355.49
213.333	3345.94
213.407	3384.44
213.481	3422.61
213.555	3474.45
213.629	3502.44
213.703	3530
213.777	3576.24
213.85	3609.43
213.924	3689.8
213.998	3747.77
214.072	3794.51
214.146	3844.55
214.219	3901.81
214.293	3968.57
214.367	4036.79
214.441	4116.92
214.515	4177.85
214.588	4229.56
214.662	4277.15
214.736	4341
214.81	4433.24
214.883	4529.69
214.957	4607.72
215.031	4692.83
215.105	4766.65
215.178	4856.82
215.252	4958.68
215.326	5039.92
215.4	5129.05
215.473	5195.68
215.547	5288.05
215.621	5396.7
215.694	5518.84
215.768	5617.28
215.842	5723.89
215.915	5834.32
215.989	5940.56
216.063	6061.21
216.136	6192.75
216.21	6318.66
216.284	6458.56
216.357	6595.37
216.431	6731.56
216.504	6876.65
216.578	7038.31
216.652	7194.08
216.725	7336.98
216.799	7481.54
216.873	7630.07
216.946	7783.28
217.02	7922.89
217.093	8071.75
217.167	8198.12
217.24	8322.3
217.314	8463.58
217.387	8602.38
217.461	8746.76
217.535	8905.21
217.608	9042.54
217.682	9186.58
217.755	9348.63
217.829	9488.42
217.902	9632.31
217.976	9785.36
218.049	9925.41
218.123	10053.35
218.196	10199.59
218.27	10336.17
218.343	10465.82
218.417	10615.37
218.49	10752.11
218.563	10919.88
218.637	11070.81
218.71	11236.39
218.784	11394.56
218.857	11549.15
218.931	11697.01
219.004	11836.73
219.077	11979.78
219.151	12129.34
219.224	12276.69
219.298	12421.88
219.371	12569.67
219.444	12696.92
219.518	12828.47
219.591	12971.59
219.665	13134.28
219.738	13274.31
219.811	13401.14
219.885	13550.14
219.958	13687.57
220.031	13817.78
220.105	13942.72
220.178	14060.39
220.251	14173.68
220.325	14307.69
220.398	14441.45
220.471	14569.63
220.544	14699.88
220.618	14811.08
220.691	14930.53
220.764	15038.36
220.838	15151.83
220.911	15255.71
220.984	15386.96
221.057	15497.25
221.131	15613.85
221.204	15694.2
221.277	15816
221.35	15954.14
221.424	16051.74
221.497	16152.38
221.57	16254.8
221.643	16359.39
221.716	16459.93
221.79	16548.47
221.863	16632.04
221.936	16717.59
222.009	16809.64
222.082	16899.53
222.155	16982.47
222.229	17076.79
222.302	17171.06
222.375	17254.43
222.448	17343.83
222.521	17415.98
222.594	17498
222.667	17551.21
222.74	17639.93
222.814	17709.66
222.887	17771.49
222.96	17849.66
223.033	17919.63
223.106	17994.52
223.179	18068.26
223.252	18137.84
223.325	18208.78
223.398	18276.83
223.471	18346.56
223.544	18416.77
223.617	18478.94
223.69	18542.11
223.763	18593.92
223.837	18652.9
223.91	18707.65
223.983	18747.89
224.056	18789.18
224.129	18845.9
224.202	18916.12
224.275	18959.1
224.348	18992.98
224.42	19026.81
224.493	19059.63
224.566	19105.02
224.639	19160.29
224.712	19195.23
224.785	19238.8
224.858	19290.89
224.931	19338.26
225.004	19368.09
225.077	19402.55
225.15	19431.94
225.223	19467.31
225.296	19519.7
225.369	19546.54
225.442	19585.04
225.514	19635.83
225.587	19687.01
225.66	19730.53
225.733	19767.63
225.806	19810.67
225.879	19838.43
225.952	19867.63
226.025	19923.39
226.097	19969.51
226.17	19995.43
226.243	20009.31
226.316	20041.22
226.389	20073.41
226.461	20101.94
226.534	20138.32
226.607	20173.55
226.68	20219.72
226.753	20256.44
226.825	20275.72
226.898	20314.37
226.971	20337.16
227.044	20372.29
227.117	20391.76
227.189	20418.32
227.262	20459.57
227.335	20484.82
227.407	20511.57
227.48	20539.52
227.553	20556
227.626	20573.21
227.698	20591.33
227.771	20634.75
227.844	20651.86
227.916	20674.85
227.989	20676.87
228.062	20683.96
228.134	20724.15
228.207	20742.18
228.28	20759.53
228.352	20775.34
228.425	20794.13
228.498	20818.18
228.57	20812.54
228.643	20853.85
228.716	20862.18
228.788	20871.97
228.861	20887.15
228.934	20924.5
229.006	20943.49
229.079	20955.83
229.151	20960.07
229.224	20969.61
229.296	20983.49
229.369	21034.48
229.442	21055.16
229.514	21064.8
229.587	21105.14
229.659	21098.05
229.732	21112.56
229.804	21133.19
229.877	21170.16
229.949	21185.82
230.022	21218.69
230.094	21242.02
230.167	21254.36
230.239	21268.63
230.312	21272.34
230.384	21302.85
230.457	21319.91
230.529	21330.66
230.602	21345.89
230.674	21363.43
230.747	21388.01
230.819	21405.84
230.892	21367
230.964	21381.55
231.037	21407.96
231.109	21402.71
231.181	21408.74
231.254	21405.89
231.326	21407
231.399	21400.3
231.471	21398.47
231.544	21380.97
231.616	21403.05
231.688	21401.55
231.761	21389.89
231.833	21394.76
231.905	21374.56
231.978	21363.52
232.05	21368.3
232.122	21364.63
232.195	21374.95
232.267	21392.01
232.339	21380.63
232.412	21403
232.484	21403.87
232.556	21392.88
232.629	21414.47
232.701	21427.97
232.773	21422.57
232.846	21417.8
232.918	21418.23
232.99	21416.54
233.062	21420.5
233.135	21411.43
233.207	21399.14
233.279	21404.54
233.351	21401.26
233.424	21391.19
233.496	21383.72
233.568	21393.65
233.64	21374.52
233.713	21350.32
233.785	21330.75
233.857	21325.54
233.929	21303.81
234.001	21293.01
234.074	21293.54
234.146	21253.54
234.218	21229.68
234.29	21221.44
234.362	21204.52
234.434	21176.37
234.507	21150.78
234.579	21126.87
234.651	21102.2
234.723	21095.21
234.795	21088.27
234.867	21066.68
234.939	21070.53
235.012	21055.83
235.084	21041.32
235.156	21042.24
235.228	21020.26
235.3	21001.13
235.372	20986
235.444	20977.61
235.516	20934.96
235.588	20920.4
235.66	20911.44
235.732	20890.09
235.804	20923.2
235.876	20907.15
235.948	20900.5
236.02	20892.35
236.092	20872.45
236.164	20852.88
236.236	20827.92
236.308	20800.64
236.38	20779.87
236.452	20746.76
236.524	20725.07
236.596	20719.58
236.668	20699.19
236.74	20683.24
236.812	20660.93
236.884	20639.72
236.956	20616.83
237.028	20590.23
237.1	20555.04
237.172	20548.2
237.244	20536.59
237.316	20476.34
237.388	20460.82
237.46	20429.02
237.532	20408.87
237.604	20373.35
237.675	20370.46
237.747	20352.15
237.819	20324
237.891	20319.38
237.963	20294.61
238.035	20257.5
238.107	20192.44
238.178	20179.04
238.25	20141.89
238.322	20132.3
238.394	20092.49
238.466	20062.76
238.538	20051
238.609	20024.45
238.681	19975.39
238.753	19943.77
238.825	19913.89
238.897	19879.68
238.968	19871.29
239.04	19841.22
239.112	19843.15
239.184	19790.81
239.255	19755.15
239.327	19728.65
239.399	19683.93
239.471	19650.53
239.542	19635.4
239.614	19620.27
239.686	19562.05
239.758	19547.89
239.829	19502.73
239.901	19485.14
239.973	19445.96
240.044	19408.42
240.116	19379.8
240.188	19339.61
240.259	19300.09
240.331	19256.24
240.403	19221.54
240.474	19165.26
240.546	19125.5
240.618	19068.35
240.689	19036.88
240.761	19007.15
240.833	18985.37
240.904	18951.73
240.976	18919.3
241.048	18889.66
241.119	18862.58
241.191	18838.1
241.262	18817.23
241.334	18791.31
241.405	18747.89
241.477	18709
241.549	18674.01
241.62	18644.52
241.692	18636.33
241.763	18615.61
241.835	18590.35
241.906	18568.81
241.978	18529.59
242.049	18504.58
242.121	18483.85
242.192	18464
242.264	18417.69
242.335	18367.62
242.407	18332.68
242.478	18298.9
242.55	18275.19
242.621	18234.37
242.693	18194.23
242.764	18153.36
242.836	18108.5
242.907	18095.54
242.979	18079.15
243.05	18051.2
243.122	18018.33
243.193	17976.41
243.264	17922
243.336	17879.59
243.407	17849.28
243.479	17828.56
243.55	17800.46
243.622	17770.92
243.693	17733.91
243.764	17711.26
243.836	17663.06
243.907	17633.23
243.978	17598.05
244.05	17560.8
244.121	17512.03
244.192	17489.48
244.264	17442.44
244.335	17411.02
244.407	17352.37
244.478	17325.86
244.549	17293.67
244.62	17252.99
244.692	17215.84
244.763	17194.68
244.834	17157.28
244.906	17120.03
244.977	17087.69
245.048	17062.77
245.119	17023.06
245.191	16979.16
245.262	16927.2
245.333	16923.64
245.405	16882.67
245.476	16858.72
245.547	16828.6
245.618	16804.69
245.689	16771.39
245.761	16744.25
245.832	16709.55
245.903	16684.06
245.974	16646.47
246.045	16609.98
246.117	16591.28
246.188	16550.89
246.259	16502.89
246.33	16471.17
246.401	16433.68
246.473	16387.94
246.544	16346.01
246.615	16321.04
246.686	16286.68
246.757	16269.37
246.828	16219.29
246.899	16200.21
246.97	16142.66
247.042	16095.81
247.113	16073.06
247.184	16051.42
247.255	16010.02
247.326	15979.56
247.397	15949.05
247.468	15919.45
247.539	15892.03
247.61	15843.78
247.681	15820.35
247.752	15808.5
247.823	15769.12
247.894	15738.22
247.965	15704.34
248.037	15671.03
248.108	15620.61
248.179	15587.88
248.25	15558.82
248.321	15533.18
248.392	15491.87
248.463	15487.24
248.534	15457.4
248.605	15435.81
248.675	15408.09
248.746	15392.53
248.817	15370.21
248.888	15346.25
248.959	15294.39
249.03	15270.24
249.101	15244.11
249.172	15216.68
249.243	15161.35
249.314	15149.88
249.385	15118.64
249.456	15100.08
249.527	15067.06
249.598	15052.75
249.669	15031.73
249.739	15004.83
249.81	14988.83
249.881	14961.11
249.952	14929.49
250.023	14900.57
250.094	14849.18
250.165	14803.34
250.235	14767.29
250.306	14736.77
250.377	14693.68
250.448	14672.61
250.519	14621.32
250.59	14613.03
250.66	14574.61
250.731	14561.69
250.802	14530.99
250.873	14508.28
250.944	14476.71
251.014	14445.9
251.085	14430.29
251.156	14402.86
251.227	14386.18
251.297	14371.72
251.368	14346.41
251.439	14330.6
251.51	14311.46
251.58	14289.62
251.651	14265.86
251.722	14248.74
251.792	14202.76
251.863	14173.93
251.934	14169.45
252.005	14169.64
252.075	14140.57
252.146	14123.75
252.217	14110.78
252.287	14098.82
252.358	14074.05
252.429	14072.41
252.499	14041.99
252.57	14023.04
252.641	14010.37
252.711	13980.19
252.782	13935.55
252.852	13932.9
252.923	13909.47
252.994	13891.15
253.064	13868.16
253.135	13834.51
253.205	13814.99
253.276	13809.97
253.347	13809.68
253.417	13767.07
253.488	13740.89
253.558	13713.99
253.629	13692.54
253.699	13673.93
253.77	13656.63
253.841	13634.16
253.911	13606.64
253.982	13591.6
254.052	13567.59
254.123	13547.87
254.193	13526.81
254.264	13539.78
254.334	13506.99
254.405	13466.69
254.475	13429.77
254.546	13406
254.616	13394.38
254.687	13366.95
254.757	13350.81
254.827	13321.74
254.898	13315.81
254.968	13298.45
255.039	13271.89
255.109	13257.91
255.18	13226.19
255.25	13179.29
255.321	13159.96
255.391	13124.77
255.461	13118.16
255.532	13079.84
255.602	13040.65
255.673	13003.57
255.743	12968.09
255.813	12921.67
255.884	12919.21
255.954	12911.36
256.024	12910.59
256.095	12889.76
256.165	12852.98
256.235	12838.18
256.306	12805.59
256.376	12785.15
256.446	12764.81
256.517	12741.67
256.587	12721.14
256.657	12703.01
256.728	12682.57
256.798	12655.92
256.868	12624.39
256.938	12598.79
257.009	12586.02
257.079	12581.68
257.149	12587.18
257.219	12543.26
257.29	12531.21
257.36	12486.09
257.43	12470.86
257.5	12419.71
257.571	12405.83
257.641	12401.98
257.711	12371.94
257.781	12367.89
257.852	12358.3
257.922	12316.65
257.992	12291.44
258.062	12272.36
258.132	12257.22
258.202	12239.82
258.273	12231.87
258.343	12236.69
258.413	12200.58
258.483	12178.22
258.553	12142.98
258.623	12111.98
258.693	12102.97
258.764	12091.79
258.834	12088.17
258.904	12064.65
258.974	12041.76
259.044	12015.92
259.114	11998.37
259.184	11979.29
259.254	11948.92
259.324	11903.56
259.394	11890.98
259.464	11889.49
259.535	11861.58
259.605	11840.81
259.675	11820.85
259.745	11797.76
259.815	11761.42
259.885	11742.43
259.955	11744.5
260.025	11720.89
260.095	11696.3
260.165	11681.84
260.235	11681.75
260.305	11651.72
260.375	11620.97
260.445	11631.14
260.515	11625.11
260.585	11620.1
260.655	11600.49
260.725	11592.73
260.795	11581.21
260.865	11584.1
260.934	11560.05
261.004	11554.17
261.074	11537.01
261.144	11529.83
261.214	11524
261.284	11507.47
261.354	11501.73
261.424	11477.1
261.494	11479.08
261.564	11464.67
261.634	11455.56
261.703	11418.83
261.773	11412.04
261.843	11403.55
261.913	11384.95
261.983	11349.62
262.053	11331.26
262.123	11311.36
262.192	11285.72
262.262	11285.04
262.332	11249.23
262.402	11241.14
