Data from 20250630_urea_2M_MAYP1162681_09-42-26-644.txt Node
Date: Tue Jul 01 09:42:26 BST 2025
User: adleo
Spectrometer: MAYP116268
Trigger mode: 0
Integration Time (sec): 1.000000E0
Scans to average: 1
Electric dark correction enabled: true
Nonlinearity correction enabled: true
Boxcar width: 10
XAxis mode: Wavelengths
Number of Pixels in Spectrum: 2068
>>>>>Begin Spectral Data<<<<<
179.565	1096.14
179.642	1141.72
179.718	1180.05
179.795	1214.04
179.871	1242.24
179.948	1259.69
180.024	1277.13
180.101	1298.12
180.177	1311.5
180.254	1331.32
180.33	1352.1
180.407	1395.91
180.483	1480.9
180.56	1564.51
180.636	1640.14
180.712	1628.45
180.789	1635
180.865	1645.4
180.942	1654.48
181.018	1661.13
181.095	1672.06
181.171	1678.9
181.248	1681.8
181.324	1697.81
181.4	1704.61
181.477	1716.63
181.553	1727.84
181.63	1748.13
181.706	1762.96
181.782	1770.28
181.859	1769.71
181.935	1774.22
182.011	1770.94
182.088	1788.81
182.164	1803.69
182.24	1816.57
182.317	1824.79
182.393	1826.79
182.469	1843.18
182.546	1854.16
182.622	1858.58
182.698	1857.16
182.775	1868.99
182.851	1883.44
182.927	1874.84
183.003	1871.7
183.08	1864.62
183.156	1871.32
183.232	1867
183.308	1856.16
183.385	1864
183.461	1884.92
183.537	1885.16
183.613	1896.23
183.69	1888.43
183.766	1881.16
183.842	1886.67
183.918	1894.09
183.995	1903.93
184.071	1906.07
184.147	1901.84
184.223	1892.9
184.299	1902.56
184.375	1887.96
184.452	1892.86
184.528	1946.7
184.604	1954.35
184.68	1965.38
184.756	1972.41
184.832	1979.02
184.908	1983.73
184.985	1979.92
185.061	1959.77
185.137	1969.32
185.213	1963.24
185.289	1963.81
185.365	1956.39
185.441	1957.87
185.517	1970
185.593	1967.43
185.669	1962.58
185.745	1970.81
185.822	1987.35
185.898	1981.35
185.974	1990.24
186.05	1983.15
186.126	1945.96
186.202	1940.69
186.278	1936.17
186.354	1926.85
186.43	1931.94
186.506	1931.27
186.582	1932.04
186.658	1939.97
186.734	1920.82
186.81	1920.34
186.886	1922.24
186.962	1933.98
187.038	1930.8
187.114	1921.19
187.19	1930.61
187.266	1924.33
187.341	1926.66
187.417	1918.1
187.493	1915.58
187.569	1917.72
187.645	1911.73
187.721	1898.66
187.797	1906.64
187.873	1912.4
187.949	1909.4
188.025	1901.89
188.101	1901.98
188.176	1908.68
188.252	1904.31
188.328	1912.15
188.404	1910.63
188.48	1906.97
188.556	1898.32
188.632	1896.08
188.707	1896.46
188.783	1892.9
188.859	1888.57
188.935	1879.21
189.011	1886.48
189.086	1881.77
189.162	1876.59
189.238	1871.93
189.314	1869.84
189.39	1863.62
189.465	1857.53
189.541	1871.94
189.617	1856.82
189.693	1853.83
189.768	1857.39
189.844	1880.27
189.92	1873.66
189.996	1882.03
190.071	1888.54
190.147	1888.16
190.223	1896.67
190.298	1890.59
190.374	1877.94
190.45	1890.39
190.526	1896.24
190.601	1893.1
190.677	1893.96
190.753	1918.03
190.828	1922.21
190.904	1937.14
190.98	1954.45
191.055	1963.96
191.131	1955.92
191.207	1977.08
191.282	1988.01
191.358	1977.07
191.433	1962.76
191.509	1975.3
191.585	1974.12
191.66	1978.58
191.736	1987.19
191.811	1979.3
191.887	1995.52
191.963	2019.15
192.038	2021.77
192.114	2020.34
192.189	2021.96
192.265	2018.53
192.34	1999.41
192.416	2001.41
192.491	1996.65
192.567	1997.37
192.642	2000.31
192.718	2000.98
192.793	1991.09
192.869	1986
192.944	1989.95
193.02	1996.32
193.095	1998.27
193.171	2003.69
193.246	2001.79
193.322	1997.65
193.397	1999.6
193.473	1986.33
193.548	1966.12
193.624	1970.82
193.699	1972.44
193.775	1988.61
193.85	1991.42
193.925	2001.02
194.001	2000.79
194.076	1992.89
194.152	1983.14
194.227	1974.63
194.302	1965.88
194.378	1968.69
194.453	1965.31
194.529	1976.49
194.604	1964.51
194.679	1954.86
194.755	1936.41
194.83	1946.92
194.905	1943.74
194.981	1949.59
195.056	1942.41
195.131	1948.78
195.207	1947.92
195.282	1938.42
195.357	1918.16
195.433	1933.94
195.508	1923.86
195.583	1930.37
195.659	1943.64
195.734	1950.63
195.809	1950.68
195.884	1959.76
195.96	1958
196.035	1971.64
196.11	1967.36
196.185	1977.49
196.261	1983.43
196.336	2015.2
196.411	2005.92
196.486	2013.01
196.561	2009.01
196.637	2018.33
196.712	2031.13
196.787	2034.08
196.862	2047.82
196.937	2057.09
197.013	2062.18
197.088	2070.79
197.163	2088.58
197.238	2107.05
197.313	2105.38
197.388	2118.27
197.464	2145.54
197.539	2157.85
197.614	2151.39
197.689	2162.23
197.764	2179.03
197.839	2201.39
197.914	2193.49
197.989	2210.05
198.065	2223.18
198.14	2269.03
198.215	2292.01
198.29	2302.58
198.365	2314.24
198.44	2324.09
198.515	2351.36
198.59	2365.35
198.665	2393.11
198.74	2402.15
198.815	2402.82
198.89	2423.14
198.965	2450.33
199.04	2447.71
199.115	2462.23
199.19	2504.31
199.265	2506.22
199.34	2518.03
199.415	2545.51
199.49	2566.41
199.565	2576.65
199.64	2597.74
199.715	2593.07
199.79	2600.46
199.865	2605.79
199.94	2606.46
200.015	2637.61
200.09	2642.23
200.165	2646.85
200.24	2648.66
200.315	2684.41
200.39	2698.23
200.464	2702.61
200.539	2704.33
200.614	2717.9
200.689	2740.15
200.764	2746.11
200.839	2766.49
200.914	2766.73
200.989	2758.48
201.063	2769.2
201.138	2755.68
201.213	2756.02
201.288	2741.63
201.363	2744.87
201.438	2748.35
201.512	2764.06
201.587	2747.14
201.662	2751.24
201.737	2764.39
201.812	2771.54
201.886	2742.89
201.961	2749.85
202.036	2742.56
202.111	2738.6
202.186	2712.61
202.26	2698.07
202.335	2677.92
202.41	2671.82
202.485	2655.92
202.559	2638.91
202.634	2614.34
202.709	2621.81
202.784	2603.81
202.858	2600.57
202.933	2583.33
203.008	2579.52
203.082	2559.47
203.157	2556.76
203.232	2518.05
203.306	2496.66
203.381	2467.8
203.456	2442.81
203.53	2422.36
203.605	2402.38
203.68	2381.76
203.754	2373.86
203.829	2358.39
203.904	2335.02
203.978	2322.07
204.053	2327.07
204.127	2312.41
204.202	2311.89
204.277	2294.85
204.351	2291.28
204.426	2283.52
204.5	2276.81
204.575	2244.31
204.65	2252.59
204.724	2244.93
204.799	2249.78
204.873	2244.78
204.948	2242.4
205.022	2234.03
205.097	2226.03
205.171	2239.83
205.246	2246.59
205.32	2246.16
205.395	2246.68
205.469	2241.55
205.544	2246.74
205.618	2230.98
205.693	2242.93
205.767	2232.46
205.842	2252.83
205.916	2245.93
205.991	2239.75
206.065	2243.89
206.14	2257.34
206.214	2251.2
206.289	2246.21
206.363	2258.15
206.438	2259.39
206.512	2266.86
206.586	2284.13
206.661	2292.75
206.735	2272.05
206.81	2272.82
206.884	2284.8
206.958	2269.29
207.033	2285.13
207.107	2292.66
207.181	2322.7
207.256	2319.03
207.33	2334.26
207.405	2345.88
207.479	2368.69
207.553	2374.68
207.628	2358.65
207.702	2369.07
207.776	2367.31
207.851	2368.41
207.925	2383.02
207.999	2382.36
208.073	2382.17
208.148	2384.69
208.222	2371.03
208.296	2398.91
208.371	2417.2
208.445	2431.39
208.519	2458.04
208.593	2466.7
208.668	2463.42
208.742	2464.89
208.816	2467.94
208.89	2485.66
208.965	2484.89
209.039	2487.04
209.113	2503.18
209.187	2526.06
209.261	2523.02
209.336	2539.02
209.41	2558.69
209.484	2559.16
209.558	2578.07
209.632	2587.83
209.707	2600.69
209.781	2624.45
209.855	2640.17
209.929	2653.86
210.003	2657.67
210.077	2660.91
210.151	2708.34
210.226	2740.85
210.3	2766.55
210.374	2786.74
210.448	2787.69
210.522	2796.46
210.596	2805.95
210.67	2815.86
210.744	2859.04
210.818	2888.29
210.892	2906.07
210.966	2903.5
211.041	2919.13
211.115	2916.6
211.189	2938.86
211.263	2952.68
211.337	2956.92
211.411	2971.18
211.485	2966.26
211.559	2977.27
211.633	2981.13
211.707	2954.94
211.781	2962.91
211.855	2931.87
211.929	2923.96
212.003	2910.29
212.077	2922.02
212.151	2935.75
212.225	2947.39
212.299	2938.66
212.373	2933.32
212.447	2935.89
212.52	2968.32
212.594	2976.28
212.668	2996.87
212.742	2992.53
212.816	2995.49
212.89	2997.49
212.964	3002.26
213.038	3012.04
213.112	3033.36
213.186	3055.15
213.26	3044.71
213.333	3009.81
213.407	3024.01
213.481	3040.45
213.555	3067.23
213.629	3070.14
213.703	3070.57
213.777	3084.69
213.85	3085.69
213.924	3132.74
213.998	3150.25
214.072	3160.42
214.146	3167.53
214.219	3183.99
214.293	3203.83
214.367	3228.07
214.441	3266.06
214.515	3284.48
214.588	3289.3
214.662	3288.92
214.736	3297.12
214.81	3334.51
214.883	3378.29
214.957	3401.9
215.031	3424.51
215.105	3435.63
215.178	3460.55
215.252	3489.91
215.326	3504.47
215.4	3524.23
215.473	3522.08
215.547	3547.49
215.621	3579.93
215.694	3625.84
215.768	3649.86
215.842	3682.44
215.915	3714.78
215.989	3737.34
216.063	3770.7
216.136	3822.2
216.21	3869.16
216.284	3933.4
216.357	3985.16
216.431	4034.44
216.504	4095.01
216.578	4171.66
216.652	4236.56
216.725	4291.61
216.799	4357.06
216.873	4419.23
216.946	4487.96
217.02	4539.27
217.093	4594.83
217.167	4638.24
217.24	4684.44
217.314	4742.58
217.387	4797.47
217.461	4855.26
217.535	4929.53
217.608	4988.19
217.682	5052.38
217.755	5127.39
217.829	5187.77
217.902	5257.01
217.976	5323.75
218.049	5388.41
218.123	5441.82
218.196	5517.31
218.27	5583.33
218.343	5644.05
218.417	5718.33
218.49	5783.74
218.563	5874.48
218.637	5952.63
218.71	6045.58
218.784	6134.4
218.857	6220.58
218.931	6306.71
219.004	6384.84
219.077	6464.5
219.151	6545.34
219.224	6622.45
219.298	6701.6
219.371	6787.24
219.444	6857.7
219.518	6937.58
219.591	7013.33
219.665	7117.52
219.738	7199.84
219.811	7270.03
219.885	7354.38
219.958	7437.35
220.031	7518.14
220.105	7597.37
220.178	7674.87
220.251	7741.81
220.325	7822.37
220.398	7906.05
220.471	7985.45
220.544	8071.84
220.618	8140.39
220.691	8217.3
220.764	8290.71
220.838	8369.33
220.911	8436.21
220.984	8529.95
221.057	8606.94
221.131	8685.81
221.204	8733.85
221.277	8823.67
221.35	8929.38
221.424	8998.46
221.497	9075.63
221.57	9153.42
221.643	9232.77
221.716	9316.65
221.79	9385.93
221.863	9454.99
221.936	9518.84
222.009	9590.45
222.082	9666.59
222.155	9735.89
222.229	9826.35
222.302	9906.63
222.375	9978.26
222.448	10056.15
222.521	10126.77
222.594	10201.15
222.667	10262.23
222.74	10340.37
222.814	10404.45
222.887	10461.16
222.96	10537.19
223.033	10613.13
223.106	10689.16
223.179	10759.7
223.252	10825.96
223.325	10899.16
223.398	10968.4
223.471	11048.49
223.544	11122.51
223.617	11188.29
223.69	11257.25
223.763	11305.25
223.837	11371.76
223.91	11441.98
223.983	11493.26
224.056	11540.98
224.129	11604.84
224.202	11681.37
224.275	11737.37
224.348	11784.13
224.42	11836.57
224.493	11884.53
224.566	11934.51
224.639	11999.05
224.712	12054.24
224.785	12113.77
224.858	12166.65
224.931	12219.53
225.004	12260.45
225.077	12311.16
225.15	12346.54
225.223	12407.96
225.296	12489.32
225.369	12535.94
225.442	12582.7
225.514	12640.2
225.587	12703.98
225.66	12763.27
225.733	12822.47
225.806	12880.75
225.879	12933.05
225.952	12986.27
226.025	13060.03
226.097	13131.76
226.17	13184.64
226.243	13218.38
226.316	13268.04
226.389	13333.16
226.461	13389.42
226.534	13448.52
226.607	13501.5
226.68	13577.91
226.753	13636.53
226.825	13672.29
226.898	13735.93
226.971	13791.8
227.044	13854.32
227.117	13908.89
227.189	13968.96
227.262	14029.6
227.335	14102
227.407	14161.2
227.48	14224.93
227.553	14275.59
227.626	14322.83
227.698	14375.43
227.771	14439.2
227.844	14484.13
227.916	14534.5
227.989	14578.56
228.062	14632.94
228.134	14711.75
228.207	14766.41
228.28	14807.73
228.352	14853.52
228.425	14898.59
228.498	14951.04
228.57	14993.41
228.643	15054.48
228.716	15102.3
228.788	15139.08
228.861	15170.84
228.934	15227.87
229.006	15270.04
229.079	15319.98
229.151	15352.37
229.224	15382.74
229.296	15436.68
229.369	15508.93
229.442	15564.6
229.514	15606.58
229.587	15662.93
229.659	15689.87
229.732	15733.25
229.804	15784.11
229.877	15861.18
229.949	15916.75
230.022	15982.59
230.094	16029
230.167	16064.62
230.239	16096.87
230.312	16144.73
230.384	16210.81
230.457	16257.37
230.529	16308.55
230.602	16350.29
230.674	16399.6
230.747	16455.36
230.819	16497.44
230.892	16517.2
230.964	16557.11
231.037	16606.27
231.109	16643.96
231.181	16686.42
231.254	16726.76
231.326	16763.63
231.399	16790.42
231.471	16824.79
231.544	16839.49
231.616	16895.01
231.688	16942.19
231.761	16982.48
231.833	17013.47
231.905	17026.92
231.978	17061.47
232.05	17090.44
232.122	17124.41
232.195	17161.33
232.267	17210.01
232.339	17246.97
232.412	17293.96
232.484	17323.31
232.556	17347.6
232.629	17402.1
232.701	17435.5
232.773	17461.77
232.846	17493.96
232.918	17521.91
232.99	17550.92
233.062	17588.51
233.135	17606.3
233.207	17619.4
233.279	17644.22
233.351	17678.49
233.424	17703.55
233.496	17716.8
233.568	17755.79
233.64	17771.35
233.713	17798.29
233.785	17813.28
233.857	17837.33
233.929	17827.64
234.001	17865.47
234.074	17905.33
234.146	17898.48
234.218	17916.46
234.29	17929.52
234.362	17933.18
234.434	17936.99
234.507	17940.22
234.579	17939.16
234.651	17947.25
234.723	17953.81
234.795	17977.13
234.867	17992.36
234.939	18020.65
235.012	18043.2
235.084	18059.87
235.156	18072.84
235.228	18070.09
235.3	18073.99
235.372	18090.67
235.444	18121.9
235.516	18100.89
235.588	18110.72
235.66	18116.74
235.732	18113.7
235.804	18170.38
235.876	18195.43
235.948	18219.05
236.02	18219
236.092	18222.42
236.164	18229.07
236.236	18244.35
236.308	18239.96
236.38	18236.54
236.452	18221.7
236.524	18215.43
236.596	18225.79
236.668	18241.17
236.74	18241.55
236.812	18245.41
236.884	18237.51
236.956	18244.83
237.028	18248.69
237.1	18232.11
237.172	18252.54
237.244	18278.03
237.316	18248.11
237.388	18232.25
237.46	18223.87
237.532	18240.2
237.604	18238.37
237.675	18248.49
237.747	18255.19
237.819	18242.9
237.891	18236.4
237.963	18234.28
238.035	18229.07
238.107	18196.35
238.178	18196.59
238.25	18192.64
238.322	18207.39
238.394	18200.06
238.466	18185.41
238.538	18183
238.609	18182.76
238.681	18146.18
238.753	18123.1
238.825	18105.99
238.897	18109.8
238.968	18118.72
239.04	18107.49
239.112	18121.03
239.184	18109.75
239.255	18091.68
239.327	18096.69
239.399	18092.31
239.471	18088.07
239.542	18082.77
239.614	18080.98
239.686	18044.55
239.758	18049.56
239.829	18024.5
239.901	18013.8
239.973	18000.31
240.044	17995.3
240.116	17977.08
240.188	17965.13
240.259	17949.08
240.331	17925.57
240.403	17914.14
240.474	17874.1
240.546	17845.33
240.618	17799.55
240.689	17765.23
240.761	17749.19
240.833	17733.19
240.904	17712.32
240.976	17687.89
241.048	17675.55
241.119	17661.09
241.191	17642.73
241.262	17626.34
241.334	17599.5
241.405	17578.39
241.477	17554.15
241.549	17525.38
241.62	17510.88
241.692	17494.35
241.763	17482.06
241.835	17463.07
241.906	17431.36
241.978	17396.37
242.049	17397.48
242.121	17397.77
242.192	17393.09
242.264	17355.69
242.335	17320.8
242.407	17301.04
242.478	17273.28
242.55	17246.63
242.621	17225.52
242.693	17200.42
242.764	17171.07
242.836	17148.75
242.907	17127.6
242.979	17106.87
243.05	17085.91
243.122	17070.15
243.193	17048.03
243.264	17002.58
243.336	16976.89
243.407	16965.37
243.479	16957.95
243.55	16935.98
243.622	16908.07
243.693	16880.79
243.764	16878.43
243.836	16846.38
243.907	16817.27
243.978	16793.32
244.05	16777.89
244.121	16727.14
244.192	16718.85
244.264	16679.53
244.335	16655.48
244.407	16611.38
244.478	16591.42
244.549	16567.23
244.62	16521.35
244.692	16496.43
244.763	16478.5
244.834	16448.67
244.906	16414.06
244.977	16397.53
245.048	16378.11
245.119	16346.3
245.191	16311.16
245.262	16257.56
245.333	16240.07
245.405	16219.01
245.476	16194.33
245.547	16170.37
245.618	16156.93
245.689	16127.29
245.761	16099.48
245.832	16064.72
245.903	16046.79
245.974	16016.86
246.045	15985.34
246.117	15973.34
246.188	15923.4
246.259	15892.85
246.33	15862.24
246.401	15826.23
246.473	15778.56
246.544	15739.04
246.615	15724.82
246.686	15690.46
246.757	15677.44
246.828	15631.75
246.899	15612.85
246.97	15571.11
247.042	15527.34
247.113	15507.58
247.184	15501.89
247.255	15469.5
247.326	15446.61
247.397	15419.71
247.468	15395.51
247.539	15364.95
247.61	15320.27
247.681	15312.08
247.752	15288.75
247.823	15259.97
247.894	15238.76
247.965	15202.03
248.037	15171.13
248.108	15125.82
248.179	15098.1
248.25	15068.22
248.321	15060.8
248.392	15025.8
248.463	15027.05
248.534	15001.26
248.605	14974.51
248.675	14931.42
248.746	14916.67
248.817	14903.56
248.888	14881.87
248.959	14834.43
249.03	14809.32
249.101	14793.85
249.172	14765.12
249.243	14717.88
249.314	14702.35
249.385	14681.48
249.456	14663.69
249.527	14636.17
249.598	14611.97
249.669	14586.52
249.739	14568.25
249.81	14541.25
249.881	14499.03
249.952	14461.72
250.023	14431.1
250.094	14384.64
250.165	14354.36
250.235	14322.5
250.306	14287.6
250.377	14247.4
250.448	14234.19
250.519	14192.97
250.59	14180.24
250.66	14147.42
250.731	14136.96
250.802	14106.49
250.873	14077.37
250.944	14050.62
251.014	14021.16
251.085	14017.93
251.156	14003.14
251.227	13982.99
251.297	13973.63
251.368	13954.69
251.439	13936.9
251.51	13927.31
251.58	13907.45
251.651	13880.11
251.722	13867
251.792	13824.05
251.863	13797.25
251.934	13783.65
252.005	13786.64
252.075	13756.9
252.146	13745.67
252.217	13736.8
252.287	13720.79
252.358	13694.18
252.429	13687.53
252.499	13650.7
252.57	13631.37
252.641	13610.2
252.711	13591.36
252.782	13549.66
252.852	13551.01
252.923	13531.15
252.994	13503.48
253.064	13484.48
253.135	13447.07
253.205	13417.57
253.276	13412.94
253.347	13402.72
253.417	13363.68
253.488	13336.58
253.558	13310.02
253.629	13281.68
253.699	13258.25
253.77	13242
253.841	13216.5
253.911	13194.47
253.982	13183.63
254.052	13168.68
254.123	13145.16
254.193	13118.84
254.264	13133.3
254.334	13104.76
254.405	13068.99
254.475	13037.32
254.546	13009.79
254.616	13004.92
254.687	12984.87
254.757	12971.81
254.827	12955.8
254.898	12937.92
254.968	12911.16
255.039	12876.6
255.109	12859.78
255.18	12829.31
255.25	12783.9
255.321	12770.02
255.391	12737
255.461	12726.15
255.532	12673.95
255.602	12650.81
255.673	12614.41
255.743	12582.79
255.813	12529.86
255.884	12521.52
255.954	12506
256.024	12505.81
256.095	12483.68
256.165	12454.08
256.235	12430.66
256.306	12397.68
256.376	12395.13
256.446	12380.47
256.517	12370.98
256.587	12362.83
256.657	12340.8
256.728	12324.56
256.798	12301.9
256.868	12279.54
256.938	12254.13
257.009	12243.72
257.079	12232.35
257.149	12234.8
257.219	12191.37
257.29	12180.77
257.36	12137.05
257.43	12129.92
257.5	12089.38
257.571	12068.31
257.641	12059.54
257.711	12030.81
257.781	12016.4
257.852	12002.57
257.922	11967.14
257.992	11944.73
258.062	11922.41
258.132	11914.17
258.202	11900.53
258.273	11885.58
258.343	11883.51
258.413	11858.83
258.483	11838.3
258.553	11802.53
258.623	11774.77
258.693	11763.44
258.764	11758.67
258.834	11758.38
258.904	11732.26
258.974	11705.41
259.044	11677.12
259.114	11657.65
259.184	11637.65
259.254	11619.04
259.324	11572.96
259.394	11558.7
259.464	11559.04
259.535	11536.33
259.605	11508.77
259.675	11477.92
259.745	11462.55
259.815	11430.78
259.885	11402.59
259.955	11406.78
260.025	11384.76
260.095	11361.39
260.165	11347.36
260.235	11346.25
260.305	11318.11
260.375	11292.13
260.445	11297.67
260.515	11300.18
260.585	11291.6
260.655	11276.8
260.725	11266.83
260.795	11257.62
260.865	11262.73
260.934	11230.87
261.004	11225.62
261.074	11207.4
261.144	11205.33
261.214	11198.49
261.284	11182.68
261.354	11180.42
261.424	11154.78
261.494	11153.04
261.564	11137.48
261.634	11126.63
261.703	11091.36
261.773	11083.4
261.843	11071.6
261.913	11055.02
261.983	11020.37
262.053	11010.93
262.123	10990.83
262.192	10969.39
262.262	10966.54
262.332	10931.75
262.402	10921.44
262.472	10899.9
262.541	10873.68
262.611	10863.32
