Data from 20250630_urea_2M_MAYP1162681_00-02-27-429.txt Node
Date: Tue Jul 01 00:02:27 BST 2025
User: adleo
Spectrometer: MAYP116268
Trigger mode: 0
Integration Time (sec): 1.000000E0
Scans to average: 1
Electric dark correction enabled: true
Nonlinearity correction enabled: true
Boxcar width: 10
XAxis mode: Wavelengths
Number of Pixels in Spectrum: 2068
>>>>>Begin Spectral Data<<<<<
179.565	1092.01
179.642	1142.22
179.718	1181.1
179.795	1216.99
179.871	1246.17
179.948	1260.6
180.024	1280.62
180.101	1301.12
180.177	1313.69
180.254	1332.18
180.33	1352.86
180.407	1397.95
180.483	1486.31
180.56	1566.27
180.636	1645.03
180.712	1634.57
180.789	1645.98
180.865	1657.47
180.942	1664.93
181.018	1675.33
181.095	1687.54
181.171	1691.63
181.248	1691.44
181.324	1706.22
181.4	1714.3
181.477	1725.42
181.553	1737.15
181.63	1755.92
181.706	1773.51
181.782	1780.97
181.859	1780.83
181.935	1785.82
182.011	1782.54
182.088	1797.32
182.164	1820.19
182.24	1829.41
182.317	1837.87
182.393	1834.87
182.469	1847.8
182.546	1861.49
182.622	1865.67
182.698	1861.49
182.775	1874.89
182.851	1887.44
182.927	1881.36
183.003	1877.08
183.08	1870.04
183.156	1879.74
183.232	1878.03
183.308	1865.67
183.385	1872.65
183.461	1890.57
183.537	1892.57
183.613	1903.22
183.69	1893.9
183.766	1880.82
183.842	1887.29
183.918	1891.04
183.995	1901.69
184.071	1902.4
184.147	1896.6
184.223	1883.87
184.299	1895.99
184.375	1886.25
184.452	1894.43
184.528	1946.31
184.604	1954.01
184.68	1966.8
184.756	1974.84
184.832	1977.45
184.908	1982.58
184.985	1983.72
185.061	1969.27
185.137	1977.45
185.213	1967.56
185.289	1970.65
185.365	1963.9
185.441	1965.19
185.517	1976.41
185.593	1974.56
185.669	1977.55
185.745	1985.83
185.822	2001.46
185.898	1991.81
185.974	1998.32
186.05	1990.85
186.126	1950.52
186.202	1946.15
186.278	1942.77
186.354	1934.88
186.43	1940.4
186.506	1936.6
186.582	1936.17
186.658	1942.68
186.734	1922.76
186.81	1926.8
186.886	1926.37
186.962	1937.59
187.038	1931.74
187.114	1925.13
187.19	1932.84
187.266	1921.28
187.341	1923.14
187.417	1918.05
187.493	1919.72
187.569	1923.57
187.645	1915.58
187.721	1906.36
187.797	1913.06
187.873	1915.63
187.949	1908.02
188.025	1900.6
188.101	1904.5
188.176	1907.88
188.252	1904.12
188.328	1912.72
188.404	1912.48
188.48	1909.11
188.556	1902.64
188.632	1904.69
188.707	1901.79
188.783	1898.84
188.859	1895.37
188.935	1885.91
189.011	1894.51
189.086	1892.28
189.162	1886.43
189.238	1887.67
189.314	1884.2
189.39	1875.4
189.465	1870.31
189.541	1886.81
189.617	1873.84
189.693	1868.28
189.768	1871.98
189.844	1893.48
189.92	1885.4
189.996	1894.1
190.071	1905.61
190.147	1904.28
190.223	1912.6
190.298	1909.93
190.374	1898.15
190.45	1908.22
190.526	1917.54
190.601	1909.79
190.677	1908.98
190.753	1935.15
190.828	1936.72
190.904	1952.6
190.98	1967.96
191.055	1976.85
191.131	1966.53
191.207	1988.35
191.282	1996.15
191.358	1986.88
191.433	1974.51
191.509	1987.05
191.585	1982.2
191.66	1983.16
191.736	1990.62
191.811	1980.21
191.887	1995.24
191.963	2019.11
192.038	2024.62
192.114	2026.1
192.189	2029.76
192.265	2025.24
192.34	2000.08
192.416	1998.46
192.491	1991.61
192.567	1998.61
192.642	2001.36
192.718	2004.46
192.793	1990.76
192.869	1988
192.944	1989.9
193.02	1996.7
193.095	1997.89
193.171	2004.03
193.246	2001.6
193.322	2000.7
193.397	2001.03
193.473	1988.57
193.548	1971.45
193.624	1975.54
193.699	1970.21
193.775	1985.76
193.85	1988.85
193.925	2000.93
194.001	2003.36
194.076	1997.41
194.152	1985.38
194.227	1975.82
194.302	1965.79
194.378	1970.78
194.453	1967.93
194.529	1981.43
194.604	1967.17
194.679	1962.7
194.755	1944.45
194.83	1958.67
194.905	1956.67
194.981	1965.28
195.056	1957.01
195.131	1961.57
195.207	1961.38
195.282	1955.01
195.357	1936.89
195.433	1949.78
195.508	1937.6
195.583	1942.02
195.659	1957
195.734	1962.43
195.809	1966.94
195.884	1972.69
195.96	1973.26
196.035	1989.95
196.11	1987.38
196.185	1999.18
196.261	2001.32
196.336	2030.61
196.411	2016.95
196.486	2021.99
196.561	2017.81
196.637	2026.08
196.712	2043.92
196.787	2045.73
196.862	2058.24
196.937	2067.74
197.013	2073.36
197.088	2083.63
197.163	2105.8
197.238	2118.18
197.313	2119.65
197.388	2128.83
197.464	2159.57
197.539	2170.41
197.614	2160.81
197.689	2170.08
197.764	2184.07
197.839	2205.76
197.914	2201.2
197.989	2221.32
198.065	2233.6
198.14	2278.92
198.215	2304.95
198.29	2312.09
198.365	2322.56
198.44	2333.13
198.515	2358.4
198.59	2373.63
198.665	2396.62
198.74	2400.91
198.815	2404.1
198.89	2423.19
198.965	2450.61
199.04	2448.85
199.115	2462.32
199.19	2501.54
199.265	2506.11
199.34	2519.06
199.415	2550.41
199.49	2571.98
199.565	2579.31
199.64	2602.41
199.715	2599.88
199.79	2605.84
199.865	2612.36
199.94	2612.7
200.015	2643.52
200.09	2650.66
200.165	2658.52
200.24	2664.95
200.315	2705.05
200.39	2719.57
200.464	2725.39
200.539	2727.39
200.614	2741.15
200.689	2763.93
200.764	2774.41
200.839	2791.65
200.914	2793.94
200.989	2779.74
201.063	2788.5
201.138	2772.13
201.213	2771.56
201.288	2753.88
201.363	2757.88
201.438	2756.98
201.512	2773.36
201.587	2757.21
201.662	2760.64
201.737	2769.69
201.812	2777.36
201.886	2745.27
201.961	2751.99
202.036	2742.42
202.111	2739.8
202.186	2712.85
202.26	2695.79
202.335	2674.68
202.41	2667.82
202.485	2650.63
202.559	2634.91
202.634	2612.34
202.709	2625
202.784	2606.66
202.858	2607.38
202.933	2590.23
203.008	2586.99
203.082	2567.9
203.157	2565.47
203.232	2524.72
203.306	2503.85
203.381	2473.13
203.456	2452.33
203.53	2434.31
203.605	2413.52
203.68	2389.95
203.754	2382.15
203.829	2367.53
203.904	2347.59
203.978	2335.63
204.053	2340.44
204.127	2330.21
204.202	2327.45
204.277	2308.89
204.351	2303.75
204.426	2294.46
204.5	2286.8
204.575	2252.64
204.65	2262.92
204.724	2254.78
204.799	2261.2
204.873	2257.77
204.948	2256.06
205.022	2241.84
205.097	2233.74
205.171	2249.83
205.246	2260.3
205.32	2261.3
205.395	2259.25
205.469	2250.6
205.544	2253.83
205.618	2237.18
205.693	2247.36
205.767	2237.32
205.842	2256.07
205.916	2249.36
205.991	2241.7
206.065	2248.7
206.14	2265.44
206.214	2258.49
206.289	2253.35
206.363	2264.96
206.438	2267.19
206.512	2275.57
206.586	2297.03
206.661	2304.55
206.735	2280.67
206.81	2279.48
206.884	2292.18
206.958	2283.81
207.033	2300.65
207.107	2310.6
207.181	2339.88
207.256	2334.83
207.33	2354.44
207.405	2365.21
207.479	2384.25
207.553	2393.14
207.628	2376.54
207.702	2385.44
207.776	2383.11
207.851	2386.11
207.925	2403.44
207.999	2402.15
208.073	2399.39
208.148	2402.34
208.222	2389.2
208.296	2420.65
208.371	2437.52
208.445	2449.52
208.519	2475.6
208.593	2482.93
208.668	2478.6
208.742	2481.08
208.816	2480.22
208.89	2490.84
208.965	2490.89
209.039	2499.22
209.113	2516.65
209.187	2536.83
209.261	2535.11
209.336	2548.73
209.41	2565.5
209.484	2561.92
209.558	2584.45
209.632	2600.88
209.707	2610.6
209.781	2633.46
209.855	2650.47
209.929	2663.29
210.003	2669.58
210.077	2667.58
210.151	2718.31
210.226	2748.66
210.3	2774.41
210.374	2798.75
210.448	2803.7
210.522	2813.43
210.596	2821.24
210.67	2831.11
210.744	2878.3
210.818	2909.79
210.892	2933.72
210.966	2931.62
211.041	2949.93
211.115	2947.83
211.189	2966.13
211.263	2983.39
211.337	2994.11
211.411	3006.46
211.485	3003.88
211.559	3017.18
211.633	3024.66
211.707	3001.71
211.781	3013.21
211.855	2988.37
211.929	2986.75
212.003	2976.65
212.077	2993.48
212.151	3014.42
212.225	3033.11
212.299	3032.78
212.373	3032.68
212.447	3040.99
212.52	3085.49
212.594	3109.34
212.668	3135.57
212.742	3141.1
212.816	3157.23
212.89	3171.15
212.964	3192.87
213.038	3222.65
213.112	3256.34
213.186	3298.84
213.26	3303.94
213.333	3294.64
213.407	3328.74
213.481	3372.34
213.555	3421.85
213.629	3450.83
213.703	3474.66
213.777	3513.2
213.85	3539.42
213.924	3616.34
213.998	3666.74
214.072	3711.05
214.146	3750.28
214.219	3805
214.293	3865.19
214.367	3929.43
214.441	4004.67
214.515	4067.65
214.588	4120.72
214.662	4167.1
214.736	4226.45
214.81	4315.07
214.883	4409.97
214.957	4493.05
215.031	4567.3
215.105	4638.91
215.178	4719.18
215.252	4814.3
215.326	4889.62
215.4	4972.06
215.473	5032.49
215.547	5122.86
215.621	5216.24
215.694	5331.34
215.768	5422.93
215.842	5525.37
215.915	5625.94
215.989	5721.29
216.063	5831.06
216.136	5950.43
216.21	6074.43
216.284	6208.04
216.357	6334.75
216.431	6457.75
216.504	6591.48
216.578	6745.08
216.652	6889.61
216.725	7024.51
216.799	7168.98
216.873	7308.42
216.946	7458.21
217.02	7593.45
217.093	7725.62
217.167	7844.24
217.24	7965.26
217.314	8102.55
217.387	8236.74
217.461	8378.18
217.535	8523.48
217.608	8648.59
217.682	8787.39
217.755	8941.22
217.829	9072.55
217.902	9220.98
217.976	9362.19
218.049	9495.86
218.123	9619.25
218.196	9764.16
218.27	9894.88
218.343	10024.07
218.417	10170.47
218.49	10308.92
218.563	10465.97
218.637	10611.33
218.71	10770.08
218.784	10917.72
218.857	11064.97
218.931	11210.11
219.004	11354.25
219.077	11503.89
219.151	11653.38
219.224	11789.97
219.298	11923.58
219.371	12068.9
219.444	12184.24
219.518	12315.68
219.591	12449.63
219.665	12604.46
219.738	12733.21
219.811	12866.01
219.885	12995.2
219.958	13124.34
220.031	13249.34
220.105	13375.15
220.178	13498.08
220.251	13616.86
220.325	13740.94
220.398	13859.38
220.471	13977.58
220.544	14089.27
220.618	14187.47
220.691	14298.68
220.764	14412.58
220.838	14529.05
220.911	14631.96
220.984	14766.89
221.057	14880.94
221.131	14981.34
221.204	15056.54
221.277	15169.43
221.35	15297.07
221.424	15393.28
221.497	15489.2
221.57	15585.32
221.643	15679.98
221.716	15783.03
221.79	15868.11
221.863	15953.08
221.936	16048.13
222.009	16139.37
222.082	16233.65
222.155	16324.4
222.229	16428.37
222.302	16517.87
222.375	16592.23
222.448	16685.83
222.521	16765.16
222.594	16849.21
222.667	16935.44
222.74	17023.92
222.814	17096.55
222.887	17167.64
222.96	17255.11
223.033	17346.67
223.106	17418.58
223.179	17498.48
223.252	17569.57
223.325	17649.66
223.398	17719.45
223.471	17790.05
223.544	17859.54
223.617	17919.15
223.69	17979.63
223.763	18022.09
223.837	18082.81
223.91	18150.57
223.983	18194.57
224.056	18230.42
224.129	18286.76
224.202	18345.64
224.275	18403.42
224.348	18451.18
224.42	18486.75
224.493	18521.88
224.566	18556.14
224.639	18609.58
224.712	18651.65
224.785	18693.19
224.858	18728.51
224.931	18777.62
225.004	18803.3
225.077	18850.96
225.15	18880.22
225.223	18934.43
225.296	19007.63
225.369	19036.16
225.442	19065.07
225.514	19104.44
225.587	19148.83
225.66	19183.19
225.733	19224.48
225.806	19259.23
225.879	19295.23
225.952	19328.24
226.025	19380.23
226.097	19424.95
226.17	19465.1
226.243	19485.1
226.316	19514.54
226.389	19555.45
226.461	19590.87
226.534	19634.34
226.607	19652.94
226.68	19707.97
226.753	19738.91
226.825	19745.37
226.898	19791.49
226.971	19833.94
227.044	19884.35
227.117	19931.92
227.189	19964.98
227.262	20008.49
227.335	20056.97
227.407	20084.01
227.48	20118.51
227.553	20145.98
227.626	20173.36
227.698	20201.31
227.771	20240.78
227.844	20263.72
227.916	20297.5
227.989	20312.1
228.062	20340.63
228.134	20393.21
228.207	20409.55
228.28	20421.06
228.352	20445.64
228.425	20462.85
228.498	20493.01
228.57	20493.3
228.643	20508.44
228.716	20538.08
228.788	20544.82
228.861	20543.47
228.934	20573.35
229.006	20593.5
229.079	20607.57
229.151	20621.55
229.224	20619.28
229.296	20624.2
229.369	20671.67
229.442	20699.82
229.514	20713.45
229.587	20734.32
229.659	20726.37
229.732	20755.82
229.804	20781.55
229.877	20822.33
229.949	20862.57
230.022	20888.55
230.094	20906.62
230.167	20931.88
230.239	20940.98
230.312	20957.18
230.384	20994.87
230.457	21011.06
230.529	21026.63
230.602	21047.4
230.674	21059.84
230.747	21097.72
230.819	21129.14
230.892	21105.57
230.964	21127.17
231.037	21143.79
231.109	21154.93
231.181	21182.01
231.254	21179.75
231.326	21194.25
231.399	21181.29
231.471	21171.84
231.544	21144.9
231.616	21168.13
231.688	21171.02
231.761	21169.62
231.833	21168.71
231.905	21157.82
231.978	21162.3
232.05	21159.65
232.122	21165.09
232.195	21156.61
232.267	21159.99
232.339	21146.88
232.412	21167.12
232.484	21145.77
232.556	21143.45
232.629	21164.9
232.701	21170.4
232.773	21162.06
232.846	21150.78
232.918	21156.76
232.99	21158.92
233.062	21183.02
233.135	21186.11
233.207	21174.11
233.279	21174.83
233.351	21174.69
233.424	21149.38
233.496	21127.94
233.568	21138.83
233.64	21113.04
233.713	21115.02
233.785	21108.37
233.857	21114.83
233.929	21094.15
234.001	21106.15
234.074	21115.16
234.146	21078.44
234.218	21060.17
234.29	21058.68
234.362	21043.83
234.434	21013.13
234.507	20989.27
234.579	20959.87
234.651	20937.56
234.723	20935.73
234.795	20916.4
234.867	20898.14
234.939	20905.32
235.012	20896.98
235.084	20889.56
235.156	20884.4
235.228	20871.72
235.3	20858.23
235.372	20846.86
235.444	20842.9
235.516	20800.59
235.588	20779.62
235.66	20768.59
235.732	20745.31
235.804	20781.84
235.876	20776.49
235.948	20779.43
236.02	20758.76
236.092	20738.08
236.164	20718.13
236.236	20686.18
236.308	20666.71
236.38	20645.99
236.452	20618.52
236.524	20615.72
236.596	20609.17
236.668	20596.35
236.74	20571.82
236.812	20556.54
236.884	20527.28
236.956	20503.48
237.028	20478.75
237.1	20443.67
237.172	20434.71
237.244	20432.15
237.316	20363.81
237.388	20328.82
237.46	20301.74
237.532	20292.39
237.604	20256.29
237.675	20239.43
237.747	20232.68
237.819	20207.28
237.891	20187
237.963	20157.36
238.035	20111.53
238.107	20042.61
238.178	20029.41
238.25	20000.69
238.322	19978.42
238.394	19934.81
238.466	19903.63
238.538	19881.08
238.609	19865.51
238.681	19821.75
238.753	19788.6
238.825	19768.02
238.897	19746.48
238.968	19732.79
239.04	19691.88
239.112	19697.76
239.184	19661.57
239.255	19626.82
239.327	19604.85
239.399	19580.9
239.471	19565.04
239.542	19549.33
239.614	19535.12
239.686	19481.1
239.758	19465.29
239.829	19429.58
239.901	19423.46
239.973	19398.02
240.044	19374.31
240.116	19342.89
240.188	19310.98
240.259	19274.6
240.331	19239.28
240.403	19221.35
240.474	19182.03
240.546	19157.98
240.618	19103.82
240.689	19071.24
240.761	19041.17
240.833	19016.88
240.904	18978.28
240.976	18941.56
241.048	18912.45
241.119	18895.88
241.191	18864.8
241.262	18840.17
241.334	18800.27
241.405	18764.56
241.477	18731.5
241.549	18697.62
241.62	18668.04
241.692	18651.6
241.763	18631.65
241.835	18599.8
241.906	18551.9
241.978	18503.85
242.049	18479.18
242.121	18462.31
242.192	18443.66
242.264	18390.46
242.335	18344.29
242.407	18321.21
242.478	18281.79
242.55	18246.66
242.621	18208.54
242.693	18174.81
242.764	18134.91
242.836	18100.98
242.907	18068.64
242.979	18034.48
243.05	18003.83
243.122	17974.48
243.193	17934.34
243.264	17880.41
243.336	17841.81
243.407	17824.03
243.479	17802.2
243.55	17765.67
243.622	17723.45
243.693	17683.11
243.764	17671.89
243.836	17639.69
243.907	17607.93
243.978	17576.85
244.05	17549.53
244.121	17490.39
244.192	17471.45
244.264	17422.2
244.335	17383.07
244.407	17336.18
244.478	17305.77
244.549	17268.85
244.62	17218.05
244.692	17175.98
244.763	17147.93
244.834	17106.05
244.906	17069.91
244.977	17048.75
245.048	17035.21
245.119	17006.63
245.191	16959.49
245.262	16907.92
245.333	16881.71
245.405	16844.45
245.476	16812.45
245.547	16780.93
245.618	16760.01
245.689	16720.73
245.761	16697.5
245.832	16667.33
245.903	16641.45
245.974	16611.91
246.045	16577.83
246.117	16566.22
246.188	16533.44
246.259	16494.55
246.33	16458.98
246.401	16422.45
246.473	16370.1
246.544	16323.64
246.615	16295.35
246.686	16260.07
246.757	16238.33
246.828	16186.38
246.899	16166.28
246.97	16118.61
247.042	16076.39
247.113	16052.82
247.184	16035.85
247.255	15999.17
247.326	15970.21
247.397	15941.09
247.468	15913.67
247.539	15876.75
247.61	15834.48
247.681	15805.75
247.752	15785.51
247.823	15747.76
247.894	15724.1
247.965	15678.11
248.037	15642.74
248.108	15600.42
248.179	15569.76
248.25	15536.16
248.321	15519.44
248.392	15476.25
248.463	15474.61
248.534	15444.1
248.605	15417.69
248.675	15381.82
248.746	15360.62
248.817	15335.55
248.888	15313.28
248.959	15263.44
249.03	15244.31
249.101	15214.13
249.172	15176.77
249.243	15129.63
249.314	15119.7
249.385	15087.94
249.456	15074.53
249.527	15049.57
249.598	15029.37
249.669	14999.87
249.739	14972.3
249.81	14954.65
249.881	14906.74
249.952	14869.57
250.023	14838.1
250.094	14795.72
250.165	14762.27
250.235	14730.17
250.306	14701.58
250.377	14654.63
250.448	14632.65
250.519	14590.66
250.59	14574.47
250.66	14543.13
250.731	14533.25
250.802	14500.09
250.873	14470.01
250.944	14439.49
251.014	14405.7
251.085	14392.73
251.156	14380.68
251.227	14366.41
251.297	14343.18
251.368	14338.12
251.439	14323.99
251.51	14312.23
251.58	14277.09
251.651	14244.98
251.722	14229.51
251.792	14186.8
251.863	14164.82
251.934	14151.32
252.005	14151.56
252.075	14124.42
252.146	14119.89
252.217	14101.77
252.287	14086.29
252.358	14058.77
252.429	14050.57
252.499	14008.87
252.57	13984.24
252.641	13967.46
252.711	13942.78
252.782	13904.46
252.852	13901.28
252.923	13868.11
252.994	13833.06
253.064	13826.75
253.135	13792.38
253.205	13758.2
253.276	13751.88
253.347	13735.16
253.417	13703.53
253.488	13666.46
253.558	13627.9
253.629	13594.1
253.699	13570.96
253.77	13559.83
253.841	13537.8
253.911	13511.48
253.982	13501.69
254.052	13491.86
254.123	13459.85
254.193	13435.75
254.264	13457.1
254.334	13419.98
254.405	13388.31
254.475	13365.07
254.546	13339.72
254.616	13329.93
254.687	13313.93
254.757	13292.96
254.827	13275.02
254.898	13263.5
254.968	13241.52
255.039	13219.01
255.109	13206.23
255.18	13168.01
255.25	13117.05
255.321	13100.47
255.391	13067.21
255.461	13067.54
255.532	13013.07
255.602	12990.41
255.673	12948.09
255.743	12909.24
255.813	12860.64
255.884	12855.34
255.954	12839.87
256.024	12839.82
256.095	12818.85
256.165	12782.74
256.235	12770.5
256.306	12744.37
256.376	12724.27
256.446	12713.57
256.517	12702.34
256.587	12694.38
256.657	12679.54
256.728	12662.13
256.798	12643.43
256.868	12621.35
256.938	12584.38
257.009	12575.61
257.079	12559.27
257.149	12564.95
257.219	12522.2
257.29	12505.13
257.36	12465.7
257.43	12451.43
257.5	12400.82
257.571	12377.44
257.641	12364.95
257.711	12336.95
257.781	12318.78
257.852	12301.52
257.922	12262.71
257.992	12235.67
258.062	12207.81
258.132	12198.31
258.202	12181.64
258.273	12161.1
258.343	12160.57
258.413	12133.53
258.483	12109.19
258.553	12079.59
258.623	12053.42
258.693	12037.8
258.764	12036.64
258.834	12031.97
258.904	12011.92
258.974	11991.14
259.044	11968.78
259.114	11955.23
259.184	11934.31
259.254	11912.57
259.324	11876.42
259.394	11864.66
259.464	11864.42
259.535	11839.99
259.605	11811.79
259.675	11786.44
259.745	11774.05
259.815	11739.01
259.885	11716.79
259.955	11725.03
260.025	11703
260.095	11683.77
260.165	11677.84
260.235	11675.77
260.305	11651.29
260.375	11619.86
260.445	11624.73
260.515	11622.75
260.585	11612.58
260.655	11586.51
260.725	11585.01
260.795	11565.78
260.865	11566.46
260.934	11540.96
261.004	11532.48
261.074	11514.65
261.144	11511.37
261.214	11495.66
261.284	11476.91
261.354	11465.97
261.424	11436.57
261.494	11443.12
261.564	11426.4
261.634	11407.22
261.703	11373.43
261.773	11358.78
261.843	11354.35
261.913	11330.63
261.983	11293.62
262.053	11279.16
262.123	11264.71
262.192	11232.22
262.262	11234.34
262.332	11196.99
