Data from 20250630_urea_2M_MAYP1162681_09-52-27-599.txt Node
Date: Tue Jul 01 09:52:27 BST 2025
User: adleo
Spectrometer: MAYP116268
Trigger mode: 0
Integration Time (sec): 1.000000E0
Scans to average: 1
Electric dark correction enabled: true
Nonlinearity correction enabled: true
Boxcar width: 10
XAxis mode: Wavelengths
Number of Pixels in Spectrum: 2068
>>>>>Begin Spectral Data<<<<<
179.565	1093.17
179.642	1143.55
179.718	1183.26
179.795	1218.15
179.871	1244.47
179.948	1261.58
180.024	1281.66
180.101	1302.89
180.177	1316.95
180.254	1337.09
180.33	1358.3
180.407	1403.1
180.483	1489.71
180.56	1571.76
180.636	1647.57
180.712	1636.31
180.789	1643.39
180.865	1656.35
180.942	1666.85
181.018	1674.55
181.095	1687.19
181.171	1692.41
181.248	1692.89
181.324	1706.1
181.4	1711.14
181.477	1724.02
181.553	1733.71
181.63	1751.86
181.706	1764.45
181.782	1771.29
181.859	1769.35
181.935	1773.2
182.011	1771.01
182.088	1787.22
182.164	1804.62
182.24	1817.97
182.317	1825.53
182.393	1823.63
182.469	1836.7
182.546	1848.34
182.622	1855.85
182.698	1854.47
182.775	1867.4
182.851	1881.19
182.927	1875.67
183.003	1873.44
183.08	1866.45
183.156	1875.34
183.232	1873.1
183.308	1863.31
183.385	1869.54
183.461	1887.55
183.537	1888.27
183.613	1897.35
183.69	1887.17
183.766	1876.14
183.842	1881.8
183.918	1887.93
183.995	1902.67
184.071	1903.62
184.147	1898.44
184.223	1886.75
184.299	1893.64
184.375	1882.8
184.452	1887.23
184.528	1940.83
184.604	1949.29
184.68	1962.98
184.756	1970.87
184.832	1974.2
184.908	1979.81
184.985	1978.09
185.061	1964.59
185.137	1975.91
185.213	1967.4
185.289	1970.11
185.365	1963.84
185.441	1963.88
185.517	1975.63
185.593	1968.59
185.669	1968.12
185.745	1977.2
185.822	1995.59
185.898	1989.46
185.974	1999.25
186.05	1992.07
186.126	1952.02
186.202	1946.75
186.278	1941.28
186.354	1931.39
186.43	1935.19
186.506	1933.39
186.582	1935.48
186.658	1941.8
186.734	1921.22
186.81	1923.45
186.886	1925.78
186.962	1938.47
187.038	1933.53
187.114	1924.63
187.19	1933.71
187.266	1924.11
187.341	1925.82
187.417	1915.32
187.493	1915.7
187.569	1916.03
187.645	1911.33
187.721	1900.77
187.797	1907.99
187.873	1912.56
187.949	1908.52
188.025	1905.19
188.101	1907.42
188.176	1911.7
188.252	1906
188.328	1910.89
188.404	1909.04
188.48	1904.29
188.556	1896.06
188.632	1896.35
188.707	1897.3
188.783	1892.92
188.859	1888.31
188.935	1877.9
189.011	1885.65
189.086	1881.27
189.162	1871.96
189.238	1869.91
189.314	1867.54
189.39	1861.07
189.465	1854.42
189.541	1868.44
189.617	1853.14
189.693	1849.14
189.768	1852.19
189.844	1873.49
189.92	1868.12
189.996	1879.15
190.071	1889.32
190.147	1889.99
190.223	1899.55
190.298	1893.03
190.374	1881.39
190.45	1891.41
190.526	1900.26
190.601	1896.17
190.677	1897.17
190.753	1925.75
190.828	1931.17
190.904	1945.44
190.98	1959.7
191.055	1967.64
191.131	1960.03
191.207	1979.86
191.282	1990.46
191.358	1981.66
191.433	1969.34
191.509	1981.27
191.585	1975.52
191.66	1975.66
191.736	1982.94
191.811	1973.05
191.887	1987.79
191.963	2010.42
192.038	2018.6
192.114	2015.18
192.189	2019.88
192.265	2015.04
192.34	1995.29
192.416	1992.06
192.491	1985.35
192.567	1990.54
192.642	1994.77
192.718	1994.63
192.793	1984.5
192.869	1980.55
192.944	1983.41
193.02	1993.39
193.095	1996.34
193.171	2003.19
193.246	2006.09
193.322	2003.48
193.397	2003.71
193.473	1988.92
193.548	1972.8
193.624	1973.89
193.699	1975.84
193.775	1989.35
193.85	1993.25
193.925	1999.72
194.001	1997.1
194.076	1991.83
194.152	1979.22
194.227	1970.95
194.302	1960.25
194.378	1962.3
194.453	1956.88
194.529	1970.72
194.604	1954.26
194.679	1948.75
194.755	1933.2
194.83	1939.29
194.905	1937.34
194.981	1948.23
195.056	1943.86
195.131	1946.62
195.207	1946.57
195.282	1937.01
195.357	1918.28
195.433	1933.3
195.508	1919.65
195.583	1928.5
195.659	1942.14
195.734	1949.42
195.809	1950.47
195.884	1961.92
195.96	1965.72
196.035	1980.8
196.11	1975.66
196.185	1986.79
196.261	1989.45
196.336	2017.08
196.411	2008.85
196.486	2013.7
196.561	2006.61
196.637	2012.65
196.712	2027.77
196.787	2028.73
196.862	2040.75
196.937	2052.12
197.013	2057.07
197.088	2067.62
197.163	2087.79
197.238	2102.26
197.313	2103.5
197.388	2115.82
197.464	2145.61
197.539	2152.98
197.614	2147.89
197.689	2156.31
197.764	2170.39
197.839	2189.95
197.914	2184.76
197.989	2203.89
198.065	2216.54
198.14	2265.39
198.215	2295.04
198.29	2307.32
198.365	2322.55
198.44	2335.06
198.515	2358.57
198.59	2372.52
198.665	2398.27
198.74	2405.36
198.815	2410.56
198.89	2431.55
198.965	2460.5
199.04	2453.45
199.115	2467.35
199.19	2507.15
199.265	2511.43
199.34	2522.86
199.415	2554.73
199.49	2576.15
199.565	2584.39
199.64	2608.49
199.715	2605.25
199.79	2608.01
199.865	2615.06
199.94	2615.72
200.015	2644.35
200.09	2652.21
200.165	2656.98
200.24	2664.31
200.315	2703.07
200.39	2714.74
200.464	2719.93
200.539	2721.08
200.614	2737.84
200.689	2760.9
200.764	2766.67
200.839	2782.57
200.914	2786.96
200.989	2775.71
201.063	2783.81
201.138	2768.48
201.213	2767.24
201.288	2750.04
201.363	2757.85
201.438	2757.85
201.512	2770.57
201.587	2755.27
201.662	2754.89
201.737	2764.52
201.812	2772.43
201.886	2741.62
201.961	2749.54
202.036	2738.44
202.111	2733.96
202.186	2705.77
202.26	2688.71
202.335	2670.61
202.41	2663.61
202.485	2647.08
202.559	2630.74
202.634	2607.84
202.709	2616.69
202.784	2597.78
202.858	2594.69
202.933	2575.45
203.008	2569.87
203.082	2549.11
203.157	2549.45
203.232	2513.89
203.306	2496.5
203.381	2463.92
203.456	2442.5
203.53	2423.86
203.605	2404.88
203.68	2382.68
203.754	2376.93
203.829	2360.89
203.904	2340.08
203.978	2331.75
204.053	2335.99
204.127	2323.71
204.202	2322.47
204.277	2306.44
204.351	2300.15
204.426	2292.2
204.5	2284.16
204.575	2252.42
204.65	2264.14
204.724	2256.09
204.799	2262.46
204.873	2258.65
204.948	2258.08
205.022	2247.62
205.097	2237.19
205.171	2250.79
205.246	2260.6
205.32	2260.93
205.395	2265.69
205.469	2256.28
205.544	2259.18
205.618	2245.24
205.693	2257.47
205.767	2247.71
205.842	2265.08
205.916	2258.76
205.991	2253.71
206.065	2258.33
206.14	2270.98
206.214	2267.03
206.289	2259.7
206.363	2270.97
206.438	2273.64
206.512	2279.92
206.586	2296
206.661	2305.38
206.735	2284.26
206.81	2281.22
206.884	2297.11
206.958	2282.74
207.033	2297.53
207.107	2306.67
207.181	2333.14
207.256	2324.2
207.33	2342.04
207.405	2355.86
207.479	2377.47
207.553	2382.51
207.628	2368.43
207.702	2381.09
207.776	2373.47
207.851	2376.47
207.925	2388.23
207.999	2386.56
208.073	2385.57
208.148	2386.8
208.222	2375.71
208.296	2407.73
208.371	2426.74
208.445	2437.21
208.519	2466.06
208.593	2480.72
208.668	2476.53
208.742	2479.68
208.816	2482.01
208.89	2495.2
208.965	2492.15
209.039	2498.92
209.113	2514.01
209.187	2533.37
209.261	2528.81
209.336	2547.28
209.41	2563.37
209.484	2562.66
209.558	2579.85
209.632	2592.85
209.707	2603.71
209.781	2620.42
209.855	2633.38
209.929	2647.35
210.003	2651.59
210.077	2646.45
210.151	2688.79
210.226	2722.06
210.3	2748.19
210.374	2769.76
210.448	2772.86
210.522	2782.39
210.596	2792.3
210.67	2800.07
210.744	2845.25
210.818	2875.6
210.892	2895.57
210.966	2896.28
211.041	2912.72
211.115	2910.1
211.189	2934.5
211.263	2950.56
211.337	2959.81
211.411	2973.87
211.485	2970.87
211.559	2981.45
211.633	2988.88
211.707	2960.07
211.781	2965.37
211.855	2934.28
211.929	2926.04
212.003	2911.08
212.077	2925.43
212.151	2938.83
212.225	2955.9
212.299	2947.74
212.373	2942.93
212.447	2942.12
212.52	2972.83
212.594	2981.03
212.668	2997.81
212.742	2988.08
212.816	2990.61
212.89	2991.23
212.964	2996.62
213.038	3006.06
213.112	3025.85
213.186	3048.07
213.26	3039.11
213.333	3006.22
213.407	3021.42
213.481	3041.72
213.555	3066.69
213.629	3066.02
213.703	3066.11
213.777	3078.85
213.85	3079.14
213.924	3125.57
213.998	3143.61
214.072	3155.87
214.146	3164.46
214.219	3179.54
214.293	3198.85
214.367	3225.81
214.441	3261.79
214.515	3279.97
214.588	3281.69
214.662	3277.97
214.736	3286.65
214.81	3327.62
214.883	3370.58
214.957	3395.44
215.031	3416.33
215.105	3430.79
215.178	3453.08
215.252	3481.67
215.326	3490.69
215.4	3506.68
215.473	3498.85
215.547	3520.58
215.621	3547
215.694	3593.96
215.768	3616.69
215.842	3648.02
215.915	3681.08
215.989	3702.63
216.063	3739.39
216.136	3789.93
216.21	3840.86
216.284	3902.56
216.357	3950.45
216.431	3995.37
216.504	4054.27
216.578	4127.37
216.652	4191.18
216.725	4250.62
216.799	4314.48
216.873	4374.88
216.946	4445.22
217.02	4504.48
217.093	4564.52
217.167	4608.07
217.24	4656.38
217.314	4717.71
217.387	4776.19
217.461	4832.45
217.535	4910.02
217.608	4964.9
217.682	5027.35
217.755	5099.92
217.829	5157.22
217.902	5229.43
217.976	5298.85
218.049	5353.44
218.123	5406.02
218.196	5482.57
218.27	5544.61
218.343	5598.26
218.417	5673.21
218.49	5742.98
218.563	5827.97
218.637	5904.77
218.71	5999.05
218.784	6080.82
218.857	6165.26
218.931	6249.66
219.004	6324.33
219.077	6403.61
219.151	6479.69
219.224	6554.73
219.298	6629.69
219.371	6709.79
219.444	6770.54
219.518	6848.44
219.591	6930.67
219.665	7036.43
219.738	7109.75
219.811	7176.96
219.885	7268.7
219.958	7352.18
220.031	7426.39
220.105	7505.95
220.178	7585.28
220.251	7653.85
220.325	7743.41
220.398	7825.25
220.471	7901.23
220.544	7992.66
220.618	8060.44
220.691	8145.19
220.764	8224.66
220.838	8306.64
220.911	8384.25
220.984	8477.68
221.057	8560.59
221.131	8636.61
221.204	8687.92
221.277	8782.41
221.35	8888.58
221.424	8955.01
221.497	9030.35
221.57	9104.18
221.643	9178.42
221.716	9263.75
221.79	9330.86
221.863	9392.6
221.936	9463.24
222.009	9536.34
222.082	9601.5
222.155	9673.2
222.229	9759.9
222.302	9842.31
222.375	9916.3
222.448	9993.46
222.521	10068.56
222.594	10134.51
222.667	10199.1
222.74	10275.6
222.814	10337.8
222.887	10409.93
222.96	10496.32
223.033	10571.58
223.106	10650.59
223.179	10722.05
223.252	10780.79
223.325	10856
223.398	10925.92
223.471	10998.88
223.544	11068.8
223.617	11138.53
223.69	11210.67
223.763	11260.65
223.837	11321.13
223.91	11380.75
223.983	11427.26
224.056	11474.39
224.129	11546.93
224.202	11627.27
224.275	11680.86
224.348	11722.07
224.42	11762.51
224.493	11798.37
224.566	11844.83
224.639	11909.37
224.712	11966.11
224.785	12025.49
224.858	12083.72
224.931	12135.73
225.004	12181.52
225.077	12238.74
225.15	12274.17
225.223	12324.93
225.296	12401.72
225.369	12445.05
225.442	12497.74
225.514	12564.69
225.587	12632.08
225.66	12681.83
225.733	12731.77
225.806	12793.86
225.879	12858.26
225.952	12912.11
226.025	12987.79
226.097	13066.36
226.17	13121.85
226.243	13158.49
226.316	13213.83
226.389	13269.51
226.461	13331.16
226.534	13397.2
226.607	13449.27
226.68	13530.64
226.753	13587.72
226.825	13625.94
226.898	13699.89
226.971	13754.17
227.044	13816.55
227.117	13867.94
227.189	13939.67
227.262	14010.1
227.335	14068.81
227.407	14123.05
227.48	14178.15
227.553	14231.12
227.626	14276.44
227.698	14321.8
227.771	14385.38
227.844	14431.18
227.916	14478.9
227.989	14513.27
228.062	14562.78
228.134	14645.98
228.207	14689.07
228.28	14736.41
228.352	14781.24
228.425	14826.74
228.498	14891.72
228.57	14929.03
228.643	14996.9
228.716	15034.74
228.788	15065.78
228.861	15110.23
228.934	15167.2
229.006	15217.33
229.079	15263.94
229.151	15305.11
229.224	15338.61
229.296	15392.21
229.369	15463.26
229.442	15526.06
229.514	15573.78
229.587	15623.24
229.659	15640.98
229.732	15697.8
229.804	15750.58
229.877	15821.1
229.949	15876.72
230.022	15936
230.094	15979.09
230.167	16018.62
230.239	16057.8
230.312	16105.66
230.384	16171.02
230.457	16221.34
230.529	16272.14
230.602	16318.27
230.674	16364.78
230.747	16428.93
230.819	16483.87
230.892	16491.44
230.964	16535.83
231.037	16583.45
231.109	16623.69
231.181	16667.65
231.254	16693.53
231.326	16733.72
231.399	16764.76
231.471	16799.94
231.544	16812.23
231.616	16861.83
231.688	16899.47
231.761	16923.18
231.833	16954.7
231.905	16967.42
231.978	16990.55
232.05	17009.88
232.122	17039.81
232.195	17067.23
232.267	17103.47
232.339	17126.51
232.412	17186.27
232.484	17208.97
232.556	17234.9
232.629	17291.72
232.701	17337.11
232.773	17372.15
232.846	17401.69
232.918	17431.09
232.99	17461.16
233.062	17507.23
233.135	17534.46
233.207	17545.6
233.279	17589.69
233.351	17630.32
233.424	17660.15
233.496	17678.7
233.568	17731.86
233.64	17745.06
233.713	17770.46
233.785	17793.16
233.857	17815.33
233.929	17822.65
234.001	17859.38
234.074	17892.63
234.146	17888.24
234.218	17894.89
234.29	17914.8
234.362	17921.06
234.434	17930.02
234.507	17931.23
234.579	17923.71
234.651	17941.45
234.723	17964.05
234.795	17980.48
234.867	17983.9
234.939	18007.42
235.012	18028.67
235.084	18038.74
235.156	18056.57
235.228	18071.56
235.3	18073.06
235.372	18085.1
235.444	18107.46
235.516	18100.04
235.588	18109.49
235.66	18119.03
235.732	18123.56
235.804	18178.11
235.876	18201.68
235.948	18220.71
236.02	18234.3
236.092	18246.59
236.164	18251.75
236.236	18256.23
236.308	18253.82
236.38	18268.28
236.452	18264.47
236.524	18274.68
236.596	18295.21
236.668	18313.72
236.74	18308.66
236.812	18318.3
236.884	18330.06
236.956	18323.98
237.028	18313.53
237.1	18311.89
237.172	18321.24
237.244	18336.71
237.316	18298.97
237.388	18277.24
237.46	18257.38
237.532	18262.4
237.604	18242.44
237.675	18244.32
237.747	18243.99
237.819	18232.47
237.891	18219.6
237.963	18207.51
238.035	18194.59
238.107	18151.85
238.178	18146.93
238.25	18143.46
238.322	18155.61
238.394	18130.69
238.466	18119.61
238.538	18124.43
238.609	18115.99
238.681	18089.97
238.753	18068.86
238.825	18061.54
238.897	18064.96
238.968	18082.6
239.04	18064.38
239.112	18090.64
239.184	18069.34
239.255	18054.5
239.327	18055.22
239.399	18051.95
239.471	18050.6
239.542	18049.73
239.614	18049.01
239.686	18010.94
239.758	18012.09
239.829	17989.59
239.901	17987.23
239.973	17981.4
240.044	17967.85
240.116	17952.34
240.188	17945.16
240.259	17937.64
240.331	17915.86
240.403	17906.22
240.474	17869.35
240.546	17852.44
240.618	17812.77
240.689	17791.28
240.761	17783.28
240.833	17777.98
240.904	17754.9
240.976	17728.05
241.048	17703.09
241.119	17695.67
241.191	17687.72
241.262	17666.71
241.334	17641.36
241.405	17620.1
241.477	17588.88
241.549	17566.95
241.62	17552.68
241.692	17524.39
241.763	17513.31
241.835	17495
241.906	17467.77
241.978	17436.25
242.049	17418.76
242.121	17408.25
242.192	17404.78
242.264	17371.09
242.335	17330.66
242.407	17316.88
242.478	17290.66
242.55	17271.38
242.621	17241.69
242.693	17215.09
242.764	17187.62
242.836	17158.66
242.907	17138.75
242.979	17120.39
243.05	17102.65
243.122	17084.78
243.193	17065.59
243.264	17009.16
243.336	16982.02
243.407	16971.23
243.479	16970.17
243.55	16956.92
243.622	16936.53
243.693	16902.26
243.764	16890.26
243.836	16852.04
243.907	16818.64
243.978	16796.47
244.05	16775.03
244.121	16727.36
244.192	16714.64
244.264	16686.83
244.335	16660.9
244.407	16624.32
244.478	16599.01
244.549	16565.13
244.62	16518
244.692	16494.24
244.763	16491.15
244.834	16455.82
244.906	16420.69
244.977	16392.54
245.048	16361.89
245.119	16322.08
245.191	16289.21
245.262	16238.45
245.333	16229.68
245.405	16207.32
245.476	16183.32
245.547	16154.69
245.618	16141.05
245.689	16112.51
245.761	16082.15
245.832	16056.27
245.903	16031.25
245.974	16010.48
246.045	15978.62
246.117	15970.95
246.188	15929.02
246.259	15879.13
246.33	15852.53
246.401	15811.85
246.473	15754.78
246.544	15734.29
246.615	15720.56
246.686	15682
246.757	15668.02
246.828	15624.2
246.899	15603.81
246.97	15559.32
247.042	15521.82
247.113	15501.77
247.184	15490.01
247.255	15459.45
247.326	15433.57
247.397	15405.27
247.468	15380.21
247.539	15355.05
247.61	15307.71
247.681	15288.91
247.752	15272.86
247.823	15233.34
247.894	15215.79
247.965	15186.82
248.037	15145.51
248.108	15097.74
248.179	15075.86
248.25	15048.72
248.321	15029.25
248.392	14990.64
248.463	14986.88
248.534	14961.57
248.605	14940.6
248.675	14908.31
248.746	14879.96
248.817	14854.37
248.888	14828.63
248.959	14777.77
249.03	14752.22
249.101	14729.08
249.172	14697.56
249.243	14654.7
249.314	14646.32
249.385	14613.68
249.456	14597.34
249.527	14571.31
249.598	14552.99
249.669	14521.66
249.739	14492.06
249.81	14475.62
249.881	14435.85
249.952	14410.64
250.023	14381.77
250.094	14340.89
250.165	14305.31
250.235	14279.33
250.306	14254.12
250.377	14222.26
250.448	14206.06
250.519	14165.86
250.59	14156.41
250.66	14132.54
250.731	14127.43
250.802	14097.5
250.873	14085.11
250.944	14064.29
251.014	14029.87
251.085	14024.85
251.156	14011.64
251.227	14003.79
251.297	13991.3
251.368	13982.77
251.439	13959.68
251.51	13950.76
251.58	13913.06
251.651	13883.7
251.722	13873.73
251.792	13831.55
251.863	13801.8
251.934	13789.08
252.005	13792.31
252.075	13768.06
252.146	13756.1
252.217	13749.35
252.287	13738.12
252.358	13705.49
252.429	13699.07
252.499	13669.09
252.57	13656.51
252.641	13637.66
252.711	13613.46
252.782	13566.99
252.852	13560.53
252.923	13538.11
252.994	13514.35
253.064	13510.01
253.135	13471.73
253.205	13436.69
253.276	13430.13
253.347	13424.59
253.417	13390.74
253.488	13353.05
253.558	13321.91
253.629	13297.8
253.699	13267.09
253.77	13247.62
253.841	13225.88
253.911	13196.62
253.982	13177.19
254.052	13151.16
254.123	13131.78
254.193	13102.13
254.264	13126.43
254.334	13087.57
254.405	13050.55
254.475	13019.8
254.546	12995.5
254.616	12989.72
254.687	12972.6
254.757	12952.74
254.827	12930.57
254.898	12920.54
254.968	12905.4
255.039	12877.44
255.109	12851.46
255.18	12815.4
255.25	12767.78
255.321	12749.27
255.391	12720.54
255.461	12728.39
255.532	12679.22
255.602	12653.24
255.673	12615.64
255.743	12571.05
255.813	12528.68
255.884	12518.36
255.954	12498.31
256.024	12490.02
256.095	12473.92
256.165	12446.11
256.235	12439.84
256.306	12407.78
256.376	12391.44
256.446	12373.46
256.517	12362.33
256.587	12359
256.657	12343.53
256.728	12330.66
256.798	12306.75
256.868	12279.27
256.938	12239.99
257.009	12228.9
257.079	12216.51
257.149	12221.57
257.219	12185.04
257.29	12168.74
257.36	12133.8
257.43	12124.11
257.5	12084.97
257.571	12059.71
257.641	12040.96
257.711	11995.6
257.781	11982.83
257.852	11962.68
257.922	11934.1
257.992	11909.95
258.062	11889.37
258.132	11884.06
258.202	11864.64
258.273	11855.53
258.343	11856.11
258.413	11836.83
258.483	11824.83
258.553	11792.72
258.623	11764.05
258.693	11750.21
258.764	11750.41
258.834	11751.42
258.904	11737.54
258.974	11710.5
259.044	11684.76
259.114	11675.65
259.184	11671.55
259.254	11648.66
259.324	11606.83
259.394	11590.63
259.464	11590.34
259.535	11556.12
259.605	11524.12
259.675	11494.77
259.745	11477.61
259.815	11446.18
259.885	11418.42
259.955	11413.36
260.025	11387.44
260.095	11370.42
260.165	11352.11
260.235	11344.49
260.305	11311.34
260.375	11276.59
260.445	11282.42
260.515	11276.73
260.585	11266.37
260.655	11241.65
260.725	11235.91
260.795	11231.81
260.865	11233.65
260.934	11200.44
261.004	11201.98
261.074	11186.42
261.144	11189.45
261.214	11169.5
261.284	11153.69
261.354	11149.45
261.424	11125.31
261.494	11131.33
261.564	11116
261.634	11113.26
261.703	11074.66
261.773	11064.97
261.843	11050.85
261.913	11025.02
261.983	10999.53
262.053	10991.77
262.123	10972.49
262.192	10940.35
262.262	10934.33
262.332	10906.38
262.402	10897.37
262.472	10880.31
262.541	10846.82
