Data from 20250630_urea_2M_MAYP1162681_22-22-26-901.txt Node
Date: Mon Jun 30 22:22:26 BST 2025
User: adleo
Spectrometer: MAYP116268
Trigger mode: 0
Integration Time (sec): 1.000000E0
Scans to average: 1
Electric dark correction enabled: true
Nonlinearity correction enabled: true
Boxcar width: 10
XAxis mode: Wavelengths
Number of Pixels in Spectrum: 2068
>>>>>Begin Spectral Data<<<<<
179.565	1122.14
179.642	1172.48
179.718	1211.54
179.795	1247.73
179.871	1273.9
179.948	1288.45
180.024	1307.45
180.101	1329.88
180.177	1345.12
180.254	1365.37
180.33	1386.35
180.407	1430.97
180.483	1518.52
180.56	1601.33
180.636	1679.99
180.712	1668.44
180.789	1679.33
180.865	1690.44
180.942	1699.51
181.018	1707.45
181.095	1719.76
181.171	1723.09
181.248	1722.75
181.324	1737.68
181.4	1744.43
181.477	1757.26
181.553	1770.18
181.63	1791.28
181.706	1804.3
181.782	1811.95
181.859	1811.67
181.935	1815.99
182.011	1813.86
182.088	1831.78
182.164	1851.22
182.24	1863.01
182.317	1874.08
182.393	1871.18
182.469	1882.73
182.546	1895.14
182.622	1897.37
182.698	1895.23
182.775	1906.12
182.851	1920.52
182.927	1914.44
183.003	1910.87
183.08	1906.31
183.156	1914.63
183.232	1910.4
183.308	1899.27
183.385	1907.12
183.461	1924.23
183.537	1925.37
183.613	1938.4
183.69	1931.27
183.766	1919.33
183.842	1925.7
183.918	1930.5
183.995	1943.1
184.071	1946.62
184.147	1939.44
184.223	1933.36
184.299	1942.77
184.375	1931.41
184.452	1936.26
184.528	1987.63
184.604	1997.71
184.68	2008.69
184.756	2015.39
184.832	2018.34
184.908	2024.81
184.985	2023
185.061	2008.5
185.137	2019.01
185.213	2006.93
185.289	2007.74
185.365	2003.32
185.441	2000.99
185.517	2015.45
185.593	2013.36
185.669	2010.41
185.745	2021.02
185.822	2035.8
185.898	2026.86
185.974	2037.6
186.05	2032.37
186.126	1994.46
186.202	1986
186.278	1983.76
186.354	1976.01
186.43	1983.86
186.506	1979.87
186.582	1979.11
186.658	1984.53
186.734	1963.8
186.81	1969.98
186.886	1970.74
186.962	1984.29
187.038	1984.05
187.114	1972.78
187.19	1978.2
187.266	1971.11
187.341	1972.59
187.417	1964.84
187.493	1967.41
187.569	1970.26
187.645	1964.13
187.721	1953.62
187.797	1962.6
187.873	1963.84
187.949	1958.51
188.025	1951.62
188.101	1956.65
188.176	1963.31
188.252	1957.94
188.328	1965.26
188.404	1961.69
188.48	1957.75
188.556	1949.43
188.632	1950
188.707	1951.14
188.783	1947.67
188.859	1943.06
188.935	1932.69
189.011	1940.96
189.086	1933.88
189.162	1927.7
189.238	1927.55
189.314	1924.61
189.39	1918.09
189.465	1913.29
189.541	1928.79
189.617	1915.05
189.693	1909.49
189.768	1911.92
189.844	1936.79
189.92	1930.04
189.996	1940.46
190.071	1950.44
190.147	1948.97
190.223	1956.2
190.298	1946.45
190.374	1935.18
190.45	1945.69
190.526	1952.96
190.601	1950.96
190.677	1953.29
190.753	1978.51
190.828	1980.6
190.904	1995.06
190.98	2010.8
191.055	2021.35
191.131	2015.5
191.207	2034.48
191.282	2044.13
191.358	2035.19
191.433	2021.72
191.509	2035.7
191.585	2032.42
191.66	2034.08
191.736	2040.69
191.811	2032.03
191.887	2049.39
191.963	2075.7
192.038	2081.83
192.114	2083.54
192.189	2083.26
192.265	2078.03
192.34	2057.71
192.416	2055.91
192.491	2053.72
192.567	2057.05
192.642	2057.76
192.718	2056.86
192.793	2043.4
192.869	2039.36
192.944	2041.07
193.02	2049.3
193.095	2050.2
193.171	2055.62
193.246	2052.25
193.322	2050.49
193.397	2050.68
193.473	2035.55
193.548	2016.14
193.624	2022.19
193.699	2020.47
193.775	2037.7
193.85	2038.88
193.925	2045.64
194.001	2044.73
194.076	2035.7
194.152	2024.28
194.227	2017.24
194.302	2006.93
194.378	2012.49
194.453	2011.63
194.529	2024.76
194.604	2010.59
194.679	2006.45
194.755	1988
194.83	2002.7
194.905	2001.9
194.981	2008.7
195.056	2004.28
195.131	2010.65
195.207	2006.22
195.282	1997.05
195.357	1977.92
195.433	1993.42
195.508	1984.24
195.583	1991.57
195.659	2004.79
195.734	2011.54
195.809	2010.26
195.884	2019.67
195.96	2019.34
196.035	2033.08
196.11	2028.42
196.185	2037.17
196.261	2038.5
196.336	2069.41
196.411	2055.62
196.486	2056.52
196.561	2051.53
196.637	2060.75
196.712	2073.26
196.787	2075.17
196.862	2091.34
196.937	2100.71
197.013	2107.7
197.088	2117.16
197.163	2140.43
197.238	2157.19
197.313	2157.57
197.388	2173.22
197.464	2202.49
197.539	2214.05
197.614	2206.34
197.689	2215.14
197.764	2232.8
197.839	2253.5
197.914	2247.64
197.989	2269.39
198.065	2286.04
198.14	2335.56
198.215	2359.31
198.29	2371.41
198.365	2384.4
198.44	2391.01
198.515	2416.24
198.59	2430.67
198.665	2455.09
198.74	2461.09
198.815	2463
198.89	2481.47
198.965	2509.57
199.04	2504.71
199.115	2519.51
199.19	2562.22
199.265	2566.65
199.34	2576.75
199.415	2608.34
199.49	2629.14
199.565	2635.67
199.64	2659.06
199.715	2653.72
199.79	2661.43
199.865	2667.29
199.94	2667.01
200.015	2698.64
200.09	2704.64
200.165	2711.41
200.24	2716.65
200.315	2755.84
200.39	2770
200.464	2776.19
200.539	2774.19
200.614	2790.81
200.689	2811.49
200.764	2813.07
200.839	2829.59
200.914	2833.07
200.989	2820.2
201.063	2829.44
201.138	2814.06
201.213	2810.39
201.288	2793
201.363	2798.72
201.438	2796.43
201.512	2811.06
201.587	2795.33
201.662	2797
201.737	2808.43
201.812	2815.39
201.886	2781.06
201.961	2792.07
202.036	2783.35
202.111	2781.35
202.186	2752.63
202.26	2738.24
202.335	2719.56
202.41	2713.23
202.485	2696.99
202.559	2682.17
202.634	2661.16
202.709	2670.5
202.784	2654.92
202.858	2654.92
202.933	2638.25
203.008	2636.2
203.082	2617.67
203.157	2616.53
203.232	2577.3
203.306	2554.81
203.381	2526.71
203.456	2504.38
203.53	2479.54
203.605	2461.55
203.68	2444.02
203.754	2438.89
203.829	2425.12
203.904	2406.84
203.978	2396.32
204.053	2402.32
204.127	2388.66
204.202	2385.09
204.277	2369.81
204.351	2362.48
204.426	2356.29
204.5	2345.49
204.575	2313.79
204.65	2323.36
204.724	2317.26
204.799	2328.11
204.873	2325.87
204.948	2323.49
205.022	2315.26
205.097	2306.6
205.171	2317.97
205.246	2321.87
205.32	2321.49
205.395	2319.06
205.469	2312.55
205.544	2318.07
205.618	2298.94
205.693	2309.88
205.767	2302.08
205.842	2321.17
205.916	2314.03
205.991	2306.03
206.065	2313.36
206.14	2326.87
206.214	2322.4
206.289	2314.4
206.363	2323.87
206.438	2325.87
206.512	2333.82
206.586	2350.57
206.661	2360.52
206.735	2340.45
206.81	2340.49
206.884	2354.96
206.958	2344.64
207.033	2358.62
207.107	2365.96
207.181	2395.95
207.256	2390.57
207.33	2405.57
207.405	2415.57
207.479	2437.13
207.553	2443.32
207.628	2426.72
207.702	2436.43
207.776	2431.71
207.851	2433.14
207.925	2447.38
207.999	2443.57
208.073	2441.53
208.148	2446.29
208.222	2432.43
208.296	2461.98
208.371	2480.66
208.445	2490.61
208.519	2518.84
208.593	2529.98
208.668	2525.7
208.742	2527.17
208.816	2529.08
208.89	2543.32
208.965	2545.7
209.039	2554.71
209.113	2570.38
209.187	2591.36
209.261	2588.65
209.336	2606.08
209.41	2626.13
209.484	2624.37
209.558	2646.85
209.632	2660.33
209.707	2667.52
209.781	2690.38
209.855	2706.97
209.929	2719.55
210.003	2723.94
210.077	2724.56
210.151	2773.63
210.226	2806.76
210.3	2834.08
210.374	2857.8
210.448	2860.57
210.522	2869.24
210.596	2878.82
210.67	2887.26
210.744	2932.31
210.818	2965.81
210.892	2985.97
210.966	2980.02
211.041	2999.51
211.115	2999.37
211.189	3020.53
211.263	3043.46
211.337	3052.95
211.411	3069.55
211.485	3066.45
211.559	3081.27
211.633	3088.09
211.707	3059.89
211.781	3073.87
211.855	3048.4
211.929	3047.83
212.003	3038.16
212.077	3056.91
212.151	3076.51
212.225	3099.69
212.299	3099.69
212.373	3101.98
212.447	3117.01
212.52	3159.98
212.594	3180.79
212.668	3208.98
212.742	3218.09
212.816	3233.51
212.89	3253.97
212.964	3277.41
213.038	3312.26
213.112	3352.79
213.186	3397.4
213.26	3417.15
213.333	3411.23
213.407	3450.97
213.481	3496.54
213.555	3554.23
213.629	3586.71
213.703	3618.23
213.777	3666.73
213.85	3708.87
213.924	3794.76
213.998	3854.37
214.072	3914.85
214.146	3966.34
214.219	4034.08
214.293	4100.28
214.367	4175.98
214.441	4263.7
214.515	4336.72
214.588	4398.05
214.662	4457.67
214.736	4529.73
214.81	4623.09
214.883	4723.61
214.957	4815.3
215.031	4902.5
215.105	4985.27
215.178	5081.4
215.252	5187.13
215.326	5277.46
215.4	5368.93
215.473	5445.08
215.547	5540.6
215.621	5651.9
215.694	5776.18
215.768	5883.26
215.842	6001.74
215.915	6119.19
215.989	6224.08
216.063	6348.77
216.136	6483.98
216.21	6620.91
216.284	6773.22
216.357	6918.67
216.431	7064.29
216.504	7219.69
216.578	7392.77
216.652	7551.74
216.725	7703.77
216.799	7860.78
216.873	8011.01
216.946	8178.47
217.02	8326.9
217.093	8483.07
217.167	8611.02
217.24	8752.65
217.314	8904.01
217.387	9059.42
217.461	9213.96
217.535	9388.68
217.608	9527.54
217.682	9680.53
217.755	9845.14
217.829	9985.45
217.902	10146.14
217.976	10298.55
218.049	10440.04
218.123	10583.34
218.196	10744.16
218.27	10895.18
218.343	11037.77
218.417	11192.21
218.49	11341.12
218.563	11505.07
218.637	11659.58
218.71	11838.34
218.784	12005.87
218.857	12174.52
218.931	12329.96
219.004	12486.23
219.077	12629.64
219.151	12779.79
219.224	12927.67
219.298	13076.67
219.371	13239.8
219.444	13369.28
219.518	13512.11
219.591	13661.54
219.665	13823.32
219.738	13960.61
219.811	14086.28
219.885	14229.4
219.958	14373.77
220.031	14508.75
220.105	14649.55
220.178	14784.57
220.251	14906.28
220.325	15036.53
220.398	15159.1
220.471	15282.12
220.544	15401.37
220.618	15512.38
220.691	15647.29
220.764	15766.54
220.838	15885.35
220.911	15989.85
220.984	16121.14
221.057	16242.46
221.131	16354.81
221.204	16425.23
221.277	16550.05
221.35	16685.63
221.424	16784.24
221.497	16893.88
221.57	16988.64
221.643	17084.74
221.716	17181.61
221.79	17268.31
221.863	17361.9
221.936	17446.77
222.009	17537.85
222.082	17638.77
222.155	17730.72
222.229	17822.72
222.302	17912.84
222.375	17994.81
222.448	18082.57
222.521	18161.89
222.594	18235.43
222.667	18304.92
222.74	18398.17
222.814	18460.72
222.887	18524.24
222.96	18605.72
223.033	18669.38
223.106	18747.4
223.179	18819.21
223.252	18881.03
223.325	18945.9
223.398	19001.27
223.471	19066.32
223.544	19131.53
223.617	19178.66
223.69	19242.22
223.763	19296.19
223.837	19351.9
223.91	19406.69
223.983	19449.92
224.056	19488.32
224.129	19546.01
224.202	19610.92
224.275	19652.27
224.348	19690.1
224.42	19727.44
224.493	19761.37
224.566	19805.32
224.639	19854.96
224.712	19892.83
224.785	19935.24
224.858	19982.95
224.931	20018.47
225.004	20045.99
225.077	20084.2
225.15	20097.12
225.223	20135.52
225.296	20187.19
225.369	20211.77
225.442	20241.84
225.514	20273.55
225.587	20316.97
225.66	20353.74
225.733	20377.64
225.806	20424.2
225.879	20461.21
225.952	20486.08
226.025	20530.51
226.097	20575.48
226.17	20590.37
226.243	20597.26
226.316	20639.57
226.389	20662.56
226.461	20695.82
226.534	20731.14
226.607	20750.23
226.68	20801.02
226.753	20824.4
226.825	20826.52
226.898	20866.86
226.971	20890.71
227.044	20927.68
227.117	20952.79
227.189	20971.35
227.262	21010.43
227.335	21029.42
227.407	21049.86
227.48	21075.93
227.553	21094.1
227.626	21111.93
227.698	21135.17
227.771	21167.46
227.844	21164.9
227.916	21188.18
227.989	21194.06
228.062	21212.52
228.134	21257.83
228.207	21281.06
228.28	21289.01
228.352	21307.18
228.425	21323.95
228.498	21343.28
228.57	21341.59
228.643	21358.66
228.716	21372.83
228.788	21370.13
228.861	21377.65
228.934	21405.6
229.006	21420.35
229.079	21433.7
229.151	21429.07
229.224	21435.82
229.296	21459.78
229.369	21512.46
229.442	21541.05
229.514	21557.05
229.587	21585.34
229.659	21569
229.732	21579.46
229.804	21604.14
229.877	21636.14
229.949	21654.61
230.022	21680.15
230.094	21695.77
230.167	21711.05
230.239	21699.63
230.312	21714.38
230.384	21754.05
230.457	21746.87
230.529	21745.61
230.602	21748.17
230.674	21770.87
230.747	21781.09
230.819	21788.41
230.892	21753.27
230.964	21752.65
231.037	21751.88
231.109	21746.62
231.181	21758.38
231.254	21745.71
231.326	21739.54
231.399	21736.07
231.471	21713.6
231.544	21689.07
231.616	21697.46
231.688	21699.53
231.761	21704.06
231.833	21693.36
231.905	21653.01
231.978	21661.69
232.05	21661.83
232.122	21661.3
232.195	21642.65
232.267	21651.9
232.339	21637.49
232.412	21649.35
232.484	21643.71
232.556	21638.7
232.629	21652.05
232.701	21646.6
232.773	21651.71
232.846	21634.17
232.918	21622.36
232.99	21626.26
233.062	21640.43
233.135	21634.5
233.207	21609.78
233.279	21611.13
233.351	21609.63
233.424	21602.06
233.496	21582.06
233.568	21598.26
233.64	21569.82
233.713	21563.89
233.785	21544.71
233.857	21534.59
233.929	21508.61
234.001	21514.78
234.074	21516.17
234.146	21477.9
234.218	21470
234.29	21445.03
234.362	21435.25
234.434	21413.22
234.507	21393.7
234.579	21355.43
234.651	21333.93
234.723	21324.44
234.795	21305.64
234.867	21285.3
234.939	21281.4
235.012	21264.77
235.084	21246.02
235.156	21240.48
235.228	21217.68
235.3	21195.94
235.372	21185.48
235.444	21184.76
235.516	21128.99
235.588	21109.47
235.66	21092.17
235.732	21064.94
235.804	21100.51
235.876	21089.62
235.948	21070.2
236.02	21039.4
236.092	21017.04
236.164	20990.1
236.236	20966.09
236.308	20943.88
236.38	20927.2
236.452	20891.68
236.524	20867.34
236.596	20853.61
236.668	20838.86
236.74	20815.48
236.812	20806.23
236.884	20794.33
236.956	20762.08
237.028	20734.47
237.1	20693.22
237.172	20679
237.244	20674.66
237.316	20614.22
237.388	20574.75
237.46	20545.74
237.532	20542.32
237.604	20508.34
237.675	20495.43
237.747	20471.67
237.819	20439.28
237.891	20408.63
237.963	20371.67
238.035	20336.68
238.107	20270.13
238.178	20251.04
238.25	20221.02
238.322	20211.86
238.394	20161.26
238.466	20121.45
238.538	20098.03
238.609	20078.42
238.681	20033.26
238.753	19989.27
238.825	19965.12
238.897	19947.72
238.968	19937.17
239.04	19891.87
239.112	19884.69
239.184	19840.31
239.255	19809.27
239.327	19778.91
239.399	19742.96
239.471	19728.17
239.542	19711.2
239.614	19700.41
239.686	19650.05
239.758	19621.86
239.829	19567.26
239.901	19546.73
239.973	19524.18
240.044	19498.59
240.116	19465.39
240.188	19431.51
240.259	19393.58
240.331	19339.32
240.403	19305.92
240.474	19255.81
240.546	19215.28
240.618	19168.82
240.689	19128.3
240.761	19094.32
240.833	19074.08
240.904	19043.39
240.976	19006.76
241.048	18974.57
241.119	18949.13
241.191	18915.73
241.262	18898.53
241.334	18857.71
241.405	18810.82
241.477	18763.31
241.549	18732.95
241.62	18702.93
241.692	18678.01
241.763	18650.5
241.835	18620.95
241.906	18588.19
241.978	18543.71
242.049	18525.63
242.121	18502.89
242.192	18494.89
242.264	18449.21
242.335	18407.67
242.407	18385.06
242.478	18344.54
242.55	18311.14
242.621	18266.95
242.693	18226.57
242.764	18188.74
242.836	18154.67
242.907	18130.47
242.979	18109.08
243.05	18069.13
243.122	18035.39
243.193	17997.13
243.264	17944.26
243.336	17916.89
243.407	17894.24
243.479	17874.1
243.55	17844.6
243.622	17810.2
243.693	17767.64
243.764	17751.59
243.836	17706.05
243.907	17659.6
243.978	17630.05
244.05	17600.71
244.121	17553.81
244.192	17535.5
244.264	17483.55
244.335	17449.33
244.407	17405.19
244.478	17366.78
244.549	17334.58
244.62	17295.31
244.692	17260.22
244.763	17242.44
244.834	17194.44
244.906	17147.35
244.977	17116.85
245.048	17090.39
245.119	17047.83
245.191	17002.19
245.262	16943.59
245.333	16927.25
245.405	16907.68
245.476	16882.48
245.547	16851.06
245.618	16822.09
245.689	16784.45
245.761	16753.8
245.832	16725.6
245.903	16694.03
245.974	16673.07
246.045	16640.63
246.117	16625.5
246.188	16579.47
246.259	16537.78
246.33	16512.24
246.401	16479.9
246.473	16439.8
246.544	16404.23
246.615	16384.76
246.686	16347.6
246.757	16319.59
246.828	16265.51
246.899	16245.95
246.97	16195.63
247.042	16144.06
247.113	16127.24
247.184	16119.81
247.255	16086.32
247.326	16053.59
247.397	16022.11
247.468	15988.71
247.539	15954.59
247.61	15899.26
247.681	15887.16
247.752	15863.88
247.823	15823.77
247.894	15792.93
247.965	15743.28
248.037	15706.65
248.108	15658.64
248.179	15632.42
248.25	15612.32
248.321	15594.1
248.392	15539.1
248.463	15530.81
248.534	15511.2
248.605	15487.82
248.675	15452.39
248.746	15431.81
248.817	15411.61
248.888	15390.89
248.959	15345.82
249.03	15317.86
249.101	15294.15
249.172	15252.31
249.243	15204.68
249.314	15192.68
249.385	15165.69
249.456	15141.01
249.527	15108.47
249.598	15086.25
249.669	15056.31
249.739	15039.92
249.81	15026.14
249.881	14992.88
249.952	14962.56
250.023	14925.39
250.094	14873.57
250.165	14825.56
250.235	14795.15
250.306	14764.25
250.377	14720.58
250.448	14695.8
250.519	14658.54
250.59	14645.57
250.66	14610.28
250.731	14595.82
250.802	14559.76
250.873	14536.24
250.944	14523.13
251.014	14483.26
251.085	14478.44
251.156	14462.34
251.227	14439.4
251.297	14415.49
251.368	14399.68
251.439	14379.96
251.51	14368.78
251.58	14341.69
251.651	14313.92
251.722	14295.36
251.792	14251.69
251.863	14221.41
251.934	14212.64
252.005	14208.4
252.075	14180.97
252.146	14172.72
252.217	14168
252.287	14155.8
252.358	14125.53
252.429	14111.65
252.499	14081.52
252.57	14053.7
252.641	14026.71
252.711	13999.81
252.782	13961.44
252.852	13956.91
252.923	13928.27
252.994	13911.74
253.064	13892.26
253.135	13863.87
253.205	13835.14
253.276	13823.71
253.347	13820.39
253.417	13785.82
253.488	13755.6
253.558	13725.8
253.629	13693.75
253.699	13670.22
253.77	13656.53
253.841	13632.09
253.911	13615.41
253.982	13603.84
254.052	13589.23
254.123	13572.6
254.193	13547.44
254.264	13564.94
254.334	13523.29
254.405	13486.94
254.475	13445.72
254.546	13422.1
254.616	13414.73
254.687	13390.58
254.757	13374.04
254.827	13343.43
254.898	13327.76
254.968	13304
255.039	13276.95
255.109	13263.36
255.18	13222.72
255.25	13178.03
255.321	13162.94
255.391	13120.38
255.461	13113.97
255.532	13072.51
255.602	13046.29
255.673	13002.61
255.743	12968
255.813	12927.36
255.884	12917.05
255.954	12904.61
256.024	12900.46
256.095	12875.78
256.165	12844.78
256.235	12826.18
256.306	12796.34
256.376	12782.12
256.446	12764.09
256.517	12750.16
256.587	12746.93
256.657	12731.84
256.728	12706.68
256.798	12684.5
256.868	12666.96
256.938	12639.43
257.009	12626.32
257.079	12614.89
257.149	12628.05
257.219	12581.05
257.29	12568.62
257.36	12529.67
257.43	12517.04
257.5	12475.25
257.571	12455.92
257.641	12446.23
257.711	12414.03
257.781	12408.68
257.852	12392.48
257.922	12358.78
257.992	12335.07
258.062	12305.33
258.132	12294.34
258.202	12273.56
258.273	12255.39
258.343	12248.16
258.413	12222.95
258.483	12197.88
258.553	12165.59
258.623	12129.82
258.693	12117.04
258.764	12108.27
258.834	12110.44
258.904	12096.22
258.974	12071.93
259.044	12046.04
259.114	12029.56
259.184	12016.06
259.254	11994.03
259.324	11952.87
259.394	11937.69
259.464	11931.57
259.535	11911.18
259.605	11884.38
259.675	11857.39
259.745	11838.44
259.815	11811.35
259.885	11789.42
259.955	11802.92
260.025	11771.01
260.095	11748.36
260.165	11733.81
260.235	11732.89
260.305	11699.25
260.375	11666.71
260.445	11672.11
260.515	11665.36
260.585	11660.4
260.655	11639.91
260.725	11630.8
260.795	11630.03
260.865	11630.27
260.934	11606.27
261.004	11595.57
261.074	11578.51
261.144	11582.46
261.214	11572.68
261.284	11554.07
261.354	11538.99
261.424	11506.69
261.494	11510.16
261.564	11495.61
261.634	11488.72
261.703	11450.88
261.773	11442.25
261.843	11425.92
261.913	11403.41
261.983	11373.19
262.053	11351.65
262.123	11335.65
262.192	11302.63
262.262	11284.13
262.332	11253.62
262.402	11242.2
