Data from 20250630_urea_2M_MAYP1162681_11-52-27-009.txt Node
Date: Tue Jul 01 11:52:27 BST 2025
User: adleo
Spectrometer: MAYP116268
Trigger mode: 0
Integration Time (sec): 1.000000E0
Scans to average: 1
Electric dark correction enabled: true
Nonlinearity correction enabled: true
Boxcar width: 10
XAxis mode: Wavelengths
Number of Pixels in Spectrum: 2068
>>>>>Begin Spectral Data<<<<<
179.565	1130.41
179.642	1182.62
179.718	1225.03
179.795	1257.82
179.871	1289.96
179.948	1304.56
180.024	1321.89
180.101	1343.4
180.177	1357.61
180.254	1376.22
180.33	1395.92
180.407	1444.44
180.483	1533.94
180.56	1615.66
180.636	1692.04
180.712	1681.96
180.789	1691.85
180.865	1702.63
180.942	1708.42
181.018	1718.59
181.095	1727.58
181.171	1731.38
181.248	1731.61
181.324	1742.93
181.4	1749.68
181.477	1759.66
181.553	1774.76
181.63	1792.63
181.706	1808.56
181.782	1813.36
181.859	1815.11
181.935	1820.34
182.011	1815.02
182.088	1829.18
182.164	1848.87
182.24	1862.74
182.317	1868.59
182.393	1868.11
182.469	1883.28
182.546	1893.69
182.622	1898.63
182.698	1896.63
182.775	1909.56
182.851	1922.69
182.927	1916.51
183.003	1912.89
183.08	1903.29
183.156	1909.66
183.232	1910.04
183.308	1896.97
183.385	1906.52
183.461	1920.69
183.537	1921.26
183.613	1935.86
183.69	1928.53
183.766	1918.97
183.842	1927.15
183.918	1933.38
183.995	1944.89
184.071	1944.46
184.147	1942.79
184.223	1930.44
184.299	1939.05
184.375	1927.97
184.452	1933.34
184.528	1989.33
184.604	1999.31
184.68	2011.91
184.756	2022.75
184.832	2026.94
184.908	2032.45
184.985	2031.45
185.061	2018.85
185.137	2029.36
185.213	2014.72
185.289	2014.96
185.365	2009.44
185.441	2005.97
185.517	2017.72
185.593	2011.78
185.669	2012.92
185.745	2022.43
185.822	2041.01
185.898	2033.5
185.974	2043.86
186.05	2038.63
186.126	1998.01
186.202	1993.01
186.278	1987.07
186.354	1975.46
186.43	1979.6
186.506	1977.8
186.582	1977.75
186.658	1985.17
186.734	1963.87
186.81	1970.19
186.886	1973.99
186.962	1985.45
187.038	1983.22
187.114	1976.37
187.19	1985.83
187.266	1974.7
187.341	1974.85
187.417	1968.43
187.493	1969.95
187.569	1971.85
187.645	1964.01
187.721	1952.16
187.797	1959.49
187.873	1968
187.949	1960.82
188.025	1955.35
188.101	1959.2
188.176	1965.29
188.252	1961.2
188.328	1970.32
188.404	1968.8
188.48	1961.77
188.556	1953.78
188.632	1954.16
188.707	1955.92
188.783	1952.4
188.859	1948.88
188.935	1937.18
189.011	1942.03
189.086	1936.52
189.162	1927.82
189.238	1926.63
189.314	1925.06
189.39	1917.45
189.465	1910.56
189.541	1926.06
189.617	1911.8
189.693	1903.91
189.768	1905.62
189.844	1927.64
189.92	1918.99
189.996	1926.74
190.071	1938.15
190.147	1936.96
190.223	1944.95
190.298	1936.2
190.374	1926.55
190.45	1936.34
190.526	1943.57
190.601	1941
190.677	1944.52
190.753	1974.21
190.828	1977.87
190.904	1991.85
190.98	2007.4
191.055	2016.34
191.131	2010.21
191.207	2030.56
191.282	2041.11
191.358	2031.65
191.433	2018.8
191.509	2034.25
191.585	2031.16
191.66	2032.35
191.736	2041.43
191.811	2034.1
191.887	2051.56
191.963	2071.16
192.038	2078.05
192.114	2080.29
192.189	2082.71
192.265	2079.53
192.34	2055.12
192.416	2054.4
192.491	2049.55
192.567	2054.4
192.642	2059.64
192.718	2061.4
192.793	2050.51
192.869	2046.51
192.944	2049.41
193.02	2054.22
193.095	2057.4
193.171	2062.68
193.246	2062.78
193.322	2059.31
193.397	2058.59
193.473	2044.99
193.548	2028.72
193.624	2033.1
193.699	2030.48
193.775	2047.46
193.85	2048.08
193.925	2056.93
194.001	2054.03
194.076	2048.47
194.152	2035.67
194.227	2028.3
194.302	2016.32
194.378	2020.4
194.453	2020.5
194.529	2034.2
194.604	2020.26
194.679	2015.37
194.755	1996.35
194.83	2007.48
194.905	2003.44
194.981	2011.05
195.056	2003.11
195.131	2006.2
195.207	2006.15
195.282	1998.36
195.357	1978.28
195.433	1992.26
195.508	1980.23
195.583	1989.69
195.659	2002.1
195.734	2011.09
195.809	2009.43
195.884	2019.03
195.96	2016.61
196.035	2028.73
196.11	2022.5
196.185	2035.53
196.261	2036.29
196.336	2065.78
196.411	2051.98
196.486	2061.11
196.561	2054.07
196.637	2065.1
196.712	2081.52
196.787	2081.94
196.862	2096.78
196.937	2106.29
197.013	2113.29
197.088	2123.99
197.163	2142.31
197.238	2161.97
197.313	2162.87
197.388	2173.15
197.464	2201.65
197.539	2214.02
197.614	2207.27
197.689	2219.97
197.764	2236.06
197.839	2254.76
197.914	2250.9
197.989	2272.79
198.065	2284.73
198.14	2335.49
198.215	2357.86
198.29	2367.81
198.365	2379.38
198.44	2388.42
198.515	2415.55
198.59	2427.65
198.665	2455.97
198.74	2464.88
198.815	2463.74
198.89	2482.25
198.965	2512.02
199.04	2506.92
199.115	2520.82
199.19	2560.48
199.265	2565.86
199.34	2573.58
199.415	2607.55
199.49	2625.83
199.565	2634.78
199.64	2653.79
199.715	2651.36
199.79	2657.98
199.865	2664.64
199.94	2663.88
200.015	2694.28
200.09	2698.47
200.165	2703.19
200.24	2707
200.315	2745
200.39	2760.77
200.464	2767.39
200.539	2767.78
200.614	2783.59
200.689	2807.18
200.764	2815.52
200.839	2831.53
200.914	2835.29
200.989	2821.08
201.063	2834.62
201.138	2816.24
201.213	2818
201.288	2799.51
201.363	2806.23
201.438	2809.9
201.512	2825.33
201.587	2812.27
201.662	2816.04
201.737	2830.76
201.812	2839.01
201.886	2805.34
201.961	2813.3
202.036	2802.82
202.111	2800.11
202.186	2771.2
202.26	2753.62
202.335	2731.93
202.41	2722.98
202.485	2707.97
202.559	2691.26
202.634	2666.53
202.709	2679.24
202.784	2662.57
202.858	2664.05
202.933	2644.38
203.008	2637.47
203.082	2620.94
203.157	2617.23
203.232	2577.61
203.306	2553.08
203.381	2518.73
203.456	2498.59
203.53	2477.43
203.605	2458.06
203.68	2436.62
203.754	2432.67
203.829	2418.91
203.904	2399.78
203.978	2390.21
204.053	2394.78
204.127	2384.02
204.202	2383.35
204.277	2366.69
204.351	2359.93
204.426	2349.32
204.5	2340.75
204.575	2308.48
204.65	2316.96
204.724	2307.24
204.799	2313.71
204.873	2313.9
204.948	2313.9
205.022	2303.58
205.097	2291.48
205.171	2301.62
205.246	2308.24
205.32	2307.28
205.395	2305.38
205.469	2300.01
205.544	2307.39
205.618	2289.97
205.693	2302.34
205.767	2291.49
205.842	2311.58
205.916	2303.78
205.991	2297.64
206.065	2302.16
206.14	2318.14
206.214	2315.05
206.289	2309.52
206.363	2319.71
206.438	2321.99
206.512	2327.42
206.586	2345.5
206.661	2355.55
206.735	2337.47
206.81	2339.19
206.884	2354.61
206.958	2343.38
207.033	2355.75
207.107	2361.99
207.181	2391.41
207.256	2381.79
207.33	2397.26
207.405	2410.79
207.479	2431.45
207.553	2435.31
207.628	2421.37
207.702	2430.27
207.776	2422.89
207.851	2423.98
207.925	2439.99
207.999	2438.61
208.073	2438.08
208.148	2441.13
208.222	2430.18
208.296	2460.73
208.371	2475.78
208.445	2484.02
208.519	2514.01
208.593	2528.53
208.668	2523.34
208.742	2527.11
208.816	2530.06
208.89	2545.16
208.965	2541.54
209.039	2548.97
209.113	2567.02
209.187	2588.43
209.261	2584.67
209.336	2604.15
209.41	2626.34
209.484	2625.2
209.558	2643.54
209.632	2656.21
209.707	2666.16
209.781	2685.97
209.855	2702.13
209.929	2717.53
210.003	2724.01
210.077	2722.77
210.151	2765.07
210.226	2796.29
210.3	2820.75
210.374	2846.05
210.448	2850.91
210.522	2860.06
210.596	2869.31
210.67	2880.55
210.744	2924.03
210.818	2955.29
210.892	2977.12
210.966	2972.98
211.041	2993.52
211.115	2991.9
211.189	3018.55
211.263	3035.8
211.337	3042
211.411	3053.97
211.485	3049.68
211.559	3063.69
211.633	3065.83
211.707	3038.74
211.781	3049.05
211.855	3017.39
211.929	3009.09
212.003	2991.99
212.077	3003.87
212.151	3018.36
212.225	3025.9
212.299	3018.88
212.373	3012.11
212.447	3008.06
212.52	3038.34
212.594	3042.34
212.668	3058.27
212.742	3048.02
212.816	3049.21
212.89	3049.02
212.964	3053.31
213.038	3062.47
213.112	3078.21
213.186	3100.91
213.26	3086.85
213.333	3052.46
213.407	3066.86
213.481	3079.25
213.555	3103.74
213.629	3102.17
213.703	3099.83
213.777	3110.13
213.85	3106.13
213.924	3151.84
213.998	3164.77
214.072	3173.27
214.146	3175.08
214.219	3188.78
214.293	3202.61
214.367	3223.65
214.441	3254.19
214.515	3265.78
214.588	3267.69
214.662	3257.29
214.736	3264.78
214.81	3298.83
214.883	3331.16
214.957	3348.85
215.031	3364.21
215.105	3369.84
215.178	3387.17
215.252	3406.68
215.326	3420.1
215.4	3431.93
215.473	3416.22
215.547	3432.79
215.621	3454.24
215.694	3493.78
215.768	3505.33
215.842	3530.21
215.915	3550.03
215.989	3564.69
216.063	3593.02
216.136	3633.81
216.21	3679.89
216.284	3729.2
216.357	3770.76
216.431	3810.56
216.504	3864.03
216.578	3936.3
216.652	3991.99
216.725	4037.59
216.799	4098.08
216.873	4144.64
216.946	4201.66
217.02	4246.3
217.093	4294.36
217.167	4321.9
217.24	4358.6
217.314	4408.66
217.387	4456.67
217.461	4509.5
217.535	4574.19
217.608	4620.27
217.682	4673.12
217.755	4734.29
217.829	4781.89
217.902	4840.2
217.976	4898.95
218.049	4948.23
218.123	4990.2
218.196	5058.74
218.27	5116.71
218.343	5159.31
218.417	5225.1
218.49	5281.34
218.563	5361.22
218.637	5428.37
218.71	5512.4
218.784	5587.24
218.857	5664.04
218.931	5732.11
219.004	5796.13
219.077	5867.13
219.151	5939.65
219.224	6003.35
219.298	6074.66
219.371	6146.21
219.444	6201.05
219.518	6271.88
219.591	6343.54
219.665	6437.86
219.738	6503.63
219.811	6564.31
219.885	6645.89
219.958	6721.78
220.031	6795.62
220.105	6872.78
220.178	6945.37
220.251	7008.06
220.325	7081.25
220.398	7157.9
220.471	7238.57
220.544	7321.47
220.618	7382.95
220.691	7459.48
220.764	7535.38
220.838	7609.23
220.911	7677.12
220.984	7772.31
221.057	7844.68
221.131	7918.88
221.204	7959.91
221.277	8045.96
221.35	8148.13
221.424	8217.12
221.497	8285.1
221.57	8352.73
221.643	8423.86
221.716	8502.05
221.79	8575.53
221.863	8648.98
221.936	8717.27
222.009	8784.94
222.082	8856.27
222.155	8921.97
222.229	8998.23
222.302	9066.97
222.375	9132.25
222.448	9210.63
222.521	9276.55
222.594	9340.15
222.667	9390.56
222.74	9469.72
222.814	9539.65
222.887	9595.62
222.96	9672.15
223.033	9749.74
223.106	9825.93
223.179	9893.55
223.252	9952.37
223.325	10022.21
223.398	10087.92
223.471	10154.16
223.544	10222.23
223.617	10280.86
223.69	10348.25
223.763	10403.7
223.837	10474.67
223.91	10546.56
223.983	10591.8
224.056	10644.99
224.129	10714.09
224.202	10792.76
224.275	10847.02
224.348	10888.51
224.42	10939.69
224.493	10978.53
224.566	11026.24
224.639	11091.05
224.712	11145.03
224.785	11204.31
224.858	11256.45
224.931	11300.11
225.004	11348.45
225.077	11404.99
225.15	11445.28
225.223	11508.08
225.296	11588.91
225.369	11630.35
225.442	11676.29
225.514	11730.03
225.587	11790.04
225.66	11850.04
225.733	11909.09
225.806	11970.93
225.879	12026.12
225.952	12078.32
226.025	12146.91
226.097	12227.17
226.17	12282.75
226.243	12328.3
226.316	12391.26
226.389	12452.43
226.461	12523.38
226.534	12587.59
226.607	12642.59
226.68	12728.88
226.753	12787.93
226.825	12825.97
226.898	12899
226.971	12959.3
227.044	13033.63
227.117	13092.11
227.189	13155.98
227.262	13225.11
227.335	13287.05
227.407	13346.93
227.48	13409.21
227.553	13473.95
227.626	13515.74
227.698	13569.4
227.771	13631.44
227.844	13670.25
227.916	13723.47
227.989	13762.56
228.062	13808.74
228.134	13890.6
228.207	13933.21
228.28	13982.33
228.352	14026.73
228.425	14069.15
228.498	14121.5
228.57	14161.32
228.643	14224.38
228.716	14268.05
228.788	14311.1
228.861	14352.12
228.934	14420.04
229.006	14464.15
229.079	14504.74
229.151	14546.77
229.224	14578.83
229.296	14626.36
229.369	14712.26
229.442	14771.21
229.514	14808.86
229.587	14873.45
229.659	14892.88
229.732	14948.36
229.804	15007.6
229.877	15089.3
229.949	15159
230.022	15229.67
230.094	15286.5
230.167	15327.57
230.239	15362.13
230.312	15399.34
230.384	15472.56
230.457	15507.26
230.529	15565.63
230.602	15617.79
230.674	15671.43
230.747	15736.84
230.819	15799.89
230.892	15812.18
230.964	15865.54
231.037	15918.46
231.109	15956.54
231.181	16015.15
231.254	16047.25
231.326	16094.29
231.399	16125.09
231.471	16153.24
231.544	16170.54
231.616	16226.02
231.688	16275.23
231.761	16318.46
231.833	16360.92
231.905	16372.78
231.978	16425.17
232.05	16457.61
232.122	16492.31
232.195	16521.56
232.267	16566.53
232.339	16590.77
232.412	16639.45
232.484	16667.69
232.556	16704.37
232.629	16763.94
232.701	16799.85
232.773	16842.64
232.846	16864.33
232.918	16892.24
232.99	16935.13
233.062	16981.3
233.135	16998.79
233.207	17017.2
233.279	17053.01
233.351	17093.21
233.424	17122.41
233.496	17133.93
233.568	17186.42
233.64	17203.72
233.713	17229.69
233.785	17264.25
233.857	17297.36
233.929	17310.9
234.001	17351.86
234.074	17387.29
234.146	17390.66
234.218	17405.07
234.29	17421.65
234.362	17430.56
234.434	17433.21
234.507	17436.2
234.579	17437.16
234.651	17456.01
234.723	17480.68
234.795	17506.22
234.867	17515.57
234.939	17551
235.012	17574.71
235.084	17584.06
235.156	17614.61
235.228	17626.8
235.3	17625.84
235.372	17635.91
235.444	17658.71
235.516	17650.08
235.588	17661.89
235.66	17671.91
235.732	17681.4
235.804	17737.55
235.876	17765.79
235.948	17801.88
236.02	17815.91
236.092	17828.92
236.164	17831.09
236.236	17842.17
236.308	17847.42
236.38	17860.97
236.452	17857.01
236.524	17866.89
236.596	17885.16
236.668	17900.92
236.74	17908.34
236.812	17916.39
236.884	17928.14
236.956	17934.7
237.028	17938.99
237.1	17939.04
237.172	17963.28
237.244	17991.52
237.316	17973.06
237.388	17963.81
237.46	17965.01
237.532	17983.56
237.604	17971.81
237.675	17999.8
237.747	18002.17
237.819	17993.3
237.891	17990.17
237.963	17984.77
238.035	17971.71
238.107	17937.3
238.178	17941.06
238.25	17941.3
238.322	17960.24
238.394	17941.3
238.466	17932.14
238.538	17926.79
238.609	17934.46
238.681	17905.49
238.753	17883.13
238.825	17867.18
238.897	17863.38
238.968	17863.13
239.04	17840.15
239.112	17867.86
239.184	17851.04
239.255	17842.41
239.327	17841.26
239.399	17840.1
239.471	17837.01
239.542	17834.8
239.614	17845.11
239.686	17812.92
239.758	17812.1
239.829	17792.97
239.901	17800.49
239.973	17796.29
240.044	17793.5
240.116	17777.26
240.188	17769.4
240.259	17756.82
240.331	17735.09
240.403	17730.56
240.474	17702.85
240.546	17687.04
240.618	17653.4
240.689	17623.19
240.761	17612.2
240.833	17611
240.904	17585.98
240.976	17574.03
241.048	17566.37
241.119	17550.8
241.191	17537.41
241.262	17529.89
241.334	17504.78
241.405	17478.61
241.477	17448.59
241.549	17429.07
241.62	17408.3
241.692	17386.08
241.763	17375.38
241.835	17365.07
241.906	17347.53
241.978	17307.24
242.049	17306.22
242.121	17287.19
242.192	17286.85
242.264	17250.42
242.335	17217.84
242.407	17213.4
242.478	17182.27
242.55	17151.72
242.621	17120.29
242.693	17095.91
242.764	17069.16
242.836	17039.38
242.907	17022.36
242.979	17010.41
243.05	16987.52
243.122	16970.99
243.193	16949.73
243.264	16902.84
243.336	16861.78
243.407	16839.18
243.479	16844.04
243.55	16815.61
243.622	16797.92
243.693	16768.14
243.764	16756.18
243.836	16719.84
243.907	16689.14
243.978	16672.27
244.05	16658.1
244.121	16624.66
244.192	16604.94
244.264	16566
244.335	16549.9
244.407	16515.44
244.478	16490.24
244.549	16462.23
244.62	16422.76
244.692	16395.05
244.763	16385.7
244.834	16369.94
244.906	16342.32
244.977	16317.5
245.048	16303.18
245.119	16266.51
245.191	16231.8
245.262	16189.53
245.333	16175.17
245.405	16143.5
245.476	16118.15
245.547	16091.4
245.618	16074.44
245.689	16053.13
245.761	16031.3
245.832	16000.4
245.903	15976.55
245.974	15952.4
246.045	15926.32
246.117	15918.66
246.188	15877.69
246.259	15835.9
246.33	15802.64
246.401	15771.74
246.473	15723.83
246.544	15683.73
246.615	15675.44
246.686	15643.29
246.757	15625.79
246.828	15590.03
246.899	15574.17
246.97	15523.8
247.042	15486.16
247.113	15467.5
247.184	15455.02
247.255	15425.42
247.326	15395.87
247.397	15365.65
247.468	15339.91
247.539	15314.03
247.61	15274.99
247.681	15259.46
247.752	15249.44
247.823	15223.99
247.894	15205.53
247.965	15172.02
248.037	15139.87
248.108	15094.61
248.179	15068.68
248.25	15039.71
248.321	15024.76
248.392	14981
248.463	14980.32
248.534	14956.6
248.605	14935.2
248.675	14906.72
248.746	14887.43
248.817	14860.01
248.888	14840.87
248.959	14798.26
249.03	14774.11
249.101	14749.14
249.172	14721.9
249.243	14670.47
249.314	14654.22
249.385	14624.58
249.456	14606.93
249.527	14580.47
249.598	14562.97
249.669	14535.59
249.739	14508.31
249.81	14478.42
249.881	14449.35
249.952	14426.65
250.023	14406.5
250.094	14356.7
250.165	14314.71
250.235	14278.27
250.306	14262.85
250.377	14227.27
250.448	14201.86
250.519	14157.47
250.59	14136.16
250.66	14107.96
250.731	14098.32
250.802	14070.07
250.873	14052.28
250.944	14030.4
251.014	13997.71
251.085	13988.46
251.156	13968.16
251.227	13954.86
251.297	13948.01
251.368	13933.79
251.439	13913.98
251.51	13897.2
251.58	13871.32
251.651	13845.43
251.722	13837.33
251.792	13792.93
251.863	13762.32
251.934	13756.34
252.005	13757.84
252.075	13742.65
252.146	13736.48
252.217	13727.76
252.287	13711.75
252.358	13680.37
252.429	13672.03
252.499	13646.19
252.57	13617.17
252.641	13601.84
252.711	13579.96
252.782	13534.01
252.852	13528.23
252.923	13495.69
252.994	13468.69
253.064	13459.97
253.135	13427.33
253.205	13393.64
253.276	13396.05
253.347	13397.59
253.417	13371.94
253.488	13339.5
253.558	13304.02
253.629	13275.19
253.699	13254.8
253.77	13237.93
253.841	13208.62
253.911	13191.46
253.982	13172.08
254.052	13166.44
254.123	13145.61
254.193	13124.5
254.264	13146.53
254.334	13109.03
254.405	13080.34
254.475	13050.41
254.546	13028.04
254.616	13020.23
254.687	13013.92
254.757	12986.87
254.827	12956.89
254.898	12930.76
254.968	12914.13
255.039	12886.12
255.109	12867.95
255.18	12831.41
255.25	12781.32
255.321	12765.99
255.391	12728.73
255.461	12726.85
255.532	12672.33
255.602	12646.83
255.673	12610.77
255.743	12572.64
255.813	12536.87
255.884	12523.96
255.954	12506.41
256.024	12499.27
256.095	12476.71
256.165	12433.28
256.235	12418.63
256.306	12383.92
256.376	12368.45
256.446	12351.58
256.517	12339.67
256.587	12330.99
256.657	12317.45
256.728	12309.83
256.798	12285.88
256.868	12258.59
256.938	12225.62
257.009	12217.28
257.079	12212.7
257.149	12218.15
257.219	12179.78
257.29	12161.42
257.36	12121.31
257.43	12117.65
257.5	12071.23
257.571	12048.72
257.641	12041.97
257.711	12011.03
257.781	12003.51
257.852	11992.95
257.922	11959.4
257.992	11935.21
258.062	11911.06
258.132	11901.71
258.202	11878.62
258.273	11869.36
258.343	11867
258.413	11849.07
258.483	11836.44
258.553	11801.69
258.623	11766.55
258.693	11756
258.764	11749.68
258.834	11749.25
258.904	11723.32
258.974	11707.85
259.044	11692.18
259.114	11673.91
259.184	11660.71
259.254	11640.61
259.324	11601.18
259.394	11588.32
259.464	11592.56
259.535	11566.58
259.605	11539.01
259.675	11511.01
259.745	11493.42
259.815	11471.63
259.885	11449.75
259.955	11456.02
260.025	11426.76
260.095	11415.48
260.165	11396.35
260.235	11398.66
260.305	11376.88
260.375	11346.81
260.445	11347.67
260.515	11346.81
260.585	11342.61
260.655	11324.3
260.725	11314.37
260.795	11305.94
260.865	11312.78
260.934	11281.21
261.004	11272.54
261.074	11260.73
261.144	11262.18
261.214	11256.35
261.284	11235.04
261.354	11220.97
261.424	11188.68
261.494	11188.68
261.564	11170.85
261.634	11163.52
261.703	11125.45
261.773	11119.91
261.843	11110.03
261.913	11087.86
261.983	11043.53
262.053	11027.91
262.123	11005.55
262.192	10976.83
262.262	10972.45
262.332	10932.84
262.402	10928.98
262.472	10913.75
262.541	10872.55
262.611	10868.94
262.681	10843.3
