Data from 20250630_urea_2M_MAYP1162681_05-42-26-807.txt Node
Date: Tue Jul 01 05:42:26 BST 2025
User: adleo
Spectrometer: MAYP116268
Trigger mode: 0
Integration Time (sec): 1.000000E0
Scans to average: 1
Electric dark correction enabled: true
Nonlinearity correction enabled: true
Boxcar width: 10
XAxis mode: Wavelengths
Number of Pixels in Spectrum: 2068
>>>>>Begin Spectral Data<<<<<
179.565	1044.77
179.642	1096.17
179.718	1134.97
179.795	1167.3
179.871	1196.13
179.948	1211.19
180.024	1226.35
180.101	1245.7
180.177	1258.71
180.254	1280.3
180.33	1301.82
180.407	1342.97
180.483	1427.58
180.56	1503.93
180.636	1575.89
180.712	1565.4
180.789	1575.27
180.865	1584.91
180.942	1595.31
181.018	1604.1
181.095	1614.98
181.171	1618.02
181.248	1617.64
181.324	1630.99
181.4	1638.12
181.477	1648.1
181.553	1657.93
181.63	1677.31
181.706	1692.18
181.782	1698.55
181.859	1693.42
181.935	1695.41
182.011	1692.23
182.088	1708.15
182.164	1728.3
182.24	1742.18
182.317	1751.72
182.393	1750.96
182.469	1766.03
182.546	1774.87
182.622	1780.14
182.698	1774.96
182.775	1785.41
182.851	1797.96
182.927	1790.97
183.003	1786.65
183.08	1781.42
183.156	1791.78
183.232	1789.21
183.308	1777.33
183.385	1785.46
183.461	1805.18
183.537	1807.99
183.613	1820.91
183.69	1809.93
183.766	1797.38
183.842	1801.76
183.918	1808.22
183.995	1819.67
184.071	1823
184.147	1821.29
184.223	1812.69
184.299	1822.72
184.375	1814.98
184.452	1820.4
184.528	1870.93
184.604	1881.77
184.68	1892.13
184.756	1899.02
184.832	1904.25
184.908	1909.29
184.985	1908.57
185.061	1892.7
185.137	1897.98
185.213	1886.76
185.289	1891.7
185.365	1885.9
185.441	1886.14
185.517	1894.03
185.593	1891.04
185.669	1886.76
185.745	1893.99
185.822	1906.96
185.898	1899.21
185.974	1907.81
186.05	1900.11
186.126	1863.98
186.202	1856.94
186.278	1851.1
186.354	1842.73
186.43	1848.48
186.506	1847.34
186.582	1845.82
186.658	1851.81
186.734	1835.08
186.81	1836.55
186.886	1836.13
186.962	1848.91
187.038	1843.97
187.114	1838.93
187.19	1847.1
187.266	1839.59
187.341	1840.93
187.417	1835.65
187.493	1839.12
187.569	1842.69
187.645	1837.93
187.721	1826.71
187.797	1837.08
187.873	1842.68
187.949	1836.17
188.025	1830.61
188.101	1833.22
188.176	1839.02
188.252	1835.55
188.328	1841.82
188.404	1841.97
188.48	1837.59
188.556	1828.47
188.632	1830.37
188.707	1827.37
188.783	1823.33
188.859	1819.25
188.935	1808.36
189.011	1816.06
189.086	1807.51
189.162	1798.71
189.238	1797.33
189.314	1797.67
189.39	1788.54
189.465	1783.41
189.541	1799.95
189.617	1786.36
189.693	1781.27
189.768	1784.7
189.844	1807.85
189.92	1803.2
189.996	1811.61
190.071	1822.45
190.147	1821.73
190.223	1829.72
190.298	1824.63
190.374	1811.52
190.45	1821.97
190.526	1829.48
190.601	1824.39
190.677	1827.82
190.753	1852.4
190.828	1855.11
190.904	1867.71
190.98	1881.21
191.055	1888.1
191.131	1878.88
191.207	1898.6
191.282	1907.3
191.358	1896.51
191.433	1880.34
191.509	1889.99
191.585	1886.66
191.66	1886.8
191.736	1894.55
191.811	1885.95
191.887	1904.39
191.963	1926.5
192.038	1931.83
192.114	1932.68
192.189	1936.67
192.265	1933.97
192.34	1913.61
192.416	1911.52
192.491	1908.62
192.567	1911.09
192.642	1914.8
192.718	1915.37
192.793	1903.29
192.869	1898.59
192.944	1900.87
193.02	1908.33
193.095	1910.81
193.171	1916.27
193.246	1917.51
193.322	1915.7
193.397	1916.89
193.473	1900.58
193.548	1883.27
193.624	1886.7
193.699	1884.89
193.775	1898.63
193.85	1897.83
193.925	1908.33
194.001	1908.33
194.076	1897.35
194.152	1886.18
194.227	1879.24
194.302	1869.21
194.378	1873.54
194.453	1874.11
194.529	1886.56
194.604	1875.15
194.679	1871.78
194.755	1854.1
194.83	1863.61
194.905	1863.61
194.981	1870.03
195.056	1867.65
195.131	1874.78
195.207	1873.97
195.282	1864.47
195.357	1847.02
195.433	1861.94
195.508	1848.44
195.583	1855.1
195.659	1871.83
195.734	1879.63
195.809	1880.2
195.884	1889.51
195.96	1889.56
196.035	1901.92
196.11	1896.93
196.185	1907.67
196.261	1907.86
196.336	1938.19
196.411	1924.26
196.486	1927.35
196.561	1921.98
196.637	1927.25
196.712	1939.9
196.787	1943.14
196.862	1960.58
196.937	1971.9
197.013	1977.7
197.088	1989.92
197.163	2010.13
197.238	2024.03
197.313	2024.84
197.388	2037.35
197.464	2062.37
197.539	2071.97
197.614	2066.22
197.689	2081.25
197.764	2094.47
197.839	2116.3
197.914	2109.21
197.989	2128.9
198.065	2141.22
198.14	2186.96
198.215	2213.27
198.29	2226.46
198.365	2238.78
198.44	2246.53
198.515	2268.95
198.59	2283.13
198.665	2306.73
198.74	2315.97
198.815	2314.59
198.89	2333.67
198.965	2359.09
199.04	2357.33
199.115	2371.41
199.19	2410.63
199.265	2412.53
199.34	2420.48
199.415	2448.15
199.49	2469.43
199.565	2480.19
199.64	2504.18
199.715	2501.13
199.79	2504.7
199.865	2506.94
199.94	2503.94
200.015	2533.99
200.09	2539.66
200.165	2543.28
200.24	2547.9
200.315	2583.36
200.39	2597.7
200.464	2606.89
200.539	2607.08
200.614	2620.98
200.689	2640.94
200.764	2647.94
200.839	2663.18
200.914	2671.66
200.989	2664.32
201.063	2675.42
201.138	2657.95
201.213	2654.09
201.288	2637.71
201.363	2641.99
201.438	2641.9
201.512	2657.37
201.587	2642.98
201.662	2646.94
201.737	2657.08
201.812	2665.28
201.886	2634.34
201.961	2642.72
202.036	2629.11
202.111	2627.06
202.186	2601.69
202.26	2587.54
202.335	2568.77
202.41	2562.67
202.485	2546.39
202.559	2528.1
202.634	2504.01
202.709	2512.77
202.784	2497.86
202.858	2496.96
202.933	2481.06
203.008	2474.63
203.082	2456.11
203.157	2453.25
203.232	2414.13
203.306	2393.94
203.381	2364.85
203.456	2342.24
203.53	2321.28
203.605	2306.01
203.68	2284.35
203.754	2279.07
203.829	2264.22
203.904	2243.99
203.978	2233.95
204.053	2236.57
204.127	2225.43
204.202	2222.77
204.277	2208.5
204.351	2203.07
204.426	2196.65
204.5	2188.56
204.575	2161.16
204.65	2168.63
204.724	2161.97
204.799	2168.91
204.873	2169.19
204.948	2169.43
205.022	2159.45
205.097	2154.35
205.171	2166.86
205.246	2176.19
205.32	2178.14
205.395	2176.9
205.469	2169.39
205.544	2174.39
205.618	2160.12
205.693	2171.82
205.767	2163.21
205.842	2184.29
205.916	2178.49
205.991	2170.78
206.065	2176.25
206.14	2191.32
206.214	2188.28
206.289	2179.57
206.363	2192.65
206.438	2193.03
206.512	2195.13
206.586	2211.2
206.661	2218.49
206.735	2195.18
206.81	2195.56
206.884	2207.12
206.958	2195.9
207.033	2211.55
207.107	2216.64
207.181	2243.53
207.256	2235.78
207.33	2251.86
207.405	2260
207.479	2277.99
207.553	2282.08
207.628	2267.1
207.702	2273.95
207.776	2268.33
207.851	2275.09
207.925	2291.18
207.999	2288.8
208.073	2293.23
208.148	2298.99
208.222	2288.23
208.296	2319.82
208.371	2338.58
208.445	2347.58
208.519	2373.13
208.593	2381.41
208.668	2380.46
208.742	2383.37
208.816	2386.84
208.89	2400.27
208.965	2400.6
209.039	2406.55
209.113	2424.5
209.187	2448.14
209.261	2447.43
209.336	2467.9
209.41	2481.75
209.484	2475.13
209.558	2497.89
209.632	2505.46
209.707	2515.03
209.781	2532.51
209.855	2553.61
209.929	2566.67
210.003	2570.53
210.077	2572.24
210.151	2618.1
210.226	2645.54
210.3	2670.14
210.374	2691.56
210.448	2693.95
210.522	2702.71
210.596	2713.34
210.67	2723.48
210.744	2763.33
210.818	2792.61
210.892	2811.34
210.966	2808.58
211.041	2830.5
211.115	2829.74
211.189	2854.42
211.263	2869.09
211.337	2878.67
211.411	2884.15
211.485	2878.76
211.559	2893.1
211.633	2896.44
211.707	2866.63
211.781	2881.66
211.855	2853.16
211.929	2849.01
212.003	2835.49
212.077	2849.6
212.151	2864.76
212.225	2875.72
212.299	2871.53
212.373	2868.48
212.447	2870.1
212.52	2904.56
212.594	2910.09
212.668	2926.39
212.742	2919.91
212.816	2926.3
212.89	2930.21
212.964	2939.22
213.038	2957.87
213.112	2984.15
213.186	3013.08
213.26	3012.37
213.333	2985.95
213.407	3008.97
213.481	3032.89
213.555	3066.39
213.629	3076.94
213.703	3084.42
213.777	3109.71
213.85	3117.3
213.924	3171.27
213.998	3199.19
214.072	3221.29
214.146	3242.04
214.219	3271.58
214.293	3306.32
214.367	3344.4
214.441	3392.27
214.515	3426.36
214.588	3445.79
214.662	3454.24
214.736	3481.88
214.81	3534.17
214.883	3591.87
214.957	3634.36
215.031	3671.98
215.105	3701.86
215.178	3744.13
215.252	3793.38
215.326	3828.55
215.4	3868.24
215.473	3887.41
215.547	3933.35
215.621	3983.47
215.694	4051.08
215.768	4098.27
215.842	4155.74
215.915	4213.05
215.989	4259.26
216.063	4319.07
216.136	4386.38
216.21	4464.01
216.284	4548.14
216.357	4623.66
216.431	4694.74
216.504	4781.78
216.578	4884.31
216.652	4980.8
216.725	5066.36
216.799	5157.49
216.873	5243.24
216.946	5337.66
217.02	5420.34
217.093	5499.91
217.167	5564.66
217.24	5638.13
217.314	5721.78
217.387	5800.03
217.461	5882.29
217.535	5988.12
217.608	6067.9
217.682	6161.9
217.755	6258.02
217.829	6337.85
217.902	6434.82
217.976	6525.79
218.049	6609.3
218.123	6686.74
218.196	6786.3
218.27	6874.84
218.343	6953.64
218.417	7047.67
218.49	7140.83
218.563	7249.58
218.637	7355.56
218.71	7472.46
218.784	7576.64
218.857	7681
218.931	7782.68
219.004	7883.71
219.077	7985.16
219.151	8087.6
219.224	8185.69
219.298	8281.71
219.371	8391.6
219.444	8475.85
219.518	8573.91
219.591	8666.35
219.665	8788.33
219.738	8879.93
219.811	8968.49
219.885	9078.87
219.958	9180.94
220.031	9269.51
220.105	9367.41
220.178	9457.45
220.251	9545.05
220.325	9641.71
220.398	9739.52
220.471	9842.2
220.544	9939.25
220.618	10018.5
220.691	10116.18
220.764	10200.97
220.838	10300.93
220.911	10385.39
220.984	10495.52
221.057	10588.36
221.131	10679.95
221.204	10737.82
221.277	10845.71
221.35	10948.93
221.424	11026.7
221.497	11112.53
221.57	11210.59
221.643	11303.37
221.716	11399.32
221.79	11487.81
221.863	11569.21
221.936	11654.86
222.009	11734.28
222.082	11821.43
222.155	11901.58
222.229	11989.6
222.302	12072.45
222.375	12150.92
222.448	12231.18
222.521	12305.75
222.594	12379.4
222.667	12451.61
222.74	12536.69
222.814	12602.54
222.887	12677.98
222.96	12771.44
223.033	12848.38
223.106	12917.99
223.179	12989.38
223.252	13056.34
223.325	13127.35
223.398	13202.36
223.471	13273.27
223.544	13341.57
223.617	13404.73
223.69	13475.25
223.763	13530.59
223.837	13601.89
223.91	13668.22
223.983	13720.67
224.056	13772.64
224.129	13846.54
224.202	13924
224.275	13980.94
224.348	14028.18
224.42	14072.38
224.493	14106.27
224.566	14160.02
224.639	14220.47
224.712	14274.61
224.785	14329.56
224.858	14379.55
224.931	14429.06
225.004	14480.78
225.077	14536.17
225.15	14569.09
225.223	14615.99
225.296	14694.42
225.369	14737.23
225.442	14783.17
225.514	14842.31
225.587	14899.34
225.66	14954.96
225.733	15003.74
225.806	15062.46
225.879	15117.5
225.952	15165.27
226.025	15233.67
226.097	15293.92
226.17	15354.18
226.243	15380.35
226.316	15434.19
226.389	15490.97
226.461	15543.7
226.534	15596.34
226.607	15637.94
226.68	15708.41
226.753	15772.37
226.825	15804.23
226.898	15872.14
226.971	15916.63
227.044	15968.73
227.117	16017.13
227.189	16066.48
227.262	16124.17
227.335	16178.83
227.407	16223.27
227.48	16284.87
227.553	16336.68
227.626	16391.09
227.698	16433.65
227.771	16495.58
227.844	16530.77
227.916	16576.36
227.989	16608.85
228.062	16646.15
228.134	16720.71
228.207	16765.82
228.28	16795.85
228.352	16836.91
228.425	16867.61
228.498	16925.59
228.57	16951.03
228.643	17015.42
228.716	17048.48
228.788	17086.07
228.861	17120.15
228.934	17177.98
229.006	17215.52
229.079	17248.15
229.151	17278.85
229.224	17296.44
229.296	17338.03
229.369	17408.78
229.442	17469.11
229.514	17506.51
229.587	17555.04
229.659	17570.46
229.732	17609.06
229.804	17665.35
229.877	17721.21
229.949	17770.56
230.022	17815.81
230.094	17870.36
230.167	17888.96
230.239	17912.24
230.312	17937.01
230.384	17990.79
230.457	18026.69
230.529	18056.86
230.602	18083.7
230.674	18120.95
230.747	18181
230.819	18225.43
230.892	18225.29
230.964	18247.79
231.037	18281.77
231.109	18310.01
231.181	18338.1
231.254	18356.46
231.326	18375.74
231.399	18399.79
231.471	18428.6
231.544	18434.92
231.616	18463.98
231.688	18498
231.761	18529.42
231.833	18556.65
231.905	18558.91
231.978	18575.39
232.05	18603.68
232.122	18642.38
232.195	18661.36
232.267	18693.12
232.339	18708.3
232.412	18740.39
232.484	18756.44
232.556	18770.17
232.629	18809.74
232.701	18848.1
232.773	18878.94
232.846	18894.26
232.918	18908.72
232.99	18927.08
233.062	18950.79
233.135	18966.4
233.207	18969.82
233.279	18989.1
233.351	19016.28
233.424	19023.94
233.496	19021.39
233.568	19053.39
233.64	19050.35
233.713	19051.22
233.785	19053.63
233.857	19067.22
233.929	19063.65
234.001	19083.17
234.074	19119.07
234.146	19101.38
234.218	19106.39
234.29	19113.86
234.362	19111.79
234.434	19109.04
234.507	19104.52
234.579	19101
234.651	19106.73
234.723	19123.6
234.795	19134.87
234.867	19129.62
234.939	19152.37
235.012	19166.34
235.084	19167.31
235.156	19170.78
235.228	19176.12
235.3	19171.31
235.372	19173.86
235.444	19191.79
235.516	19174.15
235.588	19172.94
235.66	19179.74
235.732	19159.31
235.804	19197.76
235.876	19207.88
235.948	19213.52
236.02	19212.36
236.092	19210.92
236.164	19205.67
236.236	19197.52
236.308	19192.32
236.38	19189.62
236.452	19175.21
236.524	19183.35
236.596	19183.69
236.668	19187.55
236.74	19178.44
236.812	19174.92
236.884	19165.28
236.956	19149.72
237.028	19137.48
237.1	19114.97
237.172	19124.61
237.244	19138.63
237.316	19091.17
237.388	19077.05
237.46	19060.76
237.532	19064.28
237.604	19045.34
237.675	19050.16
237.747	19045.72
237.819	19022.93
237.891	19008.42
237.963	18991.03
238.035	18961.15
238.107	18919.27
238.178	18910.65
238.25	18898.07
238.322	18905.25
238.394	18878.99
238.466	18865.35
238.538	18846.65
238.609	18838.89
238.681	18796.92
238.753	18770.51
238.825	18758.18
238.897	18740.3
238.968	18736.25
239.04	18702.9
239.112	18708.83
239.184	18678.13
239.255	18654.37
239.327	18640.69
239.399	18627.48
239.471	18613.85
239.542	18598.72
239.614	18594.38
239.686	18549.75
239.758	18540.94
239.829	18506.58
239.901	18498
239.973	18480.17
240.044	18479.25
240.116	18459.25
240.188	18438.97
240.259	18416.7
240.331	18387.5
240.403	18374.82
240.474	18341.96
240.546	18315.94
240.618	18276.32
240.689	18245.67
240.761	18223.02
240.833	18210.69
240.904	18175.51
240.976	18154.45
241.048	18132.52
241.119	18104.81
241.191	18095.95
241.262	18082.07
241.334	18057.54
241.405	18024.86
241.477	17990.5
241.549	17954.22
241.62	17931.42
241.692	17912.48
241.763	17892.97
241.835	17869.35
241.906	17836.34
241.978	17798.41
242.049	17775.28
242.121	17759.19
242.192	17759.62
242.264	17721.6
242.335	17673.5
242.407	17659.86
242.478	17622.32
242.55	17602.9
242.621	17572.34
242.693	17543.19
242.764	17512.88
242.836	17477.41
242.907	17456.06
242.979	17431.19
243.05	17402.51
243.122	17370.8
243.193	17343.43
243.264	17303.43
243.336	17275.24
243.407	17257.74
243.479	17251.33
243.55	17233.84
243.622	17209.31
243.693	17171.09
243.764	17162.32
243.836	17127.04
243.907	17089.16
243.978	17058.12
244.05	17031.18
244.121	16991.95
244.192	16971.66
244.264	16926.02
244.335	16899.22
244.407	16860.96
244.478	16842.26
244.549	16814.21
244.62	16772.76
244.692	16741.53
244.763	16723.17
244.834	16693.04
244.906	16659.74
244.977	16628.61
245.048	16610.78
245.119	16578.29
245.191	16534.58
245.262	16482.57
245.333	16475.39
245.405	16444.74
245.476	16427.63
245.547	16401.12
245.618	16386.13
245.689	16352.88
245.761	16329.31
245.832	16291.47
245.903	16265.06
245.974	16231.03
246.045	16196.09
246.117	16186.45
246.188	16140.37
246.259	16093.38
246.33	16066.96
246.401	16030.09
246.473	15983.53
246.544	15943.09
246.615	15912.05
246.686	15880.48
246.757	15861.69
246.828	15820.43
246.899	15815.41
246.97	15765.57
247.042	15727.88
247.113	15702.19
247.184	15687.44
247.255	15647.05
247.326	15617.5
247.397	15588.39
247.468	15558.7
247.539	15536.04
247.61	15488.81
247.681	15474.44
247.752	15463.5
247.823	15410.33
247.894	15389.66
247.965	15350.08
248.037	15315.62
248.108	15279.51
248.179	15250.16
248.25	15220.95
248.321	15205.23
248.392	15160.5
248.463	15154.77
248.534	15118.23
248.605	15094.18
248.675	15062.41
248.746	15038.89
248.817	15025.73
248.888	14998.11
248.959	14958
249.03	14931.78
249.101	14905.32
249.172	14874.85
249.243	14822.74
249.314	14820.77
249.385	14788.04
249.456	14767.36
249.527	14734.24
249.598	14702.91
249.669	14673.12
249.739	14647.81
249.81	14621.06
249.881	14582.78
249.952	14549.09
250.023	14520.26
250.094	14477.74
250.165	14442.12
250.235	14413.39
250.306	14389.77
250.377	14360.46
250.448	14335.88
250.519	14291.48
250.59	14276.78
250.66	14248.34
250.731	14236.14
250.802	14202.54
250.873	14177.42
250.944	14159.11
251.014	14131.15
251.085	14127.92
251.156	14106.56
251.227	14096.39
251.297	14082.27
251.368	14065.01
251.439	14053.05
251.51	14039.07
251.58	14006.15
251.651	13974.57
251.722	13962.09
251.792	13913.98
251.863	13883.95
251.934	13872.81
252.005	13879.94
252.075	13850.83
252.146	13833.33
252.217	13823.11
252.287	13808.26
252.358	13779.96
252.429	13769.21
252.499	13744.05
252.57	13727.61
252.641	13704.76
252.711	13675.36
252.782	13631.54
252.852	13627.39
252.923	13601.36
252.994	13585.93
253.064	13574.41
253.135	13541.49
253.205	13508.66
253.276	13499.02
253.347	13491.26
253.417	13458.96
253.488	13421.84
253.558	13399.23
253.629	13371.32
253.699	13349.14
253.77	13331.98
253.841	13307.73
253.911	13291.05
253.982	13268.16
254.052	13249.84
254.123	13241.69
254.193	13215.08
254.264	13230.94
254.334	13190.78
254.405	13155.35
254.475	13110.33
254.546	13084.73
254.616	13081.6
254.687	13061.49
254.757	13041.63
254.827	13017.24
254.898	12996.37
254.968	12979.54
255.039	12950.57
255.109	12942.43
255.18	12905.26
255.25	12864.81
255.321	12854.84
255.391	12811.93
255.461	12803.88
255.532	12756.54
255.602	12723.72
255.673	12690.89
255.743	12657
255.813	12617.13
255.884	12603.88
255.954	12600.6
256.024	12601.28
256.095	12571.82
256.165	12544.44
256.235	12532.2
256.306	12503.71
256.376	12494.65
256.446	12480.91
256.517	12466.54
256.587	12452.61
256.657	12446.83
256.728	12431.21
256.798	12404.17
256.868	12382.04
256.938	12350.9
257.009	12337.41
257.079	12314.41
257.149	12310.36
257.219	12266.69
257.29	12255.99
257.36	12221.57
257.43	12207.69
257.5	12159.34
257.571	12140.93
257.641	12127.77
257.711	12093.4
257.781	12073.69
257.852	12058.79
257.922	12021.82
257.992	11997.77
258.062	11967.5
258.132	11949.23
258.202	11920.84
258.273	11909.85
258.343	11903.1
258.413	11882.33
258.483	11868.21
258.553	11850.47
258.623	11822.8
258.693	11812.25
258.764	11801.45
258.834	11797.21
258.904	11779.52
258.974	11756.24
259.044	11735.99
259.114	11723.7
259.184	11711.89
259.254	11694.5
259.324	11652.18
259.394	11641.96
259.464	11637.67
259.535	11617.23
259.605	11596.65
259.675	11576.6
259.745	11559.11
259.815	11535.06
259.885	11515.2
259.955	11516.89
260.025	11485.51
260.095	11469.99
260.165	11453.51
260.235	11452.98
260.305	11425.85
260.375	11390.37
260.445	11396.11
260.515	11389.22
260.585	11378.28
260.655	11352.49
260.725	11342.03
260.795	11334.42
260.865	11332.3
260.934	11308.11
261.004	11303.24
261.074	11283.33
261.144	11281.65
261.214	11269.26
261.284	11248.25
261.354	11234.95
261.424	11206.32
261.494	11208.1
261.564	11187.76
261.634	11173.93
261.703	11137.98
261.773	11125.93
261.843	11122.46
261.913	11097.74
261.983	11058.71
262.053	11048.49
262.123	11035.29
262.192	11008.73
262.262	11001.27
262.332	10967
262.402	10960.74
262.472	10941.8
