Data from 20250630_urea_2M_MAYP1162681_00-42-27-245.txt Node
Date: Tue Jul 01 00:42:27 BST 2025
User: adleo
Spectrometer: MAYP116268
Trigger mode: 0
Integration Time (sec): 1.000000E0
Scans to average: 1
Electric dark correction enabled: true
Nonlinearity correction enabled: true
Boxcar width: 10
XAxis mode: Wavelengths
Number of Pixels in Spectrum: 2068
>>>>>Begin Spectral Data<<<<<
179.565	1082.3
179.642	1135.57
179.718	1175.65
179.795	1213.21
179.871	1241.31
179.948	1254.31
180.024	1272.22
180.101	1292.97
180.177	1307.18
180.254	1327.79
180.33	1347.54
180.407	1392.35
180.483	1477.39
180.56	1557.25
180.636	1632.92
180.712	1622.51
180.789	1631.06
180.865	1639.66
180.942	1649.06
181.018	1661.84
181.095	1673.58
181.171	1675.72
181.248	1674.77
181.324	1688.07
181.4	1690.12
181.477	1701.66
181.553	1714.68
181.63	1735.97
181.706	1749.75
181.782	1755.02
181.859	1753.55
181.935	1760.06
182.011	1755.69
182.088	1774.32
182.164	1792.48
182.24	1804.26
182.317	1811.53
182.393	1812.72
182.469	1827.98
182.546	1842.71
182.622	1846.09
182.698	1844.71
182.775	1859.77
182.851	1873.56
182.927	1866.9
183.003	1865.95
183.08	1858.4
183.156	1866.86
183.232	1864.86
183.308	1855.97
183.385	1866.81
183.461	1884.92
183.537	1884.87
183.613	1898.75
183.69	1888.58
183.766	1881.82
183.842	1890.24
183.918	1896.18
183.995	1907.49
184.071	1912.11
184.147	1904.55
184.223	1893.9
184.299	1904.08
184.375	1891.58
184.452	1896.09
184.528	1948.21
184.604	1956.96
184.68	1969.22
184.756	1976.83
184.832	1978.21
184.908	1982.68
184.985	1980.25
185.061	1966.37
185.137	1975.88
185.213	1965.85
185.289	1966.56
185.365	1960.52
185.441	1956.77
185.517	1969.89
185.593	1969.66
185.669	1963.81
185.745	1973.22
185.822	1988.43
185.898	1982.53
185.974	1991.33
186.05	1985.86
186.126	1948.19
186.202	1944.1
186.278	1940.4
186.354	1933.5
186.43	1939.54
186.506	1936.21
186.582	1935.03
186.658	1936.5
186.734	1913.21
186.81	1912.78
186.886	1915.49
186.962	1924.52
187.038	1924.1
187.114	1912.25
187.19	1919.24
187.266	1913.16
187.341	1913.02
187.417	1908.12
187.493	1907.55
187.569	1909.45
187.645	1903.51
187.721	1893.86
187.797	1900.75
187.873	1903.41
187.949	1897.42
188.025	1891.14
188.101	1892.14
188.176	1899.08
188.252	1896.23
188.328	1908.44
188.404	1907.78
188.48	1902.22
188.556	1893.56
188.632	1891.99
188.707	1896.23
188.783	1892.33
188.859	1887.58
188.935	1878.4
189.011	1884.82
189.086	1877.12
189.162	1871.55
189.238	1871.32
189.314	1869.51
189.39	1861.95
189.465	1857.77
189.541	1872.03
189.617	1858.82
189.693	1858.44
189.768	1861.24
189.844	1887.3
189.92	1878.8
189.996	1888.4
190.071	1898.38
190.147	1899.29
190.223	1907.89
190.298	1898.86
190.374	1886.35
190.45	1895.72
190.526	1905.13
190.601	1899.38
190.677	1900.9
190.753	1926.35
190.828	1925.59
190.904	1936.38
190.98	1948.98
191.055	1957.49
191.131	1950.6
191.207	1970.71
191.282	1977.5
191.358	1969.14
191.433	1953.68
191.509	1966.94
191.585	1963.51
191.66	1964.8
191.736	1974.16
191.811	1966.41
191.887	1983.11
191.963	2005.12
192.038	2012.4
192.114	2011.16
192.189	2015.11
192.265	2011.26
192.34	1990.56
192.416	1993.27
192.491	1990.37
192.567	1996.74
192.642	2000.03
192.718	1999.36
192.793	1986.85
192.869	1983.91
192.944	1985.76
193.02	1992.37
193.095	1991.8
193.171	2000.41
193.246	2004.93
193.322	1999.89
193.397	2001.93
193.473	1987.23
193.548	1971.49
193.624	1976.58
193.699	1975.63
193.775	1989.95
193.85	1993.8
193.925	2001.26
194.001	1999.36
194.076	1993.13
194.152	1981.62
194.227	1975.49
194.302	1965.31
194.378	1969.64
194.453	1968.12
194.529	1978.01
194.604	1963.7
194.679	1960.75
194.755	1942.16
194.83	1950.01
194.905	1948.06
194.981	1952.49
195.056	1946.21
195.131	1951.58
195.207	1947.87
195.282	1938.56
195.357	1920.44
195.433	1934.32
195.508	1923.19
195.583	1929.8
195.659	1943.45
195.734	1952.2
195.809	1949.06
195.884	1958.09
195.96	1955.86
196.035	1967.17
196.11	1963.7
196.185	1975.83
196.261	1977.97
196.336	2005.69
196.411	1993.89
196.486	1997.12
196.561	1992.8
196.637	1999.83
196.712	2015.48
196.787	2016.82
196.862	2029.84
196.937	2040.35
197.013	2045.82
197.088	2057.28
197.163	2077.74
197.238	2092.59
197.313	2091.59
197.388	2107.67
197.464	2136.6
197.539	2150.29
197.614	2146.16
197.689	2156.48
197.764	2173.32
197.839	2193.73
197.914	2188.31
197.989	2206.48
198.065	2222.99
198.14	2267.93
198.215	2293.86
198.29	2302.38
198.365	2316.56
198.44	2327.69
198.515	2353.3
198.59	2366.87
198.665	2390.19
198.74	2400.19
198.815	2400.86
198.89	2420.85
198.965	2448.33
199.04	2443.28
199.115	2456.99
199.19	2497.45
199.265	2500.64
199.34	2510.36
199.415	2542.89
199.49	2562.75
199.565	2571.6
199.64	2592.03
199.715	2591.65
199.79	2597.89
199.865	2606.22
199.94	2604.13
200.015	2630.85
200.09	2635.33
200.165	2643.28
200.24	2646.61
200.315	2683.71
200.39	2697.05
200.464	2702.81
200.539	2703.53
200.614	2719.96
200.689	2743.16
200.764	2748.4
200.839	2765.17
200.914	2769.26
200.989	2755.68
201.063	2767.4
201.138	2750.64
201.213	2751.83
201.288	2731.92
201.363	2738.21
201.438	2737.26
201.512	2754.78
201.587	2742.06
201.662	2742.82
201.737	2753.11
201.812	2760.21
201.886	2727.93
201.961	2738.08
202.036	2726.46
202.111	2721.36
202.186	2693.61
202.26	2676.59
202.335	2655.3
202.41	2648.63
202.485	2630.2
202.559	2614.53
202.634	2588.62
202.709	2599
202.784	2581.85
202.858	2582.99
202.933	2567.42
203.008	2560.47
203.082	2539.94
203.157	2538.04
203.232	2500.63
203.306	2477.52
203.381	2450.71
203.456	2428.86
203.53	2407.27
203.605	2391.19
203.68	2370.23
203.754	2365.43
203.829	2349.53
203.904	2328.78
203.978	2320.49
204.053	2326.49
204.127	2314.21
204.202	2314.31
204.277	2298.56
204.351	2291.66
204.426	2284.04
204.5	2273.24
204.575	2242.41
204.65	2254.88
204.724	2247.45
204.799	2255.96
204.873	2253.25
204.948	2250.54
205.022	2246.83
205.097	2237.78
205.171	2249.96
205.246	2256.05
205.32	2254.77
205.395	2254.68
205.469	2248.07
205.544	2255.02
205.618	2239.03
205.693	2248.4
205.767	2236.36
205.842	2256.83
205.916	2249.03
205.991	2239.56
206.065	2249.41
206.14	2262.49
206.214	2255.92
206.289	2249.3
206.363	2259.29
206.438	2262.24
206.512	2270.71
206.586	2281.14
206.661	2289.28
206.735	2268.78
206.81	2273.49
206.884	2286.67
206.958	2274.06
207.033	2290
207.107	2297.62
207.181	2325.04
207.256	2319.61
207.33	2339.03
207.405	2351.46
207.479	2373.07
207.553	2381.58
207.628	2362.51
207.702	2373.26
207.776	2368.74
207.851	2371.83
207.925	2388.35
207.999	2385.45
208.073	2382.21
208.148	2384.83
208.222	2373.22
208.296	2401.48
208.371	2418.06
208.445	2429.2
208.519	2459.76
208.593	2471.18
208.668	2464.23
208.742	2465.7
208.816	2471.51
208.89	2483.94
208.965	2480.27
209.039	2485.37
209.113	2501.99
209.187	2520.3
209.261	2518.92
209.336	2534.35
209.41	2554.5
209.484	2553.83
209.558	2574.74
209.632	2588.45
209.707	2596.64
209.781	2617.92
209.855	2632.36
209.929	2644.95
210.003	2651.8
210.077	2650.14
210.151	2697.48
210.226	2729.03
210.3	2756.83
210.374	2777.64
210.448	2782.88
210.522	2792.46
210.596	2803.81
210.67	2812.72
210.744	2857.52
210.818	2887.43
210.892	2906.54
210.966	2901.16
211.041	2918.08
211.115	2913.98
211.189	2938.43
211.263	2958.07
211.337	2965.22
211.411	2982.57
211.485	2981
211.559	2991.82
211.633	2995.91
211.707	2968.34
211.781	2980.94
211.855	2953.85
211.929	2951.81
212.003	2941.99
212.077	2959.88
212.151	2979.91
212.225	3000.12
212.299	3001.94
212.373	3001.56
212.447	3013.2
212.52	3052.15
212.594	3067.13
212.668	3096.45
212.742	3099.7
212.816	3113.25
212.89	3130.65
212.964	3151.98
213.038	3176.47
213.112	3213.68
213.186	3253.8
213.26	3264.43
213.333	3252.17
213.407	3288.17
213.481	3323.42
213.555	3369.97
213.629	3397.56
213.703	3422.54
213.777	3459.79
213.85	3484.76
213.924	3561.85
213.998	3606.42
214.072	3652.25
214.146	3695
214.219	3748.56
214.293	3802.87
214.367	3864.66
214.441	3935.11
214.515	3990.57
214.588	4038.04
214.662	4077
214.736	4132.65
214.81	4212.93
214.883	4297.54
214.957	4369.26
215.031	4439.7
215.105	4499.56
215.178	4574.56
215.252	4656.21
215.326	4723.22
215.4	4801
215.473	4854.27
215.547	4941.55
215.621	5034.33
215.694	5144.32
215.768	5229.81
215.842	5324.54
215.915	5420.14
215.989	5509.61
216.063	5612.11
216.136	5722.93
216.21	5844.22
216.284	5973.18
216.357	6095.53
216.431	6211.32
216.504	6335.33
216.578	6484.4
216.652	6622.58
216.725	6749.94
216.799	6877.72
216.873	7012.59
216.946	7151.9
217.02	7277.92
217.093	7405.58
217.167	7516.53
217.24	7631.84
217.314	7761.16
217.387	7884.43
217.461	8011.44
217.535	8155.55
217.608	8278.56
217.682	8421.32
217.755	8565.58
217.829	8686.81
217.902	8826.73
217.976	8963.76
218.049	9098.21
218.123	9218.87
218.196	9363.17
218.27	9496.99
218.343	9626.58
218.417	9769.86
218.49	9902.26
218.563	10053.21
218.637	10195.22
218.71	10342.1
218.784	10483.5
218.857	10624.13
218.931	10770.05
219.004	10902.41
219.077	11045.53
219.151	11178.57
219.224	11304.64
219.298	11423.82
219.371	11565.9
219.444	11679.74
219.518	11810.25
219.591	11935.03
219.665	12087.44
219.738	12211.13
219.811	12321.51
219.885	12451.36
219.958	12576.26
220.031	12696.62
220.105	12820.46
220.178	12933.69
220.251	13051.74
220.325	13176.79
220.398	13295.9
220.471	13412.66
220.544	13531.29
220.618	13624.81
220.691	13740.6
220.764	13849.93
220.838	13966.69
220.911	14069.94
220.984	14192.87
221.057	14294.68
221.131	14400.87
221.204	14471.16
221.277	14587.86
221.35	14722.88
221.424	14821.6
221.497	14914.92
221.57	15016.1
221.643	15119.35
221.716	15224.04
221.79	15317.22
221.863	15404.22
221.936	15487.61
222.009	15581.51
222.082	15674.73
222.155	15765.83
222.229	15871.87
222.302	15967.25
222.375	16058.06
222.448	16147.23
222.521	16230.66
222.594	16316.74
222.667	16389.23
222.74	16478.45
222.814	16546.31
222.887	16608.33
222.96	16690.7
223.033	16769.21
223.106	16841.94
223.179	16917.46
223.252	16982.04
223.325	17047.59
223.398	17110.14
223.471	17180.02
223.544	17248.03
223.617	17311.93
223.69	17388.94
223.763	17438.15
223.837	17494.25
223.91	17554.87
223.983	17593.33
224.056	17636.75
224.129	17702.1
224.202	17767.16
224.275	17818.15
224.348	17860.94
224.42	17909.57
224.493	17949.32
224.566	17996.7
224.639	18058.14
224.712	18098.96
224.785	18153.85
224.858	18200.83
224.931	18237.75
225.004	18290.61
225.077	18328.78
225.15	18357.6
225.223	18395.23
225.296	18468.29
225.369	18502.7
225.442	18539.32
225.514	18589.73
225.587	18636.23
225.66	18682.88
225.733	18726.1
225.806	18774.78
225.879	18819.11
225.952	18846.72
226.025	18899.2
226.097	18951.39
226.17	18975.25
226.243	18989.08
226.316	19026.04
226.389	19072.73
226.461	19124.97
226.534	19151.57
226.607	19197.5
226.68	19258.89
226.753	19290.31
226.825	19299.13
226.898	19332
226.971	19360.38
227.044	19400.18
227.117	19438.11
227.189	19471.51
227.262	19518.35
227.335	19550.01
227.407	19584.22
227.48	19619.69
227.553	19657.71
227.626	19678.39
227.698	19714.87
227.771	19753.95
227.844	19776.6
227.916	19810.62
227.989	19829.08
228.062	19867.82
228.134	19916.01
228.207	19942.18
228.28	19960.25
228.352	19988.4
228.425	20028.01
228.498	20057.89
228.57	20075.82
228.643	20117.16
228.716	20134.71
228.788	20140.06
228.861	20156.58
228.934	20180.49
229.006	20204.05
229.079	20208.63
229.151	20223.62
229.224	20230.17
229.296	20248.15
229.369	20290.12
229.442	20309.74
229.514	20314.9
229.587	20342.41
229.659	20323.91
229.732	20344.1
229.804	20382.41
229.877	20414.37
229.949	20433.93
230.022	20478.71
230.094	20509.31
230.167	20518.85
230.239	20532.15
230.312	20558.08
230.384	20596.39
230.457	20622.8
230.529	20642.13
230.602	20666.51
230.674	20692.15
230.747	20729.74
230.819	20764.25
230.892	20746.32
230.964	20763.96
231.037	20786.61
231.109	20786.71
231.181	20820.25
231.254	20817.22
231.326	20817.99
231.399	20823.96
231.471	20831.72
231.544	20812.59
231.616	20823.43
231.688	20830.85
231.761	20823.48
231.833	20829.65
231.905	20813.65
231.978	20821.02
232.05	20826.42
232.122	20828.49
232.195	20835.38
232.267	20846.28
232.339	20846.52
232.412	20863.19
232.484	20856.98
232.556	20861.75
232.629	20898.28
232.701	20907.68
232.773	20912.16
232.846	20909.8
232.918	20906.14
232.99	20904.98
233.062	20921.22
233.135	20913.32
233.207	20894.86
233.279	20905.22
233.351	20898.38
233.424	20891.97
233.496	20884.01
233.568	20892.4
233.64	20881.32
233.713	20870.66
233.785	20865.12
233.857	20859.87
233.929	20838.18
234.001	20849.51
234.074	20850.81
234.146	20817.07
234.218	20804.44
234.29	20797.17
234.362	20786.13
234.434	20766.08
234.507	20749.17
234.579	20719.81
234.651	20712.06
234.723	20722.13
234.795	20706.13
234.867	20696.87
234.939	20709.79
235.012	20696.1
235.084	20687.72
235.156	20688.01
235.228	20670.71
235.3	20646.46
235.372	20629.93
235.444	20633.45
235.516	20594.46
235.588	20584.87
235.66	20567.86
235.732	20541.45
235.804	20578.22
235.876	20566.22
235.948	20570.13
236.02	20560.97
236.092	20541.07
236.164	20523.81
236.236	20499.67
236.308	20495.52
236.38	20488.29
236.452	20453.79
236.524	20435.28
236.596	20441.16
236.668	20429.69
236.74	20418.32
236.812	20406.08
236.884	20404.1
236.956	20377.98
237.028	20360.1
237.1	20325.74
237.172	20315.96
237.244	20311.43
237.316	20257.21
237.388	20229.31
237.46	20189.16
237.532	20180.39
237.604	20149.45
237.675	20145.36
237.747	20134.18
237.819	20102.23
237.891	20063.14
237.963	20023.39
238.035	19992.59
238.107	19916.79
238.178	19895.39
238.25	19859.92
238.322	19858.48
238.394	19803.34
238.466	19786.33
238.538	19767.97
238.609	19755.83
238.681	19715.83
238.753	19681.37
238.825	19644.36
238.897	19626
238.968	19618.29
239.04	19580.37
239.112	19590.82
239.184	19540.66
239.255	19506.39
239.327	19482.97
239.399	19467.75
239.471	19462.83
239.542	19440.57
239.614	19435.03
239.686	19390.55
239.758	19372.43
239.829	19322.94
239.901	19315.18
239.973	19276.62
240.044	19245.59
240.116	19219.86
240.188	19186.27
240.259	19150.75
240.331	19123.24
240.403	19099
240.474	19051.77
240.546	19009.17
240.618	18956.45
240.689	18927.78
240.761	18901.42
240.833	18873.85
240.904	18841.71
240.976	18805.09
241.048	18775.31
241.119	18745.81
241.191	18712.61
241.262	18698.69
241.334	18661.82
241.405	18622.5
241.477	18587.17
241.549	18552.38
241.62	18516.48
241.692	18495.85
241.763	18483.81
241.835	18452.82
241.906	18416.53
241.978	18375.14
242.049	18358.8
242.121	18332.92
242.192	18312.97
242.264	18266.13
242.335	18218.42
242.407	18186.23
242.478	18145.36
242.55	18115.44
242.621	18080.11
242.693	18039.1
242.764	17994.29
242.836	17955.2
242.907	17930.38
242.979	17903.25
243.05	17879.74
243.122	17854.19
243.193	17819.69
243.264	17768.85
243.336	17731.74
243.407	17713.28
243.479	17705.28
243.55	17678.63
243.622	17643.31
243.693	17608.56
243.764	17588.75
243.836	17553.57
243.907	17517.81
243.978	17486.97
244.05	17460.9
244.121	17410.34
244.192	17403.11
244.264	17361.38
244.335	17335.55
244.407	17284.27
244.478	17264.66
244.549	17225.19
244.62	17176.94
244.692	17138.44
244.763	17111.74
244.834	17069.23
244.906	17030
244.977	16998.53
245.048	16974.77
245.119	16943.78
245.191	16900.89
245.262	16848.89
245.333	16832.74
245.405	16806.09
245.476	16777.7
245.547	16745.94
245.618	16727.96
245.689	16688.88
245.761	16655.62
245.832	16626.9
245.903	16605.74
245.974	16563.62
246.045	16525.88
246.117	16509.83
246.188	16470.26
246.259	16422.06
246.33	16394.64
246.401	16365.38
246.473	16311.4
246.544	16267.98
246.615	16240.55
246.686	16202.76
246.757	16181.22
246.828	16134.13
246.899	16112.2
246.97	16065.3
247.042	16027.71
247.113	15996.33
247.184	15984.23
247.255	15954.3
247.326	15920.13
247.397	15889.52
247.468	15861.32
247.539	15830.04
247.61	15783.72
247.681	15767.96
247.752	15753.07
247.823	15716.15
247.894	15677.78
247.965	15643.94
248.037	15606.73
248.108	15559.45
248.179	15529.08
248.25	15502.76
248.321	15494.28
248.392	15450.99
248.463	15447.18
248.534	15416.09
248.605	15395.56
248.675	15354.3
248.746	15327.21
248.817	15304.46
248.888	15278.87
248.959	15235.48
249.03	15216.11
249.101	15190.32
249.172	15154.6
249.243	15112.04
249.314	15098.4
249.385	15069.71
249.456	15048.12
249.527	15020.11
249.598	15003.48
249.669	14981.41
249.739	14948.63
249.81	14917.25
249.881	14876.32
249.952	14845.57
250.023	14808.5
250.094	14764.01
250.165	14724.38
250.235	14692.09
250.306	14661.19
250.377	14621.27
250.448	14599.97
250.519	14557.31
250.59	14543.42
250.66	14511.95
250.731	14490.64
250.802	14460.13
250.873	14435.49
250.944	14407.82
251.014	14377.74
251.085	14375.91
251.156	14353.4
251.227	14343.61
251.297	14323.66
251.368	14309.77
251.439	14296.71
251.51	14289.05
251.58	14261.04
251.651	14230.43
251.722	14220.88
251.792	14179.18
251.863	14152.38
251.934	14142.6
252.005	14140.28
252.075	14116.95
252.146	14099.21
252.217	14087.45
252.287	14071.64
252.358	14041.8
252.429	14037.12
252.499	14003.91
252.57	13968.76
252.641	13949.1
252.711	13922.73
252.782	13883.68
252.852	13874.04
252.923	13838.27
252.994	13816.67
253.064	13810.5
253.135	13782.45
253.205	13743.59
253.276	13736.75
253.347	13721.9
253.417	13686.85
253.488	13660.34
253.558	13630.69
253.629	13606.69
253.699	13587.98
253.77	13561.18
253.841	13543.58
253.911	13517.74
253.982	13500.05
254.052	13490.6
254.123	13472.91
254.193	13451.32
254.264	13460.72
254.334	13428.18
254.405	13399.06
254.475	13366.47
254.546	13336.34
254.616	13329.88
254.687	13316.39
254.757	13295.13
254.827	13274.16
254.898	13254.01
254.968	13229.37
255.039	13200.3
255.109	13186.13
255.18	13151.38
255.25	13116.76
255.321	13095.84
255.391	13060.89
255.461	13052.6
255.532	13005.45
255.602	12972.72
255.673	12927.22
255.743	12898.63
255.813	12860.74
255.884	12847
255.954	12830.66
256.024	12826.32
256.095	12792.34
256.165	12754.06
256.235	12741
256.306	12716.41
256.376	12709.13
256.446	12700.41
256.517	12685.27
256.587	12671.82
256.657	12652.59
256.728	12637.31
256.798	12613.16
256.868	12588.67
256.938	12560.95
257.009	12538.63
257.079	12524.37
257.149	12528.56
257.219	12490.53
257.29	12473.46
257.36	12432.05
257.43	12416
257.5	12370.98
257.571	12349
257.641	12343.6
257.711	12304.27
257.781	12286.91
257.852	12270.52
257.922	12223.86
257.992	12203.47
258.062	12182.99
258.132	12168.72
258.202	12141.53
258.273	12129.72
258.343	12130.93
258.413	12107.94
258.483	12100.75
258.553	12072.94
258.623	12039.78
258.693	12018.86
258.764	12013.07
258.834	12007.19
258.904	11983.86
258.974	11961.5
259.044	11950.9
259.114	11930.6
259.184	11919.18
259.254	11897.15
259.324	11852.86
259.394	11842.69
259.464	11838.15
259.535	11814.73
259.605	11792.07
259.675	11768.31
259.745	11751.11
259.815	11722.81
259.885	11697.27
259.955	11697.27
260.025	11674.13
260.095	11656.88
260.165	11643.91
260.235	11637.31
260.305	11622.32
260.375	11588.77
260.445	11590.17
260.515	11586.41
260.585	11584.48
260.655	11571.81
260.725	11574.56
260.795	11566.7
260.865	11568.72
260.934	11536.29
261.004	11524.72
261.074	11506.07
261.144	11499.13
261.214	11487.75
261.284	11465.15
261.354	11460.81
261.424	11435.7
261.494	11437.19
261.564	11425.87
261.634	11418.54
261.703	11384.08
261.773	11365.29
261.843	11362.97
261.913	11339.12
261.983	11298.97
262.053	11278.06
262.123	11255.02
262.192	11213.38
262.262	11201.67
262.332	11169.72
262.402	11159.31
