Data from 20250630_urea_2M_MAYP1162681_11-22-27-150.txt Node
Date: Tue Jul 01 11:22:27 BST 2025
User: adleo
Spectrometer: MAYP116268
Trigger mode: 0
Integration Time (sec): 1.000000E0
Scans to average: 1
Electric dark correction enabled: true
Nonlinearity correction enabled: true
Boxcar width: 10
XAxis mode: Wavelengths
Number of Pixels in Spectrum: 2068
>>>>>Begin Spectral Data<<<<<
179.565	1119.61
179.642	1171.57
179.718	1211.69
179.795	1247.87
179.871	1274.5
179.948	1289.7
180.024	1308.63
180.101	1329.61
180.177	1344.54
180.254	1366.17
180.33	1388.82
180.407	1435.82
180.483	1524.89
180.56	1608.32
180.636	1684.42
180.712	1669.87
180.789	1680.47
180.865	1693.39
180.942	1701.61
181.018	1712.3
181.095	1725.99
181.171	1730.88
181.248	1731.12
181.324	1744.81
181.4	1750.75
181.477	1763.82
181.553	1776.31
181.63	1795.94
181.706	1811.77
181.782	1817.42
181.859	1816.95
181.935	1821.56
182.011	1817.94
182.088	1829.73
182.164	1846.28
182.24	1860.53
182.317	1870.8
182.393	1869.71
182.469	1882.78
182.546	1893.71
182.622	1895.94
182.698	1893.04
182.775	1904.5
182.851	1917.57
182.927	1911.25
183.003	1907.92
183.08	1903.41
183.156	1914.01
183.232	1910.73
183.308	1898.99
183.385	1906.97
183.461	1921.95
183.537	1920.81
183.613	1931.6
183.69	1926.51
183.766	1917.33
183.842	1925.94
183.918	1932.07
183.995	1942.15
184.071	1945
184.147	1939.34
184.223	1929.22
184.299	1936.5
184.375	1927.66
184.452	1932.6
184.528	1987.83
184.604	1997.52
184.68	2005.23
184.756	2008.7
184.832	2011.79
184.908	2016.02
184.985	2014.73
185.061	2000.19
185.137	2009.7
185.213	2000.43
185.289	2003.14
185.365	1995.67
185.441	1995.53
185.517	2005.81
185.593	2005.57
185.669	2000.05
185.745	2012.03
185.822	2029.48
185.898	2022.77
185.974	2028.72
186.05	2021.72
186.126	1977.58
186.202	1971.87
186.278	1969.07
186.354	1960.98
186.43	1970.31
186.506	1968.79
186.582	1970.74
186.658	1976.87
186.734	1955.38
186.81	1956.52
186.886	1957.23
186.962	1971.64
187.038	1965.51
187.114	1959.8
187.19	1967.31
187.266	1963.46
187.341	1963.56
187.417	1956.33
187.493	1956.09
187.569	1961.37
187.645	1956.52
187.721	1949.01
187.797	1956.28
187.873	1961.7
187.949	1957.14
188.025	1949.19
188.101	1951.52
188.176	1955.42
188.252	1951.9
188.328	1960.93
188.404	1961.36
188.48	1956.28
188.556	1946.96
188.632	1947.24
188.707	1947.15
188.783	1944.1
188.859	1938.16
188.935	1924.09
189.011	1933.4
189.086	1928.75
189.162	1919.62
189.238	1917.15
189.314	1916.48
189.39	1908.21
189.465	1900.98
189.541	1916.01
189.617	1901.74
189.693	1897.75
189.768	1899.04
189.844	1924.24
189.92	1917.59
189.996	1926.91
190.071	1939.37
190.147	1939.6
190.223	1947.74
190.298	1940.22
190.374	1926.53
190.45	1938.89
190.526	1950.21
190.601	1941.69
190.677	1941.79
190.753	1966.91
190.828	1970.42
190.904	1981.36
190.98	1997.53
191.055	2007.32
191.131	1999.34
191.207	2017.88
191.282	2028.95
191.358	2021.35
191.433	2003.93
191.509	2015.34
191.585	2010.54
191.66	2010.49
191.736	2018.1
191.811	2009.06
191.887	2023.48
191.963	2046.73
192.038	2049.35
192.114	2049.06
192.189	2055.05
192.265	2051.54
192.34	2032.5
192.416	2032.74
192.491	2029.65
192.567	2031.84
192.642	2034.93
192.718	2036.07
192.793	2026.23
192.869	2020.38
192.944	2022.99
193.02	2031.79
193.095	2036.22
193.171	2041.07
193.246	2041.3
193.322	2041.07
193.397	2043.68
193.473	2032.17
193.548	2012.81
193.624	2016.85
193.699	2013.62
193.775	2029.46
193.85	2034.17
193.925	2040.26
194.001	2037.21
194.076	2030.51
194.152	2019.71
194.227	2012.01
194.302	2000.79
194.378	2002.98
194.453	2001.22
194.529	2012.39
194.604	2001.07
194.679	1994.89
194.755	1980.25
194.83	1990.57
194.905	1988.86
194.981	1994.95
195.056	1988.2
195.131	1993.76
195.207	1995.14
195.282	1986.82
195.357	1966.6
195.433	1980.63
195.508	1971.17
195.583	1979.73
195.659	1993.9
195.734	2002.03
195.809	2001.08
195.884	2010.83
195.96	2014.77
196.035	2031.42
196.11	2027.04
196.185	2036.55
196.261	2039.79
196.336	2067.56
196.411	2055.62
196.486	2057.14
196.561	2049.53
196.637	2058
196.712	2077.26
196.787	2078.22
196.862	2094.24
196.937	2102.61
197.013	2107.13
197.088	2116.02
197.163	2137.82
197.238	2152
197.313	2153.52
197.388	2166.27
197.464	2195.54
197.539	2201.25
197.614	2192.02
197.689	2201.77
197.764	2215.86
197.839	2237.17
197.914	2231.37
197.989	2251.26
198.065	2266.2
198.14	2315.48
198.215	2338.32
198.29	2346.98
198.365	2360.79
198.44	2369.88
198.515	2398.96
198.59	2412.39
198.665	2437.28
198.74	2441.57
198.815	2446.71
198.89	2463.56
198.965	2494.14
199.04	2493.47
199.115	2510.8
199.19	2551.12
199.265	2555.6
199.34	2564.6
199.415	2596.52
199.49	2620.33
199.565	2632.38
199.64	2651.33
199.715	2646.76
199.79	2657.71
199.865	2664.53
199.94	2661.62
200.015	2691.35
200.09	2695.78
200.165	2702.07
200.24	2707.93
200.315	2750.22
200.39	2762.94
200.464	2774.28
200.539	2775.33
200.614	2786.57
200.689	2807.54
200.764	2815.64
200.839	2837.84
200.914	2844.27
200.989	2833.25
201.063	2844.5
201.138	2826.07
201.213	2830.5
201.288	2815.35
201.363	2816.55
201.438	2816.21
201.512	2833.26
201.587	2819.49
201.662	2822.59
201.737	2835.31
201.812	2845.18
201.886	2808.27
201.961	2814.7
202.036	2801.56
202.111	2797.08
202.186	2770.55
202.26	2756.4
202.335	2733.86
202.41	2725.76
202.485	2707.99
202.559	2687.98
202.634	2661.69
202.709	2670.78
202.784	2650.97
202.858	2651.82
202.933	2636.2
203.008	2629.2
203.082	2608.77
203.157	2606.38
203.232	2562.4
203.306	2540.53
203.381	2510.71
203.456	2492.85
203.53	2472.79
203.605	2456.94
203.68	2436.27
203.754	2429.99
203.829	2414.89
203.904	2395.04
203.978	2381.28
204.053	2386.33
204.127	2377.14
204.202	2379.09
204.277	2361.39
204.351	2353.53
204.426	2345.87
204.5	2338.35
204.575	2308.27
204.65	2316.84
204.724	2312.08
204.799	2322.83
204.873	2319.97
204.948	2318.54
205.022	2307.89
205.097	2300.5
205.171	2310.21
205.246	2315.97
205.32	2313.83
205.395	2314.59
205.469	2308.6
205.544	2315.12
205.618	2299.13
205.693	2308.22
205.767	2293.99
205.842	2315.8
205.916	2312.27
205.991	2300.47
206.065	2305.95
206.14	2318.03
206.214	2314.98
206.289	2306.93
206.363	2317.97
206.438	2321.73
206.512	2324.26
206.586	2341.91
206.661	2347.86
206.735	2326.17
206.81	2330.12
206.884	2344.4
206.958	2331.36
207.033	2345.73
207.107	2352.78
207.181	2384.87
207.256	2376.49
207.33	2395.67
207.405	2407.68
207.479	2425.53
207.553	2436.14
207.628	2421.34
207.702	2433.77
207.776	2427.29
207.851	2430.39
207.925	2444.15
207.999	2440.39
208.073	2442.58
208.148	2445.96
208.222	2435.25
208.296	2466.46
208.371	2481.95
208.445	2494.57
208.519	2525.08
208.593	2537.65
208.668	2533.32
208.742	2531.94
208.816	2538.31
208.89	2548.55
208.965	2546.79
209.039	2554.32
209.113	2568.08
209.187	2585.07
209.261	2579.12
209.336	2597.98
209.41	2617.7
209.484	2617.94
209.558	2636.89
209.632	2651.13
209.707	2662.04
209.781	2680.71
209.855	2694.91
209.929	2710.31
210.003	2713.5
210.077	2709.5
210.151	2752.04
210.226	2785.31
210.3	2810.25
210.374	2834.11
210.448	2840.21
210.522	2849.46
210.596	2862.38
210.67	2870.72
210.744	2916.1
210.818	2951.78
210.892	2969.9
210.966	2965.51
211.041	2982.77
211.115	2986.72
211.189	3007.94
211.263	3021.57
211.337	3031.15
211.411	3044.22
211.485	3039.11
211.559	3053.17
211.633	3056.6
211.707	3032.08
211.781	3042.53
211.855	3011.4
211.929	3002.87
212.003	2989.53
212.077	3001.31
212.151	3010.51
212.225	3024.34
212.299	3015.8
212.373	3003.93
212.447	3004.69
212.52	3033.4
212.594	3039.79
212.668	3048.61
212.742	3038.5
212.816	3041.07
212.89	3039.4
212.964	3046.7
213.038	3054.67
213.112	3072.13
213.186	3094.15
213.26	3082.48
213.333	3043.8
213.407	3062.49
213.481	3073.31
213.555	3095.28
213.629	3095.75
213.703	3092.8
213.777	3103.67
213.85	3101.57
213.924	3149.58
213.998	3166.95
214.072	3178.64
214.146	3185.61
214.219	3204.55
214.293	3221.29
214.367	3240.04
214.441	3272.72
214.515	3282.17
214.588	3282.22
214.662	3273.82
214.736	3281.46
214.81	3314.55
214.883	3350.03
214.957	3364.72
215.031	3383.37
215.105	3388.43
215.178	3406.71
215.252	3429.86
215.326	3439.4
215.4	3453.29
215.473	3440.2
215.547	3453.29
215.621	3477.18
215.694	3516.82
215.768	3534.49
215.842	3561.8
215.915	3586.12
215.989	3601.97
216.063	3630.4
216.136	3675.73
216.21	3718.09
216.284	3767.2
216.357	3808.77
216.431	3849.86
216.504	3899.45
216.578	3970.25
216.652	4028
216.725	4075.37
216.799	4134.28
216.873	4179.69
216.946	4241.17
217.02	4288.49
217.093	4340.48
217.167	4368.84
217.24	4408.18
217.314	4456.05
217.387	4504.79
217.461	4560.3
217.535	4633.77
217.608	4683.3
217.682	4737.69
217.755	4808.69
217.829	4862.56
217.902	4923.9
217.976	4983.8
218.049	5039.93
218.123	5084.16
218.196	5150.64
218.27	5208.57
218.343	5256.16
218.417	5331.25
218.49	5393.6
218.563	5475.41
218.637	5546.32
218.71	5635.35
218.784	5707.24
218.857	5783.72
218.931	5855.45
219.004	5920.87
219.077	5986.85
219.151	6061.15
219.224	6132.46
219.298	6196.24
219.371	6272.22
219.444	6326.59
219.518	6395.13
219.591	6465.01
219.665	6559.63
219.738	6630.93
219.811	6691.71
219.885	6770.52
219.958	6848.05
220.031	6912.17
220.105	6984.48
220.178	7058.62
220.251	7124.61
220.325	7201.7
220.398	7281.91
220.471	7359.77
220.544	7446.48
220.618	7510.81
220.691	7586.14
220.764	7658.74
220.838	7738.03
220.911	7807.33
220.984	7903.74
221.057	7988.09
221.131	8073.8
221.204	8121.14
221.277	8216.2
221.35	8320.5
221.424	8391.8
221.497	8462.59
221.57	8542.74
221.643	8626.77
221.716	8702.62
221.79	8768.99
221.863	8837.38
221.936	8901.69
222.009	8972.93
222.082	9044.61
222.155	9114.08
222.229	9204.16
222.302	9275.75
222.375	9344.37
222.448	9422.61
222.521	9490.13
222.594	9551.67
222.667	9601.89
222.74	9680
222.814	9742.14
222.887	9804.33
222.96	9884.52
223.033	9956.05
223.106	10025.51
223.179	10085.82
223.252	10153.22
223.325	10222.3
223.398	10291.09
223.471	10364.71
223.544	10427
223.617	10489.15
223.69	10556.7
223.763	10599.24
223.837	10665.2
223.91	10727.51
223.983	10766.97
224.056	10816.17
224.129	10887.72
224.202	10960.38
224.275	11010.5
224.348	11055.41
224.42	11098.01
224.493	11139.8
224.566	11191.7
224.639	11253.1
224.712	11308.18
224.785	11362.55
224.858	11413.25
224.931	11468
225.004	11511.38
225.077	11571
225.15	11598.9
225.223	11655.63
225.296	11742.63
225.369	11786.01
225.442	11838.74
225.514	11906.99
225.587	11972.55
225.66	12029.91
225.733	12092.42
225.806	12154.27
225.879	12208.11
225.952	12269.37
226.025	12343.9
226.097	12423.24
226.17	12484.36
226.243	12523.84
226.316	12580.29
226.389	12644.5
226.461	12701.14
226.534	12763.8
226.607	12822.81
226.68	12909.72
226.753	12966.27
226.825	12997.55
226.898	13073.43
226.971	13128.43
227.044	13194.33
227.117	13249.91
227.189	13310.65
227.262	13381.71
227.335	13451.08
227.407	13513.65
227.48	13563.64
227.553	13616.81
227.626	13662.56
227.698	13711.97
227.771	13778.73
227.844	13831.23
227.916	13889.22
227.989	13930.78
228.062	13985.78
228.134	14056.26
228.207	14103.35
228.28	14150.84
228.352	14203.91
228.425	14251.59
228.498	14321.15
228.57	14360.63
228.643	14427.39
228.716	14475.6
228.788	14515.75
228.861	14548.15
228.934	14599.92
229.006	14655.06
229.079	14698.01
229.151	14736.53
229.224	14774.71
229.296	14826.04
229.369	14897.53
229.442	14955.37
229.514	14999.82
229.587	15054.14
229.659	15085.96
229.732	15142.11
229.804	15194.94
229.877	15259.2
229.949	15314.77
230.022	15370.11
230.094	15417.34
230.167	15465.83
230.239	15499.33
230.312	15534.76
230.384	15608.75
230.457	15660.28
230.529	15705.15
230.602	15762.37
230.674	15816.11
230.747	15876.6
230.819	15937.04
230.892	15947.79
230.964	15998.54
231.037	16052.19
231.109	16093.79
231.181	16144.49
231.254	16169.36
231.326	16212.93
231.399	16255.92
231.471	16289.37
231.544	16307.21
231.616	16349.67
231.688	16391.84
231.761	16436.76
231.833	16481.44
231.905	16501.06
231.978	16547.9
232.05	16595.67
232.122	16631.14
232.195	16661.16
232.267	16707.86
232.339	16726.23
232.412	16778.86
232.484	16807.68
232.556	16835.97
232.629	16897.56
232.701	16939.73
232.773	16982.14
232.846	17012.94
232.918	17039.69
232.99	17072.51
233.062	17116.46
233.135	17152.61
233.207	17168.56
233.279	17199.26
233.351	17232.18
233.424	17258.83
233.496	17272.56
233.568	17313.09
233.64	17324.32
233.713	17342.3
233.785	17355.36
233.857	17387.74
233.929	17392.66
234.001	17426.97
234.074	17467.94
234.146	17466.78
234.218	17486.2
234.29	17509.67
234.362	17527.12
234.434	17536.85
234.507	17544.66
234.579	17539.6
234.651	17556.13
234.723	17579.31
234.795	17604.9
234.867	17616.42
234.939	17640.22
235.012	17660.32
235.084	17683.4
235.156	17709.62
235.228	17727.31
235.3	17741.09
235.372	17753.43
235.444	17780.51
235.516	17773.43
235.588	17784.85
235.66	17788.8
235.732	17787.31
235.804	17851.64
235.876	17873.04
235.948	17899.54
236.02	17909.81
236.092	17929.52
236.164	17939.78
236.236	17938.53
236.308	17934.14
236.38	17948.36
236.452	17954.87
236.524	17963.64
236.596	17976.02
236.668	17989.37
236.74	17998.38
236.812	18014.82
236.884	18026.67
236.956	18041.51
237.028	18034.81
237.1	18025.08
237.172	18051.25
237.244	18076.31
237.316	18036.79
237.388	18033.03
237.46	18029.47
237.532	18054.33
237.604	18050.86
237.675	18062.81
237.747	18074.14
237.819	18074.38
237.891	18075.97
237.963	18062.62
238.035	18057.61
238.107	18012.5
238.178	18022.43
238.25	18014.14
238.322	18031.3
238.394	18007.73
238.466	17988.84
238.538	17998.96
238.609	18004.74
238.681	17974.62
238.753	17956.89
238.825	17951.59
238.897	17942.96
238.968	17943.64
239.04	17916.07
239.112	17940.75
239.184	17920.51
239.255	17904.07
239.327	17900.31
239.399	17883.21
239.471	17884.8
239.542	17873.9
239.614	17888.12
239.686	17852.6
239.758	17850.68
239.829	17824.17
239.901	17826.1
239.973	17815.98
240.044	17802.97
240.116	17787.21
240.188	17779.84
240.259	17760.66
240.331	17739.93
240.403	17732.99
240.474	17709.72
240.546	17699.74
240.618	17659.84
240.689	17642.97
240.761	17632.85
240.833	17628.71
240.904	17616.08
240.976	17593.96
241.048	17578.63
241.119	17562.97
241.191	17545.43
241.262	17539.74
241.334	17512.66
241.405	17488.85
241.477	17467.55
241.549	17449.05
241.62	17435.6
241.692	17422.78
241.763	17416.95
241.835	17398.68
241.906	17374.73
241.978	17339.17
242.049	17324.61
242.121	17317.57
242.192	17314.73
242.264	17277.53
242.335	17241.09
242.407	17227.74
242.478	17199.74
242.55	17174.97
242.621	17144.66
242.693	17124.37
242.764	17096.8
242.836	17072.41
242.907	17066.68
242.979	17056.17
243.05	17036.07
243.122	17016.65
243.193	16993.33
243.264	16952.36
243.336	16923.88
243.407	16912.79
243.479	16908.41
243.55	16891.35
243.622	16867.92
243.693	16839.78
243.764	16833.61
243.836	16799.05
243.907	16769.99
243.978	16754.18
244.05	16745.17
244.121	16707.53
244.192	16689.94
244.264	16655.19
244.335	16633.55
244.407	16587.52
244.478	16563.37
244.549	16533.06
244.62	16493.49
244.692	16464.96
244.763	16444.09
244.834	16409.77
244.906	16377.29
244.977	16354.73
245.048	16336.03
245.119	16302.49
245.191	16262.19
245.262	16218.43
245.333	16212.84
245.405	16184.69
245.476	16161.27
245.547	16130.42
245.618	16114.13
245.689	16078.65
245.761	16054.55
245.832	16030.7
245.903	16018.16
245.974	15986.59
246.045	15949.87
246.117	15939.55
246.188	15897.96
246.259	15858.19
246.33	15833.99
246.401	15805.89
246.473	15771.14
246.544	15734.94
246.615	15713.79
246.686	15684.19
246.757	15670.65
246.828	15632.57
246.899	15617.24
246.97	15574.24
247.042	15538.14
247.113	15522.77
247.184	15520.79
247.255	15483.53
247.326	15451.19
247.397	15418.41
247.468	15395.13
247.539	15378.5
247.61	15335.5
247.681	15324.9
247.752	15311.45
247.823	15274.33
247.894	15246.67
247.965	15195.96
248.037	15163.9
248.108	15122.74
248.179	15094.83
248.25	15064.36
248.321	15039.59
248.392	14997.36
248.463	14988.15
248.534	14967.62
248.605	14937.97
248.675	14905.39
248.746	14889.96
248.817	14868.27
248.888	14839.88
248.959	14788.74
249.03	14766.03
249.101	14744.53
249.172	14706.79
249.243	14661.14
249.314	14659.5
249.385	14640.41
249.456	14616.41
249.527	14586.61
249.598	14567.43
249.669	14544.05
249.739	14524.53
249.81	14502.35
249.881	14468.85
249.952	14447.45
250.023	14412.74
250.094	14373.4
250.165	14334.65
250.235	14307.03
250.306	14281.67
250.377	14243.39
250.448	14235.73
250.519	14187.28
250.59	14176.73
250.66	14145.78
250.731	14141.92
250.802	14115.89
250.873	14090.58
250.944	14078.29
251.014	14046.28
251.085	14037.51
251.156	14005.55
251.227	13995.13
251.297	13982.84
251.368	13972.33
251.439	13943.07
251.51	13928.08
251.58	13893.61
251.651	13870.18
251.722	13856.44
251.792	13812.82
251.863	13792.43
251.934	13780.47
252.005	13786.3
252.075	13755.55
252.146	13749.47
252.217	13733.37
252.287	13715.63
252.358	13684.64
252.429	13676.39
252.499	13650.79
252.57	13622.55
252.641	13622.11
252.711	13586.97
252.782	13546.67
252.852	13532.45
252.923	13517.21
252.994	13491.09
253.064	13484.58
253.135	13453.97
253.205	13418.54
253.276	13419.93
253.347	13415.93
253.417	13379.49
253.488	13345.41
253.558	13313.93
253.629	13279.8
253.699	13254.83
253.77	13234.58
253.841	13210.91
253.911	13189.46
253.982	13167.28
254.052	13157.26
254.123	13128.24
254.193	13109.44
254.264	13128.67
254.334	13098.64
254.405	13055.59
254.475	13025.46
254.546	13002.71
254.616	12994.27
254.687	12981.88
254.757	12959.76
254.827	12931.75
254.898	12915.74
254.968	12897.62
255.039	12874.82
255.109	12864.94
255.18	12844.35
255.25	12800.34
255.321	12780.09
255.391	12742.93
255.461	12742.54
255.532	12696.22
255.602	12668.55
255.673	12630.56
255.743	12592.96
255.813	12552.18
255.884	12548.85
255.954	12544.23
256.024	12539.4
256.095	12511.64
256.165	12479
256.235	12456.2
256.306	12432.1
256.376	12424.53
256.446	12408.05
256.517	12391.85
256.587	12386.55
256.657	12361.96
256.728	12340.23
256.798	12325.48
256.868	12298
256.938	12269.75
257.009	12262.81
257.079	12254.52
257.149	12259.15
257.219	12217.36
257.29	12201.88
257.36	12166.36
257.43	12151.37
257.5	12104.76
257.571	12085.33
257.641	12072.56
257.711	12050.43
257.781	12036.21
257.852	12021.9
257.922	11987.05
257.992	11965.93
258.062	11936.43
258.132	11926.07
258.202	11903.95
258.273	11881.25
258.343	11883.99
258.413	11861.63
258.483	11837.96
258.553	11805.33
258.623	11772.99
258.693	11756.94
258.764	11751.78
258.834	11753.18
258.904	11734.43
258.974	11709.75
259.044	11684.83
259.114	11666.18
259.184	11650.42
259.254	11623.53
259.324	11576
259.394	11571.57
259.464	11578.27
259.535	11556.24
259.605	11525.64
259.675	11508.91
259.745	11493.1
259.815	11463.46
259.885	11436.57
259.955	11441.82
260.025	11419.22
260.095	11397.77
260.165	11391.8
260.235	11387.27
260.305	11355.94
260.375	11326.49
260.445	11336.47
260.515	11335.41
260.585	11326.88
260.655	11302.63
260.725	11302.25
260.795	11297.62
260.865	11289.82
260.934	11255.98
261.004	11248.7
261.074	11233.14
261.144	11228.85
261.214	11224.61
261.284	11208.42
261.354	11198.92
261.424	11172.27
261.494	11166.63
261.564	11147.64
261.634	11132.08
261.703	11100.27
261.773	11085.14
261.843	11070.49
261.913	11051.74
261.983	11020.42
262.053	11013.24
262.123	10996.71
262.192	10961.48
262.262	10952.71
262.332	10926.35
262.402	10911.22
262.472	10890.31
262.541	10859.28
262.611	10852.19
