Data from 20250630_urea_2M_MAYP1162681_10-02-27-554.txt Node
Date: Tue Jul 01 10:02:27 BST 2025
User: adleo
Spectrometer: MAYP116268
Trigger mode: 0
Integration Time (sec): 1.000000E0
Scans to average: 1
Electric dark correction enabled: true
Nonlinearity correction enabled: true
Boxcar width: 10
XAxis mode: Wavelengths
Number of Pixels in Spectrum: 2068
>>>>>Begin Spectral Data<<<<<
179.565	1102.53
179.642	1150.11
179.718	1189.21
179.795	1225.23
179.871	1256.51
179.948	1271.47
180.024	1288.6
180.101	1307.65
180.177	1318.35
180.254	1338.45
180.33	1355.97
180.407	1402.01
180.483	1490.18
180.56	1570.05
180.636	1646.24
180.712	1635.69
180.789	1645.81
180.865	1655.59
180.942	1661.67
181.018	1671.08
181.095	1683.25
181.171	1689.81
181.248	1692.8
181.324	1708.01
181.4	1711.29
181.477	1719.89
181.553	1732.67
181.63	1752.96
181.706	1768.74
181.782	1776.34
181.859	1775.86
181.935	1781.33
182.011	1776.91
182.088	1792.78
182.164	1812.8
182.24	1825.2
182.317	1833.04
182.393	1829.24
182.469	1845.3
182.546	1860.37
182.622	1864.41
182.698	1858.51
182.775	1868.35
182.851	1880.19
182.927	1870.68
183.003	1867.59
183.08	1862.41
183.156	1867.64
183.232	1865.74
183.308	1854.47
183.385	1865.26
183.461	1881.14
183.537	1882.8
183.613	1894.54
183.69	1886.27
183.766	1875.43
183.842	1881.94
183.918	1885.65
183.995	1896.49
184.071	1896.3
184.147	1890.83
184.223	1879.95
184.299	1891.88
184.375	1881.85
184.452	1886.04
184.528	1941.73
184.604	1952.37
184.68	1963.83
184.756	1971.87
184.832	1974.72
184.908	1979.38
184.985	1977.33
185.061	1964.64
185.137	1973.2
185.213	1963.55
185.289	1963.88
185.365	1958.56
185.441	1955.75
185.517	1970.64
185.593	1970.26
185.669	1967.36
185.745	1976.34
185.822	1993.93
185.898	1985.13
185.974	1992.88
186.05	1988.93
186.126	1946.12
186.202	1941.89
186.278	1937.85
186.354	1929.72
186.43	1935.1
186.506	1933.29
186.582	1932.24
186.658	1937
186.734	1920.55
186.81	1929.77
186.886	1933.43
186.962	1942.94
187.038	1939.71
187.114	1929.81
187.19	1936.42
187.266	1929.39
187.341	1929.53
187.417	1922.35
187.493	1921.78
187.569	1925.82
187.645	1919.55
187.721	1908.52
187.797	1914.65
187.873	1919.36
187.949	1915.6
188.025	1909.99
188.101	1911.75
188.176	1917.93
188.252	1914.08
188.328	1919.64
188.404	1912.03
188.48	1906.57
188.556	1902
188.632	1902.9
188.707	1905.33
188.783	1901.1
188.859	1896.54
188.935	1888.26
189.011	1895.73
189.086	1890.69
189.162	1882.8
189.238	1880.37
189.314	1881.7
189.39	1876.14
189.465	1868.58
189.541	1884.03
189.617	1868.35
189.693	1864.88
189.768	1867.11
189.844	1889.18
189.92	1884.48
189.996	1891.99
190.071	1902.07
190.147	1899.83
190.223	1905.63
190.298	1896.69
190.374	1885.38
190.45	1895.5
190.526	1902.78
190.601	1895.65
190.677	1896.74
190.753	1922.95
190.828	1926.09
190.904	1941.26
190.98	1953.62
191.055	1962.84
191.131	1956.42
191.207	1979.34
191.282	1989.7
191.358	1981
191.433	1970.01
191.509	1980.99
191.585	1979.47
191.66	1979.47
191.736	1987.07
191.811	1982.41
191.887	1997.44
191.963	2019.22
192.038	2024.93
192.114	2023.88
192.189	2029.16
192.265	2026.64
192.34	2007.23
192.416	2005.75
192.491	2000.09
192.567	2004.23
192.642	2005.47
192.718	2003.23
192.793	1989.16
192.869	1984.12
192.944	1988.02
193.02	1992.82
193.095	1999.05
193.171	2004.38
193.246	2002.33
193.322	2003.14
193.397	2004.28
193.473	1993.44
193.548	1975.08
193.624	1978.93
193.699	1978.84
193.775	1993.15
193.85	1996.15
193.925	2002.28
194.001	2002
194.076	1992.77
194.152	1981.79
194.227	1974.7
194.302	1965.29
194.378	1972.28
194.453	1969.76
194.529	1977.84
194.604	1965.2
194.679	1957.87
194.755	1939.52
194.83	1951.84
194.905	1945.23
194.981	1952.46
195.056	1944.81
195.131	1952.37
195.207	1950.28
195.282	1942.15
195.357	1923.74
195.433	1937.91
195.508	1927.16
195.583	1933.82
195.659	1948.8
195.734	1956.74
195.809	1959.54
195.884	1968.91
195.96	1965.01
196.035	1979.46
196.11	1976.75
196.185	1987.69
196.261	1988.26
196.336	2017.6
196.411	2004.52
196.486	2010.75
196.561	2001.57
196.637	2008.46
196.712	2023.3
196.787	2028.16
196.862	2040.99
196.937	2048.74
197.013	2053.26
197.088	2061.63
197.163	2082.19
197.238	2098.8
197.313	2098.7
197.388	2110.74
197.464	2140.57
197.539	2152.27
197.614	2146.85
197.689	2156.6
197.764	2171.4
197.839	2191.57
197.914	2184.77
197.989	2204.56
198.065	2217.54
198.14	2266.39
198.215	2294.99
198.29	2304.79
198.365	2318.26
198.44	2327.54
198.515	2355.81
198.59	2367.33
198.665	2392.46
198.74	2398.51
198.815	2398.36
198.89	2417.5
198.965	2445.12
199.04	2440.35
199.115	2454.92
199.19	2491.43
199.265	2496.85
199.34	2504.95
199.415	2537.58
199.49	2560.62
199.565	2571.39
199.64	2594.53
199.715	2590.19
199.79	2594.96
199.865	2601.96
199.94	2598.05
200.015	2630.16
200.09	2634.49
200.165	2641.45
200.24	2645.4
200.315	2685.49
200.39	2703.45
200.464	2710.69
200.539	2712.46
200.614	2727.32
200.689	2749.66
200.764	2757.67
200.839	2774.29
200.914	2779.96
200.989	2766.52
201.063	2780.62
201.138	2763.44
201.213	2759.91
201.288	2744.05
201.363	2746.71
201.438	2745.57
201.512	2762.29
201.587	2748.61
201.662	2755.66
201.737	2765.24
201.812	2775.96
201.886	2744.73
201.961	2750.21
202.036	2737.49
202.111	2735.16
202.186	2708.64
202.26	2694.62
202.335	2676.14
202.41	2668.47
202.485	2652.18
202.559	2635.08
202.634	2605.74
202.709	2613.98
202.784	2599.83
202.858	2599.74
202.933	2583.35
203.008	2575.83
203.082	2556.78
203.157	2552.59
203.232	2510.51
203.306	2495.69
203.381	2465.21
203.456	2445.64
203.53	2424.29
203.605	2405.35
203.68	2383.59
203.754	2377.17
203.829	2359.79
203.904	2340.46
203.978	2331.08
204.053	2334.99
204.127	2324.37
204.202	2324.04
204.277	2312.43
204.351	2305.15
204.426	2294.34
204.5	2286.16
204.575	2258.47
204.65	2271.99
204.724	2263.99
204.799	2273.07
204.873	2265.84
204.948	2264.98
205.022	2250.71
205.097	2243.47
205.171	2256.36
205.246	2258.89
205.32	2257.7
205.395	2257.55
205.469	2249.09
205.544	2251.9
205.618	2236.29
205.693	2249.23
205.767	2237.96
205.842	2254.24
205.916	2247.96
205.991	2242.01
206.065	2246.53
206.14	2262.08
206.214	2254.03
206.289	2247.94
206.363	2258.22
206.438	2261.08
206.512	2265.98
206.586	2284.96
206.661	2291.87
206.735	2273.22
206.81	2276.6
206.884	2291.07
206.958	2281.79
207.033	2297.77
207.107	2303.77
207.181	2332.57
207.256	2322.53
207.33	2341.14
207.405	2352.19
207.479	2369.27
207.553	2374.93
207.628	2362.37
207.702	2370.7
207.776	2364.32
207.851	2366.66
207.925	2378.56
207.999	2375.37
208.073	2375.75
208.148	2376.51
208.222	2366.47
208.296	2397.73
208.371	2416.21
208.445	2429.02
208.519	2455.92
208.593	2466.58
208.668	2468.29
208.742	2471.82
208.816	2476.34
208.89	2485.1
208.965	2485.68
209.039	2495.3
209.113	2515.44
209.187	2532.8
209.261	2529.23
209.336	2548.28
209.41	2565.23
209.484	2566.43
209.558	2587.19
209.632	2599.19
209.707	2611.62
209.781	2630.67
209.855	2642.77
209.929	2656.64
210.003	2657.64
210.077	2651.78
210.151	2693.31
210.226	2721.19
210.3	2747.04
210.374	2767.56
210.448	2773.23
210.522	2781
210.596	2792.39
210.67	2799.92
210.744	2845.34
210.818	2878.45
210.892	2897.71
210.966	2895.75
211.041	2913.1
211.115	2910.34
211.189	2933.93
211.263	2946.18
211.337	2952.37
211.411	2968.92
211.485	2965.86
211.559	2979.64
211.633	2989.26
211.707	2965.22
211.781	2976.91
211.855	2943.44
211.929	2937.34
212.003	2922.53
212.077	2936.07
212.151	2947.28
212.225	2958.15
212.299	2951.42
212.373	2940.74
212.447	2941.22
212.52	2971.35
212.594	2977.17
212.668	2999.15
212.742	2988.8
212.816	2992.33
212.89	2993.23
212.964	2997
213.038	3004.82
213.112	3023.19
213.186	3046.88
213.26	3037.73
213.333	3004.78
213.407	3023.61
213.481	3040.29
213.555	3067.11
213.629	3068.4
213.703	3068.74
213.777	3085.43
213.85	3084
213.924	3135.2
213.998	3155.96
214.072	3169.8
214.146	3177.72
214.219	3191.37
214.293	3212.02
214.367	3238.4
214.441	3274.09
214.515	3289.03
214.588	3295.23
214.662	3294.13
214.736	3301.34
214.81	3337.39
214.883	3374.68
214.957	3395.44
215.031	3414.61
215.105	3426.68
215.178	3451.17
215.252	3481.05
215.326	3495.42
215.4	3514.61
215.473	3506.06
215.547	3523.3
215.621	3547.95
215.694	3594.43
215.768	3616.16
215.842	3650.6
215.915	3680.17
215.989	3699.95
216.063	3739.33
216.136	3786.2
216.21	3832.3
216.284	3891.04
216.357	3940.4
216.431	3991.54
216.504	4049.76
216.578	4129.56
216.652	4187.81
216.725	4240.37
216.799	4302.75
216.873	4361.57
216.946	4427.81
217.02	4486.82
217.093	4545.81
217.167	4587.44
217.24	4631.48
217.314	4692.68
217.387	4745.85
217.461	4800.47
217.535	4878.36
217.608	4928.74
217.682	4992.44
217.755	5066.19
217.829	5122.92
217.902	5194.31
217.976	5258.65
218.049	5314.76
218.123	5361.22
218.196	5439.9
218.27	5500.68
218.343	5555.15
218.417	5623.82
218.49	5694.26
218.563	5774.2
218.637	5846.63
218.71	5938.01
218.784	6023.95
218.857	6103.69
218.931	6181.84
219.004	6259.77
219.077	6338.27
219.151	6418.85
219.224	6489.47
219.298	6558.03
219.371	6643.32
219.444	6700.66
219.518	6777.79
219.591	6856.59
219.665	6964.04
219.738	7047.64
219.811	7119.88
219.885	7207.68
219.958	7290.19
220.031	7362.04
220.105	7442.17
220.178	7516.53
220.251	7584.81
220.325	7661.89
220.398	7743.4
220.471	7829.13
220.544	7917.96
220.618	7981.35
220.691	8067.21
220.764	8149.22
220.838	8236.53
220.911	8302.69
220.984	8402.42
221.057	8486.28
221.131	8568.75
221.204	8615.25
221.277	8704.3
221.35	8806.57
221.424	8872.75
221.497	8951.17
221.57	9025.53
221.643	9105.3
221.716	9190.52
221.79	9267.45
221.863	9336.02
221.936	9408.63
222.009	9471.71
222.082	9545.63
222.155	9628.18
222.229	9711.5
222.302	9784.13
222.375	9854.5
222.448	9935.75
222.521	10002.52
222.594	10063.88
222.667	10118.36
222.74	10197.31
222.814	10259.27
222.887	10326.1
222.96	10407.08
223.033	10475.98
223.106	10547.33
223.179	10623.89
223.252	10687.06
223.325	10759.49
223.398	10826.08
223.471	10897.73
223.544	10972.81
223.617	11036.9
223.69	11093.86
223.763	11136.8
223.837	11203.06
223.91	11269.71
223.983	11319.06
224.056	11367.74
224.129	11439.74
224.202	11521.33
224.275	11577.57
224.348	11625.29
224.42	11677.34
224.493	11724.1
224.566	11774.46
224.639	11846.47
224.712	11895.16
224.785	11957.58
224.858	12008.04
224.931	12059.76
225.004	12102.47
225.077	12157.37
225.15	12192.32
225.223	12253.92
225.296	12342.95
225.369	12389.33
225.442	12438.49
225.514	12497.64
225.587	12564.45
225.66	12617.33
225.733	12676.14
225.806	12736.64
225.879	12795.93
225.952	12843.46
226.025	12916.11
226.097	12997.72
226.17	13044.19
226.243	13082.51
226.316	13135.98
226.389	13193.34
226.461	13253.79
226.534	13316.22
226.607	13377.63
226.68	13455.82
226.753	13503.31
226.825	13533.34
226.898	13605.84
226.971	13662.24
227.044	13727.27
227.117	13777.36
227.189	13838.44
227.262	13900.19
227.335	13957.94
227.407	14006.53
227.48	14066.65
227.553	14112.06
227.626	14155.44
227.698	14211.6
227.771	14274.75
227.844	14323.39
227.916	14373.67
227.989	14428.57
228.062	14482.61
228.134	14558.53
228.207	14606.26
228.28	14657.06
228.352	14711.34
228.425	14755.11
228.498	14814.11
228.57	14856.24
228.643	14932.74
228.716	14974.97
228.788	15018.21
228.861	15060.24
228.934	15124.45
229.006	15174.58
229.079	15228.03
229.151	15265.87
229.224	15298.55
229.296	15350.71
229.369	15419.49
229.442	15480.37
229.514	15516.18
229.587	15571.04
229.659	15585.88
229.732	15638.23
229.804	15696.26
229.877	15762.01
229.949	15822.01
230.022	15884.91
230.094	15930.27
230.167	15967.09
230.239	16003.19
230.312	16041.32
230.384	16113.28
230.457	16155.65
230.529	16198.45
230.602	16238.06
230.674	16277.73
230.747	16338.37
230.819	16384.97
230.892	16403.82
230.964	16447.24
231.037	16501.22
231.109	16532.5
231.181	16582.53
231.254	16603.4
231.326	16636.22
231.399	16670.59
231.471	16696.32
231.544	16715.5
231.616	16768.23
231.688	16805.15
231.761	16845.68
231.833	16877.92
231.905	16888.24
231.978	16919.61
232.05	16948.14
232.122	16984.43
232.195	17024.72
232.267	17067.23
232.339	17097.3
232.412	17142.22
232.484	17168.44
232.556	17184.25
232.629	17235.96
232.701	17274.42
232.773	17313.45
232.846	17342.71
232.918	17367.14
232.99	17400.2
233.062	17436.78
233.135	17460.44
233.207	17470.18
233.279	17502.42
233.351	17535.53
233.424	17561.07
233.496	17579.14
233.568	17625.02
233.64	17635.91
233.713	17660.49
233.785	17684.01
233.857	17713.88
233.929	17714.56
234.001	17747.14
234.074	17789.64
234.146	17791.91
234.218	17805.59
234.29	17820.63
234.362	17831.04
234.434	17832.87
234.507	17838.17
234.579	17837.35
234.651	17846.94
234.723	17879.09
234.795	17898.36
234.867	17912.87
234.939	17943.71
235.012	17962.36
235.084	17988.14
235.156	18016.09
235.228	18016.43
235.3	18012.29
235.372	18016.77
235.444	18043.75
235.516	18036.72
235.588	18037.83
235.66	18054.89
235.732	18058.69
235.804	18117.92
235.876	18145.39
235.948	18174.11
236.02	18188.13
236.092	18194.78
236.164	18199.94
236.236	18199.89
236.308	18207.17
236.38	18214.01
236.452	18195.99
236.524	18204.28
236.596	18217.72
236.668	18231.12
236.74	18240.28
236.812	18251.99
236.884	18259.65
236.956	18261.29
237.028	18257.87
237.1	18258.88
237.172	18276.47
237.244	18290.25
237.316	18258.78
237.388	18246.06
237.46	18237.58
237.532	18244.85
237.604	18233.58
237.675	18245.63
237.747	18257.77
237.819	18246.06
237.891	18241.67
237.963	18241.77
238.035	18229.77
238.107	18178.98
238.178	18178.06
238.25	18166.4
238.322	18186.4
238.394	18164.04
238.466	18155.75
238.538	18152.42
238.609	18145.29
238.681	18114.64
238.753	18088.81
238.825	18086.31
238.897	18077.68
238.968	18086.11
239.04	18060.43
239.112	18080.04
239.184	18053.73
239.255	18033.44
239.327	18025.73
239.399	18015.76
239.471	18011.13
239.542	18009.3
239.614	18018.12
239.686	17982.46
239.758	17990.7
239.829	17961.3
239.901	17961.64
239.973	17947.13
240.044	17942.22
240.116	17931.37
240.188	17912.39
240.259	17908.43
240.331	17877.59
240.403	17872.72
240.474	17838.65
240.546	17823.14
240.618	17779.81
240.689	17759.09
240.761	17734.8
240.833	17729.35
240.904	17704.87
240.976	17682.27
241.048	17660.39
241.119	17639.48
241.191	17621.4
241.262	17610.9
241.334	17587.48
241.405	17561.41
241.477	17534.66
241.549	17508.49
241.62	17485.31
241.692	17470.08
241.763	17459.96
241.835	17440.97
241.906	17416.88
241.978	17377.84
242.049	17371.43
242.121	17367.19
242.192	17365.12
242.264	17336.68
242.335	17293.12
242.407	17278.56
242.478	17252.63
242.55	17229.16
242.621	17197.6
242.693	17177.88
242.764	17146.66
242.836	17119.19
242.907	17103.57
242.979	17090.56
243.05	17074.99
243.122	17053.16
243.193	17032.53
243.264	16991.37
243.336	16971.13
243.407	16960.48
243.479	16953.2
243.55	16923.9
243.622	16896.77
243.693	16865.15
243.764	16857.2
243.836	16824.72
243.907	16801.39
243.978	16768.95
244.05	16749.05
244.121	16716.95
244.192	16695.89
244.264	16659.55
244.335	16632.61
244.407	16595.3
244.478	16564.84
244.549	16532.7
244.62	16497.51
244.692	16465.37
244.763	16442.96
244.834	16404.73
244.906	16360.2
244.977	16338.22
245.048	16327.72
245.119	16295.52
245.191	16264.92
245.262	16212.04
245.333	16203.9
245.405	16172.04
245.476	16168.76
245.547	16140.66
245.618	16126.2
245.689	16097.48
245.761	16069.95
245.832	16037.28
245.903	16015.01
245.974	15997.61
246.045	15976.98
246.117	15969.85
246.188	15938.42
246.259	15901.69
246.33	15874.22
246.401	15845.97
246.473	15795.22
246.544	15752.61
246.615	15734.68
246.686	15699.06
246.757	15688.89
246.828	15651.05
246.899	15637.6
246.97	15580.2
247.042	15549.44
247.113	15521.58
247.184	15517.78
247.255	15483.94
247.326	15455.02
247.397	15425.23
247.468	15398.77
247.539	15357.89
247.61	15306.12
247.681	15288.39
247.752	15271.51
247.823	15231.84
247.894	15198.53
247.965	15173.37
248.037	15148.79
248.108	15109.46
248.179	15077.26
248.25	15044.62
248.321	15026.11
248.392	14990.64
248.463	14988.32
248.534	14955.69
248.605	14936.84
248.675	14897.61
248.746	14881.94
248.817	14863.62
248.888	14842.12
248.959	14792.14
249.03	14773.87
249.101	14749.62
249.172	14712.07
249.243	14664.92
249.314	14661.21
249.385	14641.64
249.456	14619.8
249.527	14587.6
249.598	14558.68
249.669	14532.75
249.739	14512.45
249.81	14490.37
249.881	14451.33
249.952	14419.08
250.023	14391.36
250.094	14351.83
250.165	14324.16
250.235	14289.89
250.306	14262.56
250.377	14219.89
250.448	14203.89
250.519	14155.2
250.59	14149.13
250.66	14121.6
250.731	14118.28
250.802	14090.99
250.873	14068.58
250.944	14043.75
251.014	14012.42
251.085	14010.15
251.156	13994.58
251.227	13979.01
251.297	13967.58
251.368	13949.8
251.439	13934.51
251.51	13924.58
251.58	13889.2
251.651	13854.73
251.722	13847.26
251.792	13812.74
251.863	13793.61
251.934	13777.79
252.005	13785.6
252.075	13760.01
252.146	13747.18
252.217	13730.5
252.287	13714.93
252.358	13686.49
252.429	13682.15
252.499	13650.92
252.57	13630.28
252.641	13614.47
252.711	13586.8
252.782	13545.49
252.852	13538.21
252.923	13512.47
252.994	13488.03
253.064	13477.13
253.135	13449.03
253.205	13409.98
253.276	13401.54
253.347	13390.17
253.417	13361.15
253.488	13325.38
253.558	13291.92
253.629	13269.07
253.699	13249.35
253.77	13226.12
253.841	13207.56
253.911	13189.96
253.982	13173.77
254.052	13152.7
254.123	13132.21
254.193	13111.58
254.264	13125.95
254.334	13097.31
254.405	13064.24
254.475	13030.64
254.546	13008.66
254.616	12995.64
254.687	12980.12
254.757	12962.67
254.827	12944.79
254.898	12927.72
254.968	12907.09
255.039	12880.19
255.109	12861.73
255.18	12822.97
255.25	12780.7
255.321	12760.69
255.391	12721.5
255.461	12719.86
255.532	12673.82
255.602	12644.03
255.673	12605.66
255.743	12562.86
255.813	12520.77
255.884	12516.92
255.954	12507.71
256.024	12499.8
256.095	12484.67
256.165	12458.69
256.235	12441.77
256.306	12412.22
256.376	12398.86
256.446	12384.93
256.517	12369.94
256.587	12359.39
256.657	12343
256.728	12327.33
256.798	12305.49
256.868	12282.84
256.938	12256.28
257.009	12248.71
257.079	12241.14
257.149	12241.91
257.219	12203.4
257.29	12189.9
257.36	12151.82
257.43	12134.52
257.5	12095.38
257.571	12060.82
257.641	12036.96
257.711	12009.53
257.781	11998.4
257.852	11979.55
257.922	11945.57
257.992	11931.06
258.062	11904.12
258.132	11890.47
258.202	11873.07
258.273	11853.41
258.343	11852.78
258.413	11821.21
258.483	11797.69
258.553	11764.14
258.623	11734.74
258.693	11732.19
258.764	11728.43
258.834	11719.85
258.904	11700.86
258.974	11671.26
259.044	11657.82
259.114	11649.43
259.184	11629.14
259.254	11605.67
259.324	11567.01
259.394	11556.75
259.464	11556.6
259.535	11538.82
259.605	11512.26
259.675	11485.9
259.745	11469.9
259.815	11439.48
259.885	11422.13
259.955	11437.27
260.025	11411.82
260.095	11395.1
260.165	11374.13
260.235	11372.49
260.305	11346.86
260.375	11313.6
260.445	11318.66
260.515	11311.19
260.585	11299.96
260.655	11284.3
260.725	11271.14
260.795	11265.55
260.865	11261.98
260.934	11222.51
261.004	11209.26
261.074	11198.46
261.144	11197.69
261.214	11205.31
261.284	11181.36
261.354	11175.38
261.424	11141.4
261.494	11146.94
261.564	11128.15
261.634	11125.98
261.703	11086.13
261.773	11066.27
261.843	11058.42
261.913	11037.79
261.983	11003.67
262.053	10992.59
262.123	10968.16
262.192	10940.5
262.262	10929.9
262.332	10902
262.402	10901.61
262.472	10880.74
262.541	10843.5
