Data from 20250630_urea_2M_MAYP1162681_19-02-26-895.txt Node
Date: Mon Jun 30 19:02:26 BST 2025
User: adleo
Spectrometer: MAYP116268
Trigger mode: 0
Integration Time (sec): 1.000000E0
Scans to average: 1
Electric dark correction enabled: true
Nonlinearity correction enabled: true
Boxcar width: 10
XAxis mode: Wavelengths
Number of Pixels in Spectrum: 2068
>>>>>Begin Spectral Data<<<<<
179.565	1115.5
179.642	1163.42
179.718	1205.66
179.795	1241.22
179.871	1273.11
179.948	1290.16
180.024	1308.49
180.101	1328.56
180.177	1342.94
180.254	1363.91
180.33	1385.17
180.407	1432.4
180.483	1520.14
180.56	1605.75
180.636	1684.37
180.712	1670.44
180.789	1679
180.865	1691.96
180.942	1702.56
181.018	1711.96
181.095	1725.51
181.171	1728.5
181.248	1731.35
181.324	1744.66
181.4	1750.08
181.477	1759.49
181.553	1770.8
181.63	1791.19
181.706	1805.4
181.782	1811.19
181.859	1809.43
181.935	1814.85
182.011	1809.34
182.088	1825.36
182.164	1840.05
182.24	1851.27
182.317	1858.73
182.393	1857.87
182.469	1870.94
182.546	1887.91
182.622	1892.29
182.698	1888.44
182.775	1898.56
182.851	1910.3
182.927	1902.55
183.003	1899.7
183.08	1893.24
183.156	1902.84
183.232	1899.04
183.308	1889.48
183.385	1899.13
183.461	1916.58
183.537	1917.01
183.613	1930.84
183.69	1924.09
183.766	1913.39
183.842	1921.76
183.918	1928.84
183.995	1941.3
184.071	1944.15
184.147	1935.83
184.223	1924.09
184.299	1934.65
184.375	1924.66
184.452	1932.75
184.528	1989.73
184.604	2002.14
184.68	2012.74
184.756	2019.78
184.832	2024.96
184.908	2029.91
184.985	2027.39
185.061	2013.31
185.137	2020.64
185.213	2008.37
185.289	2009.09
185.365	2004.24
185.441	2001.43
185.517	2012.13
185.593	2009.14
185.669	2004.05
185.745	2014.37
185.822	2029.39
185.898	2023.49
185.974	2032.57
186.05	2025.43
186.126	1982.9
186.202	1973.97
186.278	1970.88
186.354	1960.6
186.43	1964.98
186.506	1962.84
186.582	1963.51
186.658	1970.68
186.734	1952.19
186.81	1958.51
186.886	1962.84
186.962	1972.49
187.038	1971.4
187.114	1965.31
187.19	1974.72
187.266	1966.88
187.341	1965.17
187.417	1961.27
187.493	1959.65
187.569	1963.17
187.645	1955.47
187.721	1944.2
187.797	1949.71
187.873	1954.99
187.949	1950.14
188.025	1946.1
188.101	1951.09
188.176	1956.04
188.252	1949.81
188.328	1958.65
188.404	1955.65
188.48	1948.86
188.556	1943.58
188.632	1943.58
188.707	1945.86
188.783	1940.44
188.859	1935.45
188.935	1926.7
189.011	1931.98
189.086	1928.27
189.162	1920.52
189.238	1921.09
189.314	1918.1
189.39	1913.48
189.465	1906.97
189.541	1923.09
189.617	1908.16
189.693	1901.08
189.768	1905.98
189.844	1929.9
189.92	1919.68
189.996	1928.24
190.071	1938.42
190.147	1937.85
190.223	1942.51
190.298	1933.85
190.374	1921.2
190.45	1933.37
190.526	1939.55
190.601	1933.14
190.677	1932.42
190.753	1958.83
190.828	1963.2
190.904	1979.65
190.98	1994.3
191.055	2002.62
191.131	1993.01
191.207	2014.17
191.282	2022.82
191.358	2010.46
191.433	1996.62
191.509	2009.21
191.585	2008.12
191.66	2008.21
191.736	2014.35
191.811	2007.36
191.887	2022.63
191.963	2045.36
192.038	2054.06
192.114	2055.58
192.189	2061.33
192.265	2059.24
192.34	2040.02
192.416	2036.83
192.491	2031.79
192.567	2036.26
192.642	2039.36
192.718	2041.07
192.793	2028.94
192.869	2029.37
192.944	2031.6
193.02	2038.55
193.095	2043.35
193.171	2047.11
193.246	2047.63
193.322	2044.73
193.397	2043.44
193.473	2029.41
193.548	2013.1
193.624	2015.29
193.699	2013.1
193.775	2030.37
193.85	2032.55
193.925	2040.45
194.001	2038.93
194.076	2030.89
194.152	2021.43
194.227	2016.96
194.302	2009.11
194.378	2010.78
194.453	2005.5
194.529	2019.34
194.604	2004.17
194.679	2000.27
194.755	1984.44
194.83	1999.04
194.905	1998.76
194.981	2007.79
195.056	2000.71
195.131	2007.37
195.207	2004.23
195.282	1997.38
195.357	1975.59
195.433	1990
195.508	1977.64
195.583	1983.96
195.659	2000.37
195.734	2005.74
195.809	2004.79
195.884	2011.21
195.96	2009.55
196.035	2024.91
196.11	2019.63
196.185	2031.28
196.261	2031.99
196.336	2060.86
196.411	2044.97
196.486	2051.77
196.561	2047.77
196.637	2057.33
196.712	2071.36
196.787	2076.41
196.862	2088.58
196.937	2096.95
197.013	2099.33
197.088	2107.79
197.163	2131.59
197.238	2144.68
197.313	2143.58
197.388	2156.43
197.464	2184.07
197.539	2196.2
197.614	2188.88
197.689	2199.01
197.764	2217.24
197.839	2235.98
197.914	2226.7
197.989	2247.35
198.065	2259.72
198.14	2306.91
198.215	2329.23
198.29	2339.09
198.365	2350.6
198.44	2362.31
198.515	2388.35
198.59	2404.67
198.665	2430.85
198.74	2437.86
198.815	2444.76
198.89	2464.28
198.965	2490.04
199.04	2489.57
199.115	2505.8
199.19	2544.74
199.265	2549.88
199.34	2558.31
199.415	2589.8
199.49	2614.51
199.565	2625.51
199.64	2649.23
199.715	2644.23
199.79	2654.99
199.865	2661.19
199.94	2659.66
200.015	2691.01
200.09	2697.54
200.165	2703.35
200.24	2711.11
200.315	2748.83
200.39	2758.17
200.464	2766.98
200.539	2767.37
200.614	2780.7
200.689	2802.1
200.764	2810.16
200.839	2828.3
200.914	2835.07
200.989	2826.15
201.063	2835.83
201.138	2818.97
201.213	2818.21
201.288	2802.39
201.363	2807.77
201.438	2808.2
201.512	2823.25
201.587	2805.62
201.662	2811.05
201.737	2821.82
201.812	2830.21
201.886	2798.02
201.961	2808.17
202.036	2795.89
202.111	2794.41
202.186	2765.6
202.26	2750.35
202.335	2727.57
202.41	2720.23
202.485	2703.47
202.559	2685.37
202.634	2663.5
202.709	2671.59
202.784	2651.11
202.858	2653.35
202.933	2634.25
203.008	2628.34
203.082	2609.39
203.157	2611.15
203.232	2567.97
203.306	2550.25
203.381	2516
203.456	2495
203.53	2470.45
203.605	2452.85
203.68	2429.89
203.754	2425.13
203.829	2410.47
203.904	2394.23
203.978	2382.04
204.053	2382.76
204.127	2371.62
204.202	2368.38
204.277	2352.25
204.351	2349.82
204.426	2337.49
204.5	2330.4
204.575	2299.56
204.65	2310.23
204.724	2299.84
204.799	2308.98
204.873	2303.45
204.948	2301.74
205.022	2288.47
205.097	2284.04
205.171	2295.31
205.246	2303.41
205.32	2305.98
205.395	2304.45
205.469	2296.13
205.544	2302.41
205.618	2286.61
205.693	2299.18
205.767	2285.95
205.842	2302.66
205.916	2293.9
205.991	2288.67
206.065	2293.81
206.14	2309.84
206.214	2304.03
206.289	2296.22
206.363	2307.74
206.438	2310.64
206.512	2320.87
206.586	2339.72
206.661	2347.58
206.735	2329.83
206.81	2330.31
206.884	2339.92
206.958	2330.55
207.033	2343.63
207.107	2351.96
207.181	2384.53
207.256	2377.44
207.33	2397.81
207.405	2414.05
207.479	2432.14
207.553	2437.47
207.628	2420.82
207.702	2428.48
207.776	2423.72
207.851	2429.48
207.925	2443.58
207.999	2440.67
208.073	2436.39
208.148	2439.39
208.222	2426.24
208.296	2454.8
208.371	2471.28
208.445	2484.04
208.519	2509.27
208.593	2520.98
208.668	2517.6
208.742	2519.22
208.816	2521.22
208.89	2531.65
208.965	2529.89
209.039	2537.61
209.113	2557.23
209.187	2577.26
209.261	2573.98
209.336	2594.5
209.41	2612.56
209.484	2616.37
209.558	2637.42
209.632	2649.75
209.707	2660.52
209.781	2681.47
209.855	2701.82
209.929	2720.47
210.003	2725.42
210.077	2726.76
210.151	2774.11
210.226	2802.71
210.3	2826.69
210.374	2849.89
210.448	2856.99
210.522	2864.62
210.596	2875.49
210.67	2883.87
210.744	2931.93
210.818	2967
210.892	2986.73
210.966	2985.3
211.041	2999.32
211.115	2998.99
211.189	3026.59
211.263	3046.94
211.337	3058.29
211.411	3072.07
211.485	3068.54
211.559	3084.03
211.633	3090.94
211.707	3067.75
211.781	3084.36
211.855	3059.37
211.929	3059.47
212.003	3053.13
212.077	3074.5
212.151	3098.06
212.225	3119
212.299	3120.63
212.373	3126.16
212.447	3138.52
212.52	3182.93
212.594	3210.14
212.668	3242.76
212.742	3252.78
212.816	3272.68
212.89	3292.34
212.964	3319.55
213.038	3352.31
213.112	3401.24
213.186	3453.41
213.26	3471.06
213.333	3469.72
213.407	3518.68
213.481	3566.64
213.555	3625.72
213.629	3665.23
213.703	3706.27
213.777	3761.9
213.85	3806.68
213.924	3901.73
213.998	3970
214.072	4033.81
214.146	4091.19
214.219	4168.38
214.293	4242.68
214.367	4326.97
214.441	4425.62
214.515	4501.57
214.588	4577.81
214.662	4642.15
214.736	4720.55
214.81	4834.54
214.883	4952.91
214.957	5056.29
215.031	5160.73
215.105	5260.73
215.178	5368.95
215.252	5483.84
215.326	5588.79
215.4	5696.27
215.473	5782.93
215.547	5897.21
215.621	6022.78
215.694	6167.69
215.768	6283.41
215.842	6418.87
215.915	6553.97
215.989	6677.79
216.063	6825.12
216.136	6982.76
216.21	7133.37
216.284	7302.49
216.357	7463.61
216.431	7617.5
216.504	7784.68
216.578	7973.25
216.652	8145.89
216.725	8319.27
216.799	8496.88
216.873	8668.65
216.946	8850.78
217.02	9010.22
217.093	9185.93
217.167	9337.3
217.24	9497.02
217.314	9668.19
217.387	9833.65
217.461	10004.24
217.535	10192.14
217.608	10356.7
217.682	10524.41
217.755	10714.9
217.829	10875.73
217.902	11053.45
217.976	11221.28
218.049	11383.39
218.123	11542
218.196	11719.93
218.27	11883.41
218.343	12042.62
218.417	12216.76
218.49	12387.05
218.563	12577.39
218.637	12742.78
218.71	12933.56
218.784	13108.4
218.857	13286.27
218.931	13460
219.004	13627.07
219.077	13797.58
219.151	13959.11
219.224	14117.66
219.298	14272.39
219.371	14443.13
219.444	14576.51
219.518	14742.24
219.591	14907.77
219.665	15078.89
219.738	15224.27
219.811	15366.56
219.885	15516.95
219.958	15670.95
220.031	15810.2
220.105	15954.61
220.178	16091.2
220.251	16213.82
220.325	16349.88
220.398	16485.17
220.471	16613.95
220.544	16745.77
220.618	16856.04
220.691	16985.88
220.764	17107.67
220.838	17230.13
220.911	17350.23
220.984	17494.62
221.057	17612.93
221.131	17723.39
221.204	17802.38
221.277	17929.99
221.35	18066.08
221.424	18175.38
221.497	18275.62
221.57	18380.19
221.643	18488.19
221.716	18599.07
221.79	18703.36
221.863	18793.95
221.936	18889.71
222.009	18991.53
222.082	19082.13
222.155	19168.01
222.229	19274.99
222.302	19373.92
222.375	19457.24
222.448	19538.54
222.521	19615.89
222.594	19693.09
222.667	19758.39
222.74	19851.2
222.814	19920.5
222.887	19985.7
222.96	20065.41
223.033	20140.83
223.106	20213.17
223.179	20281.6
223.252	20346.47
223.325	20412.11
223.398	20473.36
223.471	20535.29
223.544	20587.58
223.617	20645.79
223.69	20710.32
223.763	20754.23
223.837	20795.34
223.91	20850.62
223.983	20881.66
224.056	20920.89
224.129	20971.68
224.202	21041.76
224.275	21072.99
224.348	21101.72
224.42	21129.72
224.493	21151.45
224.566	21189.63
224.639	21231.46
224.712	21259.37
224.785	21294.02
224.858	21313.83
224.931	21345.6
225.004	21369.84
225.077	21406.57
225.15	21427.34
225.223	21461.76
225.296	21519.6
225.369	21545.15
225.442	21565.53
225.514	21605.73
225.587	21639.62
225.66	21675.67
225.733	21692.74
225.806	21734.72
225.879	21767.11
225.952	21786.68
226.025	21829.05
226.097	21864.19
226.17	21882.41
226.243	21887.57
226.316	21907.62
226.389	21932.35
226.461	21955.34
226.534	21982.24
226.607	22002.77
226.68	22035.7
226.753	22044.32
226.825	22022.29
226.898	22048.08
226.971	22059.31
227.044	22077.44
227.117	22094.5
227.189	22100.53
227.262	22124.34
227.335	22136.68
227.407	22136.25
227.48	22143.39
227.553	22143.67
227.626	22137.5
227.698	22137.55
227.771	22147.67
227.844	22145.79
227.916	22158.47
227.989	22150.57
228.062	22150.71
228.134	22176.26
228.207	22175.64
228.28	22176.17
228.352	22192.56
228.425	22195.69
228.498	22214.97
228.57	22207.69
228.643	22217.05
228.716	22218.44
228.788	22203.4
228.861	22190.77
228.934	22210.49
229.006	22217.86
229.079	22219.12
229.151	22213.43
229.224	22214.15
229.296	22217.48
229.369	22239.17
229.442	22249.25
229.514	22251.08
229.587	22261.35
229.659	22225.14
229.732	22225.34
229.804	22240.23
229.877	22253.15
229.949	22245.49
230.022	22249.92
230.094	22245.97
230.167	22240.86
230.239	22229.97
230.312	22236.47
230.384	22260.77
230.457	22252.29
230.529	22255.42
230.602	22260.38
230.674	22261.73
230.747	22277.35
230.819	22292.97
230.892	22264.19
230.964	22258.02
231.037	22259.42
231.109	22251.42
231.181	22259.56
231.254	22244.81
231.326	22242.11
231.399	22231.8
231.471	22236.91
231.544	22211.93
231.616	22224.08
231.688	22221.33
231.761	22205.62
231.833	22192.75
231.905	22151.2
231.978	22149.6
232.05	22130.08
232.122	22116.01
232.195	22104.58
232.267	22095.08
232.339	22068.23
232.412	22073.54
232.484	22055.03
232.556	22037.38
232.629	22041.14
232.701	22034.39
232.773	22019.89
232.846	21998.77
232.918	21984.07
232.99	21977.95
233.062	21980.02
233.135	21960.64
233.207	21928.68
233.279	21919.14
233.351	21909.64
233.424	21903.81
233.496	21876.48
233.568	21888.19
233.64	21861.05
233.713	21850.06
233.785	21827.07
233.857	21818.2
233.929	21780.85
234.001	21783.69
234.074	21778.44
234.146	21741.37
234.218	21730.38
234.29	21709.36
234.362	21674.13
234.434	21638.94
234.507	21606.07
234.579	21566.25
234.651	21541.72
234.723	21533.67
234.795	21526.39
234.867	21497.81
234.939	21491.35
235.012	21478.34
235.084	21454.53
235.156	21441.03
235.228	21406.23
235.3	21379.43
235.372	21354.03
235.444	21343.62
235.516	21307.81
235.588	21283.03
235.66	21259.18
235.732	21221.34
235.804	21257.68
235.876	21249.83
235.948	21242.79
236.02	21208.38
236.092	21183.99
236.164	21166.16
236.236	21137.38
236.308	21105.19
236.38	21081.09
236.452	21045.09
236.524	21009.67
236.596	20994
236.668	20958.24
236.74	20930.09
236.812	20905.27
236.884	20887.68
236.956	20872.45
237.028	20821.61
237.1	20781.46
237.172	20767.1
237.244	20758.18
237.316	20691.86
237.388	20650.27
237.46	20618.56
237.532	20611.57
237.604	20581.55
237.675	20562.22
237.747	20538.13
237.819	20495.62
237.891	20456.39
237.963	20420.2
238.035	20388.44
238.107	20320.05
238.178	20313.93
238.25	20280.1
238.322	20268.2
238.394	20218.03
238.466	20169.94
238.538	20150.52
238.609	20137.07
238.681	20095.87
238.753	20059.19
238.825	20031.29
238.897	20010.04
238.968	19986.81
239.04	19938.95
239.112	19927.24
239.184	19879.92
239.255	19836.93
239.327	19812.26
239.399	19793.66
239.471	19771.59
239.542	19746.48
239.614	19732.79
239.686	19668.84
239.758	19659.54
239.829	19618.77
239.901	19607.93
239.973	19584.37
240.044	19558.25
240.116	19520.71
240.188	19474.98
240.259	19434.21
240.331	19392.91
240.403	19355.61
240.474	19296.58
240.546	19259.28
240.618	19212.92
240.689	19170.9
240.761	19142.56
240.833	19125.65
240.904	19093.02
240.976	19054.37
241.048	19023.1
241.119	18994.14
241.191	18975.44
241.262	18953.71
241.334	18919.88
241.405	18872.12
241.477	18830.1
241.549	18794.82
241.62	18766.44
241.692	18747.41
241.763	18729.77
241.835	18695.26
241.906	18669.82
241.978	18627.32
242.049	18604.67
242.121	18576.86
242.192	18559.9
242.264	18511.85
242.335	18456.19
242.407	18429.93
242.478	18388.48
242.55	18352.53
242.621	18309.12
242.693	18268.3
242.764	18219.96
242.836	18182.33
242.907	18156.45
242.979	18119.39
243.05	18083.25
243.122	18052.98
243.193	18014.77
243.264	17951.4
243.336	17908.41
243.407	17879.74
243.479	17866.87
243.55	17834.82
243.622	17799.64
243.693	17765.14
243.764	17747.06
243.836	17710.05
243.907	17661.57
243.978	17630.44
244.05	17599.93
244.121	17556.17
244.192	17535.16
244.264	17485.28
244.335	17451.55
244.407	17407.98
244.478	17384.8
244.549	17349.09
244.62	17298.39
244.692	17262.49
244.763	17244.22
244.834	17216.7
244.906	17174.82
244.977	17141.72
245.048	17112.17
245.119	17065.28
245.191	17018.97
245.262	16968.89
245.333	16956.6
245.405	16930.91
245.476	16899.83
245.547	16869.32
245.618	16847.39
245.689	16809.85
245.761	16787.39
245.832	16752.06
245.903	16719.1
245.974	16689.75
246.045	16660.2
246.117	16649.94
246.188	16600.77
246.259	16549.88
246.33	16510.65
246.401	16478.93
246.473	16431.51
246.544	16401.14
246.615	16390.11
246.686	16355.41
246.757	16339.93
246.828	16298
246.899	16278.82
246.97	16231.92
247.042	16196.59
247.113	16167.14
247.184	16153.65
247.255	16107.04
247.326	16073.54
247.397	16042.26
247.468	16013.63
247.539	15979.22
247.61	15931.6
247.681	15911.6
247.752	15893.62
247.823	15852.02
247.894	15818.67
247.965	15776.83
248.037	15736.34
248.108	15687.13
248.179	15662.64
248.25	15623.5
248.321	15593.57
248.392	15542.53
248.463	15533.37
248.534	15502.57
248.605	15480.15
248.675	15449.5
248.746	15429.83
248.817	15404.58
248.888	15381.83
248.959	15333.62
249.03	15310.54
249.101	15270.14
249.172	15237.51
249.243	15191.96
249.314	15183.42
249.385	15150.02
249.456	15137.05
249.527	15104.13
249.598	15078.97
249.669	15048.41
249.739	15025.22
249.81	14998.61
249.881	14961.88
249.952	14932.82
250.023	14905.73
250.094	14863.6
250.165	14824.12
250.235	14791.24
250.306	14761.45
250.377	14717.54
250.448	14693.1
250.519	14647.64
250.59	14642.34
250.66	14607.15
250.731	14595.48
250.802	14566.32
250.873	14549.02
250.944	14521.01
251.014	14499.56
251.085	14495.56
251.156	14472.66
251.227	14455.11
251.297	14440.84
251.368	14429.66
251.439	14408.06
251.51	14390.57
251.58	14352.48
251.651	14323.8
251.722	14317.2
251.792	14269.18
251.863	14244.21
251.934	14233.66
252.005	14234.48
252.075	14209.89
252.146	14200.88
252.217	14194.13
252.287	14176.48
252.358	14148.52
252.429	14147.17
252.499	14114.01
252.57	14095.88
252.641	14076.36
252.711	14053.46
252.782	14015.67
252.852	14007.23
252.923	13988.29
252.994	13962.11
253.064	13954.83
253.135	13922.2
253.205	13882.33
253.276	13884.02
253.347	13878.28
253.417	13840.1
253.488	13810.12
253.558	13782.01
253.629	13753.33
253.699	13722.28
253.77	13704.21
253.841	13679.57
253.911	13653.88
253.982	13633.01
254.052	13609.39
254.123	13590.63
254.193	13562.34
254.264	13574.63
254.334	13543.68
254.405	13509.21
254.475	13478.12
254.546	13459.13
254.616	13446.93
254.687	13430.35
254.757	13413.67
254.827	13389.37
254.898	13369.27
254.968	13346.03
255.039	13313.98
255.109	13305.15
255.18	13274.69
255.25	13230.77
255.321	13211.87
255.391	13174.76
255.461	13173.45
255.532	13124.28
255.602	13090.25
255.673	13052.75
255.743	13016.25
255.813	12968.77
255.884	12955.51
255.954	12941.77
256.024	12927.41
256.095	12912.03
256.165	12882.43
256.235	12865.18
256.306	12842.37
256.376	12834.76
256.446	12823.04
256.517	12803.76
256.587	12795.66
256.657	12782.36
256.728	12759.89
256.798	12738.44
256.868	12710.68
256.938	12670.57
257.009	12660.98
257.079	12650.81
257.149	12656.49
257.219	12615.66
257.29	12602.75
257.36	12566.26
257.43	12551.26
257.5	12509.62
257.571	12480.64
257.641	12466.62
257.711	12430.85
257.781	12410.17
257.852	12397.78
257.922	12358.98
257.992	12340.37
258.062	12307.3
258.132	12291.59
258.202	12276.36
258.273	12261.51
258.343	12260.16
258.413	12235.72
258.483	12216.73
258.553	12192.72
258.623	12161.58
258.693	12153.39
258.764	12146.98
258.834	12143.07
258.904	12123.07
258.974	12093.86
259.044	12067.88
259.114	12050.77
259.184	12033.46
259.254	12008.79
259.324	11963.43
259.394	11946.32
259.464	11953.26
259.535	11938.85
259.605	11911.56
259.675	11879.46
259.745	11863.7
259.815	11828.47
259.885	11807.36
259.955	11814.97
260.025	11782.05
260.095	11763.93
260.165	11749.76
260.235	11753.95
260.305	11724.7
260.375	11691.1
260.445	11703.05
260.515	11700.84
260.585	11696.93
260.655	11673.22
260.725	11663.92
260.795	11662.86
260.865	11671.97
260.934	11636.3
261.004	11618.75
261.074	11602.13
261.144	11606.32
261.214	11591.62
261.284	11579.52
261.354	11576.34
261.424	11546.75
261.494	11554.07
261.564	11539.08
261.634	11522.94
261.703	11481.34
261.773	11469.34
261.843	11463.46
261.913	11439.22
261.983	11401.92
262.053	11385.77
262.123	11373.19
262.192	11348.76
262.262	11334.97
