Data from 20250630_urea_2M_MAYP1162681_01-42-26-960.txt Node
Date: Tue Jul 01 01:42:26 BST 2025
User: adleo
Spectrometer: MAYP116268
Trigger mode: 0
Integration Time (sec): 1.000000E0
Scans to average: 1
Electric dark correction enabled: true
Nonlinearity correction enabled: true
Boxcar width: 10
XAxis mode: Wavelengths
Number of Pixels in Spectrum: 2068
>>>>>Begin Spectral Data<<<<<
179.565	1074.55
179.642	1125.18
179.718	1163.11
179.795	1197.75
179.871	1230.51
179.948	1246.08
180.024	1262.93
180.101	1283.22
180.177	1296.86
180.254	1318.17
180.33	1337.4
180.407	1380.45
180.483	1466.67
180.56	1548.25
180.636	1624.39
180.712	1613.32
180.789	1621.96
180.865	1633.17
180.942	1640.11
181.018	1648.89
181.095	1659.25
181.171	1665.29
181.248	1666.09
181.324	1681.25
181.4	1685.86
181.477	1692.18
181.553	1701.59
181.63	1721.97
181.706	1736.75
181.782	1742.07
181.859	1741.17
181.935	1748.53
182.011	1745.21
182.088	1759.18
182.164	1774.01
182.24	1787.98
182.317	1794.73
182.393	1792.88
182.469	1806.47
182.546	1820.2
182.622	1825.62
182.698	1824.05
182.775	1835.7
182.851	1848.1
182.927	1842.92
183.003	1841.45
183.08	1836.7
183.156	1848.81
183.232	1844.3
183.308	1833.13
183.385	1843.68
183.461	1858.37
183.537	1858.51
183.613	1871.82
183.69	1865.59
183.766	1856.7
183.842	1860.07
183.918	1865.11
183.995	1878.23
184.071	1879.7
184.147	1873.76
184.223	1863.83
184.299	1873.39
184.375	1862.31
184.452	1866.78
184.528	1915.24
184.604	1924.84
184.68	1938.76
184.756	1943.66
184.832	1950.27
184.908	1956.97
184.985	1955.69
185.061	1940.62
185.137	1948.61
185.213	1936.91
185.289	1938.34
185.365	1934.39
185.441	1932.73
185.517	1943.52
185.593	1940.15
185.669	1938.48
185.745	1948.47
185.822	1961.2
185.898	1952.65
185.974	1961.44
186.05	1955.5
186.126	1921.02
186.202	1915.13
186.278	1908.61
186.354	1900.77
186.43	1905.1
186.506	1900.63
186.582	1899.77
186.658	1908.9
186.734	1891.22
186.81	1894.69
186.886	1896.68
186.962	1903.72
187.038	1901.39
187.114	1897.63
187.19	1904.38
187.266	1895.87
187.341	1895.4
187.417	1892.07
187.493	1892.36
187.569	1896.16
187.645	1888.93
187.721	1876.9
187.797	1881.9
187.873	1886.46
187.949	1880.28
188.025	1875.62
188.101	1877
188.176	1881.23
188.252	1873.72
188.328	1878.8
188.404	1879.66
188.48	1873.81
188.556	1869.06
188.632	1868.96
188.707	1868.3
188.783	1865.92
188.859	1861.55
188.935	1852.28
189.011	1857.56
189.086	1853.52
189.162	1847.1
189.238	1847.38
189.314	1843.82
189.39	1837.54
189.465	1829.61
189.541	1844.34
189.617	1831.27
189.693	1827.42
189.768	1829.09
189.844	1852.29
189.92	1844.64
189.996	1852.39
190.071	1863.51
190.147	1862.23
190.223	1870.45
190.298	1862.51
190.374	1849.92
190.45	1860.8
190.526	1867.46
190.601	1863.23
190.677	1864.79
190.753	1887.15
190.828	1889.1
190.904	1903.79
190.98	1920.05
191.055	1933.89
191.131	1926.18
191.207	1946.39
191.282	1959.74
191.358	1949.67
191.433	1937.11
191.509	1951.99
191.585	1946.99
191.66	1948.18
191.736	1956.5
191.811	1950.23
191.887	1968.25
191.963	1992.07
192.038	1996.87
192.114	1998.82
192.189	2002.72
192.265	2000.68
192.34	1981.13
192.416	1981.79
192.491	1974.18
192.567	1976.89
192.642	1974.75
192.718	1976.56
192.793	1961.96
192.869	1956.64
192.944	1962.01
193.02	1968.33
193.095	1970.23
193.171	1976.23
193.246	1975.75
193.322	1974.61
193.397	1974.61
193.473	1960.29
193.548	1941.51
193.624	1947.17
193.699	1944.31
193.775	1958.35
193.85	1958.63
193.925	1966.33
194.001	1965.95
194.076	1962.25
194.152	1951.26
194.227	1945.32
194.302	1933.24
194.378	1938.33
194.453	1934.01
194.529	1946.75
194.604	1933.58
194.679	1927.78
194.755	1910.24
194.83	1919.85
194.905	1916.09
194.981	1923.51
195.056	1915.76
195.131	1923.04
195.207	1921.56
195.282	1913.34
195.357	1896.31
195.433	1912.57
195.508	1899.26
195.583	1903.49
195.659	1918.28
195.734	1927.03
195.809	1926.94
195.884	1939.44
195.96	1937.3
196.035	1952.84
196.11	1947.37
196.185	1961.92
196.261	1966.34
196.336	1992.78
196.411	1980.22
196.486	1987.26
196.561	1980.93
196.637	1991.11
196.712	2004.38
196.787	2006.04
196.862	2018.97
196.937	2027.82
197.013	2030.29
197.088	2042.08
197.163	2063.96
197.238	2075.86
197.313	2073.34
197.388	2086.23
197.464	2113.78
197.539	2123.62
197.614	2119.01
197.689	2128.57
197.764	2138.56
197.839	2155.59
197.914	2150.69
197.989	2173.39
198.065	2184.14
198.14	2228.69
198.215	2251.44
198.29	2263
198.365	2275.47
198.44	2284.41
198.515	2310.64
198.59	2323.82
198.665	2345.09
198.74	2354.09
198.815	2356.76
198.89	2378.17
198.965	2406.03
199.04	2401.93
199.115	2417.26
199.19	2454.58
199.265	2458.72
199.34	2467.91
199.415	2498.15
199.49	2520.76
199.565	2529.14
199.64	2551.33
199.715	2546.04
199.79	2549.61
199.865	2553.28
199.94	2552.9
200.015	2585.48
200.09	2589.81
200.165	2597.43
200.24	2607.43
200.315	2643.66
200.39	2658.38
200.464	2664.96
200.539	2664.91
200.614	2678.48
200.689	2698.15
200.764	2703.54
200.839	2720.2
200.914	2727.25
200.989	2719.58
201.063	2731.73
201.138	2714.07
201.213	2712.69
201.288	2696.11
201.363	2704.21
201.438	2705.4
201.512	2718.92
201.587	2701.34
201.662	2705.87
201.737	2716.06
201.812	2722.12
201.886	2690.6
201.961	2700.04
202.036	2686.37
202.111	2682.89
202.186	2656.42
202.26	2642.84
202.335	2623.12
202.41	2617.02
202.485	2602.41
202.559	2582.31
202.634	2559.54
202.709	2566.25
202.784	2550.58
202.858	2552.44
202.933	2534.2
203.008	2532.15
203.082	2514.87
203.157	2515.06
203.232	2474.98
203.306	2457.83
203.381	2428.64
203.456	2405.22
203.53	2381.92
203.605	2366.89
203.68	2346.93
203.754	2340.7
203.829	2328.8
203.904	2310.86
203.978	2300.05
204.053	2303.24
204.127	2291.54
204.202	2287.4
204.277	2274.83
204.351	2268.17
204.426	2261.56
204.5	2255.04
204.575	2221.45
204.65	2232.16
204.724	2223.4
204.799	2231.39
204.873	2225.72
204.948	2224.01
205.022	2212.97
205.097	2205.21
205.171	2215.97
205.246	2221.39
205.32	2219.54
205.395	2217.02
205.469	2206.84
205.544	2213.22
205.618	2198.23
205.693	2209.17
205.767	2198.99
205.842	2217.93
205.916	2214.27
205.991	2206.61
206.065	2212.27
206.14	2224.4
206.214	2219.78
206.289	2214.45
206.363	2226.01
206.438	2230.48
206.512	2241
206.586	2259.46
206.661	2270.55
206.735	2250.96
206.81	2255.24
206.884	2270.94
206.958	2262.57
207.033	2279.17
207.107	2284.21
207.181	2313.11
207.256	2310.97
207.33	2326.72
207.405	2339.77
207.479	2354.81
207.553	2361.85
207.628	2346.15
207.702	2358.43
207.776	2349.53
207.851	2353.29
207.925	2365
207.999	2361.53
208.073	2355.86
208.148	2360.38
208.222	2347.63
208.296	2373.98
208.371	2385.51
208.445	2396.79
208.519	2421.21
208.593	2432.01
208.668	2429.06
208.742	2429.73
208.816	2429.77
208.89	2443.2
208.965	2437.39
209.039	2445.3
209.113	2462.2
209.187	2483.42
209.261	2480.32
209.336	2498.89
209.41	2515.08
209.484	2518.27
209.558	2534.46
209.632	2546.7
209.707	2556.08
209.781	2575.84
209.855	2593.18
209.929	2609.77
210.003	2615.01
210.077	2615.82
210.151	2659.29
210.226	2690.6
210.3	2716.01
210.374	2737.01
210.448	2741.49
210.522	2757.69
210.596	2768.37
210.67	2775.18
210.744	2819.08
210.818	2850.42
210.892	2871.63
210.966	2869.49
211.041	2885.07
211.115	2888.69
211.189	2914.85
211.263	2934.54
211.337	2940.54
211.411	2960.33
211.485	2958.66
211.559	2972.76
211.633	2978.48
211.707	2955.83
211.781	2966.99
211.855	2939.81
211.929	2936.43
212.003	2926.76
212.077	2935.11
212.151	2953.13
212.225	2969.63
212.299	2970.58
212.373	2969.34
212.447	2974.87
212.52	3013.4
212.594	3031.19
212.668	3053.75
212.742	3052.51
212.816	3062.57
212.89	3073.96
212.964	3089.28
213.038	3114.48
213.112	3145.82
213.186	3182.26
213.26	3186.12
213.333	3171.05
213.407	3204.52
213.481	3238.04
213.555	3282.2
213.629	3307.59
213.703	3327.78
213.777	3363.87
213.85	3379.72
213.924	3454.7
213.998	3502.22
214.072	3540.54
214.146	3574.64
214.219	3620.44
214.293	3674.07
214.367	3730.35
214.441	3797.42
214.515	3846.69
214.588	3884.97
214.662	3919.1
214.736	3965.12
214.81	4042.7
214.883	4120.33
214.957	4183.38
215.031	4248.91
215.105	4306.08
215.178	4370.17
215.252	4445.57
215.326	4510.02
215.4	4581.58
215.473	4625.16
215.547	4696.17
215.621	4778.08
215.694	4875.22
215.768	4954.05
215.842	5039.46
215.915	5129.45
215.989	5210.2
216.063	5303.63
216.136	5407.3
216.21	5511.74
216.284	5627.67
216.357	5737.63
216.431	5847.56
216.504	5962.2
216.578	6103.43
216.652	6221.76
216.725	6344.49
216.799	6472.73
216.873	6593.33
216.946	6724.21
217.02	6841.76
217.093	6958.25
217.167	7062.12
217.24	7169.92
217.314	7288.69
217.387	7408.16
217.461	7523.34
217.535	7664.3
217.608	7775.66
217.682	7901.17
217.755	8031.64
217.829	8150.12
217.902	8278.81
217.976	8402.93
218.049	8522.83
218.123	8629.93
218.196	8771.51
218.27	8887.46
218.343	8999.82
218.417	9126.72
218.49	9247.04
218.563	9386.23
218.637	9519.48
218.71	9669.35
218.784	9801.02
218.857	9941.22
218.931	10064.61
219.004	10192.55
219.077	10320.42
219.151	10452.51
219.224	10570.64
219.298	10695.57
219.371	10832.66
219.444	10942.13
219.518	11066.79
219.591	11194.05
219.665	11342.4
219.738	11454.73
219.811	11565.43
219.885	11693.15
219.958	11819.09
220.031	11933.22
220.105	12046.39
220.178	12154.89
220.251	12250.52
220.325	12365.82
220.398	12475.34
220.471	12588.91
220.544	12706.38
220.618	12801.87
220.691	12904.21
220.764	13010.26
220.838	13123.45
220.911	13222.22
220.984	13349.29
221.057	13456.16
221.131	13559.52
221.204	13625.41
221.277	13740.82
221.35	13867.84
221.424	13956.63
221.497	14051.46
221.57	14154.37
221.643	14256.96
221.716	14359.68
221.79	14446.31
221.863	14543.15
221.936	14628.52
222.009	14718.66
222.082	14804.37
222.155	14886.12
222.229	14991.3
222.302	15086.79
222.375	15164.59
222.448	15246.15
222.521	15320.58
222.594	15396.78
222.667	15458.48
222.74	15547.08
222.814	15621.83
222.887	15694.95
222.96	15786.73
223.033	15875.41
223.106	15953.11
223.179	16033.17
223.252	16102.62
223.325	16184.22
223.398	16257.05
223.471	16328.62
223.544	16397.16
223.617	16463.34
223.69	16537.46
223.763	16592.45
223.837	16648.7
223.91	16722.44
223.983	16771.17
224.056	16814.4
224.129	16882.26
224.202	16954.12
224.275	17008.34
224.348	17052.77
224.42	17093.74
224.493	17129.16
224.566	17163.86
224.639	17214.41
224.712	17258.46
224.785	17307.09
224.858	17350.95
224.931	17384.97
225.004	17425.11
225.077	17470.37
225.15	17494.37
225.223	17537.36
225.296	17611.33
225.369	17657.84
225.442	17683.18
225.514	17727.91
225.587	17778.6
225.66	17831.95
225.733	17884.43
225.806	17934.41
225.879	17974.31
225.952	18005.15
226.025	18056.19
226.097	18113.53
226.17	18154.4
226.243	18171.55
226.316	18219.26
226.389	18261.86
226.461	18309.33
226.534	18360.41
226.607	18400.8
226.68	18468.94
226.753	18501.9
226.825	18506.72
226.898	18562.28
226.971	18606.81
227.044	18665.51
227.117	18711.43
227.189	18745.36
227.262	18793.93
227.335	18831.71
227.407	18865.4
227.48	18920.14
227.553	18957.3
227.626	18981.2
227.698	19011.7
227.771	19054.54
227.844	19076.9
227.916	19112.71
227.989	19131.69
228.062	19152.95
228.134	19210.97
228.207	19228.7
228.28	19260.02
228.352	19291.93
228.425	19312.65
228.498	19347.01
228.57	19352.11
228.643	19388.59
228.716	19403.73
228.788	19411.77
228.861	19430.23
228.934	19472.97
229.006	19498.37
229.079	19515.77
229.151	19544.87
229.224	19564.15
229.296	19596.34
229.369	19640.24
229.442	19674.41
229.514	19700.1
229.587	19742.45
229.659	19744.82
229.732	19786.07
229.804	19823.46
229.877	19867.17
229.949	19898.4
230.022	19936.33
230.094	19963.36
230.167	19985.29
230.239	20005.14
230.312	20035.36
230.384	20074.59
230.457	20088.37
230.529	20109.48
230.602	20134.25
230.674	20149.33
230.747	20184.8
230.819	20211.55
230.892	20203.55
230.964	20229.62
231.037	20251.11
231.109	20251.88
231.181	20278.05
231.254	20270.87
231.326	20271.59
231.399	20279.11
231.471	20274.39
231.544	20262.58
231.616	20289.91
231.688	20294.49
231.761	20305.57
231.833	20309.62
231.905	20302.05
231.978	20314.97
232.05	20315.45
232.122	20330.39
232.195	20334.1
232.267	20343.06
232.339	20342.82
232.412	20373.81
232.484	20370.68
232.556	20371.88
232.629	20399.79
232.701	20407.88
232.773	20420.03
232.846	20434
232.918	20437.09
232.99	20463.01
233.062	20482.15
233.135	20487.06
233.207	20485.33
233.279	20488.85
233.351	20499.16
233.424	20496.75
233.496	20491.74
233.568	20511.69
233.64	20499.01
233.713	20499.54
233.785	20500.12
233.857	20508.27
233.929	20480.12
234.001	20493.52
234.074	20504.27
234.146	20487.55
234.218	20486.2
234.29	20488.08
234.362	20476.7
234.434	20463.26
234.507	20433.42
234.579	20415.88
234.651	20404.12
234.723	20401.23
234.795	20398.58
234.867	20377.67
234.939	20384.65
235.012	20381.14
235.084	20381.42
235.156	20379.06
235.228	20371.64
235.3	20350.1
235.372	20328.7
235.444	20331.02
235.516	20293.71
235.588	20284.41
235.66	20276.03
235.732	20251.64
235.804	20284.85
235.876	20277.67
235.948	20276.8
236.02	20263.69
236.092	20246.05
236.164	20230.49
236.236	20220.9
236.308	20201.72
236.38	20197.96
236.452	20174.25
236.524	20154.06
236.596	20153
236.668	20148.95
236.74	20125.43
236.812	20115.41
236.884	20108.03
236.956	20092.28
237.028	20067.07
237.1	20035.55
237.172	20022.49
237.244	20019.7
237.316	19963.94
237.388	19941.68
237.46	19916.66
237.532	19905.48
237.604	19881.53
237.675	19871.99
237.747	19854.06
237.819	19827.22
237.891	19806.65
237.963	19776.86
238.035	19747.23
238.107	19686.17
238.178	19671.95
238.25	19659.09
238.322	19657.11
238.394	19618.12
238.466	19592.73
238.538	19582.17
238.609	19562.85
238.681	19522.51
238.753	19485.31
238.825	19461.46
238.897	19441.75
238.968	19425.65
239.04	19402.52
239.112	19408.59
239.184	19370.96
239.255	19333.85
239.327	19313.47
239.399	19285.9
239.471	19272.36
239.542	19257.13
239.614	19243.98
239.686	19192.41
239.758	19172.61
239.829	19131.98
239.901	19119.74
239.973	19096.37
240.044	19067.55
240.116	19044.09
240.188	19022.59
240.259	19000.81
240.331	18967.46
240.403	18937.97
240.474	18897.93
240.546	18863.37
240.618	18808.68
240.689	18771.28
240.761	18756.44
240.833	18739.28
240.904	18703.09
240.976	18664.98
241.048	18637.6
241.119	18610.62
241.191	18583.87
241.262	18561.18
241.334	18527.92
241.405	18484.65
241.477	18444.36
241.549	18410.1
241.62	18381.96
241.692	18358.25
241.763	18341.48
241.835	18316.56
241.906	18288.61
241.978	18246.06
242.049	18226.3
242.121	18201.63
242.192	18196.13
242.264	18141.05
242.335	18093.78
242.407	18075.85
242.478	18044.04
242.55	18013.39
242.621	17975.23
242.693	17941.25
242.764	17905.45
242.836	17870.51
242.907	17851.66
242.979	17833.45
243.05	17806.22
243.122	17768.1
243.193	17735.38
243.264	17677.84
243.336	17638.66
243.407	17619.48
243.479	17607.04
243.55	17580.68
243.622	17553.74
243.693	17506.61
243.764	17497.02
243.836	17455.33
243.907	17412.15
243.978	17381.98
244.05	17352.05
244.121	17306.9
244.192	17292.3
244.264	17246.32
244.335	17217.21
244.407	17174.27
244.478	17144.05
244.549	17112.77
244.62	17074.22
244.692	17039.33
244.763	17013.69
244.834	16970.41
244.906	16926.55
244.977	16900.62
245.048	16877.97
245.119	16841.01
245.191	16809.44
245.262	16755.03
245.333	16742.69
245.405	16714.88
245.476	16682.39
245.547	16652.8
245.618	16633.52
245.689	16592.8
245.761	16569.95
245.832	16535.73
245.903	16504.5
245.974	16471.63
246.045	16429.89
246.117	16417.46
246.188	16363.62
246.259	16320.77
246.33	16288.38
246.401	16253.83
246.473	16205
246.544	16165.77
246.615	16147.99
246.686	16114.59
246.757	16099.31
246.828	16054.1
246.899	16040.89
246.97	15998.38
247.042	15967.87
247.113	15940.06
247.184	15926.9
247.255	15884.92
247.326	15853.35
247.397	15819.51
247.468	15785.48
247.539	15761.24
247.61	15711.35
247.681	15700.36
247.752	15689.03
247.823	15649.6
247.894	15620.54
247.965	15570.07
248.037	15535.27
248.108	15487.36
248.179	15455.26
248.25	15418
248.321	15395.05
248.392	15350.08
248.463	15342.18
248.534	15309.11
248.605	15276.82
248.675	15243.65
248.746	15226.69
248.817	15203.07
248.888	15186
248.959	15144.12
249.03	15121.08
249.101	15098.56
249.172	15061.54
249.243	15013.53
249.314	15005.97
249.385	14977.19
249.456	14961.52
249.527	14929.42
249.598	14900.88
249.669	14868.87
249.739	14859.23
249.81	14840.29
249.881	14805.82
249.952	14780.81
250.023	14748.27
250.094	14711.05
250.165	14671.91
250.235	14641.54
250.306	14617.68
250.377	14580.33
250.448	14558.2
250.519	14515.06
250.59	14500.21
250.66	14473.7
250.731	14458.56
250.802	14421.39
250.873	14399.75
250.944	14375.31
251.014	14338.48
251.085	14337.71
251.156	14319.1
251.227	14296.83
251.297	14280.34
251.368	14261.59
251.439	14240.96
251.51	14225.82
251.58	14194.68
251.651	14168.31
251.722	14146.24
251.792	14099.67
251.863	14074.75
251.934	14064.86
252.005	14062.16
252.075	14032.95
252.146	14019.12
252.217	14008.27
252.287	13999.74
252.358	13965.65
252.429	13957.32
252.499	13931.33
252.57	13902.02
252.641	13883.08
252.711	13854.39
252.782	13816.36
252.852	13808.31
252.923	13779.43
252.994	13758.8
253.064	13751.14
253.135	13713.82
253.205	13680.71
253.276	13677.28
253.347	13663.11
253.417	13631.25
253.488	13600.64
253.558	13571.86
253.629	13539.37
253.699	13517.96
253.77	13505.67
253.841	13485.08
253.911	13471.25
253.982	13450.38
254.052	13442.08
254.123	13421.21
254.193	13386.02
254.264	13393.49
254.334	13353.29
254.405	13318.43
254.475	13287
254.546	13258.42
254.616	13248.87
254.687	13233.88
254.757	13211.95
254.827	13188.71
254.898	13165.62
254.968	13142.19
255.039	13116.74
255.109	13107.19
255.18	13069.59
255.25	13020.91
255.321	13007.41
255.391	12967.2
255.461	12965.13
255.532	12917.55
255.602	12889.49
255.673	12861.92
255.743	12832.13
255.813	12791.93
255.884	12784.12
255.954	12766.43
256.024	12758.86
256.095	12738.61
256.165	12707.52
256.235	12681.78
256.306	12648.81
256.376	12641.53
256.446	12622.63
256.517	12610.48
256.587	12602.05
256.657	12586.19
256.728	12571
256.798	12545.17
256.868	12521.55
256.938	12487.95
257.009	12476.14
257.079	12463.22
257.149	12467.41
257.219	12433.96
257.29	12424.03
257.36	12380.02
257.43	12367.48
257.5	12326.8
257.571	12301.54
257.641	12284.72
257.711	12260.76
257.781	12255.07
257.852	12232.42
257.922	12202.15
257.992	12175.35
258.062	12141.07
258.132	12127.58
258.202	12108.73
258.273	12092.44
258.343	12090.51
258.413	12068.82
258.483	12044.19
258.553	12009.53
258.623	11976.46
258.693	11957.86
258.764	11953.67
258.834	11951.64
258.904	11927.97
258.974	11897.61
259.044	11880.74
259.114	11867.44
259.184	11844.35
259.254	11820.68
259.324	11790.27
259.394	11778.41
259.464	11776.05
259.535	11756.72
259.605	11730.6
259.675	11701.82
259.745	11688.33
259.815	11653
259.885	11628.99
259.955	11634.63
260.025	11611.16
260.095	11588.94
260.165	11566.72
260.235	11566.63
260.305	11538.1
260.375	11514
260.445	11526.72
260.515	11521.85
260.585	11515.2
260.655	11510.91
260.725	11496.74
260.795	11480.69
260.865	11480.16
260.934	11457.9
261.004	11453.75
261.074	11436.21
261.144	11430.86
261.214	11424.01
261.284	11411.53
261.354	11400.11
261.424	11371.72
261.494	11377.46
261.564	11362.52
261.634	11355.43
261.703	11311.38
261.773	11298.8
261.843	11285.74
261.913	11265.98
261.983	11230.13
262.053	11217.64
262.123	11187.23
262.192	11158.27
262.262	11153.07
262.332	11116.01
262.402	11097.6
