Data from 20250630_urea_2M_MAYP1162681_10-32-27-388.txt Node
Date: Tue Jul 01 10:32:27 BST 2025
User: adleo
Spectrometer: MAYP116268
Trigger mode: 0
Integration Time (sec): 1.000000E0
Scans to average: 1
Electric dark correction enabled: true
Nonlinearity correction enabled: true
Boxcar width: 10
XAxis mode: Wavelengths
Number of Pixels in Spectrum: 2068
>>>>>Begin Spectral Data<<<<<
179.565	1100.82
179.642	1153.52
179.718	1193.35
179.795	1228.91
179.871	1256.74
179.948	1271.99
180.024	1290.96
180.101	1311.03
180.177	1324.32
180.254	1346.41
180.33	1366.63
180.407	1411.49
180.483	1499.8
180.56	1581.14
180.636	1657.67
180.712	1645.12
180.789	1657.19
180.865	1668.68
180.942	1675.38
181.018	1684.74
181.095	1699.76
181.171	1705.79
181.248	1705.51
181.324	1719.05
181.4	1724.47
181.477	1735.49
181.553	1749.13
181.63	1767.23
181.706	1782.2
181.782	1789.28
181.859	1787.95
181.935	1792.18
182.011	1788.81
182.088	1803.45
182.164	1821.94
182.24	1833.82
182.317	1843.99
182.393	1840.43
182.469	1852.36
182.546	1866.47
182.622	1871.41
182.698	1867.94
182.775	1877.83
182.851	1891.14
182.927	1884.58
183.003	1881.92
183.08	1879.31
183.156	1887.44
183.232	1886.44
183.308	1878.07
183.385	1884.39
183.461	1901.51
183.537	1902.55
183.613	1918.53
183.69	1909.3
183.766	1898.32
183.842	1902.45
183.918	1906.73
183.995	1918.71
184.071	1923.09
184.147	1917.81
184.223	1910.63
184.299	1919
184.375	1907.92
184.452	1913.25
184.528	1964.37
184.604	1970.74
184.68	1980.72
184.756	1987.29
184.832	1989.57
184.908	1992.37
184.985	1993.75
185.061	1976.78
185.137	1986.86
185.213	1972.69
185.289	1977.21
185.365	1970.89
185.441	1973.45
185.517	1986.72
185.593	1984.92
185.669	1981.78
185.745	1988.77
185.822	2000.79
185.898	1993.99
185.974	2002.45
186.05	1994.85
186.126	1957.23
186.202	1954.61
186.278	1951.62
186.354	1942.49
186.43	1949.15
186.506	1949.72
186.582	1949.96
186.658	1957.04
186.734	1939.26
186.81	1941.49
186.886	1941.06
186.962	1952.71
187.038	1947.58
187.114	1938.49
187.19	1945.43
187.266	1935.83
187.341	1940.25
187.417	1936.31
187.493	1936.64
187.569	1941.11
187.645	1935.98
187.721	1926.18
187.797	1933.74
187.873	1935.02
187.949	1929.6
188.025	1924.85
188.101	1924.71
188.176	1929.32
188.252	1924.47
188.328	1931.5
188.404	1931.27
188.48	1927.13
188.556	1920.14
188.632	1922.61
188.707	1925.13
188.783	1921
188.859	1918.24
188.935	1908.97
189.011	1913.67
189.086	1907.45
189.162	1894.9
189.238	1892.57
189.314	1889.05
189.39	1882.49
189.465	1878.45
189.541	1894.99
189.617	1880.68
189.693	1878.31
189.768	1879.5
189.844	1902.37
189.92	1892.25
189.996	1900.9
190.071	1915.12
190.147	1915.78
190.223	1922.39
190.298	1911.84
190.374	1899.57
190.45	1910.22
190.526	1915.02
190.601	1907.89
190.677	1911.74
190.753	1943.9
190.828	1946.51
190.904	1962.49
190.98	1978.04
191.055	1988.03
191.131	1978.56
191.207	1996.53
191.282	2005.66
191.358	1999.34
191.433	1987.44
191.509	2001.65
191.585	1998.61
191.66	1996.95
191.736	2003.51
191.811	1994.57
191.887	2011.45
191.963	2034.04
192.038	2039.6
192.114	2039.94
192.189	2046.5
192.265	2043.6
192.34	2019
192.416	2018.67
192.491	2012.58
192.567	2013.34
192.642	2013.2
192.718	2013.2
192.793	2002.88
192.869	1995.79
192.944	1996.84
193.02	2003.64
193.095	2008.54
193.171	2012.91
193.246	2011.34
193.322	2008.44
193.397	2010.63
193.473	1997.03
193.548	1980.57
193.624	1984.66
193.699	1982.9
193.775	1998.12
193.85	1997.32
193.925	2004.26
194.001	2004.88
194.076	1998.41
194.152	1989.37
194.227	1983.09
194.302	1974.73
194.378	1976.54
194.453	1974.78
194.529	1985.43
194.604	1971.31
194.679	1962.32
194.755	1946.82
194.83	1956.34
194.905	1953.58
194.981	1963.71
195.056	1957.48
195.131	1963.19
195.207	1961.28
195.282	1952.01
195.357	1932.94
195.433	1948.87
195.508	1937.31
195.583	1944.07
195.659	1958.33
195.734	1963.33
195.809	1961.76
195.884	1970.6
195.96	1972.69
196.035	1988.48
196.11	1984.67
196.185	1996.42
196.261	1999.03
196.336	2029.9
196.411	2018.48
196.486	2025.14
196.561	2017.86
196.637	2025.47
196.712	2038.17
196.787	2042.4
196.862	2057.24
196.937	2066.22
197.013	2070.65
197.088	2081.82
197.163	2102.23
197.238	2119.56
197.313	2122.32
197.388	2134.4
197.464	2160.48
197.539	2168.09
197.614	2162.57
197.689	2174.75
197.764	2187.55
197.839	2207.81
197.914	2198.2
197.989	2218.71
198.065	2231.17
198.14	2277.36
198.215	2303.53
198.29	2315.52
198.365	2328.47
198.44	2340.51
198.515	2368.16
198.59	2384.73
198.665	2408.67
198.74	2413.76
198.815	2413.05
198.89	2434.42
198.965	2465.62
199.04	2463.14
199.115	2481.18
199.19	2516.93
199.265	2521.02
199.34	2534.02
199.415	2565.37
199.49	2588.51
199.565	2597.89
199.64	2620.56
199.715	2616.5
199.79	2623.84
199.865	2629.46
199.94	2627.89
200.015	2656.66
200.09	2662.62
200.165	2666.33
200.24	2674.62
200.315	2714.91
200.39	2731.63
200.464	2734.63
200.539	2735.58
200.614	2752.45
200.689	2772.03
200.764	2781.75
200.839	2795.9
200.914	2796.75
200.989	2786.5
201.063	2797.37
201.138	2782.85
201.213	2782.61
201.288	2769.12
201.363	2772.32
201.438	2773.75
201.512	2789.65
201.587	2773.26
201.662	2775.17
201.737	2785.79
201.812	2794.09
201.886	2763.61
201.961	2774.63
202.036	2764.2
202.111	2759
202.186	2730.62
202.26	2715.8
202.335	2693.79
202.41	2690.65
202.485	2675.65
202.559	2661.4
202.634	2638.78
202.709	2644.39
202.784	2625.15
202.858	2622.39
202.933	2605.25
203.008	2600.58
203.082	2579.29
203.157	2576.86
203.232	2535.59
203.306	2517.53
203.381	2485.57
203.456	2465.19
203.53	2439.36
203.605	2418.99
203.68	2398.18
203.754	2395.76
203.829	2380.66
203.904	2362.29
203.978	2351.05
204.053	2356.96
204.127	2341.01
204.202	2338.59
204.277	2325.16
204.351	2317.98
204.426	2309.27
204.5	2301.56
204.575	2267.87
204.65	2281.63
204.724	2275.77
204.799	2286.23
204.873	2283.9
204.948	2282
205.022	2270.91
205.097	2263.72
205.171	2279.42
205.246	2286.28
205.32	2279.86
205.395	2282.19
205.469	2275.48
205.544	2279.67
205.618	2261.02
205.693	2272.29
205.767	2260.02
205.842	2278.58
205.916	2276.82
205.991	2268.59
206.065	2274.97
206.14	2289.95
206.214	2284.37
206.289	2277.66
206.363	2290.13
206.438	2288.94
206.512	2295.56
206.586	2310.88
206.661	2318.35
206.735	2298.9
206.81	2300.14
206.884	2314.55
206.958	2300.66
207.033	2315.02
207.107	2320.79
207.181	2351.54
207.256	2345.16
207.33	2362.77
207.405	2373.96
207.479	2390.53
207.553	2397.52
207.628	2380.35
207.702	2390.87
207.776	2382.92
207.851	2389.11
207.925	2401.3
207.999	2400.82
208.073	2398.44
208.148	2400.49
208.222	2389.59
208.296	2419.71
208.371	2437.05
208.445	2448.19
208.519	2475.18
208.593	2487.08
208.668	2486.08
208.742	2489.03
208.816	2492.17
208.89	2506.27
208.965	2506.37
209.039	2515.18
209.113	2535.56
209.187	2558.07
209.261	2553.59
209.336	2571.31
209.41	2591.46
209.484	2588.12
209.558	2607.89
209.632	2622.6
209.707	2635.03
209.781	2654.46
209.855	2667.85
209.929	2682.59
210.003	2686.4
210.077	2686.02
210.151	2732.51
210.226	2763.06
210.3	2785.95
210.374	2808.52
210.448	2812.57
210.522	2819.34
210.596	2827.11
210.67	2830.25
210.744	2873.01
210.818	2905.45
210.892	2926.52
210.966	2919.23
211.041	2936.39
211.115	2932.43
211.189	2953.4
211.263	2970.66
211.337	2976.66
211.411	2991.25
211.485	2984.39
211.559	2998.59
211.633	3002.59
211.707	2971.96
211.781	2978.55
211.855	2950.94
211.929	2944.32
212.003	2926.41
212.077	2941
212.151	2955.88
212.225	2968.41
212.299	2958.06
212.373	2948.72
212.447	2944.38
212.52	2975.37
212.594	2987.1
212.668	3003.88
212.742	2995.35
212.816	2993.73
212.89	2995.73
212.964	3001.6
213.038	3011.61
213.112	3031.98
213.186	3056.15
213.26	3048.38
213.333	3016.92
213.407	3031.93
213.481	3050.33
213.555	3076.68
213.629	3073.53
213.703	3073.96
213.777	3090.51
213.85	3091.27
213.924	3140.85
213.998	3161.89
214.072	3171.77
214.146	3175.88
214.219	3194.1
214.293	3212.65
214.367	3237.27
214.441	3270.63
214.515	3283.04
214.588	3289.81
214.662	3284.99
214.736	3292.72
214.81	3325.1
214.883	3363.06
214.957	3385.15
215.031	3399.41
215.105	3410.24
215.178	3430.62
215.252	3455.1
215.326	3464.32
215.4	3481.83
215.473	3470.99
215.547	3488.71
215.621	3514.46
215.694	3557.45
215.768	3578.03
215.842	3606.11
215.915	3636.78
215.989	3653.17
216.063	3685.56
216.136	3729.71
216.21	3775.56
216.284	3833.72
216.357	3883.75
216.431	3924.32
216.504	3979.43
216.578	4056.31
216.652	4117.18
216.725	4168.86
216.799	4229.45
216.873	4286.02
216.946	4353.11
217.02	4407.8
217.093	4466.02
217.167	4505.5
217.24	4551.49
217.314	4608
217.387	4664.78
217.461	4715.14
217.535	4791.35
217.608	4842.57
217.682	4901.32
217.755	4968.55
217.829	5019.86
217.902	5086.83
217.976	5161.07
218.049	5216.65
218.123	5263.48
218.196	5335.88
218.27	5395.11
218.343	5450.62
218.417	5526.57
218.49	5588.27
218.563	5672.94
218.637	5743.73
218.71	5835.44
218.784	5907.4
218.857	5985.97
218.931	6067.61
219.004	6141.16
219.077	6214.84
219.151	6294.93
219.224	6366.01
219.298	6442.58
219.371	6523.92
219.444	6584.51
219.518	6653.89
219.591	6726.49
219.665	6830.51
219.738	6902.89
219.811	6975.65
219.885	7058.77
219.958	7132.29
220.031	7202.53
220.105	7275.87
220.178	7352.15
220.251	7413.2
220.325	7499.5
220.398	7581.19
220.471	7654.6
220.544	7738.79
220.618	7807.13
220.691	7882.58
220.764	7956.97
220.838	8031.91
220.911	8102.19
220.984	8190.02
221.057	8268.92
221.131	8349.35
221.204	8395.55
221.277	8482.21
221.35	8587.17
221.424	8654.3
221.497	8732.61
221.57	8817.07
221.643	8896.4
221.716	8979.34
221.79	9050.01
221.863	9120.35
221.936	9191.22
222.009	9260.79
222.082	9338.07
222.155	9409
222.229	9495.63
222.302	9571.76
222.375	9639.18
222.448	9715.61
222.521	9788.24
222.594	9853.5
222.667	9918.66
222.74	9997.51
222.814	10068.28
222.887	10131.01
222.96	10213
223.033	10279.34
223.106	10345.29
223.179	10410.47
223.252	10473.21
223.325	10542.44
223.398	10603.92
223.471	10665.93
223.544	10742.11
223.617	10804.32
223.69	10874.38
223.763	10924.88
223.837	10994.51
223.91	11062.6
223.983	11108.09
224.056	11158.79
224.129	11225.44
224.202	11298.88
224.275	11355.22
224.348	11400.24
224.42	11447.28
224.493	11486.99
224.566	11543.62
224.639	11612.3
224.712	11670.09
224.785	11726
224.858	11782.97
224.931	11835.56
225.004	11882.94
225.077	11938.51
225.15	11968.69
225.223	12028.22
225.296	12111.56
225.369	12153.88
225.442	12210.62
225.514	12273.18
225.587	12336.71
225.66	12401.06
225.733	12455.73
225.806	12514.92
225.879	12568.33
225.952	12618.9
226.025	12694.97
226.097	12771.28
226.17	12824.74
226.243	12861.03
226.316	12916.04
226.389	12976.29
226.461	13045.61
226.534	13109.68
226.607	13163
226.68	13257.14
226.753	13308.72
226.825	13338.37
226.898	13411.06
226.971	13470.6
227.044	13535.15
227.117	13589.62
227.189	13646.36
227.262	13708.74
227.335	13765.62
227.407	13828.82
227.48	13889.37
227.553	13942.44
227.626	13985.06
227.698	14033.84
227.771	14096.9
227.844	14138.4
227.916	14195.04
227.989	14230.18
228.062	14287.26
228.134	14359.57
228.207	14395.14
228.28	14438.05
228.352	14488.9
228.425	14531.08
228.498	14579.38
228.57	14618.43
228.643	14682.49
228.716	14738.41
228.788	14784.01
228.861	14826.57
228.934	14885.72
229.006	14934.89
229.079	14976.39
229.151	15018.71
229.224	15052.6
229.296	15102.15
229.369	15185.98
229.442	15239.82
229.514	15284.02
229.587	15336.32
229.659	15353.77
229.732	15409.25
229.804	15470.32
229.877	15535.58
229.949	15598.2
230.022	15666.3
230.094	15718.7
230.167	15762.08
230.239	15794.27
230.312	15830.86
230.384	15898.87
230.457	15938.58
230.529	15979.36
230.602	16030.26
230.674	16080.82
230.747	16149.89
230.819	16212.55
230.892	16217.17
230.964	16261.8
231.037	16310.97
231.109	16352.13
231.181	16409.53
231.254	16441.92
231.326	16481.58
231.399	16513.88
231.471	16551.85
231.544	16565.35
231.616	16611.28
231.688	16656.73
231.761	16681.6
231.833	16726.04
231.905	16742.28
231.978	16779
232.05	16816.69
232.122	16857.08
232.195	16895.44
232.267	16936.6
232.339	16963.2
232.412	17018.24
232.484	17046.48
232.556	17075.45
232.629	17131.02
232.701	17171.11
232.773	17200.51
232.846	17226.34
232.918	17263.02
232.99	17289.57
233.062	17330.3
233.135	17356.03
233.207	17365.86
233.279	17409.91
233.351	17439.89
233.424	17463.55
233.496	17478.78
233.568	17523.5
233.64	17529.19
233.713	17545.29
233.785	17566.15
233.857	17589.28
233.929	17602.63
234.001	17644.95
234.074	17678.87
234.146	17672.99
234.218	17685.19
234.29	17703.6
234.362	17714.92
234.434	17717.57
234.507	17725.86
234.579	17722.2
234.651	17735.07
234.723	17766.44
234.795	17781.47
234.867	17787.55
234.939	17811.55
235.012	17837.33
235.084	17849.14
235.156	17866.24
235.228	17875.25
235.3	17877.28
235.372	17890.63
235.444	17910.68
235.516	17896.12
235.588	17909.86
235.66	17918
235.732	17923.74
235.804	17986.09
235.876	18007.44
235.948	18045.03
236.02	18057.51
236.092	18070.91
236.164	18077.66
236.236	18076.55
236.308	18072.16
236.38	18091.05
236.452	18089.8
236.524	18098.91
236.596	18118.43
236.668	18137.27
236.74	18144.4
236.812	18150.95
236.884	18169.07
236.956	18170.04
237.028	18165.07
237.1	18156.21
237.172	18184.25
237.244	18206.9
237.316	18177.36
237.388	18167.34
237.46	18149.94
237.532	18155.58
237.604	18152.3
237.675	18171.77
237.747	18183.05
237.819	18183.87
237.891	18180.93
237.963	18180.45
238.035	18166.18
238.107	18131.25
238.178	18138.91
238.25	18127.78
238.322	18146.52
238.394	18115.1
238.466	18098.09
238.538	18100.5
238.609	18101.27
238.681	18071.49
238.753	18051.06
238.825	18032.21
238.897	18034.86
238.968	18047.63
239.04	18025.61
239.112	18046.53
239.184	18016.12
239.255	18000.6
239.327	17989.61
239.399	17976.26
239.471	17968.6
239.542	17965.08
239.614	17965.76
239.686	17925.66
239.758	17921.86
239.829	17888.75
239.901	17887.4
239.973	17876.94
240.044	17866.15
240.116	17855.69
240.188	17834.63
240.259	17814.87
240.331	17797.96
240.403	17780.41
240.474	17739.74
240.546	17727.11
240.618	17686.78
240.689	17668.75
240.761	17640.08
240.833	17642.25
240.904	17620.37
240.976	17599.6
241.048	17580.85
241.119	17571.12
241.191	17559.31
241.262	17559.36
241.334	17536.32
241.405	17510.73
241.477	17493.91
241.549	17477.72
241.62	17452.76
241.692	17437.09
241.763	17430.3
241.835	17411.12
241.906	17389.43
241.978	17361.14
242.049	17348.51
242.121	17344.56
242.192	17345.53
242.264	17317.67
242.335	17276.66
242.407	17258.49
242.478	17230.58
242.55	17209.33
242.621	17179.21
242.693	17154.87
242.764	17120.27
242.836	17098.1
242.907	17080.56
242.979	17058.82
243.05	17039.35
243.122	17030.87
243.193	17004.46
243.264	16965.95
243.336	16945.81
243.407	16937.04
243.479	16925.76
243.55	16912.46
243.622	16878.86
243.693	16848.65
243.764	16843.3
243.836	16816.89
243.907	16793.13
243.978	16769.56
244.05	16749.7
244.121	16698.95
244.192	16681.36
244.264	16641.4
244.335	16625.74
244.407	16584.53
244.478	16567.23
244.549	16530.21
244.62	16486.5
244.692	16459.12
244.763	16442.01
244.834	16404.76
244.906	16365.14
244.977	16346.2
245.048	16322.87
245.119	16291.5
245.191	16253.52
245.262	16206.86
245.333	16194.76
245.405	16169.85
245.476	16142.9
245.547	16114.61
245.618	16110.08
245.689	16081.55
245.761	16059.28
245.832	16020.72
245.903	16010.21
245.974	15980.47
246.045	15950.11
246.117	15938.15
246.188	15902.44
246.259	15863.4
246.33	15844.45
246.401	15819.15
246.473	15775.82
246.544	15740.78
246.615	15723.86
246.686	15688.53
246.757	15676.33
246.828	15639.03
246.899	15622.2
246.97	15589.81
247.042	15558.77
247.113	15545.37
247.184	15541.37
247.255	15511.39
247.326	15484.35
247.397	15441.16
247.468	15413.54
247.539	15387.32
247.61	15341.77
247.681	15332.56
247.752	15312.46
247.823	15267.63
247.894	15240.88
247.965	15198.03
248.037	15164.72
248.108	15121.34
248.179	15097.77
248.25	15065.47
248.321	15042
248.392	15001.22
248.463	14985.36
248.534	14960.58
248.605	14936.14
248.675	14898.98
248.746	14875.7
248.817	14855.21
248.888	14843.69
248.959	14803.92
249.03	14786.66
249.101	14768.92
249.172	14724.53
249.243	14670.49
249.314	14659.74
249.385	14633.81
249.456	14622.82
249.527	14590.9
249.598	14564.49
249.669	14534.75
249.739	14513.34
249.81	14489.43
249.881	14446.58
249.952	14421.46
250.023	14387.53
250.094	14338.07
250.165	14304.04
250.235	14276.46
250.306	14254.63
250.377	14215.43
250.448	14191.62
250.519	14145.63
250.59	14122.73
250.66	14104.61
250.731	14102.15
250.802	14073.9
250.873	14044.74
250.944	14015.96
251.014	13989.88
251.085	13991.08
251.156	13970.89
251.227	13952.76
251.297	13938.3
251.368	13932.85
251.439	13919.4
251.51	13906.82
251.58	13877.46
251.651	13848.59
251.722	13832.97
251.792	13792.62
251.863	13771.02
251.934	13761
252.005	13767.02
252.075	13749.38
252.146	13735.98
252.217	13714.86
252.287	13706.52
252.358	13683.09
252.429	13676.59
252.499	13649.16
252.57	13628.48
252.641	13623.27
252.711	13595.41
252.782	13559.54
252.852	13547.58
252.923	13515.96
252.994	13491.42
253.064	13474.7
253.135	13447.75
253.205	13412.51
253.276	13401.08
253.347	13384.74
253.417	13355.58
253.488	13325.06
253.558	13298.79
253.629	13273.43
253.699	13260.85
253.77	13242.68
253.841	13223.73
253.911	13201.94
253.982	13183.48
254.052	13166.22
254.123	13139.18
254.193	13122.84
254.264	13132.38
254.334	13103.12
254.405	13070.58
254.475	13043.59
254.546	13022.47
254.616	13008.2
254.687	13000.92
254.757	12988.78
254.827	12963.95
254.898	12941.92
254.968	12911.79
255.039	12876.7
255.109	12854.14
255.18	12823.29
255.25	12776.19
255.321	12754.4
255.391	12718.39
255.461	12717.67
255.532	12668.55
255.602	12642.85
255.673	12597.44
255.743	12560.04
255.813	12512.6
255.884	12507.01
255.954	12489.22
256.024	12485.32
256.095	12461.7
256.165	12423.47
256.235	12396.86
256.306	12371.99
256.376	12366.35
256.446	12363.75
256.517	12351.84
256.587	12350.06
256.657	12333.52
256.728	12312.99
256.798	12293.18
256.868	12267.05
256.938	12230.42
257.009	12217.84
257.079	12209.21
257.149	12219.67
257.219	12189.11
257.29	12182.02
257.36	12143.61
257.43	12126.98
257.5	12084.27
257.571	12060.41
257.641	12054.14
257.711	12029.75
257.781	12021.7
257.852	11997.55
257.922	11951.81
257.992	11931.9
258.062	11902.31
258.132	11888.23
258.202	11871.6
258.273	11852.47
258.343	11852.32
258.413	11830.2
258.483	11810.05
258.553	11777.28
258.623	11745.18
258.693	11732.35
258.764	11723.2
258.834	11716.79
258.904	11706.23
258.974	11683.92
259.044	11662.47
259.114	11648.39
259.184	11630.95
259.254	11604.82
259.324	11567.04
259.394	11560
259.464	11558.12
259.535	11535.76
259.605	11507.22
259.675	11477.3
259.745	11463.08
259.815	11435.99
259.885	11410.88
259.955	11422.79
260.025	11392.81
260.095	11371.17
260.165	11357.63
260.235	11348.95
260.305	11330.69
260.375	11292.95
260.445	11293.24
260.515	11289.05
260.585	11281.19
260.655	11260.08
260.725	11260.66
260.795	11257.43
260.865	11255.89
260.934	11220.85
261.004	11213.77
261.074	11203.31
261.144	11207.36
261.214	11205.24
261.284	11185.86
261.354	11176.8
261.424	11145.76
261.494	11148.17
261.564	11140.99
261.634	11126.39
261.703	11099.84
261.773	11086.82
261.843	11083.55
261.913	11069.72
261.983	11041.57
262.053	11028.23
262.123	11017.05
262.192	10980.33
262.262	10971.41
262.332	10944.38
262.402	10941.58
262.472	10927.8
262.541	10892.77
262.611	10888.38
262.681	10854.12
