Data from 20250630_urea_2M_MAYP1162681_05-02-26-991.txt Node
Date: Tue Jul 01 05:02:26 BST 2025
User: adleo
Spectrometer: MAYP116268
Trigger mode: 0
Integration Time (sec): 1.000000E0
Scans to average: 1
Electric dark correction enabled: true
Nonlinearity correction enabled: true
Boxcar width: 10
XAxis mode: Wavelengths
Number of Pixels in Spectrum: 2068
>>>>>Begin Spectral Data<<<<<
179.565	1056.37
179.642	1102.65
179.718	1136.75
179.795	1170.54
179.871	1197.03
179.948	1213.35
180.024	1230.27
180.101	1251.24
180.177	1263.76
180.254	1283.61
180.33	1305.22
180.407	1348.22
180.483	1433.02
180.56	1508.23
180.636	1582.76
180.712	1569.98
180.789	1578.62
180.865	1588.93
180.942	1598.28
181.018	1608.02
181.095	1625.08
181.171	1627.02
181.248	1629.45
181.324	1643.84
181.4	1648.64
181.477	1659.24
181.553	1669.59
181.63	1691.07
181.706	1706.84
181.782	1713.21
181.859	1710.74
181.935	1713.16
182.011	1709.46
182.088	1723.95
182.164	1744.86
182.24	1754.65
182.317	1763.87
182.393	1760.92
182.469	1773.7
182.546	1783.16
182.622	1786.48
182.698	1780.31
182.775	1792.42
182.851	1803.4
182.927	1798.17
183.003	1794.75
183.08	1790.14
183.156	1798.55
183.232	1793.71
183.308	1782.25
183.385	1791.56
183.461	1810.62
183.537	1811.05
183.613	1821.08
183.69	1810.81
183.766	1801.73
183.842	1808.77
183.918	1812
183.995	1825.64
184.071	1825.87
184.147	1822.31
184.223	1813.95
184.299	1824.5
184.375	1816.04
184.452	1820.89
184.528	1873.14
184.604	1883.31
184.68	1893.77
184.756	1899.66
184.832	1903.23
184.908	1906.89
184.985	1905.94
185.061	1891.72
185.137	1901.9
185.213	1892.34
185.289	1895.91
185.365	1889.26
185.441	1887.69
185.517	1900.72
185.593	1897.2
185.669	1897.39
185.745	1908.84
185.822	1922.72
185.898	1914.83
185.974	1921.77
186.05	1916.63
186.126	1876.69
186.202	1869.47
186.278	1863.29
186.354	1856.39
186.43	1861.1
186.506	1858.68
186.582	1857.63
186.658	1861.34
186.734	1843.94
186.81	1845.7
186.886	1846.51
186.962	1856.59
187.038	1855.68
187.114	1848.74
187.19	1858.11
187.266	1850.83
187.341	1848.79
187.417	1842.75
187.493	1844.27
187.569	1847.27
187.645	1839.19
187.721	1828.73
187.797	1834.91
187.873	1840.42
187.949	1833.58
188.025	1827.73
188.101	1830.63
188.176	1833.91
188.252	1830.68
188.328	1836.43
188.404	1837.09
188.48	1832.15
188.556	1824.88
188.632	1826.07
188.707	1826.83
188.783	1820.22
188.859	1817.56
188.935	1807.77
189.011	1816.18
189.086	1809.43
189.162	1800.11
189.238	1800.92
189.314	1800.11
189.39	1796.98
189.465	1790.75
189.541	1806.58
189.617	1793.8
189.693	1790.85
189.768	1795.65
189.844	1816.62
189.92	1808.87
189.996	1815.2
190.071	1828.74
190.147	1830.17
190.223	1836.63
190.298	1827.22
190.374	1817.34
190.45	1825.56
190.526	1833.35
190.601	1828.31
190.677	1826.84
190.753	1852.23
190.828	1855.04
190.904	1867.63
190.98	1881.42
191.055	1894.21
191.131	1884.27
191.207	1904.66
191.282	1913.79
191.358	1904.33
191.433	1892.87
191.509	1906.27
191.585	1905.94
191.66	1904.51
191.736	1908.79
191.811	1898.61
191.887	1914.92
191.963	1937.93
192.038	1942.17
192.114	1941.26
192.189	1942.07
192.265	1942.17
192.34	1922.9
192.416	1925.52
192.491	1923.19
192.567	1924.76
192.642	1924.99
192.718	1926.33
192.793	1912.97
192.869	1907.88
192.944	1907.64
193.02	1913.63
193.095	1917.29
193.171	1921.57
193.246	1921.53
193.322	1919.67
193.397	1922.57
193.473	1911.02
193.548	1890.38
193.624	1899.08
193.699	1898.89
193.775	1913.16
193.85	1913.78
193.925	1920.38
194.001	1915.3
194.076	1906.03
194.152	1896.47
194.227	1890.01
194.302	1882.12
194.378	1885.49
194.453	1882.36
194.529	1892.96
194.604	1878.6
194.679	1872.13
194.755	1856.31
194.83	1867.44
194.905	1867.67
194.981	1873.43
195.056	1865.77
195.131	1870.53
195.207	1866.29
195.282	1857.17
195.357	1840.34
195.433	1855.74
195.508	1846.42
195.583	1851.89
195.659	1866.15
195.734	1874.37
195.809	1873.85
195.884	1881.45
195.96	1882.83
196.035	1897.67
196.11	1898.24
196.185	1911.45
196.261	1913.73
196.336	1939.6
196.411	1926.42
196.486	1933.12
196.561	1928.09
196.637	1934.5
196.712	1951.91
196.787	1956
196.862	1970.92
196.937	1979.77
197.013	1986.38
197.088	1998.45
197.163	2021
197.238	2036.7
197.313	2035.61
197.388	2047.35
197.464	2075.71
197.539	2086.31
197.614	2078.94
197.689	2087.98
197.764	2100.87
197.839	2121.7
197.914	2116.23
197.989	2137.97
198.065	2150.77
198.14	2195.79
198.215	2220.77
198.29	2230
198.365	2242.61
198.44	2254.31
198.515	2280.15
198.59	2293.38
198.665	2315.94
198.74	2325.27
198.815	2328.37
198.89	2349.16
198.965	2378.25
199.04	2376.3
199.115	2390.39
199.19	2428.79
199.265	2433.22
199.34	2445.93
199.415	2475.65
199.49	2493.74
199.565	2502.31
199.64	2520.92
199.715	2519.02
199.79	2527.25
199.865	2534.68
199.94	2531.44
200.015	2559.31
200.09	2564.35
200.165	2568.35
200.24	2574.83
200.315	2612.59
200.39	2625.3
200.464	2629.11
200.539	2628.35
200.614	2642.59
200.689	2664.64
200.764	2670.22
200.839	2686.12
200.914	2686.17
200.989	2675.87
201.063	2691.78
201.138	2674.03
201.213	2676.93
201.288	2661.98
201.363	2666.26
201.438	2665.03
201.512	2678.69
201.587	2661.11
201.662	2663.4
201.737	2674.4
201.812	2682.84
201.886	2647.18
201.961	2657.9
202.036	2647.52
202.111	2644.38
202.186	2616.48
202.26	2599.9
202.335	2582.18
202.41	2578.33
202.485	2563.57
202.559	2546.38
202.634	2523.18
202.709	2529.94
202.784	2509.75
202.858	2509.04
202.933	2492.94
203.008	2488.18
203.082	2471.47
203.157	2471.19
203.232	2434.3
203.306	2416.87
203.381	2385.25
203.456	2366.92
203.53	2342.91
203.605	2324.98
203.68	2305.27
203.754	2299.56
203.829	2285.75
203.904	2265.63
203.978	2251.92
204.053	2258.49
204.127	2246.54
204.202	2243.45
204.277	2232.32
204.351	2226.99
204.426	2221.27
204.5	2209.76
204.575	2181.27
204.65	2191.88
204.724	2183.83
204.799	2190.63
204.873	2183.07
204.948	2183.02
205.022	2170.94
205.097	2164.08
205.171	2179.73
205.246	2187.92
205.32	2186.45
205.395	2185.21
205.469	2180.12
205.544	2187.55
205.618	2171.27
205.693	2183.5
205.767	2169.47
205.842	2186.79
205.916	2179.42
205.991	2167.86
206.065	2177.8
206.14	2187.98
206.214	2182.26
206.289	2177.31
206.363	2188.54
206.438	2190.97
206.512	2194.44
206.586	2209.47
206.661	2215.99
206.735	2195.64
206.81	2193.83
206.884	2207.67
206.958	2198.2
207.033	2211.52
207.107	2216.57
207.181	2242.27
207.256	2233.89
207.33	2255.54
207.405	2267.02
207.479	2286.86
207.553	2294.33
207.628	2279.44
207.702	2291.62
207.776	2285.34
207.851	2288.95
207.925	2301.95
207.999	2303.95
208.073	2303.43
208.148	2309.52
208.222	2297.29
208.296	2325.78
208.371	2340.07
208.445	2352.35
208.519	2378.14
208.593	2390.04
208.668	2388.38
208.742	2391.66
208.816	2392.99
208.89	2404.09
208.965	2403.61
209.039	2407.42
209.113	2423.89
209.187	2441.26
209.261	2438.45
209.336	2455.68
209.41	2471.11
209.484	2471.63
209.558	2487.16
209.632	2499.34
209.707	2507.25
209.781	2527.53
209.855	2539.1
209.929	2556.26
210.003	2558.35
210.077	2559.02
210.151	2601.49
210.226	2627.74
210.3	2651.2
210.374	2676.29
210.448	2682.01
210.522	2690.73
210.596	2701.44
210.67	2706.87
210.744	2749.33
210.818	2776.14
210.892	2797.25
210.966	2797.02
211.041	2813.22
211.115	2812.83
211.189	2837.76
211.263	2855.86
211.337	2865.1
211.411	2881.41
211.485	2876.11
211.559	2890.98
211.633	2893.45
211.707	2869.23
211.781	2883.58
211.855	2859.32
211.929	2851.27
212.003	2835.84
212.077	2847.85
212.151	2863.16
212.225	2879.46
212.299	2875.31
212.373	2873.83
212.447	2878.55
212.52	2912.35
212.594	2923.42
212.668	2941.81
212.742	2934.52
212.816	2939.52
212.89	2945.48
212.964	2957.88
213.038	2976.77
213.112	3001.48
213.186	3033.75
213.26	3028.7
213.333	3003.43
213.407	3027.07
213.481	3055.1
213.555	3089.55
213.629	3102.48
213.703	3116.6
213.777	3139.84
213.85	3151.33
213.924	3213
213.998	3242.54
214.072	3266.47
214.146	3289.23
214.219	3324.45
214.293	3363.82
214.367	3405.2
214.441	3456.13
214.515	3487.03
214.588	3506.27
214.662	3522.36
214.736	3549.43
214.81	3608.7
214.883	3670.51
214.957	3713.72
215.031	3754.54
215.105	3789.25
215.178	3834.21
215.252	3887.87
215.326	3929.78
215.4	3973.64
215.473	3995.25
215.547	4041.59
215.621	4095.3
215.694	4166.96
215.768	4215.4
215.842	4270.87
215.915	4329.77
215.989	4379.96
216.063	4447.11
216.136	4528.46
216.21	4606.73
216.284	4700.14
216.357	4780.23
216.431	4855.44
216.504	4943.41
216.578	5052.15
216.652	5149.49
216.725	5235.88
216.799	5326.99
216.873	5414.21
216.946	5509.18
217.02	5588.3
217.093	5680.69
217.167	5755.89
217.24	5834.51
217.314	5925.67
217.387	6021.84
217.461	6114.93
217.535	6225.4
217.608	6312.65
217.682	6402.71
217.755	6507.27
217.829	6586.4
217.902	6683.98
217.976	6783.25
218.049	6879.71
218.123	6955.24
218.196	7057.62
218.27	7152.18
218.343	7232.58
218.417	7338.32
218.49	7438.97
218.563	7553.7
218.637	7655.64
218.71	7777.92
218.784	7881.27
218.857	7994.67
218.931	8097.59
219.004	8200.59
219.077	8305.2
219.151	8407.48
219.224	8506.74
219.298	8602.89
219.371	8715.21
219.444	8806.32
219.518	8903.92
219.591	9001.21
219.665	9129.76
219.738	9228.4
219.811	9318.96
219.885	9436.54
219.958	9539.16
220.031	9635.03
220.105	9732.94
220.178	9827.72
220.251	9914.14
220.325	10014.48
220.398	10114.19
220.471	10212.41
220.544	10311.27
220.618	10399.73
220.691	10497.91
220.764	10591.81
220.838	10692.37
220.911	10778.43
220.984	10890.27
221.057	10991.55
221.131	11083.88
221.204	11141.04
221.277	11250.92
221.35	11373.04
221.424	11452.89
221.497	11539.26
221.57	11630.83
221.643	11727.08
221.716	11831.48
221.79	11906.57
221.863	11994.78
221.936	12067.66
222.009	12152.78
222.082	12239.3
222.155	12313.78
222.229	12413.8
222.302	12508.37
222.375	12587.38
222.448	12677.71
222.521	12750.6
222.594	12824.79
222.667	12893.86
222.74	12987.91
222.814	13056.56
222.887	13114.02
222.96	13193.65
223.033	13272.38
223.106	13352.2
223.179	13429.67
223.252	13489.45
223.325	13568.02
223.398	13639.18
223.471	13717.03
223.544	13783.02
223.617	13863.96
223.69	13937.91
223.763	13993.68
223.837	14054.18
223.91	14121.04
223.983	14174.17
224.056	14230.04
224.129	14292.37
224.202	14365.83
224.275	14421.85
224.348	14468.17
224.42	14530.65
224.493	14580.88
224.566	14637.47
224.639	14691.31
224.712	14741.88
224.785	14795.48
224.858	14850.97
224.931	14901.72
225.004	14948
225.077	15007.05
225.15	15027.44
225.223	15085.28
225.296	15153.73
225.369	15193.01
225.442	15240.83
225.514	15288.79
225.587	15351.84
225.66	15408.04
225.733	15466.85
225.806	15520.93
225.879	15566.24
225.952	15604.27
226.025	15670.11
226.097	15732.48
226.17	15785.5
226.243	15818.23
226.316	15870.04
226.389	15923.35
226.461	15976.23
226.534	16032.62
226.607	16075.61
226.68	16146.76
226.753	16185.65
226.825	16206.71
226.898	16274.43
226.971	16314.63
227.044	16373.67
227.117	16415.26
227.189	16466.74
227.262	16517.92
227.335	16564.82
227.407	16622.12
227.48	16675.38
227.553	16715
227.626	16754.08
227.698	16798.57
227.771	16852.74
227.844	16888.21
227.916	16932.17
227.989	16966.29
228.062	17007.59
228.134	17073.57
228.207	17112.46
228.28	17151.55
228.352	17197.57
228.425	17239.64
228.498	17293.19
228.57	17326.73
228.643	17375.79
228.716	17410.2
228.788	17426.15
228.861	17461.81
228.934	17512.85
229.006	17551.65
229.079	17583.21
229.151	17609.19
229.224	17631.16
229.296	17676.27
229.369	17740.41
229.442	17796.99
229.514	17826.1
229.587	17871.93
229.659	17891.01
229.732	17925.76
229.804	17963.97
229.877	18017.37
229.949	18057.03
230.022	18111
230.094	18148.64
230.167	18188.01
230.239	18217.99
230.312	18263.96
230.384	18320.63
230.457	18341.02
230.529	18372.68
230.602	18409.88
230.674	18448.48
230.747	18494.84
230.819	18537.2
230.892	18533.01
230.964	18560.33
231.037	18596.09
231.109	18613.68
231.181	18645.39
231.254	18662.69
231.326	18698.88
231.399	18721.91
231.471	18736.32
231.544	18737.96
231.616	18765.72
231.688	18790.44
231.761	18800.56
231.833	18819.55
231.905	18823.11
231.978	18861.86
232.05	18880.07
232.122	18909.27
232.195	18922.38
232.267	18959.73
232.339	18963.15
232.412	19000.64
232.484	19008.79
232.556	19025.32
232.629	19073.79
232.701	19102.56
232.773	19125.02
232.846	19130.27
232.918	19149.07
232.99	19168.49
233.062	19187.43
233.135	19200.1
233.207	19189.59
233.279	19233.64
233.351	19256.14
233.424	19261.35
233.496	19256.48
233.568	19284.38
233.64	19281.64
233.713	19289.06
233.785	19286.7
233.857	19303.23
233.929	19294.79
234.001	19314.12
234.074	19334.26
234.146	19307.95
234.218	19309.35
234.29	19302.94
234.362	19300.77
234.434	19290.02
234.507	19277.59
234.579	19272.43
234.651	19272.87
234.723	19289.93
234.795	19290.94
234.867	19292.91
234.939	19308.62
235.012	19304.04
235.084	19306.98
235.156	19310.79
235.228	19314.12
235.3	19308.72
235.372	19303.51
235.444	19320.72
235.516	19303.42
235.588	19309.01
235.66	19317.1
235.732	19303.9
235.804	19358.31
235.876	19376.62
235.948	19395.65
236.02	19402.26
236.092	19393.68
236.164	19390.4
236.236	19376.72
236.308	19356.72
236.38	19354.74
236.452	19339.42
236.524	19339.46
236.596	19349.44
236.668	19353.83
236.74	19342.26
236.812	19336.81
236.884	19336.43
236.956	19324.86
237.028	19303.61
237.1	19278.89
237.172	19281.49
237.244	19282.79
237.316	19236.19
237.388	19205.69
237.46	19179.86
237.532	19172.97
237.604	19158.85
237.675	19160.05
237.747	19155.33
237.819	19136.97
237.891	19112.97
237.963	19084.97
238.035	19065.41
238.107	19011.68
238.178	19010.33
238.25	18990.47
238.322	18993.17
238.394	18957.85
238.466	18941.32
238.538	18931.44
238.609	18910.62
238.681	18872.22
238.753	18849.9
238.825	18835.21
238.897	18824.03
238.968	18822.58
239.04	18803.74
239.112	18804.51
239.184	18771.45
239.255	18748.8
239.327	18740.66
239.399	18724.9
239.471	18717.38
239.542	18707.07
239.614	18701.62
239.686	18651.41
239.758	18646.01
239.829	18615.03
239.901	18603.08
239.973	18578.4
240.044	18572.48
240.116	18555.32
240.188	18536.67
240.259	18515.66
240.331	18484.05
240.403	18469.54
240.474	18425.35
240.546	18396.87
240.618	18364.01
240.689	18341.07
240.761	18322.03
240.833	18308.1
240.904	18280.64
240.976	18260.11
241.048	18233.12
241.119	18218.66
241.191	18194.52
241.262	18180.11
241.334	18156.3
241.405	18134.23
241.477	18103.2
241.549	18072.89
241.62	18042.67
241.692	18020.02
241.763	18003.3
241.835	17984.79
241.906	17962.38
241.978	17916.17
242.049	17892.75
242.121	17868.27
242.192	17849.23
242.264	17807.74
242.335	17767.16
242.407	17750.44
242.478	17722.25
242.55	17699.64
242.621	17661.57
242.693	17635.89
242.764	17603.5
242.836	17560.22
242.907	17534.88
242.979	17515.79
243.05	17488.95
243.122	17469.62
243.193	17443.98
243.264	17397.82
243.336	17367.17
243.407	17340.08
243.479	17339.98
243.55	17313.86
243.622	17295.65
243.693	17272.32
243.764	17260.75
243.836	17218.87
243.907	17179.07
243.978	17144.7
244.05	17119.06
244.121	17075.93
244.192	17058.97
244.264	17018.68
244.335	17000.22
244.407	16955.93
244.478	16927.59
244.549	16888.65
244.62	16854.62
244.692	16821.17
244.763	16794.09
244.834	16762.71
244.906	16725.65
244.977	16700.93
245.048	16683.72
245.119	16643.72
245.191	16598.8
245.262	16544.72
245.333	16526.6
245.405	16497.06
245.476	16466.64
245.547	16438.5
245.618	16420.57
245.689	16383.75
245.761	16363.65
245.832	16332.61
245.903	16311.55
245.974	16281.42
246.045	16252.5
246.117	16230.04
246.188	16187.29
246.259	16145.31
246.33	16106.22
246.401	16071.28
246.473	16020.86
246.544	15986.35
246.615	15966.5
246.686	15928.27
246.757	15907.26
246.828	15867.06
246.899	15853.71
246.97	15816.98
247.042	15772.59
247.113	15744.15
247.184	15733.4
247.255	15688.33
247.326	15652.09
247.397	15624.47
247.468	15591.4
247.539	15562.63
247.61	15521.08
247.681	15505.51
247.752	15490.9
247.823	15458.22
247.894	15436.15
247.965	15397.68
248.037	15363.36
248.108	15310.39
248.179	15285.61
248.25	15261.41
248.321	15242.04
248.392	15196.58
248.463	15182.56
248.534	15149.83
248.605	15130.64
248.675	15095.5
248.746	15069.71
248.817	15052.31
248.888	15022.48
248.959	14978.66
249.03	14950.56
249.101	14925.88
249.172	14887.26
249.243	14836.12
249.314	14825.56
249.385	14797.22
249.456	14780.4
249.527	14751.57
249.598	14731.13
249.669	14700.14
249.739	14678.73
249.81	14655.79
249.881	14619.63
249.952	14587.05
250.023	14554.46
250.094	14513.05
250.165	14473.96
250.235	14445.18
250.306	14418.77
250.377	14383.53
250.448	14372.39
250.519	14335.08
250.59	14328.14
250.66	14298.01
250.731	14284.27
250.802	14244.5
250.873	14220.21
250.944	14196.39
251.014	14166.6
251.085	14171.81
251.156	14149.2
251.227	14137.82
251.297	14119.65
251.368	14104.03
251.439	14087.3
251.51	14082.58
251.58	14048.79
251.651	14018.22
251.722	14003.67
251.792	13961.15
251.863	13935.41
251.934	13915.06
252.005	13907.93
252.075	13875.2
252.146	13863.92
252.217	13854.95
252.287	13846.61
252.358	13817.01
252.429	13806.5
252.499	13768.85
252.57	13739.49
252.641	13723.15
252.711	13692.01
252.782	13650.89
252.852	13642.6
252.923	13618.16
252.994	13597.29
253.064	13581.62
253.135	13554.86
253.205	13533.7
253.276	13526.71
253.347	13516.93
253.417	13488.24
253.488	13463.37
253.558	13435.99
253.629	13411.45
253.699	13391.06
253.77	13377.37
253.841	13349.55
253.911	13327.38
253.982	13310.26
254.052	13286.21
254.123	13267.02
254.193	13244.51
254.264	13257.67
254.334	13226.53
254.405	13196.16
254.475	13160.73
254.546	13139.56
254.616	13133.06
254.687	13110.3
254.757	13088.32
254.827	13066
254.898	13047.49
254.968	13020.78
255.039	12987.81
255.109	12975.47
255.18	12945.34
255.25	12896.36
255.321	12881.37
255.391	12848.93
255.461	12851.34
255.532	12808.15
255.602	12780.48
255.673	12750.49
255.743	12713.81
255.813	12659.87
255.884	12653.6
255.954	12642.8
256.024	12635.91
256.095	12612.63
256.165	12575.08
256.235	12559.6
256.306	12527.74
256.376	12513.13
256.446	12502.05
256.517	12491.97
256.587	12476.93
256.657	12458.42
256.728	12442.03
256.798	12420.77
256.868	12397.11
256.938	12358.88
257.009	12351.79
257.079	12340.61
257.149	12340.32
257.219	12306.63
257.29	12298.34
257.36	12257.7
257.43	12242.18
257.5	12202.65
257.571	12176.43
257.641	12172.38
257.711	12142.4
257.781	12126.54
257.852	12109.19
257.922	12071.06
257.992	12049.47
258.062	12023.82
258.132	12006.71
258.202	11975.24
258.273	11951.33
258.343	11949.21
258.413	11929.78
258.483	11911.08
258.553	11879.17
258.623	11842.73
258.693	11829.09
258.764	11834.06
258.834	11825.91
258.904	11810.82
258.974	11782.82
259.044	11763.2
259.114	11741.51
259.184	11717.13
259.254	11695.48
259.324	11663.87
259.394	11649.07
259.464	11644.44
259.535	11631.91
259.605	11609.69
259.675	11595.09
259.745	11582.51
259.815	11549.16
259.885	11524.82
259.955	11526.12
260.025	11500.82
260.095	11478.31
260.165	11460.91
260.235	11452.43
260.305	11423.65
260.375	11393.82
260.445	11397.43
260.515	11394.83
260.585	11391.7
260.655	11382.11
260.725	11378.4
260.795	11366.64
260.865	11371.75
260.934	11339.46
261.004	11315.07
261.074	11300.03
261.144	11295.12
261.214	11289.24
261.284	11267.36
261.354	11255.36
261.424	11226.05
261.494	11223.16
261.564	11215.45
261.634	11199.07
261.703	11167.84
261.773	11157.19
261.843	11146.78
261.913	11130.29
261.983	11097.43
262.053	11080.37
262.123	11055.16
262.192	11020.28
262.262	11009.14
262.332	10976.57
262.402	10967.6
