Data from 20250630_urea_2M_MAYP1162681_08-02-27-120.txt Node
Date: Tue Jul 01 08:02:27 BST 2025
User: adleo
Spectrometer: MAYP116268
Trigger mode: 0
Integration Time (sec): 1.000000E0
Scans to average: 1
Electric dark correction enabled: true
Nonlinearity correction enabled: true
Boxcar width: 10
XAxis mode: Wavelengths
Number of Pixels in Spectrum: 2068
>>>>>Begin Spectral Data<<<<<
179.565	1079.39
179.642	1130.91
179.718	1168.76
179.795	1202.2
179.871	1230.64
179.948	1244.94
180.024	1262.47
180.101	1282.94
180.177	1296.11
180.254	1317.59
180.33	1337.02
180.407	1380.35
180.483	1466.53
180.56	1548.24
180.636	1623.3
180.712	1613.08
180.789	1621.87
180.865	1631.41
180.942	1637.54
181.018	1647.85
181.095	1660.21
181.171	1665.86
181.248	1668
181.324	1683.39
181.4	1690.66
181.477	1701.07
181.553	1713.89
181.63	1733.71
181.706	1748.39
181.782	1756.8
181.859	1754.14
181.935	1760.61
182.011	1758.37
182.088	1774.1
182.164	1789.27
182.24	1802.1
182.317	1809.75
182.393	1809.22
182.469	1823.01
182.546	1835.98
182.622	1840.87
182.698	1835.36
182.775	1845.96
182.851	1855.32
182.927	1848.76
183.003	1845.58
183.08	1839.92
183.156	1848.48
183.232	1844.63
183.308	1832.94
183.385	1839.88
183.461	1858.98
183.537	1861.03
183.613	1873.34
183.69	1868.59
183.766	1859.65
183.842	1866.54
183.918	1872.48
183.995	1884.36
184.071	1890.4
184.147	1885.84
184.223	1877.43
184.299	1890.08
184.375	1879.19
184.452	1884.85
184.528	1934.54
184.604	1942
184.68	1953.17
184.756	1958.97
184.832	1965.58
184.908	1969.76
184.985	1968.62
185.061	1952.41
185.137	1957.97
185.213	1948.7
185.289	1945.23
185.365	1939.39
185.441	1936.11
185.517	1949.19
185.593	1946.05
185.669	1939.87
185.745	1948.76
185.822	1964.3
185.898	1954.41
185.974	1968.19
186.05	1963.82
186.126	1927.3
186.202	1922.31
186.278	1921.03
186.354	1913.85
186.43	1920.03
186.506	1919.08
186.582	1918.84
186.658	1926.4
186.734	1909.14
186.81	1910.14
186.886	1914.85
186.962	1927.02
187.038	1924.02
187.114	1913.94
187.19	1922.4
187.266	1918.03
187.341	1918.65
187.417	1910.38
187.493	1913.61
187.569	1912.18
187.645	1905.57
187.721	1894.78
187.797	1901.63
187.873	1903.67
187.949	1899.68
188.025	1893.16
188.101	1898.58
188.176	1903.86
188.252	1895.3
188.328	1902.24
188.404	1902.81
188.48	1897.2
188.556	1890.35
188.632	1891.69
188.707	1893.49
188.783	1892.16
188.859	1885.32
188.935	1874.53
189.011	1881.42
189.086	1873.39
189.162	1865.97
189.238	1865.26
189.314	1865.3
189.39	1861.98
189.465	1856.79
189.541	1870.39
189.617	1853.99
189.693	1847.53
189.768	1847.1
189.844	1872.78
189.92	1865.84
189.996	1875.35
190.071	1885.81
190.147	1885.1
190.223	1893.37
190.298	1883.86
190.374	1870.69
190.45	1880.2
190.526	1888.75
190.601	1883.43
190.677	1886.28
190.753	1910.49
190.828	1912.53
190.904	1922.71
190.98	1932.22
191.055	1940.78
191.131	1934.26
191.207	1955.13
191.282	1964.68
191.358	1958.69
191.433	1946.52
191.509	1958.54
191.585	1950.27
191.66	1948.46
191.736	1954.69
191.811	1946.37
191.887	1965.53
191.963	1986.74
192.038	1994.11
192.114	1995.82
192.189	1999.06
192.265	1995.59
192.34	1976.89
192.416	1976.04
192.491	1975.13
192.567	1981.32
192.642	1983.31
192.718	1980.51
192.793	1970.33
192.869	1966.1
192.944	1968.48
193.02	1973.66
193.095	1975.85
193.171	1983.5
193.246	1985.26
193.322	1982.74
193.397	1983.41
193.473	1966.81
193.548	1948.45
193.624	1950.97
193.699	1949.4
193.775	1966.38
193.85	1966.43
193.925	1975.04
194.001	1975.32
194.076	1965.48
194.152	1955.73
194.227	1947.46
194.302	1938.86
194.378	1942.09
194.453	1941.47
194.529	1952.41
194.604	1939.66
194.679	1935.05
194.755	1918.08
194.83	1927.88
194.905	1926.31
194.981	1933.97
195.056	1929.79
195.131	1935.68
195.207	1934.87
195.282	1925.98
195.357	1908.38
195.433	1924.5
195.508	1915.13
195.583	1920.5
195.659	1933.87
195.734	1941.52
195.809	1940.33
195.884	1947.99
195.96	1948.13
196.035	1960.54
196.11	1957.16
196.185	1966.62
196.261	1969.43
196.336	1996.86
196.411	1987.06
196.486	1990.06
196.561	1985.92
196.637	1992.62
196.712	2009.8
196.787	2014.27
196.862	2025.39
196.937	2033.95
197.013	2037.62
197.088	2043.27
197.163	2064.3
197.238	2079.05
197.313	2077.82
197.388	2092.75
197.464	2124.3
197.539	2132.67
197.614	2127.96
197.689	2138.28
197.764	2156.6
197.839	2173.77
197.914	2169.58
197.989	2186.95
198.065	2203.03
198.14	2246.87
198.215	2272.38
198.29	2281.28
198.365	2290.6
198.44	2302.55
198.515	2330.44
198.59	2342.53
198.665	2368.42
198.74	2374.94
198.815	2377.37
198.89	2394.79
198.965	2424.84
199.04	2421.41
199.115	2436.26
199.19	2473.39
199.265	2480.05
199.34	2488.24
199.415	2521.77
199.49	2540.76
199.565	2550.76
199.64	2570.52
199.715	2570.43
199.79	2579.43
199.865	2583.15
199.94	2585.24
200.015	2613.72
200.09	2614.82
200.165	2624.82
200.24	2634.78
200.315	2672.67
200.39	2687.73
200.464	2695.11
200.539	2697.73
200.614	2711.21
200.689	2732.93
200.764	2739.84
200.839	2753.46
200.914	2755.94
200.989	2746.64
201.063	2760.17
201.138	2745.94
201.213	2745.7
201.288	2725.55
201.363	2727.65
201.438	2728.5
201.512	2744.13
201.587	2729.16
201.662	2735.79
201.737	2745.08
201.812	2750.42
201.886	2718.71
201.961	2726.53
202.036	2718.67
202.111	2710.81
202.186	2683.57
202.26	2667.99
202.335	2645.89
202.41	2641.5
202.485	2626.36
202.559	2607.22
202.634	2583.59
202.709	2590.16
202.784	2572.26
202.858	2573.3
202.933	2553.97
203.008	2551.68
203.082	2530.97
203.157	2528.97
203.232	2485.89
203.306	2466.32
203.381	2432.74
203.456	2411.03
203.53	2390.78
203.605	2370.41
203.68	2347.89
203.754	2341.76
203.829	2326.47
203.904	2309.77
203.978	2297.53
204.053	2302.44
204.127	2292.06
204.202	2291.35
204.277	2277.36
204.351	2272.74
204.426	2266.12
204.5	2261.18
204.575	2227.54
204.65	2239.2
204.724	2233.11
204.799	2242.62
204.873	2239.57
204.948	2239.1
205.022	2228.49
205.097	2219.54
205.171	2234.38
205.246	2243.19
205.32	2244.19
205.395	2248.99
205.469	2242.43
205.544	2248.28
205.618	2232.58
205.693	2242
205.767	2230.16
205.842	2249.1
205.916	2240.73
205.991	2232.64
206.065	2235.06
206.14	2248.66
206.214	2241.14
206.289	2235.48
206.363	2246.94
206.438	2248.7
206.512	2255.94
206.586	2276.78
206.661	2283.58
206.735	2262.08
206.81	2263.56
206.884	2275.07
206.958	2258.56
207.033	2273.26
207.107	2279.31
207.181	2306.4
207.256	2301.92
207.33	2316.72
207.405	2328.82
207.479	2347.71
207.553	2355.85
207.628	2344.1
207.702	2354.14
207.776	2349.71
207.851	2351.19
207.925	2363.81
207.999	2361.19
208.073	2359.9
208.148	2360.28
208.222	2350
208.296	2378.98
208.371	2393.98
208.445	2404.55
208.519	2432.87
208.593	2443.39
208.668	2439.67
208.742	2445.15
208.816	2445.49
208.89	2460.15
208.965	2458.2
209.039	2465.68
209.113	2479.58
209.187	2496.76
209.261	2492.76
209.336	2509.99
209.41	2529.28
209.484	2529.76
209.558	2551.14
209.632	2562.76
209.707	2572.8
209.781	2591.8
209.855	2606.05
209.929	2622.16
210.003	2628.16
210.077	2629.16
210.151	2672.31
210.226	2707
210.3	2733.23
210.374	2757.66
210.448	2761.04
210.522	2770.53
210.596	2784.3
210.67	2795.68
210.744	2839.67
210.818	2872.63
210.892	2894.89
210.966	2888.89
211.041	2907.38
211.115	2903.66
211.189	2928.11
211.263	2946.32
211.337	2956.37
211.411	2970.34
211.485	2965.48
211.559	2977.15
211.633	2981.49
211.707	2954.3
211.781	2964.42
211.855	2933.33
211.929	2926.61
212.003	2912.89
212.077	2922.29
212.151	2932.63
212.225	2942.79
212.299	2937.16
212.373	2931.44
212.447	2931.15
212.52	2964.29
212.594	2968.58
212.668	2988.12
212.742	2981.64
212.816	2985.74
212.89	2988.12
212.964	2998
213.038	3006.73
213.112	3031.24
213.186	3053.79
213.26	3048.45
213.333	3016.79
213.407	3032.9
213.481	3052.06
213.555	3080.41
213.629	3089.24
213.703	3094.82
213.777	3115.81
213.85	3117.72
213.924	3167.59
213.998	3188.82
214.072	3205.96
214.146	3219.56
214.219	3241.41
214.293	3261.4
214.367	3287.69
214.441	3327.11
214.515	3346.73
214.588	3362.62
214.662	3362.29
214.736	3378.8
214.81	3419.77
214.883	3465.71
214.957	3496.02
215.031	3524.74
215.105	3544.26
215.178	3569.9
215.252	3605.9
215.326	3619.7
215.4	3648.49
215.473	3651.36
215.547	3681.17
215.621	3718.26
215.694	3772.5
215.768	3800.21
215.842	3845.31
215.915	3885.37
215.989	3915.92
216.063	3959.57
216.136	4015.64
216.21	4073.66
216.284	4140.99
216.357	4203.82
216.431	4260.4
216.504	4331.77
216.578	4415.98
216.652	4488.42
216.725	4556.46
216.799	4631.04
216.873	4704.78
216.946	4782.31
217.02	4846.24
217.093	4912.37
217.167	4961.4
217.24	5015.19
217.314	5085.63
217.387	5154.5
217.461	5223.59
217.535	5312.57
217.608	5375.35
217.682	5453.2
217.755	5541.59
217.829	5609.87
217.902	5689.33
217.976	5767.02
218.049	5835.37
218.123	5899.62
218.196	5985.09
218.27	6057.68
218.343	6121.03
218.417	6204.87
218.49	6279.36
218.563	6376.93
218.637	6461.28
218.71	6562.69
218.784	6654.64
218.857	6743.08
218.931	6831.59
219.004	6916.56
219.077	6994.69
219.151	7093.95
219.224	7174.73
219.298	7256.77
219.371	7347.99
219.444	7415.33
219.518	7496.99
219.591	7583.19
219.665	7687.98
219.738	7772.89
219.811	7849.91
219.885	7941.38
219.958	8033.21
220.031	8117.56
220.105	8207.77
220.178	8297.21
220.251	8375.83
220.325	8467.21
220.398	8560.32
220.471	8640.83
220.544	8738.48
220.618	8822.81
220.691	8901.03
220.764	8978.53
220.838	9064.12
220.911	9141.97
220.984	9246.73
221.057	9341.72
221.131	9425.17
221.204	9482.57
221.277	9580.96
221.35	9691.58
221.424	9767.24
221.497	9848.49
221.57	9933.3
221.643	10018.81
221.716	10099.4
221.79	10169.58
221.863	10242.09
221.936	10312.95
222.009	10395.43
222.082	10472.47
222.155	10543.29
222.229	10640.67
222.302	10723.11
222.375	10796.11
222.448	10878.7
222.521	10953.54
222.594	11018.64
222.667	11081.96
222.74	11161.13
222.814	11224.12
222.887	11291.07
222.96	11380.37
223.033	11463.22
223.106	11538.45
223.179	11609.02
223.252	11682.33
223.325	11758.43
223.398	11829.09
223.471	11901.87
223.544	11974.21
223.617	12036.05
223.69	12105.03
223.763	12158.92
223.837	12229.1
223.91	12303.58
223.983	12347.63
224.056	12395.21
224.129	12467.56
224.202	12547.77
224.275	12602.29
224.348	12657.48
224.42	12706.94
224.493	12751.97
224.566	12792.51
224.639	12856.48
224.712	12906.47
224.785	12963.06
224.858	13022.02
224.931	13078.27
225.004	13117.51
225.077	13173.53
225.15	13208.77
225.223	13275.58
225.296	13352.28
225.369	13399.86
225.442	13444.78
225.514	13508.95
225.587	13580
225.66	13635.78
225.733	13692.42
225.806	13758.46
225.879	13821.66
225.952	13860.66
226.025	13920.87
226.097	14002.67
226.17	14043.46
226.243	14079.8
226.316	14137.84
226.389	14197.33
226.461	14256.72
226.534	14327.05
226.607	14369.42
226.68	14441.15
226.753	14489.79
226.825	14516.21
226.898	14582.39
226.971	14634.12
227.044	14690.23
227.117	14738.43
227.189	14802.59
227.262	14857.16
227.335	14912.88
227.407	14949.95
227.48	15015.8
227.553	15071.66
227.626	15107.57
227.698	15170.86
227.771	15235.31
227.844	15270.16
227.916	15306.41
227.989	15340.87
228.062	15392.55
228.134	15470.06
228.207	15527.8
228.28	15568.87
228.352	15616.06
228.425	15655
228.498	15714
228.57	15753.19
228.643	15809.19
228.716	15841.92
228.788	15878.55
228.861	15911.67
228.934	15974.33
229.006	16021.17
229.079	16063.78
229.151	16094.68
229.224	16126.2
229.296	16168.18
229.369	16240.28
229.442	16297.3
229.514	16338.22
229.587	16392.64
229.659	16413.02
229.732	16460.54
229.804	16506.09
229.877	16574
229.949	16627.5
230.022	16677.91
230.094	16722.06
230.167	16769.48
230.239	16799.75
230.312	16845.39
230.384	16907.8
230.457	16946.12
230.529	16990.07
230.602	17031.08
230.674	17085.35
230.747	17135.71
230.819	17189.74
230.892	17193.74
230.964	17239.14
231.037	17288.1
231.109	17317.07
231.181	17366.42
231.254	17381.5
231.326	17424.1
231.399	17450.9
231.471	17485.12
231.544	17500.2
231.616	17545.69
231.688	17568.25
231.761	17592.39
231.833	17621.16
231.905	17638.51
231.978	17671.04
232.05	17693.07
232.122	17734.08
232.195	17755.91
232.267	17797.5
232.339	17812.34
232.412	17854.12
232.484	17874.41
232.556	17886.36
232.629	17933.69
232.701	17960.38
232.773	17987.61
232.846	18004.72
232.918	18029.39
232.99	18053.01
233.062	18085.25
233.135	18109.53
233.207	18125.63
233.279	18165.44
233.351	18189.92
233.424	18206.74
233.496	18220.61
233.568	18254.59
233.64	18248.85
233.713	18269.14
233.785	18280.52
233.857	18309.82
233.929	18316.9
234.001	18349.86
234.074	18377.91
234.146	18370.58
234.218	18385.91
234.29	18406.53
234.362	18416.75
234.434	18418.34
234.507	18409.14
234.579	18401.57
234.651	18412.8
234.723	18437.28
234.795	18444.99
234.867	18459.3
234.939	18470.43
235.012	18475.93
235.084	18492.79
235.156	18514.48
235.228	18511.4
235.3	18512.26
235.372	18514.67
235.444	18545.27
235.516	18525.85
235.588	18543.73
235.66	18545.9
235.732	18539.88
235.804	18588.79
235.876	18602.23
235.948	18617.41
236.02	18635.68
236.092	18640.79
236.164	18631.39
236.236	18620.11
236.308	18615.77
236.38	18611.63
236.452	18619.97
236.524	18625.08
236.596	18638.23
236.668	18648.59
236.74	18655.58
236.812	18663.39
236.884	18661.94
236.956	18650.71
237.028	18643.48
237.1	18625.56
237.172	18639.05
237.244	18652.11
237.316	18612.88
237.388	18599.39
237.46	18583.39
237.532	18580.89
237.604	18569.13
237.675	18580.45
237.747	18589.9
237.819	18584.16
237.891	18570.14
237.963	18549.85
238.035	18534
238.107	18486.43
238.178	18480.99
238.25	18464.07
238.322	18471.49
238.394	18449.04
238.466	18437.28
238.538	18436.27
238.609	18430.77
238.681	18405.81
238.753	18383.59
238.825	18374.2
238.897	18366.2
238.968	18376.94
239.04	18360.75
239.112	18374.34
239.184	18348.8
239.255	18323.5
239.327	18311.41
239.399	18304.61
239.471	18300.03
239.542	18297.96
239.614	18305.04
239.686	18272.76
239.758	18272.18
239.829	18244.66
239.901	18236.76
239.973	18215.12
240.044	18207.03
240.116	18192.91
240.188	18175.65
240.259	18159.75
240.331	18130.4
240.403	18117.54
240.474	18072.96
240.546	18050.74
240.618	18008.33
240.689	17988.34
240.761	17964.91
240.833	17961.44
240.904	17933.93
240.976	17912.1
241.048	17880.82
241.119	17861.45
241.191	17842.85
241.262	17829.93
241.334	17798.65
241.405	17777.06
241.477	17744.97
241.549	17715.19
241.62	17687.91
241.692	17668.92
241.763	17654.08
241.835	17638.51
241.906	17607.43
241.978	17577.55
242.049	17561.21
242.121	17553.55
242.192	17545.07
242.264	17509.41
242.335	17462.61
242.407	17448.3
242.478	17423.28
242.55	17404.97
242.621	17370.75
242.693	17342.13
242.764	17306.51
242.836	17278.56
242.907	17256.83
242.979	17248.15
243.05	17221.89
243.122	17200.63
243.193	17170.9
243.264	17126.17
243.336	17096.53
243.407	17085.11
243.479	17075.23
243.55	17049.3
243.622	17024.48
243.693	16996.77
243.764	16997.93
243.836	16970.02
243.907	16935.18
243.978	16897.01
244.05	16872.33
244.121	16831.8
244.192	16815.7
244.264	16775.56
244.335	16747.46
244.407	16714.35
244.478	16681.72
244.549	16653.77
244.62	16618.05
244.692	16590
244.763	16569.9
244.834	16539.35
244.906	16504.55
244.977	16480.21
245.048	16471.44
245.119	16427.92
245.191	16387.19
245.262	16328.92
245.333	16317.31
245.405	16293.21
245.476	16273.69
245.547	16251.9
245.618	16233.97
245.689	16198.02
245.761	16176.66
245.832	16151.41
245.903	16126.83
245.974	16102.2
246.045	16073.71
246.117	16057.37
246.188	16018.04
246.259	15980.21
246.33	15948.49
246.401	15917.11
246.473	15868.67
246.544	15824.96
246.615	15811.32
246.686	15778.3
246.757	15760.95
246.828	15713.71
246.899	15700.94
246.97	15655.63
247.042	15617.99
247.113	15604.83
247.184	15594.03
247.255	15556.34
247.326	15521.49
247.397	15493.68
247.468	15463.31
247.539	15432.17
247.61	15395.73
247.681	15378.04
247.752	15363.05
247.823	15323.96
247.894	15294.65
247.965	15265.05
248.037	15229.96
248.108	15192.37
248.179	15164.12
248.25	15138.76
248.321	15124.06
248.392	15080.54
248.463	15075.18
248.534	15041.49
248.605	15009.29
248.675	14978.15
248.746	14957.76
248.817	14939.88
248.888	14910.38
248.959	14868.1
249.03	14855.14
249.101	14826.07
249.172	14796.04
249.243	14742.48
249.314	14729.85
249.385	14699.53
249.456	14675.72
249.527	14647.76
249.598	14625.73
249.669	14594.25
249.739	14571.41
249.81	14545.38
249.881	14507.92
249.952	14485.84
250.023	14457.98
250.094	14413.97
250.165	14369.04
250.235	14341.42
250.306	14315.2
250.377	14278.95
250.448	14259.52
250.519	14208.52
250.59	14193.53
250.66	14160.07
250.731	14154.91
250.802	14125.46
250.873	14107.14
250.944	14081.35
251.014	14043.89
251.085	14040.09
251.156	14020.22
251.227	14002.34
251.297	13992.65
251.368	13987.11
251.439	13965.56
251.51	13947.48
251.58	13913.11
251.651	13894.12
251.722	13877.63
251.792	13833.86
251.863	13809.23
251.934	13801.42
252.005	13803.49
252.075	13775.77
252.146	13762.47
252.217	13752.68
252.287	13741.69
252.358	13711.56
252.429	13703.89
252.499	13676.51
252.57	13645.32
252.641	13631.34
252.711	13607
252.782	13564.24
252.852	13552.14
252.923	13520.18
252.994	13507.6
253.064	13503.11
253.135	13463.05
253.205	13436.3
253.276	13434.08
253.347	13423.91
253.417	13388.19
253.488	13357.24
253.558	13330.87
253.629	13308.46
253.699	13283.87
253.77	13264.11
253.841	13240.73
253.911	13224.19
253.982	13210.11
254.052	13198.26
254.123	13174.68
254.193	13150.58
254.264	13156.85
254.334	13117.75
254.405	13088.73
254.475	13052.29
254.546	13026.3
254.616	13024.76
254.687	13002.54
254.757	12983.98
254.827	12956.02
254.898	12938.76
254.968	12916.06
255.039	12882.36
255.109	12870.12
255.18	12831.12
255.25	12789.61
255.321	12777.61
255.391	12738.52
255.461	12737.79
255.532	12686.55
255.602	12666.79
255.673	12629.19
255.743	12601.08
255.813	12563.19
255.884	12550.71
255.954	12537.5
256.024	12539.28
256.095	12516.68
256.165	12486.79
256.235	12471.89
256.306	12452.08
256.376	12441.24
256.446	12430.44
256.517	12421.14
256.587	12407.01
256.657	12401.81
256.728	12384.36
256.798	12358.9
256.868	12337.26
256.938	12305.83
257.009	12291.18
257.079	12274.6
257.149	12278.93
257.219	12239.65
257.29	12227.55
257.36	12193.04
257.43	12187.06
257.5	12141.61
257.571	12109.6
257.641	12099.43
257.711	12062.26
257.781	12040.19
257.852	12022.5
257.922	11987.89
257.992	11964.42
258.062	11935.54
258.132	11920.65
258.202	11895.97
258.273	11883.2
258.343	11877.56
258.413	11847.87
258.483	11834.66
258.553	11803.47
258.623	11774.84
258.693	11761.59
258.764	11754.55
258.834	11754.12
258.904	11724.67
258.974	11698.54
259.044	11679.65
259.114	11662.68
259.184	11646.35
259.254	11629.48
259.324	11591.4
259.394	11570.72
259.464	11574.29
259.535	11555.06
259.605	11526.48
259.675	11502.77
259.745	11486.57
259.815	11465.03
259.885	11441.46
259.955	11451.97
260.025	11427.34
260.095	11403.58
260.165	11392.93
260.235	11393.27
260.305	11360.88
260.375	11337.41
260.445	11341.79
260.515	11339.58
260.585	11332.44
260.655	11319
260.725	11310.03
260.795	11304.54
260.865	11314.95
260.934	11284.83
261.004	11275.38
261.074	11260.92
261.144	11259.57
261.214	11246.9
261.284	11225.98
261.354	11224.44
261.424	11194.27
261.494	11196.87
261.564	11188.39
261.634	11180.97
261.703	11137.88
261.773	11130.27
261.843	11121.4
261.913	11099.96
261.983	11069.02
262.053	11054.22
262.123	11030.9
262.192	11005.79
262.262	10989.51
262.332	10951.05
262.402	10941.85
262.472	10923.49
262.541	10892.07
262.611	10886.43
