Data from 24HourExp_27052025_FLMS018081_09-38-19-354.txt Node
Date: Wed May 28 09:38:19 BST 2025
User: adleo
Spectrometer: FLMS01808
Trigger mode: 0
Integration Time (sec): 4.000000E-1
Scans to average: 10
Electric dark correction enabled: true
Nonlinearity correction enabled: true
Boxcar width: 10
XAxis mode: Wavelengths
Number of Pixels in Spectrum: 2048
>>>>>Begin Spectral Data<<<<<
178.471	-133.51
178.857	-125.18
179.244	-116.84
179.631	-107.36
180.017	-99.63
180.404	-90.29
180.79	-78.9
181.176	-70.26
181.563	-61.5
181.949	-51.31
182.335	-42.52
182.722	-26.98
183.108	-7.77
183.494	19.68
183.88	73.33
184.266	126.69
184.653	183.8
185.039	236.94
185.425	291.36
185.811	345.02
186.197	396.18
186.582	446.57
186.968	496.11
187.354	545
187.74	595.13
188.126	646.42
188.511	696.15
188.897	742.15
189.283	788.93
189.668	835.28
190.054	879.26
190.439	926.41
190.825	970.09
191.21	1009.72
191.596	1042.02
191.981	1051.44
192.366	1054.9
192.752	1056.47
193.137	1060.37
193.522	1061.23
193.908	1062.47
194.293	1066.75
194.678	1069.19
195.063	1071.94
195.448	1075.07
195.833	1074.45
196.218	1072.32
196.603	1071.27
196.988	1071.06
197.373	1071.8
197.757	1071.08
198.142	1072.93
198.527	1068.56
198.912	1067.14
199.296	1068.58
199.681	1067.29
200.066	1064.7
200.45	1064.77
200.835	1064.16
201.219	1062.83
201.604	1062.21
201.988	1064.3
202.372	1064.18
202.757	1064.96
203.141	1066.03
203.525	1067.67
203.91	1068.93
204.294	1071.14
204.678	1072.34
205.062	1072.16
205.446	1072.48
205.83	1074.04
206.214	1072.51
206.598	1075.25
206.982	1078.62
207.366	1077.43
207.75	1078.2
208.134	1080.84
208.517	1081.34
208.901	1082.41
209.285	1083.36
209.669	1085.75
210.052	1085.07
210.436	1085.8
210.819	1086.6
211.203	1087.53
211.586	1087.83
211.97	1087.23
212.353	1086.5
212.737	1086.46
213.12	1089.3
213.503	1088.69
213.886	1089.41
214.27	1091.68
214.653	1093.01
215.036	1094.07
215.419	1095.84
215.802	1097.77
216.185	1098.19
216.568	1100.71
216.951	1102.98
217.334	1105.53
217.717	1108.96
218.1	1111.89
218.482	1114.66
218.865	1119.26
219.248	1123.61
219.631	1127.09
220.013	1132.76
220.396	1142.09
220.778	1148.31
221.161	1154.57
221.544	1162.32
221.926	1169.8
222.308	1178.01
222.691	1185.78
223.073	1194.97
223.455	1204.29
223.838	1213.42
224.22	1223.47
224.602	1235.65
224.984	1245.98
225.366	1257.37
225.749	1270.73
226.131	1284.55
226.513	1297.38
226.895	1312.1
227.276	1325.19
227.658	1339.74
228.04	1355.05
228.422	1369.16
228.804	1383.84
229.186	1399.73
229.567	1417.4
229.949	1432.95
230.331	1447.5
230.712	1466.72
231.094	1483.42
231.475	1503.96
231.857	1523.79
232.238	1542.37
232.62	1560.9
233.001	1580.41
233.382	1600.62
233.763	1619.62
234.145	1638.42
234.526	1659.05
234.907	1675.87
235.288	1694.78
235.669	1714.6
236.05	1735.02
236.431	1752.08
236.812	1772.89
237.193	1792.49
237.574	1813.04
237.955	1834.71
238.336	1856.98
238.717	1876.33
239.097	1897.74
239.478	1917.29
239.859	1938.14
240.239	1961.82
240.62	1983.52
241.001	2005.08
241.381	2028.27
241.762	2049.4
242.142	2072.36
242.522	2095.32
242.903	2119.78
243.283	2146.18
243.663	2170.47
244.044	2197.06
244.424	2224.85
244.804	2250.75
245.184	2277.93
245.564	2304.53
245.944	2334.53
246.324	2364.99
246.704	2393.94
247.084	2420.31
247.464	2448.68
247.844	2478.62
248.224	2508.29
248.604	2539.19
248.983	2569.23
249.363	2599.5
249.743	2630.19
250.122	2657.76
250.502	2686.44
250.882	2716.44
251.261	2747.04
251.641	2776.64
252.02	2805.48
252.399	2838.63
252.779	2873.17
253.158	2907.96
253.537	2945.45
253.917	2985.53
254.296	3020.44
254.675	3057.62
255.054	3097.39
255.433	3139.7
255.812	3179.58
256.191	3218.05
256.57	3256.99
256.949	3300.06
257.328	3343.13
257.707	3385.91
258.086	3433.11
258.465	3482.49
258.843	3531.34
259.222	3580.01
259.601	3633.29
259.979	3688.77
260.358	3741.54
260.736	3795.56
261.115	3849.08
261.493	3901.72
261.872	3951.56
262.25	4007.21
262.629	4063.49
263.007	4123.06
263.385	4179.29
263.763	4238.49
264.142	4301.58
264.52	4366.89
264.898	4432.45
265.276	4496.52
265.654	4566.09
266.032	4633.46
266.41	4702.28
266.788	4772.02
267.166	4847.84
267.544	4919.96
267.921	4993.05
268.299	5069.67
268.677	5146.82
269.055	5229.18
269.432	5314.53
269.81	5399.61
270.188	5485.45
270.565	5573.53
270.943	5664.2
271.32	5754.47
271.697	5849.77
272.075	5943.85
272.452	6036.71
272.829	6133.31
273.207	6230.62
273.584	6332.31
273.961	6436.86
274.338	6545.69
274.715	6663.93
275.092	6777.07
275.469	6897.64
275.846	7018.55
276.223	7139.86
276.6	7261.18
276.977	7385.37
277.354	7508.3
277.731	7632.55
278.108	7762.19
278.484	7892.23
278.861	8021.39
279.238	8159.79
279.614	8295.85
279.991	8434.45
280.367	8580.66
280.744	8727.7
281.12	8880.31
281.497	9025.8
281.873	9179.25
282.249	9329.86
282.625	9472.13
283.002	9618.12
283.378	9768.56
283.754	9916.16
284.13	10067.05
284.506	10224.2
284.882	10380.48
285.258	10532.96
285.634	10691.59
286.01	10851.69
286.386	11011.43
286.762	11178.01
287.138	11342.46
287.513	11504.47
287.889	11670.92
288.265	11829.68
288.641	11988.89
289.016	12146.52
289.392	12308.17
289.767	12469.2
290.143	12632.37
290.518	12794.21
290.894	12960.77
291.269	13120.59
291.644	13282.04
292.02	13435.2
292.395	13586.74
292.77	13740.76
293.145	13899.88
293.52	14053.69
293.895	14204.33
294.27	14358.85
294.646	14503.8
295.02	14645.92
295.395	14802.35
295.77	14954.7
296.145	15111.35
296.52	15263.11
296.895	15419.36
297.269	15572.66
297.644	15719.99
298.019	15870.16
298.393	16025.02
298.768	16177.36
299.143	16328.82
299.517	16480.83
299.891	16644.17
300.266	16803.62
300.64	16964.43
301.015	17124.68
301.389	17292.5
301.763	17465.6
302.137	17634.45
302.512	17818.15
302.886	17999.24
303.26	18183.82
303.634	18364.38
304.008	18537.52
304.382	18723.43
304.756	18905.44
305.13	19095.31
305.504	19279.38
305.877	19468.25
306.251	19673.5
306.625	19871.05
306.999	20081
307.372	20287.8
307.746	20499.89
308.119	20715.22
308.493	20922.29
308.866	21134
309.24	21342.06
309.613	21544.51
309.987	21750.68
310.36	21941.32
310.733	22146.79
311.107	22354.9
311.48	22569.74
311.853	22799.6
312.226	23014.92
312.599	23241.74
312.972	23463.05
313.345	23696.37
313.718	23922.92
314.091	24138.57
314.464	24365.63
314.837	24580.55
315.21	24794.73
315.582	25007.71
315.955	25213.04
316.328	25431.35
316.7	25643.18
317.073	25865.86
317.446	26092.15
317.818	26327.8
318.191	26561.38
318.563	26784.87
318.936	26989.05
319.308	27192.73
319.68	27392.59
320.053	27595.17
320.425	27777.97
320.797	27955.8
321.169	28113.28
321.541	28259.07
321.913	28390.85
322.285	28505.46
322.657	28634.13
323.029	28781.08
323.401	28924.44
323.773	29091.54
324.145	29263.5
324.517	29454.89
324.889	29632.36
325.26	29828.86
325.632	30031.96
326.004	30260.56
326.375	30511.62
326.747	30784.63
327.118	31079.04
327.49	31361.92
327.861	31670.73
328.233	31979.16
328.604	32285.72
328.975	32600.4
329.346	32905.58
329.718	33217.13
330.089	33519.95
330.46	33815.66
330.831	34083.92
331.202	34333.9
331.573	34577.82
331.944	34806.89
332.315	35026.96
332.686	35238.95
333.057	35434.47
333.428	35616.37
333.799	35783.87
334.169	35938.69
334.54	36078.98
334.911	36199.65
335.281	36335.15
335.652	36455.58
336.022	36587.36
336.393	36731.64
336.763	36895.04
337.134	37088.32
337.504	37279.53
337.874	37484.29
338.245	37679.99
338.615	37897.21
338.985	38127.52
339.355	38345.85
339.726	38563.55
340.096	38781.45
340.466	39025.68
340.836	39267.96
341.206	39515.52
341.576	39761.24
341.945	40001.76
342.315	40230.7
342.685	40473.36
343.055	40715.89
343.425	40953.23
343.794	41182.48
344.164	41420.97
344.533	41649.95
344.903	41876.25
345.273	42113.47
345.642	42338.61
346.011	42567.44
346.381	42795.05
346.75	43028.18
347.12	43277.66
347.489	43523.24
347.858	43774.44
348.227	43992.51
348.596	44215.43
348.965	44448.46
349.334	44678.91
349.704	44923.06
350.072	45172.2
350.441	45402.56
350.81	45645.13
351.179	45873.91
351.548	46112.81
351.917	46331.05
352.285	46528.09
352.654	46728.11
353.023	46928.43
353.391	47125.43
353.76	47345.36
354.129	47535.77
354.497	47761.75
354.865	47978
355.234	48217.15
355.602	48429.62
355.971	48673.72
356.339	48893.27
356.707	49103.68
357.075	49325.87
357.443	49534.2
357.811	49745.31
358.18	49955.42
358.548	50160.21
358.916	50369.16
359.284	50578.02
359.651	50794.37
360.019	51011.98
360.387	51213.81
360.755	51418.52
361.123	51648.98
361.49	51868.59
361.858	52083.39
362.226	52284.93
362.593	52478.75
362.961	52653
363.328	52857.1
363.696	53023.89
364.063	53232.84
364.43	53438.9
364.798	53645.08
365.165	53828.53
365.532	54006.62
365.899	54193.95
366.267	54356.01
366.634	54500.08
367.001	54665.09
367.368	54799.33
367.735	54978.41
368.102	55156.29
368.469	55346.52
368.835	55523.5
369.202	55682.24
369.569	55877.27
369.936	56060.77
370.303	56246
370.669	56445.33
371.036	56611.06
371.402	56814.85
371.769	56993.88
372.135	57146.14
372.502	57273.78
372.868	57414.57
373.235	57558.63
373.601	57690.66
373.967	57855.95
374.333	58042.88
374.7	58221.52
375.066	58423.33
375.432	58606.06
375.798	58782.52
376.164	58945.37
376.53	59093.58
376.896	59268.02
377.262	59435.91
377.628	59561.89
377.993	59706.48
378.359	59848.49
378.725	59990.33
379.091	60143.37
379.456	60263.87
379.822	60392.38
380.187	60529.45
380.553	60719.48
380.918	60918.8
381.284	61097.52
381.649	61275.17
382.015	61420.04
382.38	61543.96
382.745	61707.75
383.11	61857.95
383.476	61996.87
383.841	62128.07
384.206	62283.97
384.571	62391.71
384.936	62521.57
385.301	62691.86
385.666	62831.6
386.031	62971.63
386.396	63140.08
386.76	63280.76
387.125	63475.41
387.49	63676.51
387.855	63870.05
388.219	64036.21
388.584	64193.33
388.948	64382.47
389.313	64542.59
389.677	64736.84
390.042	64965.62
390.406	65113.96
390.771	65300.01
391.135	65487.41
391.499	65706.38
391.863	65938.36
392.227	66178.19
392.592	66377.36
392.956	66575.89
393.32	66762.38
393.684	66987.79
394.048	67155.98
394.412	67338.08
394.775	67488.11
395.139	67622.01
395.503	67777.51
395.867	67921.51
396.231	68065.4
396.594	68162.57
396.958	68301.53
397.321	68460.77
397.685	68582.57
398.048	68729.83
398.412	68864.53
398.775	68990.09
399.139	69122.34
399.502	69220.96
399.865	69358.95
400.228	69544.64
400.592	69679.47
400.955	69880.27
401.318	70010.03
401.681	70167.82
402.044	70300.66
402.407	70452.57
402.77	70617.73
403.133	70810.5
403.496	70955.78
403.859	71107.65
404.221	71350.2
404.584	71586.1
404.947	71823.35
405.309	72022.62
405.672	72249.62
406.034	72464.85
406.397	72714.24
406.759	72926.44
407.122	73106.87
407.484	73283.23
407.847	73472.29
408.209	73714.53
408.571	73939.39
408.933	74189.44
409.296	74432.95
409.658	74664.64
410.02	74941.89
410.382	75256.4
410.744	75517.4
411.106	75805.79
411.468	76083.93
411.83	76322.09
412.191	76519.83
412.553	76706.56
412.915	76941.56
413.277	77162.01
413.638	77375.13
414	77553.11
414.361	77742.41
414.723	77988.88
415.084	78219.92
415.446	78408.78
415.807	78564.28
416.169	78691.22
416.53	78808.2
416.891	78943.33
417.252	79099.41
417.614	79196.52
417.975	79256.41
418.336	79324.83
418.697	79397.01
419.058	79466.14
419.419	79519.97
419.78	79579.53
420.141	79622.23
420.501	79657.77
420.862	79692.23
421.223	79719.46
421.584	79772.63
421.944	79807.42
422.305	79827.72
422.666	79842.01
423.026	79848.65
423.387	79865.33
423.747	79877.84
424.107	79891.59
424.468	79905.34
424.828	79913.86
425.188	79919.58
425.549	79929.07
425.909	79936.19
426.269	79936.23
426.629	79942.87
426.989	79948.23
427.349	79955.83
427.709	79963.26
428.069	79968.17
428.429	79973.75
428.789	79979.91
429.149	79986.08
429.508	79991.92
429.868	79997.02
430.228	80002.27
430.587	80006.44
430.947	80011.62
431.306	80017.79
431.666	80021.04
432.025	80026.11
432.385	80029.51
432.744	80032.73
433.103	80033.1
433.463	80035.39
433.822	80044.84
434.181	80049.06
434.54	80052.65
434.899	80055.09
435.258	80057.71
435.618	80057.82
435.976	80061.6
436.335	80064.67
436.694	80066.44
437.053	80067.41
437.412	80068.11
437.771	80069.92
438.129	80072.03
438.488	80072.58
438.847	80074.29
439.205	80076.91
439.564	80076.36
439.922	80078.17
440.281	80078.8
440.639	80081.21
440.997	80083.02
441.356	80083.61
441.714	80083.72
442.072	80084.17
442.431	80084.57
442.789	80085.17
443.147	80086.02
443.505	80085.2
443.863	80084.24
444.221	80084.91
444.579	80083.91
444.937	80084.57
445.294	80085.31
445.652	80085.28
446.01	80084.72
446.368	80085.54
446.725	80082.54
447.083	80082.24
447.441	80081.8
447.798	80081.24
448.156	80079.61
448.513	80079.32
448.87	80078.8
449.228	80079.13
449.585	80079.73
449.942	80078.73
450.3	80078.91
450.657	80081.1
451.014	80081.28
451.371	80083.46
451.728	80083.69
452.085	80083.28
452.442	80083.54
452.799	80082.87
453.156	80083.17
453.513	80084.35
453.869	80084.76
454.226	80087.28
454.583	80087.87
454.939	80087.9
455.296	80088.87
455.653	80089.68
456.009	80090.64
456.366	80091.09
456.722	80091.86
457.078	80091.6
457.435	80092.64
457.791	80092.97
458.147	80091.72
458.503	80093.6
458.86	80091.9
459.216	80090.79
459.572	80091.72
459.928	80091.35
460.284	80092.68
460.64	80093.86
460.996	80093.9
461.351	80094.31
461.707	80095.53
462.063	80096.49
462.419	80097.75
462.774	80098.34
463.13	80098.93
463.486	80099.75
463.841	80102.3
464.197	80101.49
464.552	80099.68
464.908	80100.16
465.263	80099.93
465.618	80101.19
465.974	80101.45
466.329	80102.38
466.684	80101.38
467.039	80101.67
467.394	80103.97
467.749	80103.53
468.104	80103.6
468.459	80105.19
468.814	80105.97
469.169	80106.67
469.524	80108.27
469.879	80108.38
470.233	80108.64
470.588	80109.41
470.943	80109.71
471.297	80110.15
471.652	80111.6
472.006	80114.71
472.361	80115.71
472.715	80115.41
473.07	80114.37
473.424	80114.04
473.778	80114.41
474.133	80117.93
474.487	80119.22
474.841	80118.08
475.195	80119.15
475.549	80120.89
475.903	80120.37
476.257	80119.52
476.611	80119.33
476.965	80119.74
477.319	80121.37
477.673	80123.07
478.026	80123.37
478.38	80123.45
478.734	80122.52
479.087	80123.07
479.441	80122.11
479.795	80121.08
480.148	80123.33
480.502	80124.93
480.855	80125.3
481.208	80127
481.562	80127.52
481.915	80128.59
482.268	80129.63
482.621	80131.67
482.974	80132.41
483.328	80134.7
483.681	80133.78
484.034	80132.37
484.387	80130.67
484.739	80128.78
485.092	80127.93
485.445	80127.52
485.798	80127.26
486.151	80127.7
486.503	80128.85
486.856	80130.45
487.209	80130.96
487.561	80129.96
487.914	80131.59
488.266	80130.96
488.618	80130.22
488.971	80128.93
489.323	80129.33
489.675	80131.15
490.028	80129.82
490.38	80129.26
490.732	80128.7
491.084	80130.93
491.436	80132.78
491.788	80133.96
492.14	80134.78
492.492	80134.93
492.844	80136.22
493.196	80136.33
493.548	80136.26
493.899	80136.15
494.251	80136.96
494.603	80137.41
494.954	80137.56
495.306	80136.22
495.657	80135.74
496.009	80137.26
496.36	80138.48
496.712	80137.93
497.063	80135.63
497.414	80136.41
497.765	80135.56
498.117	80135.63
498.468	80135.33
498.819	80134.07
499.17	80134.41
499.521	80135.19
499.872	80136.82
500.223	80137.26
500.574	80137.22
500.924	80138.3
501.275	80136.22
501.626	80136.96
501.977	80139.59
502.327	80139.15
502.678	80139.71
503.029	80141.78
503.379	80139.08
503.73	80138.82
504.08	80137.3
504.43	80138.71
504.781	80138
505.131	80137.78
505.481	80134.23
505.831	80132.52
506.182	80134.04
506.532	80131.71
506.882	80131.37
507.232	80130.89
507.582	80130.52
507.932	80129.74
508.281	80129.89
508.631	80131.71
508.981	80131.19
509.331	80129.52
509.681	80129.82
510.03	80128.48
510.38	80128.15
510.729	80130.41
511.079	80130
511.428	80130.96
511.778	80130.11
512.127	80129.48
512.476	80130.08
512.826	80132.56
513.175	80134.26
513.524	80135.33
513.873	80134.78
514.222	80134.67
514.571	80134.26
514.92	80133.74
515.269	80134.67
515.618	80133.78
515.967	80133.15
516.316	80130.22
516.665	80128.93
517.014	80130.15
517.362	80129.45
517.711	80129.22
518.059	80127.89
518.408	80129.85
518.757	80130.11
519.105	80130.89
519.453	80131.85
519.802	80133.34
520.15	80131.93
520.498	80132.08
520.847	80130.19
521.195	80132.15
521.543	80133.19
521.891	80132.7
522.239	80132.93
522.587	80132.45
522.935	80133.85
523.283	80133.96
523.631	80137.19
523.979	80138.82
524.326	80138.63
524.674	80139.82
525.022	80139.3
525.369	80141.48
525.717	80140.85
526.064	80140.56
526.412	80140.96
526.759	80140.85
527.107	80139.26
527.454	80141.15
527.801	80140.74
528.149	80140.96
528.496	80140.33
528.843	80138.74
529.19	80139.04
529.537	80140.22
529.884	80141.74
530.231	80141.19
530.578	80142.41
530.925	80141.11
531.272	80138.59
531.619	80139.04
531.966	80141.19
532.312	80141.89
532.659	80141.08
533.006	80139.74
533.352	80140.82
533.699	80140.22
534.045	80139.7
534.392	80138.15
534.738	80136.85
535.084	80136.93
535.431	80137.52
535.777	80138.08
536.123	80138.74
536.469	80138.45
536.815	80136.45
537.161	80135.89
537.507	80135.59
537.853	80135.48
538.199	80134.7
538.545	80136.48
538.891	80135.93
539.237	80134.26
539.582	80134.89
539.928	80133.96
540.274	80134.04
540.619	80132.93
540.965	80134.48
541.31	80134.56
541.656	80135.74
542.001	80138
542.347	80138.41
542.692	80138.7
543.037	80140.56
543.382	80140.85
543.728	80140.93
544.073	80142.7
544.418	80143.04
544.763	80141.3
545.108	80139
545.453	80138.74
545.798	80138
546.142	80138.89
546.487	80139.04
546.832	80139.41
547.177	80140.11
547.521	80140.19
547.866	80140.82
548.211	80139.67
548.555	80140.89
548.9	80141.7
549.244	80140.59
549.588	80140.11
549.933	80139.33
550.277	80138.52
550.621	80138.85
550.965	80139.33
551.31	80138.37
551.654	80137.41
551.998	80139.44
552.342	80141.85
552.686	80142.59
553.03	80143.48
553.373	80143.44
553.717	80143.59
554.061	80141.7
554.405	80141.18
554.748	80140.19
555.092	80140.7
555.436	80139.48
555.779	80137.7
556.123	80138.78
556.466	80138.81
556.81	80138.41
557.153	80136.56
557.496	80136.3
557.839	80136.44
558.183	80135.78
558.526	80135.93
558.869	80135.11
559.212	80133.89
559.555	80133.59
559.898	80133.63
560.241	80133.7
560.584	80133.44
560.927	80133.37
561.269	80134.63
561.612	80135.04
561.955	80135.44
562.297	80132.15
562.64	80133.3
562.983	80133.7
563.325	80133.22
563.668	80134.07
564.01	80134.45
564.352	80135.74
564.695	80134.89
565.037	80134
565.379	80134.7
565.721	80133.67
566.063	80133.11
566.406	80132.22
566.748	80130.93
567.09	80131.52
567.431	80130.07
567.773	80128.19
568.115	80127.93
568.457	80127.67
568.799	80126.63
569.14	80128.63
569.482	80131.63
569.824	80130.63
570.165	80129.67
570.507	80129.74
570.848	80129
571.19	80128.26
571.531	80129.04
571.872	80129.19
572.214	80129.04
572.555	80127.41
572.896	80127.48
573.237	80128.78
573.578	80129.33
573.919	80128.63
574.26	80127.78
574.601	80129.67
574.942	80130.52
575.283	80130.67
575.624	80129.44
575.964	80129.07
576.305	80126.89
576.646	80124.04
576.986	80124.48
577.327	80124.44
577.667	80122
578.008	80121.15
578.348	80121.48
578.689	80120.67
579.029	80119.74
579.369	80119.74
579.71	80120.63
580.05	80120.15
580.39	80119.78
580.73	80120.19
581.07	80120.3
581.41	80120.93
581.75	80119.59
582.09	80118.93
582.43	80118.48
582.769	80119.93
583.109	80119.63
583.449	80119.74
583.789	80122.22
584.128	80122.96
584.468	80124.15
584.807	80125.26
585.147	80125.07
585.486	80123.85
585.825	80124.15
