Data from 24HourExp_27052025_FLMS018081_04-48-20-235.txt Node
Date: Wed May 28 04:48:20 BST 2025
User: adleo
Spectrometer: FLMS01808
Trigger mode: 0
Integration Time (sec): 4.000000E-1
Scans to average: 10
Electric dark correction enabled: true
Nonlinearity correction enabled: true
Boxcar width: 10
XAxis mode: Wavelengths
Number of Pixels in Spectrum: 2048
>>>>>Begin Spectral Data<<<<<
178.471	-127.17
178.857	-119.79
179.244	-112.53
179.631	-103.31
180.017	-96.02
180.404	-89.15
180.79	-78.8
181.176	-68.74
181.563	-59.62
181.949	-48.81
182.335	-38.43
182.722	-22.59
183.108	-2.91
183.494	23.11
183.88	77.15
184.266	129.92
184.653	187.16
185.039	241.98
185.425	298.88
185.811	353.03
186.197	405.54
186.582	455.36
186.968	507.25
187.354	559.09
187.74	608.96
188.126	658.51
188.511	708.18
188.897	755.85
189.283	802.85
189.668	848.41
190.054	891.51
190.439	936.94
190.825	980.7
191.21	1020.65
191.596	1054.91
191.981	1061.45
192.366	1065.26
192.752	1066.84
193.137	1070.31
193.522	1070.38
193.908	1072.52
194.293	1075.52
194.678	1079.17
195.063	1080.22
195.448	1081.76
195.833	1081.1
196.218	1081.89
196.603	1083.07
196.988	1083.67
197.373	1083.67
197.757	1084.82
198.142	1085.62
198.527	1082.12
198.912	1082.22
199.296	1083.59
199.681	1082.1
200.066	1079.83
200.45	1080.23
200.835	1079.75
201.219	1078.71
201.604	1078.64
201.988	1079.43
202.372	1078.97
202.757	1078.85
203.141	1080.69
203.525	1081.84
203.91	1083.34
204.294	1085.22
204.678	1085.98
205.062	1084.83
205.446	1084.64
205.83	1086.14
206.214	1087.18
206.598	1089.67
206.982	1090
207.366	1089.95
207.75	1091.1
208.134	1093.45
208.517	1094.98
208.901	1096.79
209.285	1098.46
209.669	1100.56
210.052	1100.33
210.436	1100.83
210.819	1100.52
211.203	1101.53
211.586	1101.63
211.97	1103.81
212.353	1104.07
212.737	1104.63
213.12	1108.26
213.503	1110.84
213.886	1110.2
214.27	1111.36
214.653	1112.19
215.036	1113.14
215.419	1113.63
215.802	1115.73
216.185	1119.37
216.568	1122.88
216.951	1124.99
217.334	1126.81
217.717	1128.56
218.1	1132.26
218.482	1136.36
218.865	1140.41
219.248	1143.6
219.631	1147.78
220.013	1151.44
220.396	1157.22
220.778	1161.5
221.161	1165.09
221.544	1170.56
221.926	1178.72
222.308	1186.15
222.691	1194.1
223.073	1204.26
223.455	1213.44
223.838	1222.11
224.22	1229.04
224.602	1238.89
224.984	1249.01
225.366	1261.51
225.749	1276.82
226.131	1289.48
226.513	1302.82
226.895	1317.99
227.276	1332.28
227.658	1347
228.04	1362.18
228.422	1379.21
228.804	1397.82
229.186	1413.46
229.567	1431.65
229.949	1447.68
230.331	1464.72
230.712	1483.31
231.094	1500.22
231.475	1519.58
231.857	1539.09
232.238	1559.84
232.62	1577.94
233.001	1597.96
233.382	1618.4
233.763	1637.01
234.145	1657.16
234.526	1676.74
234.907	1694.52
235.288	1714.05
235.669	1733.96
236.05	1754.11
236.431	1770.66
236.812	1787.92
237.193	1810.29
237.574	1830.56
237.955	1853.84
238.336	1876.07
238.717	1896.61
239.097	1919.32
239.478	1939.97
239.859	1962.88
240.239	1987.04
240.62	2009.57
241.001	2033.6
241.381	2056.26
241.762	2078.14
242.142	2100.9
242.522	2124.03
242.903	2150.13
243.283	2176.34
243.663	2202.09
244.044	2228.41
244.424	2260.42
244.804	2289.68
245.184	2317.43
245.564	2345.75
245.944	2376.36
246.324	2406.07
246.704	2437.08
247.084	2466.73
247.464	2498.21
247.844	2529.29
248.224	2560.74
248.604	2592.95
248.983	2621.42
249.363	2654.33
249.743	2686.94
250.122	2718.58
250.502	2751.18
250.882	2782.72
251.261	2813.9
251.641	2845.87
252.02	2878.14
252.399	2911.51
252.779	2947.22
253.158	2984.67
253.537	3022.3
253.917	3063.94
254.296	3101.75
254.675	3142.22
255.054	3181.68
255.433	3224.22
255.812	3263.26
256.191	3303.46
256.57	3345.14
256.949	3389.83
257.328	3432.75
257.707	3477.59
258.086	3523.63
258.465	3571.13
258.843	3618.14
259.222	3668.16
259.601	3721.17
259.979	3774.56
260.358	3827.64
260.736	3879.61
261.115	3934.89
261.493	3989.62
261.872	4038.71
262.25	4096.87
262.629	4153.21
263.007	4212.26
263.385	4269.62
263.763	4331.81
264.142	4397.3
264.52	4462.09
264.898	4528.46
265.276	4594.26
265.654	4663.67
266.032	4733.1
266.41	4801.62
266.788	4874.55
267.166	4950.7
267.544	5026.38
267.921	5107.26
268.299	5183.29
268.677	5265.85
269.055	5349.42
269.432	5433.2
269.81	5521.04
270.188	5604.95
270.565	5693.48
270.943	5784.94
271.32	5876.3
271.697	5969.01
272.075	6059.88
272.452	6155.52
272.829	6253.5
273.207	6355.1
273.584	6458.61
273.961	6561.2
274.338	6674.53
274.715	6790.07
275.092	6910.12
275.469	7029.94
275.846	7150.46
276.223	7273.77
276.6	7395.92
276.977	7516.7
277.354	7641.82
277.731	7765.88
278.108	7901.7
278.484	8032.4
278.861	8162.77
279.238	8300.84
279.614	8438.03
279.991	8581.28
280.367	8726.37
280.744	8875.01
281.12	9024.16
281.497	9172.56
281.873	9326.35
282.249	9474.74
282.625	9623.08
283.002	9767.69
283.378	9917.18
283.754	10066.78
284.13	10221.3
284.506	10380.85
284.882	10537.38
285.258	10693.34
285.634	10851.31
286.01	11005.78
286.386	11163.37
286.762	11328.54
287.138	11491.26
287.513	11658.42
287.889	11822.51
288.265	11982.2
288.641	12143.05
289.016	12305.43
289.392	12465.55
289.767	12625.23
290.143	12792.67
290.518	12953.63
290.894	13117.76
291.269	13274.99
291.644	13432.12
292.02	13584.06
292.395	13733.04
292.77	13891.3
293.145	14043.39
293.52	14199.42
293.895	14349.96
294.27	14504.55
294.646	14656.15
295.02	14801.94
295.395	14953.36
295.77	15107.68
296.145	15265.96
296.52	15417.42
296.895	15568.61
297.269	15725.06
297.644	15882.07
298.019	16030.32
298.393	16182.32
298.768	16334.25
299.143	16491.28
299.517	16640.93
299.891	16799
300.266	16958.01
300.64	17113.08
301.015	17278.96
301.389	17446.35
301.763	17625.65
302.137	17798.07
302.512	17979.96
302.886	18162.27
303.26	18343.04
303.634	18521.72
304.008	18695.63
304.382	18881.24
304.756	19062.3
305.13	19245.81
305.504	19425.09
305.877	19613.95
306.251	19821.36
306.625	20021.24
306.999	20222.93
307.372	20439.23
307.746	20658.24
308.119	20872.9
308.493	21083.47
308.866	21291.45
309.24	21504.24
309.613	21704.48
309.987	21919.2
310.36	22107.62
310.733	22312.52
311.107	22529.09
311.48	22747.44
311.853	22979.23
312.226	23202.74
312.599	23440.44
312.972	23664.35
313.345	23895.54
313.718	24125.2
314.091	24343.96
314.464	24574.41
314.837	24798.33
315.21	25017.05
315.582	25233.47
315.955	25443.6
316.328	25670.48
316.7	25891.63
317.073	26108.69
317.446	26332.4
317.818	26555.54
318.191	26795.84
318.563	27019.27
318.936	27224.49
319.308	27426.21
319.68	27625.36
320.053	27823.05
320.425	28000.27
320.797	28183.27
321.169	28344.62
321.541	28491.36
321.913	28625.7
322.285	28743.59
322.657	28874.82
323.029	29017.33
323.401	29161.06
323.773	29327.27
324.145	29490.58
324.517	29675.59
324.889	29851.47
325.26	30059.28
325.632	30269.38
326.004	30495.65
326.375	30757.71
326.747	31033.39
327.118	31336.84
327.49	31626.46
327.861	31933.61
328.233	32245.09
328.604	32554.28
328.975	32870.51
329.346	33183.77
329.718	33493.66
330.089	33795.72
330.46	34088.43
330.831	34356.28
331.202	34611.64
331.573	34861.4
331.944	35089.7
332.315	35314.4
332.686	35537.64
333.057	35727.3
333.428	35910.12
333.799	36086.22
334.169	36236.07
334.54	36373.88
334.911	36490.24
335.281	36614.24
335.652	36735.27
336.022	36871.16
336.393	37018.16
336.763	37188.15
337.134	37374.07
337.504	37568.15
337.874	37775.11
338.245	37977.05
338.615	38199.69
338.985	38427.05
339.355	38651.04
339.726	38879.05
340.096	39098.19
340.466	39348.26
340.836	39592.7
341.206	39833.86
341.576	40078.02
341.945	40320.68
342.315	40551.97
342.685	40798
343.055	41053.43
343.425	41295.03
343.794	41519.61
344.164	41752.18
344.533	41981.55
344.903	42204.73
345.273	42438.26
345.642	42667.68
346.011	42897.61
346.381	43127.09
346.75	43355.08
347.12	43595.58
347.489	43839.66
347.858	44090.76
348.227	44293.39
348.596	44514.71
348.965	44754.44
349.334	44975.25
349.704	45210
350.072	45458.5
350.441	45688.52
350.81	45927.41
351.179	46154.19
351.548	46392.71
351.917	46611.98
352.285	46804.13
352.654	47008.84
353.023	47220.74
353.391	47415.78
353.76	47627.7
354.129	47816.61
354.497	48055.63
354.865	48275.49
355.234	48511.81
355.602	48725.91
355.971	48979.56
356.339	49197.61
356.707	49407.88
357.075	49631.98
357.443	49848.6
357.811	50062.6
358.18	50272.11
358.548	50475.9
358.916	50692.18
359.284	50910.85
359.651	51128.26
360.019	51351.35
360.387	51555.79
360.755	51755.75
361.123	51983
361.49	52210.89
361.858	52423.37
362.226	52613.21
362.593	52813.31
362.961	52988.97
363.328	53189.52
363.696	53359.21
364.063	53583.31
364.43	53793.22
364.798	54007.53
365.165	54193.9
365.532	54380.52
365.899	54573.58
366.267	54739.69
366.634	54883.2
367.001	55047.45
367.368	55184.81
367.735	55360.67
368.102	55539.96
368.469	55730.7
368.835	55911
369.202	56065.73
369.569	56261.62
369.936	56454.37
370.303	56634.77
370.669	56835.44
371.036	57003.68
371.402	57203.97
371.769	57374.7
372.135	57525.34
372.502	57646.32
372.868	57790.91
373.235	57932.5
373.601	58065.03
373.967	58239.28
374.333	58426.74
374.7	58606.82
375.066	58805.43
375.432	58990.45
375.798	59168.43
376.164	59333.28
376.53	59479.14
376.896	59658.47
377.262	59829.28
377.628	59954.54
377.993	60102.6
378.359	60247.23
378.725	60405.05
379.091	60546.52
379.456	60681.73
379.822	60813.56
380.187	60964.35
380.553	61142.1
380.918	61331.48
381.284	61511.55
381.649	61680.21
382.015	61816.69
382.38	61942.19
382.745	62116.27
383.11	62266.72
383.476	62403.47
383.841	62532.78
384.206	62696.39
384.571	62810.85
384.936	62940.72
385.301	63109.92
385.666	63246.36
386.031	63394.34
386.396	63549.59
386.76	63705.15
387.125	63891.69
387.49	64087.22
387.855	64276.18
388.219	64451.1
388.584	64624.32
388.948	64809.89
389.313	64972.88
389.677	65182.74
390.042	65413.85
390.406	65559.9
390.771	65741.31
391.135	65941.45
391.499	66170.7
391.863	66390.88
392.227	66631.37
392.592	66824.57
392.956	67025.44
393.32	67221.28
393.684	67444.33
394.048	67621.22
394.412	67798.55
394.775	67944.03
395.139	68096.97
395.503	68260.36
395.867	68414.28
396.231	68556.94
396.594	68652.61
396.958	68789.9
397.321	68943.7
397.685	69061.93
398.048	69205.85
398.412	69342.08
398.775	69459.01
399.139	69581.75
399.502	69696.31
399.865	69835.55
400.228	70034.29
400.592	70156.91
400.955	70347.96
401.318	70480.69
401.681	70640.07
402.044	70775.76
402.407	70930.64
402.77	71087.36
403.133	71279.41
403.496	71416.2
403.859	71559.66
404.221	71804.49
404.584	72036.29
404.947	72274.95
405.309	72480.69
405.672	72723.29
406.034	72951.23
406.397	73210.02
406.759	73431.57
407.122	73611.2
407.484	73787.47
407.847	73973.4
408.209	74230.69
408.571	74466.1
408.933	74723.96
409.296	74976.08
409.658	75222.36
410.02	75498.8
410.382	75807.36
410.744	76059.55
411.106	76346.99
411.468	76629.09
411.83	76865.2
412.191	77071.73
412.553	77251.44
412.915	77469.05
413.277	77670.95
413.638	77870.51
414	78039.22
414.361	78216.75
414.723	78444.65
415.084	78656.23
415.446	78823.61
415.807	78957.38
416.169	79061.19
416.53	79146.57
416.891	79251.77
417.252	79379.45
417.614	79456.46
417.975	79500.03
418.336	79550.55
418.697	79605.6
419.058	79656.16
419.419	79694.37
419.78	79733.04
420.141	79762.08
420.501	79788.16
420.862	79808.35
421.223	79822.45
421.584	79855.1
421.944	79873.84
422.305	79885.01
422.666	79891.72
423.026	79895.26
423.387	79909.41
423.747	79917.81
424.107	79929.65
424.468	79938.8
424.828	79944.08
425.188	79947.81
425.549	79953.93
425.909	79958.11
426.269	79956.19
426.629	79959.66
426.989	79961.8
427.349	79965.35
427.709	79968.52
428.069	79969.34
428.429	79972.99
428.789	79979.79
429.149	79985.48
429.508	79988.62
429.868	79992.98
430.228	79998.67
430.587	80003.11
430.947	80007.06
431.306	80012.57
431.666	80014.71
432.025	80018.23
432.385	80022.59
432.744	80025.51
433.103	80028.69
433.463	80032.98
433.822	80040.29
434.181	80044.99
434.54	80049.13
434.899	80053.24
435.258	80057.3
435.618	80059.37
435.976	80062.93
436.335	80061.93
436.694	80063.33
437.053	80065.33
437.412	80067.62
437.771	80068.73
438.129	80071.32
438.488	80070.92
438.847	80072.43
439.205	80076.24
439.564	80076.1
439.922	80077.21
440.281	80077.91
440.639	80078.32
440.997	80076.8
441.356	80078.65
441.714	80076.98
442.072	80077.09
442.431	80076.13
442.789	80076.98
443.147	80077.69
443.505	80078.5
443.863	80079.28
444.221	80079.68
444.579	80080.79
444.937	80080.79
445.294	80081.94
445.652	80082.09
446.01	80082.9
446.368	80081.98
446.725	80080.09
447.083	80081.24
447.441	80080.02
447.798	80082.5
448.156	80082.94
448.513	80085.27
448.87	80085.98
449.228	80087.2
449.585	80087.71
449.942	80087.2
450.3	80086.9
450.657	80087.27
451.014	80086.97
451.371	80088.53
451.728	80087.27
452.085	80086.83
452.442	80086.01
452.799	80086.05
453.156	80086.27
453.513	80085.97
453.869	80086.79
454.226	80087.16
454.583	80087.34
454.939	80088.2
455.296	80086.64
455.653	80085.31
456.009	80084.01
456.366	80084.24
456.722	80084.68
457.078	80084.64
457.435	80085.94
457.791	80086.27
458.147	80086.97
458.503	80088.23
458.86	80087.05
459.216	80088.6
459.572	80088.01
459.928	80089.79
460.284	80089.49
460.64	80089.08
460.996	80089.53
461.351	80090.34
461.707	80092.53
462.063	80093.41
462.419	80091.97
462.774	80091.71
463.13	80092.82
463.486	80093.75
463.841	80095.23
464.197	80095.97
464.552	80096.63
464.908	80096.63
465.263	80096.6
465.618	80097.75
465.974	80097.45
466.329	80100.23
466.684	80100.19
467.039	80100.97
467.394	80100.08
467.749	80100.15
468.104	80102
468.459	80103.3
468.814	80104.63
469.169	80103.45
469.524	80102.85
469.879	80105.96
470.233	80106.74
470.588	80107.93
470.943	80108.3
471.297	80109.18
471.652	80109.15
472.006	80109.81
472.361	80111.18
472.715	80111.92
473.07	80111.52
473.424	80110.67
473.778	80109.18
474.133	80110.74
474.487	80112
474.841	80113.07
475.195	80115.11
475.549	80115.15
475.903	80115.48
476.257	80115.44
476.611	80117.37
476.965	80119.22
477.319	80119.33
477.673	80121.55
478.026	80121.29
478.38	80123
478.734	80120.85
479.087	80122.37
479.441	80123.44
479.795	80123
480.148	80123.92
480.502	80123.81
480.855	80125.11
481.208	80126.51
481.562	80128.07
481.915	80130.03
482.268	80131.48
482.621	80131.81
482.974	80132.22
483.328	80133.14
483.681	80132.85
484.034	80133.88
484.387	80133.55
484.739	80132.4
485.092	80130.48
485.445	80132.18
485.798	80133.03
486.151	80134.33
486.503	80133.88
486.856	80133
487.209	80133.33
487.561	80133.7
487.914	80133.48
488.266	80134.07
488.618	80132.7
488.971	80130.14
489.323	80129.66
489.675	80130.26
490.028	80128.74
490.38	80129.22
490.732	80129.14
491.084	80131.44
491.436	80130.96
491.788	80132.4
492.14	80132.48
492.492	80133.85
492.844	80135.26
493.196	80135.22
493.548	80136.48
493.899	80135.33
494.251	80136.22
494.603	80135.66
494.954	80134.26
495.306	80134.55
495.657	80134.55
496.009	80138
496.36	80139.37
496.712	80138.15
497.063	80135.74
497.414	80137.92
497.765	80135.63
498.117	80134.96
498.468	80133.03
498.819	80133
499.17	80132.11
499.521	80132.44
499.872	80131.92
500.223	80130.29
500.574	80129.81
500.924	80128.29
501.275	80129.66
501.626	80129.55
501.977	80130.4
502.327	80132.44
502.678	80134.63
503.029	80135.37
503.379	80132.96
503.73	80133
504.08	80130.96
504.43	80132.4
504.781	80130.77
505.131	80132.25
505.481	80132
505.831	80131.74
506.182	80132.59
506.532	80131.44
506.882	80132.11
507.232	80132.59
507.582	80133.81
507.932	80133.51
508.281	80134.85
508.631	80135.48
508.981	80134.85
509.331	80137.15
509.681	80136.55
510.03	80134.11
510.38	80133.22
510.729	80135.11
511.079	80135.11
511.428	80137.77
511.778	80138.77
512.127	80139.44
512.476	80138.59
512.826	80138.7
513.175	80139.44
513.524	80139.33
513.873	80140.26
514.222	80139.81
514.571	80139.63
514.92	80137.55
515.269	80137.11
515.618	80136.66
515.967	80136.11
516.316	80135.81
516.665	80134.44
517.014	80133.85
517.362	80135.51
517.711	80135.18
518.059	80132.66
518.408	80132.48
518.757	80133.74
519.105	80132.85
519.453	80132.48
519.802	80133.59
520.15	80133.11
520.498	80132.44
520.847	80131.55
521.195	80130.81
521.543	80130.66
521.891	80130.44
522.239	80131.77
522.587	80132.18
522.935	80133.66
523.283	80134.37
523.631	80134.85
523.979	80133.59
524.326	80134.51
524.674	80132.55
525.022	80131.7
525.369	80131.85
525.717	80132.44
526.064	80131.48
526.412	80131.66
526.759	80132.11
527.107	80130.07
527.454	80131.33
527.801	80131.37
528.149	80131.22
528.496	80131.59
528.843	80131.92
529.19	80132.59
529.537	80131.03
529.884	80131.48
530.231	80128.4
530.578	80129.07
530.925	80130.22
531.272	80131.48
531.619	80130.74
531.966	80132.29
532.312	80134.74
532.659	80135.59
533.006	80135.63
533.352	80134.92
533.699	80134.07
534.045	80133.81
534.392	80136.25
534.738	80135.85
535.084	80136.03
535.431	80136
535.777	80136.48
536.123	80137.66
536.469	80137.44
536.815	80138.48
537.161	80137.81
537.507	80139.4
537.853	80138.11
538.199	80138.4
538.545	80137.03
538.891	80136.33
539.237	80135.07
539.582	80132.74
539.928	80133.4
540.274	80133.07
540.619	80133.4
540.965	80133.74
541.31	80134.7
541.656	80134.92
542.001	80136.59
542.347	80135.63
542.692	80134.44
543.037	80132.55
543.382	80131.14
543.728	80131.92
544.073	80131.66
544.418	80132.37
544.763	80133.26
545.108	80132.33
545.453	80130
545.798	80129.92
546.142	80131.33
546.487	80133.03
546.832	80135.55
547.177	80134.66
547.521	80133.74
547.866	80135.33
548.211	80134.59
548.555	80133.29
548.9	80131.77
549.244	80128.85
549.588	80129.22
549.933	80131.29
550.277	80132.26
550.621	80132.48
550.965	80131.74
551.31	80132
551.654	80131.33
551.998	80130.33
552.342	80131.7
552.686	80132.07
553.03	80132.66
553.373	80132.59
553.717	80130.48
554.061	80128.22
554.405	80130.07
554.748	80131.25
555.092	80129.22
555.436	80130.44
555.779	80131.18
556.123	80133.33
556.466	80134.74
556.81	80133.37
557.153	80132.81
557.496	80133.88
557.839	80134.29
558.183	80134
558.526	80132.59
558.869	80131.81
559.212	80132.18
559.555	80131.33
559.898	80132.22
560.241	80132.44
560.584	80131.22
560.927	80131.7
561.269	80133.07
561.612	80131.62
561.955	80131.55
562.297	80131.81
562.64	80131.51
562.983	80130.66
563.325	80130.07
563.668	80130.48
564.01	80131.62
564.352	80129.66
564.695	80127.33
565.037	80127.74
565.379	80127.59
565.721	80128.51
566.063	80129.22
566.406	80127.59
566.748	80128.11
567.09	80126.74
567.431	80126.33
567.773	80126.33
568.115	80127
568.457	80126.29
568.799	80126.25
569.14	80126.03
569.482	80126.44
569.824	80125.85
570.165	80126.25
570.507	80125.77
570.848	80126.92
571.19	80127.18
571.531	80129.33
571.872	80132.25
572.214	80131.14
572.555	80131.44
572.896	80130.59
573.237	80130.88
573.578	80132.74
573.919	80131.62
574.26	80132.99
574.601	80132.18
574.942	80131.62
575.283	80131.03
575.624	80131.44
575.964	80132.18
576.305	80132
576.646	80131.55
576.986	80129.63
577.327	80129.51
577.667	80129.48
578.008	80127.03
578.348	80127.22
578.689	80126.55
579.029	80124.74
579.369	80124.22
579.71	80124.48
580.05	80124.7
580.39	80123.07
580.73	80121.51
581.07	80121.29
581.41	80119.7
581.75	80120.55
582.09	80119.52
582.43	80119.55
582.769	80119.66
583.109	80120.22
583.449	80119.22
583.789	80118.52
584.128	80120.26
584.468	80119.22
584.807	80118.18
585.147	80118.96
585.486	80119.03
585.825	80118.74
586.165	80118.33
586.504	80118.07
