Data from 24HourExp_27052025_FLMS018081_14-28-19-936.txt Node
Date: Tue May 27 14:28:19 BST 2025
User: adleo
Spectrometer: FLMS01808
Trigger mode: 0
Integration Time (sec): 4.000000E-1
Scans to average: 10
Electric dark correction enabled: true
Nonlinearity correction enabled: true
Boxcar width: 10
XAxis mode: Wavelengths
Number of Pixels in Spectrum: 2048
>>>>>Begin Spectral Data<<<<<
178.471	-128.87
178.857	-120.59
179.244	-113.09
179.631	-103.9
180.017	-96.55
180.404	-89.25
180.79	-80.28
181.176	-71.65
181.563	-63.25
181.949	-52.43
182.335	-41.37
182.722	-25.28
183.108	-5.66
183.494	21.59
183.88	74.82
184.266	128.4
184.653	184.3
185.039	236.44
185.425	292.32
185.811	344.36
186.197	397.48
186.582	447.94
186.968	500.26
187.354	552.46
187.74	602.06
188.126	653.66
188.511	703.27
188.897	751.95
189.283	799.24
189.668	845.26
190.054	888.96
190.439	932.37
190.825	975.69
191.21	1016.24
191.596	1049.28
191.981	1058.39
192.366	1063
192.752	1066.03
193.137	1070.87
193.522	1072.1
193.908	1073.89
194.293	1076.95
194.678	1078.55
195.063	1079.7
195.448	1080.44
195.833	1082.31
196.218	1080.79
196.603	1081.45
196.988	1081.77
197.373	1083.1
197.757	1083.5
198.142	1084.63
198.527	1083.54
198.912	1083.31
199.296	1081.76
199.681	1080.3
200.066	1077.8
200.45	1076.31
200.835	1076.16
201.219	1074.69
201.604	1074
201.988	1075.45
202.372	1074.26
202.757	1074.8
203.141	1075.01
203.525	1076.11
203.91	1075.49
204.294	1077.31
204.678	1077.43
205.062	1077.51
205.446	1076.63
205.83	1079.46
206.214	1080.67
206.598	1082.1
206.982	1082.46
207.366	1082.83
207.75	1082.81
208.134	1086.79
208.517	1089.9
208.901	1088.71
209.285	1092.33
209.669	1093.5
210.052	1093.56
210.436	1092.61
210.819	1095.56
211.203	1096.35
211.586	1097.47
211.97	1098.1
212.353	1096.95
212.737	1098.17
213.12	1099.87
213.503	1101.18
213.886	1099.43
214.27	1099.08
214.653	1100.98
215.036	1102.27
215.419	1105.76
215.802	1109.51
216.185	1109.19
216.568	1111.93
216.951	1115.52
217.334	1117.12
217.717	1121.68
218.1	1123.82
218.482	1129.54
218.865	1131.39
219.248	1134.83
219.631	1138.16
220.013	1142.92
220.396	1151.42
220.778	1156.58
221.161	1161.88
221.544	1168.89
221.926	1178.96
222.308	1185.75
222.691	1192.33
223.073	1201.37
223.455	1209.59
223.838	1217.47
224.22	1228.17
224.602	1239.06
224.984	1249.48
225.366	1258.21
225.749	1268.77
226.131	1280.31
226.513	1291.07
226.895	1305.92
227.276	1318.77
227.658	1332.54
228.04	1348.01
228.422	1362.83
228.804	1378.44
229.186	1394.61
229.567	1411.11
229.949	1425.62
230.331	1443.53
230.712	1461.87
231.094	1478.11
231.475	1495.01
231.857	1513.8
232.238	1530.91
232.62	1546.87
233.001	1566.77
233.382	1588.6
233.763	1610.41
234.145	1632.39
234.526	1653.15
234.907	1671.87
235.288	1692.92
235.669	1714.61
236.05	1732.25
236.431	1749.35
236.812	1770.7
237.193	1792.57
237.574	1813.05
237.955	1833.53
238.336	1856.29
238.717	1876.85
239.097	1901.89
239.478	1923.86
239.859	1946.55
240.239	1970.89
240.62	1994.86
241.001	2016.57
241.381	2039.06
241.762	2059.91
242.142	2081.38
242.522	2105.25
242.903	2129.65
243.283	2153.51
243.663	2178.36
244.044	2208.99
244.424	2237.07
244.804	2263.31
245.184	2289.37
245.564	2316.37
245.944	2347.58
246.324	2376.38
246.704	2405.43
247.084	2431.18
247.464	2461.09
247.844	2490.6
248.224	2520.17
248.604	2551.3
248.983	2581.24
249.363	2614.45
249.743	2644.78
250.122	2673.36
250.502	2702.76
250.882	2733.38
251.261	2765.58
251.641	2798.19
252.02	2829.09
252.399	2864.06
252.779	2898.99
253.158	2934.4
253.537	2973.38
253.917	3013.18
254.296	3048.37
254.675	3087.66
255.054	3129.8
255.433	3173.92
255.812	3212.5
256.191	3252.34
256.57	3291.18
256.949	3335.6
257.328	3377.04
257.707	3421.7
258.086	3470.53
258.465	3518.17
258.843	3568.19
259.222	3618.35
259.601	3669.28
259.979	3722.29
260.358	3776.47
260.736	3829.5
261.115	3885.93
261.493	3937.39
261.872	3987.92
262.25	4045.79
262.629	4100.99
263.007	4158.97
263.385	4214.47
263.763	4276.64
264.142	4337.89
264.52	4402.87
264.898	4466.62
265.276	4533.19
265.654	4599.94
266.032	4667.54
266.41	4736.92
266.788	4806.78
267.166	4882.52
267.544	4955.21
267.921	5028.1
268.299	5101.56
268.677	5180.39
269.055	5259.84
269.432	5344.29
269.81	5429.2
270.188	5513.63
270.565	5600.63
270.943	5688.44
271.32	5778.89
271.697	5870.63
272.075	5968.17
272.452	6066.17
272.829	6164.3
273.207	6260.63
273.584	6364.01
273.961	6468.62
274.338	6578.33
274.715	6692.41
275.092	6807.21
275.469	6927.09
275.846	7045.93
276.223	7169.11
276.6	7290.18
276.977	7413
277.354	7538.55
277.731	7665.63
278.108	7794.93
278.484	7923.7
278.861	8056.35
279.238	8194.91
279.614	8331.85
279.991	8473.13
280.367	8615.98
280.744	8763.17
281.12	8913.23
281.497	9060.37
281.873	9212.43
282.249	9361.61
282.625	9508.28
283.002	9656.64
283.378	9800.81
283.754	9953.33
284.13	10105.5
284.506	10265.54
284.882	10422.56
285.258	10576.96
285.634	10729.81
286.01	10890.5
286.386	11051.76
286.762	11213.85
287.138	11374.81
287.513	11542.94
287.889	11703.18
288.265	11865.04
288.641	12023.25
289.016	12183.99
289.392	12347.86
289.767	12509.67
290.143	12676.2
290.518	12840.66
290.894	12997.74
291.269	13158.67
291.644	13316.14
292.02	13467.83
292.395	13620.2
292.77	13774.25
293.145	13926.5
293.52	14083.94
293.895	14232.58
294.27	14389.9
294.646	14540.44
295.02	14691.64
295.395	14841.76
295.77	14995.05
296.145	15150.75
296.52	15308.69
296.895	15464.39
297.269	15620.57
297.644	15771.12
298.019	15926.16
298.393	16078.67
298.768	16232.56
299.143	16388.96
299.517	16538.9
299.891	16696.82
300.266	16855.22
300.64	17013.36
301.015	17180.1
301.389	17350.62
301.763	17522.02
302.137	17688.2
302.512	17870.45
302.886	18045.32
303.26	18230.08
303.634	18405.67
304.008	18581.84
304.382	18766.1
304.756	18945.03
305.13	19126.4
305.504	19311.12
305.877	19499.16
306.251	19701.48
306.625	19905.47
306.999	20114.56
307.372	20331
307.746	20550.21
308.119	20760.31
308.493	20970.93
308.866	21183.86
309.24	21394.85
309.613	21603.76
309.987	21812.81
310.36	22008.73
310.733	22216.23
311.107	22424.38
311.48	22644.57
311.853	22872.09
312.226	23090.96
312.599	23327.21
312.972	23555.3
313.345	23780.77
313.718	24007.51
314.091	24226.12
314.464	24456.31
314.837	24680.43
315.21	24894.32
315.582	25110.4
315.955	25323.34
316.328	25544.13
316.7	25759.49
317.073	25975.02
317.446	26198.94
317.818	26428.02
318.191	26658.67
318.563	26880.19
318.936	27090.08
319.308	27297.11
319.68	27494.99
320.053	27693.67
320.425	27872.15
320.797	28052.63
321.169	28214.57
321.541	28363.78
321.913	28497.45
322.285	28608.58
322.657	28726.7
323.029	28873.21
323.401	29021.87
323.773	29183.11
324.145	29349.39
324.517	29532.23
324.889	29710.33
325.26	29913.81
325.632	30128.94
326.004	30361.6
326.375	30615.93
326.747	30889.72
327.118	31186.97
327.49	31472.48
327.861	31773.22
328.233	32081.57
328.604	32385.87
328.975	32701.95
329.346	33001.09
329.718	33308.08
330.089	33613.95
330.46	33912.52
330.831	34181.47
331.202	34428.25
331.573	34673.72
331.944	34903.82
332.315	35133.59
332.686	35356.85
333.057	35548.24
333.428	35719.79
333.799	35881.87
334.169	36040.75
334.54	36180.02
334.911	36298.54
335.281	36437.6
335.652	36565.14
336.022	36702.42
336.393	36850.13
336.763	37013.07
337.134	37197.85
337.504	37392.11
337.874	37597.39
338.245	37801.12
338.615	38020.76
338.985	38250.31
339.355	38475.23
339.726	38697.69
340.096	38917.64
340.466	39162.27
340.836	39405.21
341.206	39658.46
341.576	39907.04
341.945	40147.68
342.315	40379.45
342.685	40625.03
343.055	40864.27
343.425	41100.37
343.794	41329.63
344.164	41560.51
344.533	41795.44
344.903	42025.9
345.273	42261.35
345.642	42488.57
346.011	42718.42
346.381	42949.45
346.75	43180.59
347.12	43423.45
347.489	43674.21
347.858	43916.95
348.227	44127.34
348.596	44350.97
348.965	44590.45
349.334	44816.71
349.704	45048.27
350.072	45295.88
350.441	45527.15
350.81	45771.82
351.179	46005.5
351.548	46240.32
351.917	46460.67
352.285	46658.53
352.654	46864.92
353.023	47068.5
353.391	47259.92
353.76	47469.61
354.129	47654.36
354.497	47885.11
354.865	48103.23
355.234	48335.47
355.602	48556.27
355.971	48807.13
356.339	49026.78
356.707	49238.58
357.075	49462.46
357.443	49679.61
357.811	49891.18
358.18	50098.08
358.548	50298.77
358.916	50508.97
359.284	50724.45
359.651	50943.58
360.019	51162.97
360.387	51367.44
360.755	51565.61
361.123	51799.16
361.49	52027.01
361.858	52240.18
362.226	52437.04
362.593	52634.4
362.961	52815.71
363.328	53006.21
363.696	53170.2
364.063	53380.08
364.43	53583.99
364.798	53791.68
365.165	53981.33
365.532	54157.47
365.899	54348.58
366.267	54519.71
366.634	54671.52
367.001	54837.25
367.368	54975.24
367.735	55154.35
368.102	55326.78
368.469	55520.9
368.835	55703.25
369.202	55857.58
369.569	56056.94
369.936	56243.18
370.303	56429.38
370.669	56621.57
371.036	56791.9
371.402	56997.84
371.769	57181.14
372.135	57324.5
372.502	57449.39
372.868	57588.14
373.235	57739.12
373.601	57872.46
373.967	58043.07
374.333	58225.44
374.7	58401.38
375.066	58604.03
375.432	58783.33
375.798	58963.78
376.164	59129.32
376.53	59274.37
376.896	59446.14
377.262	59613.03
377.628	59741.93
377.993	59886.28
378.359	60031.47
378.725	60190.61
379.091	60340.98
379.456	60468.61
379.822	60608.42
380.187	60764.53
380.553	60953.74
380.918	61143.69
381.284	61328.67
381.649	61496.44
382.015	61637.58
382.38	61763.66
382.745	61923.94
383.11	62072.75
383.476	62216.38
383.841	62345.38
384.206	62504.26
384.571	62623.67
384.936	62751.83
385.301	62924.8
385.666	63063.53
386.031	63207.89
386.396	63356.55
386.76	63499.79
387.125	63687.13
387.49	63883.29
387.855	64065.49
388.219	64231.95
388.584	64403.26
388.948	64584.58
389.313	64741.18
389.677	64941.7
390.042	65170.55
390.406	65328.13
390.771	65519.82
391.135	65706.16
391.499	65942.36
391.863	66166.26
392.227	66403.1
392.592	66605.07
392.956	66798.83
393.32	66989.56
393.684	67208.9
394.048	67389.13
394.412	67569.14
394.775	67714.01
395.139	67861.46
395.503	68028.52
395.867	68180.95
396.231	68321.33
396.594	68424.78
396.958	68563.54
397.321	68719.24
397.685	68839.26
398.048	68984.08
398.412	69118.67
398.775	69244.31
399.139	69363.08
399.502	69469.14
399.865	69607.3
400.228	69798.3
400.592	69925.72
400.955	70123.93
401.318	70255.22
401.681	70415.83
402.044	70553.11
402.407	70712.12
402.77	70865.94
403.133	71045.93
403.496	71190.62
403.859	71346.32
404.221	71580.7
404.584	71822.6
404.947	72065.66
405.309	72274.14
405.672	72507.09
406.034	72723.67
406.397	72978.12
406.759	73198.99
407.122	73381.02
407.484	73556.41
407.847	73746.44
408.209	74002.21
408.571	74233.61
408.933	74501.69
409.296	74749.75
409.658	74992.12
410.02	75263.33
410.382	75575.87
410.744	75837.66
411.106	76117.36
411.468	76389.85
411.83	76630.32
412.191	76828.08
412.553	77004.79
412.915	77224.51
413.277	77432.63
413.638	77637.61
414	77813.46
414.361	77998.09
414.723	78236.53
415.084	78459.97
415.446	78632.18
415.807	78774.05
416.169	78887.37
416.53	78980.64
416.891	79098.46
417.252	79231.75
417.614	79321.2
417.975	79372.52
418.336	79432.26
418.697	79496.07
419.058	79553.47
419.419	79599.73
419.78	79650.69
420.141	79687.7
420.501	79718.43
420.862	79743.5
421.223	79764.21
421.584	79803.53
421.944	79827.47
422.305	79842.23
422.666	79852.77
423.026	79858.89
423.387	79872.48
423.747	79882.68
424.107	79895.54
424.468	79906.38
424.828	79913.94
425.188	79919.26
425.549	79926.86
425.909	79932.77
426.269	79932.18
426.629	79938.3
426.989	79941.63
427.349	79946.95
427.709	79951.63
428.069	79953.26
428.429	79958.39
428.789	79965
429.149	79968.32
429.508	79971.87
429.868	79977.34
430.228	79982.18
430.587	79984.95
430.947	79990.23
431.306	79996.81
431.666	79999.28
432.025	80001.83
432.385	80004.61
432.744	80007.64
433.103	80009.52
433.463	80011.59
433.822	80020.79
434.181	80023.89
434.54	80027
434.899	80029.37
435.258	80033.14
435.618	80036.87
435.976	80040.94
436.335	80043.41
436.694	80046.96
437.053	80048.67
437.412	80049.52
437.771	80050.51
438.129	80052.1
438.488	80052.21
438.847	80052.47
439.205	80053.99
439.564	80054.95
439.922	80054.95
440.281	80057.21
440.639	80058.65
440.997	80059.02
441.356	80058.47
441.714	80059.09
442.072	80060.17
442.431	80058.91
442.789	80058.43
443.147	80059.98
443.505	80060.02
443.863	80060.83
444.221	80060.87
444.579	80060.61
444.937	80060.76
445.294	80060.32
445.652	80059.98
446.01	80060.17
446.368	80060.32
446.725	80062.24
447.083	80063.57
447.441	80064.35
447.798	80063.05
448.156	80062.61
448.513	80062.79
448.87	80063.53
449.228	80064.13
449.585	80062.72
449.942	80063.35
450.3	80062.28
450.657	80061.31
451.014	80060.68
451.371	80061.31
451.728	80061.43
452.085	80061.54
452.442	80061.39
452.799	80062.87
453.156	80065.64
453.513	80066.38
453.869	80066.12
454.226	80065.23
454.583	80064.53
454.939	80065.46
455.296	80065.05
455.653	80065.68
456.009	80066.2
456.366	80066.42
456.722	80067.57
457.078	80067.34
457.435	80067.9
457.791	80068.53
458.147	80069.16
458.503	80069.97
458.86	80067.6
459.216	80067.82
459.572	80067.71
459.928	80066.9
460.284	80067.68
460.64	80067.05
460.996	80065.35
461.351	80065.86
461.707	80065.53
462.063	80065.86
462.419	80066.49
462.774	80066.57
463.13	80067.49
463.486	80067.94
463.841	80068.12
464.197	80067.27
464.552	80067.79
464.908	80067.49
465.263	80069.6
465.618	80068.49
465.974	80069.86
466.329	80071.23
466.684	80072.3
467.039	80073.89
467.394	80074.08
467.749	80074.97
468.104	80076.04
468.459	80078.56
468.814	80079.52
469.169	80081.85
469.524	80082.29
469.879	80081.44
470.233	80083.18
470.588	80081.89
470.943	80083.07
471.297	80084
471.652	80085.44
472.006	80087.07
472.361	80088.99
472.715	80089.84
473.07	80092.29
473.424	80091.18
473.778	80091.66
474.133	80090.77
474.487	80090.14
474.841	80091.47
475.195	80090.44
475.549	80092.03
475.903	80092.99
476.257	80093.47
476.611	80092.51
476.965	80093.62
477.319	80094.95
477.673	80096.54
478.026	80098.54
478.38	80098.36
478.734	80098.47
479.087	80098.62
479.441	80099.13
479.795	80099.06
480.148	80099.76
480.502	80098.5
480.855	80101.69
481.208	80103.09
481.562	80103.91
481.915	80105.09
482.268	80104.54
482.621	80105.54
482.974	80104.2
483.328	80104.35
483.681	80105.32
484.034	80106.46
484.387	80106.35
484.739	80105.69
485.092	80105.06
485.445	80106.13
485.798	80105.91
486.151	80107.65
486.503	80108.24
486.856	80108.61
487.209	80108.2
487.561	80107.2
487.914	80109.54
488.266	80108.2
488.618	80107.39
488.971	80106.69
489.323	80107.13
489.675	80109.42
490.028	80107.76
490.38	80109.13
490.732	80108.98
491.084	80108.35
491.436	80107.72
491.788	80109.24
492.14	80110.24
492.492	80109.5
492.844	80111.43
493.196	80112.24
493.548	80111.8
493.899	80110.76
494.251	80111.61
494.603	80110.43
494.954	80111.61
495.306	80108.46
495.657	80109.39
496.009	80110.24
496.36	80111.09
496.712	80111.54
497.063	80110.06
497.414	80112.94
497.765	80113.02
498.117	80112.17
498.468	80111.72
498.819	80113.43
499.17	80112.24
499.521	80111.24
499.872	80111.83
500.223	80109.72
500.574	80109.24
500.924	80108.54
501.275	80108.39
501.626	80107.13
501.977	80109.09
502.327	80107.09
502.678	80109.83
503.029	80109.17
503.379	80110.17
503.73	80112.05
504.08	80110.5
504.43	80111.05
504.781	80109.24
505.131	80107.72
505.481	80108.54
505.831	80108.65
506.182	80108.43
506.532	80108.5
506.882	80110.39
507.232	80110.2
507.582	80109.61
507.932	80110.39
508.281	80110.83
508.631	80111.16
508.981	80111.87
509.331	80112.28
509.681	80112.57
510.03	80112.13
510.38	80113.24
510.729	80112.02
511.079	80111.54
511.428	80112.24
511.778	80112.16
512.127	80111.42
512.476	80112.39
512.826	80112.94
513.175	80112.61
513.524	80111.94
513.873	80110.5
514.222	80111.09
514.571	80110.72
514.92	80111.8
515.269	80111.2
515.618	80110.09
515.967	80111.24
516.316	80112.17
516.665	80110.39
517.014	80110.13
517.362	80109.28
517.711	80108.87
518.059	80109.06
518.408	80108.43
518.757	80108.09
519.105	80107.69
519.453	80109.28
519.802	80109.02
520.15	80108.39
520.498	80109.54
520.847	80108.24
521.195	80110.24
521.543	80108.54
521.891	80106.94
522.239	80106.13
522.587	80105.91
522.935	80106.94
523.283	80105.32
523.631	80103.17
523.979	80103.58
524.326	80104.46
524.674	80104.39
525.022	80102.09
525.369	80101.61
525.717	80102.43
526.064	80102.95
526.412	80102.87
526.759	80103.02
527.107	80101.47
527.454	80101.47
527.801	80101.02
528.149	80102.87
528.496	80104.21
528.843	80105.13
529.19	80106.28
529.537	80106.5
529.884	80106.8
530.231	80107.83
530.578	80109.35
530.925	80110.83
531.272	80111.87
531.619	80111.46
531.966	80112.13
532.312	80112.42
532.659	80114.39
533.006	80113.39
533.352	80113.61
533.699	80114.2
534.045	80113.65
534.392	80114.83
534.738	80114.9
535.084	80113.79
535.431	80112.54
535.777	80111.28
536.123	80110.46
536.469	80111.09
536.815	80110.91
537.161	80111.28
537.507	80110.42
537.853	80109.5
538.199	80108.35
538.545	80107.76
538.891	80109.02
539.237	80108.57
539.582	80108.94
539.928	80108.13
540.274	80108.28
540.619	80108.17
540.965	80108.31
541.31	80106.94
541.656	80107.31
542.001	80107.17
542.347	80108.35
542.692	80108.39
543.037	80109.2
543.382	80108.46
543.728	80107.5
544.073	80108.05
544.418	80107.06
544.763	80107.5
545.108	80109.13
545.453	80108.54
545.798	80109.02
546.142	80109.28
546.487	80109.31
546.832	80111.42
547.177	80110.39
547.521	80111.2
547.866	80111.65
548.211	80111.68
548.555	80112.94
548.9	80112.09
549.244	80111.98
549.588	80111.98
549.933	80111.57
550.277	80109.83
550.621	80111.17
550.965	80111.54
551.31	80110.24
551.654	80111.17
551.998	80110.17
552.342	80110.24
552.686	80112.79
553.03	80111.94
553.373	80113.09
553.717	80112.83
554.061	80110.43
554.405	80110.94
554.748	80109.94
555.092	80109.02
555.436	80110.61
555.779	80110.43
556.123	80111.76
556.466	80111.35
556.81	80111.72
557.153	80112.83
557.496	80113.42
557.839	80114.17
558.183	80115.57
558.526	80115.39
558.869	80113.31
559.212	80114.24
559.555	80113.02
559.898	80110.98
560.241	80110.61
560.584	80109.13
560.927	80110.43
561.269	80110.72
561.612	80110.13
561.955	80110.98
562.297	80110.46
562.64	80109.94
562.983	80109.68
563.325	80110.43
563.668	80111.72
564.01	80112.09
564.352	80110.35
564.695	80110.28
565.037	80110.02
565.379	80108.54
565.721	80107.87
566.063	80109.02
566.406	80109.76
566.748	80109.8
567.09	80112.02
567.431	80111.02
567.773	80110.98
568.115	80109.76
568.457	80110.65
568.799	80111.09
569.14	80110.06
569.482	80111.91
569.824	80111.02
570.165	80109.54
570.507	80109.61
570.848	80107.98
571.19	80106.39
571.531	80105.91
571.872	80106.24
572.214	80105.76
572.555	80108.61
572.896	80109.54
573.237	80108.21
573.578	80105.76
573.919	80103.76
574.26	80100.77
574.601	80102.36
574.942	80100.25
575.283	80099.58
575.624	80097.69
575.964	80095.36
576.305	80095.4
576.646	80094.18
576.986	80092.47
577.327	80094.03
577.667	80090.4
578.008	80092.03
578.348	80092.4
578.689	80094.14
579.029	80092.1
579.369	80090.66
579.71	80087.55
580.05	80087.92
580.39	80091.25
580.73	80092.84
581.07	80094.8
581.41	80094.92
581.75	80095.54
582.09	80096.62
582.43	80098.14
582.769	80099.36
583.109	80101.73
583.449	80102.32
583.789	80100.87
584.128	80102.43
584.468	80103.58
584.807	80105.54
585.147	80103.72
585.486	80102.76
