Data from 24HourExp_27052025_FLMS018081_03-28-22-201.txt Node
Date: Wed May 28 03:28:22 BST 2025
User: adleo
Spectrometer: FLMS01808
Trigger mode: 0
Integration Time (sec): 4.000000E-1
Scans to average: 10
Electric dark correction enabled: true
Nonlinearity correction enabled: true
Boxcar width: 10
XAxis mode: Wavelengths
Number of Pixels in Spectrum: 2048
>>>>>Begin Spectral Data<<<<<
178.471	-131.54
178.857	-124.14
179.244	-116.22
179.631	-107.73
180.017	-99.44
180.404	-90.77
180.79	-80.41
181.176	-71.27
181.563	-62.08
181.949	-50.61
182.335	-40.42
182.722	-24.5
183.108	-5.1
183.494	21.42
183.88	76.18
184.266	130.65
184.653	188.08
185.039	242.99
185.425	298.33
185.811	353.08
186.197	407.16
186.582	459.16
186.968	511.52
187.354	563.61
187.74	614.75
188.126	666.57
188.511	715.99
188.897	764.04
189.283	812.64
189.668	859.62
190.054	902.77
190.439	947.82
190.825	992.84
191.21	1033.34
191.596	1065.1
191.981	1072.35
192.366	1077.91
192.752	1077.52
193.137	1081.34
193.522	1081.73
193.908	1084.02
194.293	1085.14
194.678	1087.16
195.063	1088.58
195.448	1089.77
195.833	1089.12
196.218	1088.23
196.603	1089.8
196.988	1089.67
197.373	1089.34
197.757	1088.18
198.142	1088.45
198.527	1085.4
198.912	1082.73
199.296	1082.48
199.681	1082.72
200.066	1081.21
200.45	1079.12
200.835	1078.46
201.219	1077.58
201.604	1079.29
201.988	1079.14
202.372	1081.05
202.757	1081.03
203.141	1082.09
203.525	1082.38
203.91	1083.61
204.294	1084.47
204.678	1083.72
205.062	1082.44
205.446	1082.29
205.83	1085.41
206.214	1086.3
206.598	1088.62
206.982	1090.89
207.366	1091.23
207.75	1091.15
208.134	1093.7
208.517	1095.61
208.901	1097.21
209.285	1097.7
209.669	1097.67
210.052	1097.82
210.436	1097.01
210.819	1099.02
211.203	1098.68
211.586	1097.9
211.97	1097.05
212.353	1095.93
212.737	1097.51
213.12	1100.78
213.503	1100.25
213.886	1099.93
214.27	1101.93
214.653	1103.19
215.036	1101.88
215.419	1102.85
215.802	1106.46
216.185	1107.33
216.568	1111.19
216.951	1113.49
217.334	1116.74
217.717	1120.59
218.1	1120.94
218.482	1126.51
218.865	1129.25
219.248	1133.41
219.631	1138.58
220.013	1145.93
220.396	1153.36
220.778	1158.72
221.161	1163.16
221.544	1171.22
221.926	1178.33
222.308	1184.66
222.691	1192.97
223.073	1204.02
223.455	1212.47
223.838	1220.48
224.22	1229.99
224.602	1241.2
224.984	1251.34
225.366	1261.88
225.749	1275.42
226.131	1291.49
226.513	1304.66
226.895	1319.97
227.276	1335.23
227.658	1351.98
228.04	1366.78
228.422	1382.44
228.804	1397.09
229.186	1413.21
229.567	1432.11
229.949	1448.92
230.331	1467.4
230.712	1485.07
231.094	1503.33
231.475	1523.49
231.857	1543.26
232.238	1561.97
232.62	1578.7
233.001	1598.62
233.382	1620.91
233.763	1640.19
234.145	1659.74
234.526	1678.34
234.907	1696.19
235.288	1716.29
235.669	1735.5
236.05	1756.66
236.431	1775.06
236.812	1797.7
237.193	1818.91
237.574	1837.21
237.955	1857.56
238.336	1878.6
238.717	1900.22
239.097	1922.29
239.478	1943.34
239.859	1964.76
240.239	1990.04
240.62	2013.75
241.001	2037.24
241.381	2060.3
241.762	2081.34
242.142	2104.76
242.522	2128.22
242.903	2154.35
243.283	2180.42
243.663	2204.79
244.044	2231.83
244.424	2261.27
244.804	2288.34
245.184	2320.31
245.564	2349.24
245.944	2381.04
246.324	2411.86
246.704	2441.27
247.084	2469.74
247.464	2500.52
247.844	2532.35
248.224	2563.3
248.604	2596.16
248.983	2627.25
249.363	2657.27
249.743	2690.79
250.122	2722.97
250.502	2754.08
250.882	2786.55
251.261	2817.81
251.641	2851.59
252.02	2882.76
252.399	2917.12
252.779	2951.83
253.158	2986.49
253.537	3024.7
253.917	3067.2
254.296	3106.1
254.675	3147.7
255.054	3187.76
255.433	3231.22
255.812	3271.76
256.191	3312.5
256.57	3353.74
256.949	3398.54
257.328	3442.43
257.707	3488.57
258.086	3533.17
258.465	3583.86
258.843	3633.85
259.222	3683.3
259.601	3735.65
259.979	3790.78
260.358	3846.62
260.736	3900.24
261.115	3956.86
261.493	4009.42
261.872	4062.04
262.25	4119.75
262.629	4175.48
263.007	4236.64
263.385	4293.67
263.763	4356.63
264.142	4421.99
264.52	4487.63
264.898	4553.93
265.276	4622.29
265.654	4689.68
266.032	4760.68
266.41	4829.9
266.788	4900.56
267.166	4978.05
267.544	5054.59
267.921	5130.57
268.299	5207.42
268.677	5287.69
269.055	5367.23
269.432	5452.65
269.81	5535.98
270.188	5620.13
270.565	5709.22
270.943	5800.42
271.32	5893.72
271.697	5987.74
272.075	6083.75
272.452	6179.75
272.829	6274.69
273.207	6371.89
273.584	6473.98
273.961	6584.64
274.338	6696.15
274.715	6812.3
275.092	6929.84
275.469	7051.2
275.846	7172.9
276.223	7295.7
276.6	7420.53
276.977	7546.09
277.354	7671.92
277.731	7798.13
278.108	7930.58
278.484	8063.07
278.861	8193.32
279.238	8331.77
279.614	8468.46
279.991	8607.7
280.367	8750.75
280.744	8899.81
281.12	9054.5
281.497	9202.62
281.873	9354.02
282.249	9501.82
282.625	9648.24
283.002	9795.11
283.378	9941.27
283.754	10091.39
284.13	10242.9
284.506	10400.09
284.882	10553.75
285.258	10710.82
285.634	10868.8
286.01	11028.94
286.386	11186.93
286.762	11350.25
287.138	11513.59
287.513	11680.09
287.889	11843.15
288.265	12004.65
288.641	12164.88
289.016	12325.21
289.392	12490.96
289.767	12650.26
290.143	12818.07
290.518	12983.53
290.894	13145.32
291.269	13305.77
291.644	13465.82
292.02	13622.03
292.395	13774.43
292.77	13933.79
293.145	14093.18
293.52	14246.04
293.895	14393.77
294.27	14548.19
294.646	14701.74
295.02	14846.82
295.395	14998.91
295.77	15154.16
296.145	15310.95
296.52	15466.59
296.895	15620.91
297.269	15774.19
297.644	15924.83
298.019	16073.13
298.393	16221.81
298.768	16376.69
299.143	16529.51
299.517	16681.1
299.891	16839.54
300.266	17000.06
300.64	17159.72
301.015	17323.19
301.389	17498.25
301.763	17673.14
302.137	17847.27
302.512	18026.35
302.886	18208.61
303.26	18393.65
303.634	18573.23
304.008	18749.93
304.382	18933.57
304.756	19112.92
305.13	19299.95
305.504	19482.04
305.877	19675.81
306.251	19882.88
306.625	20087.03
306.999	20300.28
307.372	20513.33
307.746	20733.23
308.119	20946.04
308.493	21159.43
308.866	21363.35
309.24	21574.8
309.613	21784.28
309.987	21991.03
310.36	22185.13
310.733	22395.75
311.107	22612.82
311.48	22832.44
311.853	23062.62
312.226	23288.07
312.599	23524.53
312.972	23747.16
313.345	23979.49
313.718	24207.85
314.091	24427.81
314.464	24656.02
314.837	24877.58
315.21	25093.48
315.582	25310.48
315.955	25523.73
316.328	25743.03
316.7	25963.69
317.073	26178.75
317.446	26399.77
317.818	26631.55
318.191	26868.48
318.563	27089.53
318.936	27292.71
319.308	27498.22
319.68	27698.35
320.053	27899.83
320.425	28078.82
320.797	28261.86
321.169	28425.98
321.541	28565.88
321.913	28693.3
322.285	28812.11
322.657	28934.49
323.029	29078.81
323.401	29213.29
323.773	29381.2
324.145	29551.72
324.517	29741.27
324.889	29922.56
325.26	30127.96
325.632	30340.66
326.004	30574.22
326.375	30829.64
326.747	31108.43
327.118	31409.5
327.49	31696.51
327.861	31999.89
328.233	32308.96
328.604	32618.82
328.975	32929.49
329.346	33250.52
329.718	33567.53
330.089	33871.82
330.46	34167.81
330.831	34442.45
331.202	34707.93
331.573	34951.15
331.944	35180.01
332.315	35411.36
332.686	35630.28
333.057	35827.9
333.428	36003.84
333.799	36177.42
334.169	36332.03
334.54	36468.27
334.911	36585.19
335.281	36718.95
335.652	36844.24
336.022	36978.38
336.393	37131.11
336.763	37298.81
337.134	37480.08
337.504	37676.62
337.874	37880.57
338.245	38083.56
338.615	38294.62
338.985	38524.28
339.355	38744.93
339.726	38964.76
340.096	39175.65
340.466	39428.21
340.836	39667.23
341.206	39915.91
341.576	40154.79
341.945	40395.62
342.315	40633.74
342.685	40871.33
343.055	41118.07
343.425	41352.15
343.794	41588.95
344.164	41815.35
344.533	42043.17
344.903	42276.72
345.273	42514.5
345.642	42741.6
346.011	42978.46
346.381	43221.09
346.75	43446.98
347.12	43694.49
347.489	43953.27
347.858	44200.79
348.227	44410.09
348.596	44637.92
348.965	44877.93
349.334	45115.3
349.704	45359.44
350.072	45603
350.441	45840.05
350.81	46083.15
351.179	46319.12
351.548	46557.64
351.917	46781.38
352.285	46988.16
352.654	47191.05
353.023	47399.35
353.391	47597.5
353.76	47804.42
354.129	47987.7
354.497	48221.58
354.865	48436.28
355.234	48662.91
355.602	48880.42
355.971	49130.58
356.339	49343.97
356.707	49558.75
357.075	49774.08
357.443	49985.3
357.811	50196.2
358.18	50409.1
358.548	50619
358.916	50829.5
359.284	51040.84
359.651	51259.74
360.019	51470.75
360.387	51674.12
360.755	51873.31
361.123	52103.15
361.49	52332.82
361.858	52554.23
362.226	52745.48
362.593	52945
362.961	53123.62
363.328	53325.47
363.696	53494.28
364.063	53714.2
364.43	53921.68
364.798	54134.57
365.165	54319.7
365.532	54505.72
365.899	54691.65
366.267	54854.84
366.634	54998.97
367.001	55166.92
367.368	55303.4
367.735	55485.06
368.102	55660.84
368.469	55853.05
368.835	56034.43
369.202	56189.46
369.569	56375.68
369.936	56569.14
370.303	56759.82
370.669	56959.14
371.036	57125.16
371.402	57315.81
371.769	57495.91
372.135	57640.48
372.502	57757.29
372.868	57898.19
373.235	58043.7
373.601	58182.93
373.967	58359.77
374.333	58550.13
374.7	58726.15
375.066	58929.24
375.432	59122.26
375.798	59297.16
376.164	59458.48
376.53	59601.04
376.896	59772.13
377.262	59950.57
377.628	60076.54
377.993	60220.24
378.359	60367.84
378.725	60525.35
379.091	60683.65
379.456	60811.36
379.822	60940.66
380.187	61092.97
380.553	61281.63
380.918	61469.1
381.284	61644.87
381.649	61809.05
382.015	61948.06
382.38	62079.72
382.745	62243.33
383.11	62389.45
383.476	62537.32
383.841	62665.66
384.206	62824.55
384.571	62950.4
384.936	63073.53
385.301	63243.77
385.666	63379.99
386.031	63520.43
386.396	63682.73
386.76	63826.29
387.125	64017.18
387.49	64221.58
387.855	64417.84
388.219	64588.01
388.584	64753.48
388.948	64947.95
389.313	65111.17
389.677	65319.4
390.042	65551.46
390.406	65708.78
390.771	65894.99
391.135	66081.95
391.499	66316.94
391.863	66544.46
392.227	66784.09
392.592	66987.62
392.956	67188.17
393.32	67384.91
393.684	67610.38
394.048	67784.36
394.412	67983.16
394.775	68136.13
395.139	68289.29
395.503	68448.45
395.867	68597.49
396.231	68746.88
396.594	68848.4
396.958	68984.1
397.321	69137.26
397.685	69252.9
398.048	69394.46
398.412	69529.3
398.775	69654.41
399.139	69782.66
399.502	69892.43
399.865	70028.61
400.228	70221.33
400.592	70355.36
400.955	70555.73
401.318	70682.62
401.681	70838.48
402.044	70966.04
402.407	71115.74
402.77	71274.61
403.133	71464.25
403.496	71610.95
403.859	71763.5
404.221	72000.31
404.584	72239.83
404.947	72486.6
405.309	72695.37
405.672	72927.2
406.034	73147.37
406.397	73407.02
406.759	73617.17
407.122	73797.56
407.484	73968.73
407.847	74154.46
408.209	74401.85
408.571	74627.83
408.933	74893.91
409.296	75150.81
409.658	75398.65
410.02	75673.07
410.382	75976.29
410.744	76231.21
411.106	76514.61
411.468	76788.32
411.83	77018.92
412.191	77214.39
412.553	77383.51
412.915	77594.21
413.277	77797.31
413.638	77994.68
414	78157.91
414.361	78335.75
414.723	78559.71
415.084	78769.47
415.446	78928.61
415.807	79057.72
416.169	79155.76
416.53	79236.11
416.891	79330.86
417.252	79439.71
417.614	79508.3
417.975	79542.76
418.336	79585.14
418.697	79630.76
419.058	79672.24
419.419	79704.22
419.78	79739.87
420.141	79764.44
420.501	79784.35
420.862	79801.71
421.223	79812.02
421.584	79841.42
421.944	79856.66
422.305	79867.46
422.666	79874.06
423.026	79879.23
423.387	79886.85
423.747	79894.52
424.107	79904.29
424.468	79914.84
424.828	79919.49
425.188	79923.1
425.549	79931.11
425.909	79936.13
426.269	79935.84
426.629	79941
426.989	79945.77
427.349	79948.87
427.709	79953.04
428.069	79955.74
428.429	79959.69
428.789	79965.45
429.149	79969.62
429.508	79973.24
429.868	79978.05
430.228	79982.96
430.587	79984.88
430.947	79990.05
431.306	79995
431.666	79998.44
432.025	80001.36
432.385	80003.83
432.744	80006.72
433.103	80007.12
433.463	80009.08
433.822	80016.69
434.181	80019.8
434.54	80023.16
434.899	80025.42
435.258	80027.26
435.618	80030.78
435.976	80034.7
436.335	80036.36
436.694	80036.62
437.053	80038.25
437.412	80038.8
437.771	80041.02
438.129	80045.31
438.488	80047.08
438.847	80047.82
439.205	80047.56
439.564	80046.64
439.922	80048.45
440.281	80048.49
440.639	80050.74
440.997	80051.48
441.356	80050.74
441.714	80051.41
442.072	80051.67
442.431	80051.67
442.789	80051.26
443.147	80050.37
443.505	80048.6
443.863	80049.23
444.221	80051.19
444.579	80050.52
444.937	80049.41
445.294	80046.75
445.652	80043.46
446.01	80045.23
446.368	80045.57
446.725	80046.23
447.083	80047.38
447.441	80046.82
447.798	80047.75
448.156	80046.64
448.513	80047.38
448.87	80049.49
449.228	80048.78
449.585	80047.64
449.942	80048.41
450.3	80050.56
450.657	80050.82
451.014	80052.34
451.371	80051.82
451.728	80052.78
452.085	80053.26
452.442	80054.81
452.799	80056.77
453.156	80059.03
453.513	80059.14
453.869	80060.55
454.226	80060.14
454.583	80059.66
454.939	80060.51
455.296	80060.07
455.653	80059.58
456.009	80058.66
456.366	80057.73
456.722	80059.07
457.078	80059.92
457.435	80060.69
457.791	80060.4
458.147	80060.21
458.503	80061.17
458.86	80061.47
459.216	80061.54
459.572	80060.62
459.928	80060.99
460.284	80061.73
460.64	80063.03
460.996	80062.06
461.351	80060.25
461.707	80061.1
462.063	80061.84
462.419	80061.18
462.774	80061.8
463.13	80062.58
463.486	80063.54
463.841	80064.21
464.197	80064.32
464.552	80064.21
464.908	80063.91
465.263	80062.73
465.618	80063.1
465.974	80063.62
466.329	80063.21
466.684	80063.06
467.039	80066.06
467.394	80064.91
467.749	80065.95
468.104	80066.02
468.459	80067.43
468.814	80068.24
469.169	80068.35
469.524	80069.24
469.879	80071.16
470.233	80073.57
470.588	80074.9
470.943	80077.16
471.297	80078.49
471.652	80079.56
472.006	80080.16
472.361	80081.75
472.715	80083.3
473.07	80085.41
473.424	80084.86
473.778	80085.67
474.133	80086.6
474.487	80087.34
474.841	80088.7
475.195	80089.08
475.549	80088.26
475.903	80087.56
476.257	80090.78
476.611	80090.85
476.965	80092.67
477.319	80092.89
477.673	80091.63
478.026	80093.04
478.38	80093.04
478.734	80092.78
479.087	80093.92
479.441	80094.03
479.795	80094.81
480.148	80096.11
480.502	80095.4
480.855	80095.74
481.208	80097.74
481.562	80097.74
481.915	80099
482.268	80099.99
482.621	80100.99
482.974	80101.77
483.328	80104.14
483.681	80103.84
484.034	80104.1
484.387	80103.58
484.739	80103.44
485.092	80104.58
485.445	80102.96
485.798	80100.77
486.151	80102.1
486.503	80103.92
486.856	80105.29
487.209	80104.22
487.561	80104.36
487.914	80102.88
488.266	80104.59
488.618	80103.55
488.971	80103.73
489.323	80101.62
489.675	80102.11
490.028	80100.59
490.38	80100.25
490.732	80099.7
491.084	80098.4
491.436	80099.03
491.788	80099.55
492.14	80099.92
492.492	80099.33
492.844	80102.66
493.196	80103.92
493.548	80103.66
493.899	80101.84
494.251	80101.14
494.603	80100.85
494.954	80101.1
495.306	80101.36
495.657	80100.36
496.009	80102.1
496.36	80100.77
496.712	80101.33
497.063	80100.62
497.414	80101.62
497.765	80103.55
498.117	80103.4
498.468	80103.4
498.819	80102.88
499.17	80102.14
499.521	80101.96
499.872	80101.77
500.223	80100.47
500.574	80099.88
500.924	80100.4
501.275	80100.66
501.626	80100.85
501.977	80101.33
502.327	80100.7
502.678	80103.51
503.029	80104.4
503.379	80103.03
503.73	80104.88
504.08	80103.95
504.43	80104.25
504.781	80104.62
505.131	80103.77
505.481	80103.81
505.831	80104.14
506.182	80106.47
506.532	80106.92
506.882	80105.66
507.232	80106.21
507.582	80105.58
507.932	80105.47
508.281	80104.84
508.631	80103.7
508.981	80103.84
509.331	80104.77
509.681	80104.51
510.03	80101.77
510.38	80100.85
510.729	80101.62
511.079	80100.73
511.428	80101.62
511.778	80100.85
512.127	80099.92
512.476	80099.62
512.826	80099.77
513.175	80101.07
513.524	80100.73
513.873	80101.1
514.222	80102.7
514.571	80102.58
514.92	80103.33
515.269	80102.84
515.618	80101.55
515.967	80102.36
516.316	80102.07
516.665	80101.73
517.014	80101.59
517.362	80102.18
517.711	80104.33
518.059	80103.22
518.408	80102.99
518.757	80102.84
519.105	80103.25
519.453	80105.1
519.802	80103.81
520.15	80102.03
520.498	80100.59
520.847	80098.88
521.195	80097.37
521.543	80096.18
521.891	80095.52
522.239	80094.33
522.587	80095.37
522.935	80097.07
523.283	80096.85
523.631	80097.44
523.979	80097.11
524.326	80095.85
524.674	80096.37
525.022	80093.85
525.369	80096.63
525.717	80096.7
526.064	80096.48
526.412	80097.44
526.759	80097.48
527.107	80098.29
527.454	80100.48
527.801	80102.96
528.149	80104.48
528.496	80105.4
528.843	80106.55
529.19	80107.03
529.537	80108.14
529.884	80110.18
530.231	80109.21
530.578	80109.51
530.925	80108.55
531.272	80108.7
531.619	80110.88
531.966	80110.21
532.312	80109.99
532.659	80106.99
533.006	80108.21
533.352	80107.99
533.699	80107.69
534.045	80106.47
534.392	80106.58
534.738	80104.66
535.084	80102.77
535.431	80100.99
535.777	80101.25
536.123	80101.25
536.469	80101.33
536.815	80099.77
537.161	80097.59
537.507	80098.77
537.853	80098.66
538.199	80098.59
538.545	80098.55
538.891	80100.11
539.237	80102.59
539.582	80102.88
539.928	80104.59
540.274	80103.1
540.619	80102.85
540.965	80102.85
541.31	80102.29
541.656	80102.88
542.001	80105.07
542.347	80105.07
542.692	80106.25
543.037	80106.73
543.382	80107.07
543.728	80107.32
544.073	80108.36
544.418	80109.51
544.763	80108.73
545.108	80109.47
545.453	80112.32
545.798	80113.32
546.142	80110.03
546.487	80108.43
546.832	80110.32
547.177	80110.14
547.521	80110.29
547.866	80111.06
548.211	80110.51
548.555	80109.92
548.9	80109.66
549.244	80107.92
549.588	80107.44
549.933	80107.32
550.277	80106.66
550.621	80106.07
550.965	80105.66
551.31	80105.99
551.654	80106.32
551.998	80107.21
552.342	80107.88
552.686	80106.55
553.03	80105.14
553.373	80108.03
553.717	80107.25
554.061	80106.36
554.405	80105.1
554.748	80105.25
555.092	80105.73
555.436	80105.58
555.779	80107.51
556.123	80109.06
556.466	80110.55
556.81	80111.66
557.153	80111.25
557.496	80111.54
557.839	80112.4
558.183	80112.95
558.526	80113.47
558.869	80113.36
559.212	80111.54
559.555	80110.54
559.898	80109.69
560.241	80108.4
560.584	80106.32
560.927	80106.55
561.269	80105.99
561.612	80107.32
561.955	80107.99
562.297	80106.62
562.64	80106.36
562.983	80107.03
563.325	80105.84
563.668	80104.33
564.01	80101.96
564.352	80100.48
564.695	80098.59
565.037	80099.03
565.379	80099.51
565.721	80099.07
566.063	80097.44
566.406	80097.29
566.748	80096.33
567.09	80096.07
567.431	80096.52
567.773	80096.22
568.115	80096.33
568.457	80096.15
568.799	80095.92
569.14	80095.85
569.482	80095.85
569.824	80095.48
570.165	80093.81
570.507	80092.85
570.848	80092.89
571.19	80093.85
571.531	80096
571.872	80096.96
572.214	80095.92
572.555	80094
572.896	80091.52
573.237	80091.18
573.578	80089.63
573.919	80088.63
574.26	80089.3
574.601	80090.15
574.942	80091.11
575.283	80090.44
575.624	80089.33
575.964	80088.78
576.305	80087.89
576.646	80088.59
576.986	80088.85
577.327	80087.52
577.667	80087.41
578.008	80088
578.348	80088.33
578.689	80086.89
579.029	80086.22
579.369	80086.78
579.71	80087.82
580.05	80089.07
580.39	80090.81
580.73	80092.55
581.07	80093.29
581.41	80092.55
581.75	80093.11
582.09	80093.66
582.43	80093.7
582.769	80094
583.109	80094.63
583.449	80094.89
583.789	80094.74
584.128	80094.63
584.468	80094.11
584.807	80093.66
585.147	80092.26
585.486	80091.18
585.825	80090.11
