Data from 24HourExp_27052025_FLMS018081_07-18-19-942.txt Node
Date: Wed May 28 07:18:19 BST 2025
User: adleo
Spectrometer: FLMS01808
Trigger mode: 0
Integration Time (sec): 4.000000E-1
Scans to average: 10
Electric dark correction enabled: true
Nonlinearity correction enabled: true
Boxcar width: 10
XAxis mode: Wavelengths
Number of Pixels in Spectrum: 2048
>>>>>Begin Spectral Data<<<<<
178.471	-135.06
178.857	-128.53
179.244	-121.61
179.631	-112.77
180.017	-104.53
180.404	-94.48
180.79	-83.57
181.176	-74.64
181.563	-63.69
181.949	-53.12
182.335	-42.7
182.722	-26.6
183.108	-7.2
183.494	20.42
183.88	73.37
184.266	126.75
184.653	183.25
185.039	236.83
185.425	293.49
185.811	346.68
186.197	399.05
186.582	448.78
186.968	500.97
187.354	554.26
187.74	604.35
188.126	654.96
188.511	703.11
188.897	751.22
189.283	799.05
189.668	844.25
190.054	889.5
190.439	935.65
190.825	979.75
191.21	1021.02
191.596	1052.74
191.981	1060.07
192.366	1064.55
192.752	1065.57
193.137	1069.35
193.522	1070.22
193.908	1071.55
194.293	1075.65
194.678	1078.81
195.063	1079.93
195.448	1081.41
195.833	1082.25
196.218	1081.99
196.603	1081.66
196.988	1079.93
197.373	1079.62
197.757	1078.74
198.142	1079.25
198.527	1076.16
198.912	1075.68
199.296	1075.46
199.681	1075.44
200.066	1075.04
200.45	1075.75
200.835	1076.36
201.219	1074.32
201.604	1073.71
201.988	1075.49
202.372	1074.78
202.757	1076.64
203.141	1077.74
203.525	1078.16
203.91	1079.46
204.294	1081.18
204.678	1081.39
205.062	1081.52
205.446	1081.92
205.83	1082.89
206.214	1082.22
206.598	1084.62
206.982	1085.07
207.366	1084.56
207.75	1084.55
208.134	1085.4
208.517	1086.22
208.901	1087.17
209.285	1090.28
209.669	1092.5
210.052	1092.74
210.436	1092.86
210.819	1092.59
211.203	1092.68
211.586	1090.87
211.97	1090.77
212.353	1090.19
212.737	1092.65
213.12	1095.85
213.503	1096.69
213.886	1098.47
214.27	1099.47
214.653	1100.96
215.036	1102.62
215.419	1105
215.802	1108.41
216.185	1111.82
216.568	1114.92
216.951	1117.34
217.334	1119.54
217.717	1122.14
218.1	1124.28
218.482	1129.87
218.865	1133.56
219.248	1138.77
219.631	1144.21
220.013	1149.91
220.396	1157.85
220.778	1162.79
221.161	1168.23
221.544	1175.68
221.926	1181.85
222.308	1189.45
222.691	1195.93
223.073	1205.33
223.455	1213.48
223.838	1223.92
224.22	1233.74
224.602	1245.15
224.984	1256.03
225.366	1268.39
225.749	1282.61
226.131	1296.74
226.513	1310.61
226.895	1324.66
227.276	1338.92
227.658	1353.07
228.04	1366.9
228.422	1380.79
228.804	1398.76
229.186	1415.42
229.567	1433.86
229.949	1451.21
230.331	1469.25
230.712	1488.06
231.094	1504.65
231.475	1523.14
231.857	1539.98
232.238	1557.78
232.62	1575
233.001	1594.74
233.382	1615.72
233.763	1633.73
234.145	1652.98
234.526	1671.46
234.907	1691.71
235.288	1710.82
235.669	1733.22
236.05	1753.21
236.431	1771.82
236.812	1790.32
237.193	1811.56
237.574	1832.29
237.955	1853.18
238.336	1874.59
238.717	1894.75
239.097	1919.03
239.478	1942.15
239.859	1965.9
240.239	1989.82
240.62	2012.83
241.001	2035.02
241.381	2057.4
241.762	2080.91
242.142	2106.39
242.522	2129.5
242.903	2153.11
243.283	2177.85
243.663	2203.52
244.044	2232.58
244.424	2263.13
244.804	2289.62
245.184	2319.6
245.564	2345.44
245.944	2375.64
246.324	2403.47
246.704	2433.1
247.084	2459.68
247.464	2488.89
247.844	2518.73
248.224	2548.5
248.604	2578.75
248.983	2609.55
249.363	2641.42
249.743	2671.51
250.122	2698.07
250.502	2727.77
250.882	2758.83
251.261	2790.35
251.641	2820.11
252.02	2850.67
252.399	2881.37
252.779	2918.6
253.158	2952.27
253.537	2988.9
253.917	3029.92
254.296	3067.47
254.675	3108.67
255.054	3151.58
255.433	3194.73
255.812	3233.28
256.191	3275.03
256.57	3316.88
256.949	3362
257.328	3404.54
257.707	3450.62
258.086	3498.6
258.465	3547.52
258.843	3597.18
259.222	3647.5
259.601	3701.53
259.979	3755.86
260.358	3809.88
260.736	3862.54
261.115	3916.6
261.493	3972.25
261.872	4023.41
262.25	4083.02
262.629	4138.58
263.007	4197.71
263.385	4253.13
263.763	4316.82
264.142	4378.5
264.52	4443.65
264.898	4506.26
265.276	4569.92
265.654	4636.46
266.032	4705.11
266.41	4778.14
266.788	4848.16
267.166	4924.98
267.544	4999.21
267.921	5076.03
268.299	5154.63
268.677	5235.97
269.055	5320.39
269.432	5404.07
269.81	5488.77
270.188	5571.66
270.565	5661.83
270.943	5748.53
271.32	5840.27
271.697	5935.2
272.075	6032.41
272.452	6128.16
272.829	6227.49
273.207	6327.51
273.584	6433.34
273.961	6539.2
274.338	6648.51
274.715	6764.59
275.092	6883.54
275.469	7003.84
275.846	7124.24
276.223	7243.19
276.6	7364.38
276.977	7487.49
277.354	7612.98
277.731	7743.21
278.108	7874.19
278.484	8001.67
278.861	8136.37
279.238	8277.68
279.614	8413.73
279.991	8553.14
280.367	8697.25
280.744	8847.03
281.12	9000.68
281.497	9147.86
281.873	9300.4
282.249	9449.87
282.625	9594.94
283.002	9738.56
283.378	9888.25
283.754	10043.33
284.13	10200.66
284.506	10361.03
284.882	10519.43
285.258	10673.86
285.634	10830.85
286.01	10993.09
286.386	11151.75
286.762	11316.52
287.138	11479.26
287.513	11642.01
287.889	11809.45
288.265	11971.9
288.641	12131.42
289.016	12289.44
289.392	12453.73
289.767	12617.24
290.143	12778.4
290.518	12942.09
290.894	13107.24
291.269	13266.84
291.644	13423.84
292.02	13577.47
292.395	13731.28
292.77	13883.57
293.145	14038.59
293.52	14190.75
293.895	14337.22
294.27	14493.59
294.646	14647.46
295.02	14798.22
295.395	14951.58
295.77	15108.22
296.145	15265.47
296.52	15419.85
296.895	15576.24
297.269	15728.93
297.644	15883.79
298.019	16039.89
298.393	16194.32
298.768	16346.59
299.143	16503.88
299.517	16656.06
299.891	16812.18
300.266	16968.33
300.64	17128.01
301.015	17296.51
301.389	17469.53
301.763	17651.34
302.137	17821.96
302.512	17997.21
302.886	18173.71
303.26	18358.67
303.634	18535.1
304.008	18708.8
304.382	18887.33
304.756	19076.39
305.13	19265.38
305.504	19442.78
305.877	19630.21
306.251	19833.82
306.625	20040.04
306.999	20246.14
307.372	20458.11
307.746	20676.81
308.119	20889.67
308.493	21102.02
308.866	21310.22
309.24	21523.4
309.613	21727.95
309.987	21941.14
310.36	22137.02
310.733	22343.35
311.107	22559.74
311.48	22775.83
311.853	23007.78
312.226	23232.89
312.599	23457.1
312.972	23677.72
313.345	23913.81
313.718	24150.5
314.091	24374.61
314.464	24600.72
314.837	24822.7
315.21	25038.4
315.582	25260.27
315.955	25474.67
316.328	25697.59
316.7	25918.15
317.073	26141.81
317.446	26361.74
317.818	26591.75
318.191	26829.09
318.563	27051.94
318.936	27258.92
319.308	27471.89
319.68	27676.05
320.053	27875.18
320.425	28063.51
320.797	28249.99
321.169	28409.16
321.541	28554.85
321.913	28683.15
322.285	28804.3
322.657	28929.86
323.029	29075.93
323.401	29212.14
323.773	29377.82
324.145	29545.8
324.517	29736.27
324.889	29913.22
325.26	30121.82
325.632	30336.23
326.004	30568.45
326.375	30830.68
326.747	31106.91
327.118	31406.2
327.49	31695.41
327.861	32005.75
328.233	32310.94
328.604	32617.3
328.975	32934.34
329.346	33240.81
329.718	33559
330.089	33863.94
330.46	34155.29
330.831	34425.14
331.202	34686
331.573	34934.96
331.944	35167.16
332.315	35384.08
332.686	35598.41
333.057	35791.39
333.428	35974.64
333.799	36146.86
334.169	36297.27
334.54	36435.81
334.911	36548.74
335.281	36678.49
335.652	36801.67
336.022	36935.77
336.393	37082.25
336.763	37246.93
337.134	37430.09
337.504	37621.43
337.874	37817.18
338.245	38029.8
338.615	38249.03
338.985	38473.19
339.355	38696.64
339.726	38922.17
340.096	39149.9
340.466	39401.69
340.836	39649.5
341.206	39885.23
341.576	40133.16
341.945	40375.83
342.315	40608.81
342.685	40850.42
343.055	41098.53
343.425	41341.51
343.794	41576.7
344.164	41805.8
344.533	42039.96
344.903	42266.6
345.273	42502.73
345.642	42738.07
346.011	42962.24
346.381	43198.18
346.75	43435.36
347.12	43677.99
347.489	43921.4
347.858	44163.47
348.227	44372.48
348.596	44594.29
348.965	44838
349.334	45063.34
349.704	45299.23
350.072	45547.55
350.441	45783.6
350.81	46018.55
351.179	46249.03
351.548	46487.51
351.917	46714.65
352.285	46908.23
352.654	47114.28
353.023	47318.59
353.391	47519.49
353.76	47734.62
354.129	47915.76
354.497	48145.05
354.865	48360.3
355.234	48592.73
355.602	48812.47
355.971	49059.62
356.339	49272.89
356.707	49480.74
357.075	49703.03
357.443	49923.16
357.811	50135.69
358.18	50347.27
358.548	50560.13
358.916	50766.23
359.284	50978.95
359.651	51197.54
360.019	51422.51
360.387	51629.13
360.755	51834.21
361.123	52060.14
361.49	52285.3
361.858	52499.85
362.226	52697.88
362.593	52899.24
362.961	53083.27
363.328	53277.4
363.696	53441.45
364.063	53665.01
364.43	53870.05
364.798	54071.5
365.165	54254.99
365.532	54441.11
365.899	54626.75
366.267	54785.93
366.634	54936.07
367.001	55100.74
367.368	55232.9
367.735	55411.68
368.102	55586.3
368.469	55775.19
368.835	55951.63
369.202	56112.6
369.569	56310.28
369.936	56499.65
370.303	56686.83
370.669	56879.48
371.036	57054.37
371.402	57266.93
371.769	57439.78
372.135	57594
372.502	57727.08
372.868	57868.31
373.235	58005.35
373.601	58145.27
373.967	58324.25
374.333	58510.51
374.7	58693.98
375.066	58897.1
375.432	59083.3
375.798	59264.31
376.164	59434.56
376.53	59581.79
376.896	59751.9
377.262	59924.04
377.628	60052.29
377.993	60195.82
378.359	60343.61
378.725	60496.33
379.091	60638.61
379.456	60768.97
379.822	60903.88
380.187	61050.43
380.553	61239.04
380.918	61438.5
381.284	61616.35
381.649	61783.72
382.015	61926.85
382.38	62045.57
382.745	62213.56
383.11	62355.68
383.476	62500.18
383.841	62626.32
384.206	62787.03
384.571	62907.88
384.936	63047.4
385.301	63218.67
385.666	63349.84
386.031	63504.47
386.396	63663.16
386.76	63808.75
387.125	63994.39
387.49	64184.54
387.855	64379.68
388.219	64545.54
388.584	64714.84
388.948	64897.69
389.313	65063.02
389.677	65269.11
390.042	65498.94
390.406	65653.89
390.771	65844.64
391.135	66026.92
391.499	66260.86
391.863	66483.99
392.227	66726.81
392.592	66916.5
392.956	67111
393.32	67310.93
393.684	67519.57
394.048	67691.48
394.412	67873.32
394.775	68026.42
395.139	68176.79
395.503	68339.23
395.867	68495.91
396.231	68640.39
396.594	68745
396.958	68878.15
397.321	69034.36
397.685	69158.49
398.048	69302.44
398.412	69436.27
398.775	69573.47
399.139	69691.02
399.502	69808.33
399.865	69942.97
400.228	70132.44
400.592	70260.19
400.955	70459.63
401.318	70594.29
401.681	70754.94
402.044	70893.05
402.407	71050.02
402.77	71214.45
403.133	71397.02
403.496	71533.07
403.859	71685.88
404.221	71924.66
404.584	72170.71
404.947	72414.68
405.309	72627.52
405.672	72857.6
406.034	73085.39
406.397	73338.6
406.759	73561.58
407.122	73740.02
407.484	73916.15
407.847	74103.52
408.209	74355.79
408.571	74584.19
408.933	74846.45
409.296	75101.5
409.658	75348.71
410.02	75620.05
410.382	75930.4
410.744	76189.43
411.106	76480.88
411.468	76756.04
411.83	76995.04
412.191	77189
412.553	77359.08
412.915	77568.92
413.277	77776.64
413.638	77967.33
414	78130.81
414.361	78306.56
414.723	78530.15
415.084	78739.13
415.446	78905.67
415.807	79042.17
416.169	79142.92
416.53	79225.53
416.891	79327.21
417.252	79446.92
417.614	79520.67
417.975	79557.94
418.336	79601.27
418.697	79648.2
419.058	79686.99
419.419	79717.09
419.78	79752.23
420.141	79778.14
420.501	79799.49
420.862	79817.25
421.223	79830.17
421.584	79861.88
421.944	79877.45
422.305	79888.03
422.666	79894.56
423.026	79898.44
423.387	79907.43
423.747	79915.1
424.107	79927.64
424.468	79937.45
424.828	79943.69
425.188	79948.72
425.549	79954.14
425.909	79960.13
426.269	79959.61
426.629	79964.22
426.989	79968.66
427.349	79972.5
427.709	79975.27
428.069	79976.23
428.429	79981.03
428.789	79987.2
429.149	79990.82
429.508	79996.81
429.868	80001.68
430.228	80006.12
430.587	80009.48
430.947	80015.4
431.306	80020.16
431.666	80022.71
432.025	80025.12
432.385	80026.6
432.744	80027.23
433.103	80029.59
433.463	80030.44
433.822	80037.28
434.181	80040.53
434.54	80045.26
434.899	80046.97
435.258	80049.85
435.618	80052.36
435.976	80055.47
436.335	80056.51
436.694	80059.24
437.053	80059.61
437.412	80058.73
437.771	80059.43
438.129	80061.13
438.488	80060.2
438.847	80062.05
439.205	80063.57
439.564	80064.53
439.922	80064.94
440.281	80066.16
440.639	80066.16
440.997	80067.68
441.356	80069.49
441.714	80070.97
442.072	80070.3
442.431	80070.71
442.789	80070.53
443.147	80070.97
443.505	80072.08
443.863	80072.97
444.221	80072.15
444.579	80071.56
444.937	80072.89
445.294	80073.93
445.652	80074.34
446.01	80074.56
446.368	80073.78
446.725	80073.52
447.083	80073.71
447.441	80073.82
447.798	80072.75
448.156	80072.82
448.513	80073.19
448.87	80072.82
449.228	80071.93
449.585	80070.15
449.942	80069.23
450.3	80070.12
450.657	80069.34
451.014	80068.01
451.371	80069.23
451.728	80070.08
452.085	80071.64
452.442	80073.49
452.799	80073.41
453.156	80072.6
453.513	80072.56
453.869	80074.19
454.226	80074.08
454.583	80075.26
454.939	80074.34
455.296	80075.59
455.653	80074.71
456.009	80075.04
456.366	80074.49
456.722	80072.97
457.078	80074.15
457.435	80074.82
457.791	80075.82
458.147	80075.97
458.503	80076.15
458.86	80075.15
459.216	80075.78
459.572	80075.41
459.928	80073.19
460.284	80073.38
460.64	80072.52
460.996	80072.89
461.351	80072.64
461.707	80072.19
462.063	80070.38
462.419	80071.16
462.774	80071.64
463.13	80073
463.486	80073.97
463.841	80077.15
464.197	80080.81
464.552	80081.15
464.908	80083.18
465.263	80082.7
465.618	80083
465.974	80084.26
466.329	80085.25
466.684	80085.25
467.039	80086.18
467.394	80088.96
467.749	80089.07
468.104	80092.18
468.459	80094.58
468.814	80093.47
469.169	80095.25
469.524	80097.21
469.879	80097.91
470.233	80098.8
470.588	80100.1
470.943	80100.32
471.297	80098.95
471.652	80098.39
472.006	80099.87
472.361	80098.43
472.715	80098.54
473.07	80099.8
473.424	80100.87
473.778	80101.87
474.133	80102.69
474.487	80101.58
474.841	80100.28
475.195	80101.17
475.549	80100.69
475.903	80100.43
476.257	80102.8
476.611	80102.24
476.965	80102.91
477.319	80103.5
477.673	80104.72
478.026	80106.06
478.38	80106.8
478.734	80107.43
479.087	80107.09
479.441	80106.06
479.795	80107.68
480.148	80109.76
480.502	80109.09
480.855	80109.39
481.208	80109.54
481.562	80111.09
481.915	80113.91
482.268	80114.91
482.621	80116.46
482.974	80118.76
483.328	80118.05
483.681	80119.24
484.034	80119.9
484.387	80119.53
484.739	80120.46
485.092	80119.79
485.445	80121.05
485.798	80122.02
486.151	80121.79
486.503	80122.16
486.856	80123.24
487.209	80123.24
487.561	80123.5
487.914	80126.13
488.266	80124.94
488.618	80124.94
488.971	80123.9
489.323	80123.38
489.675	80124.42
490.028	80123.64
490.38	80123.13
490.732	80125.05
491.084	80124.38
491.436	80124.46
491.788	80125.2
492.14	80126.57
492.492	80126.31
492.844	80124.61
493.196	80121.79
493.548	80121.39
493.899	80122.27
494.251	80122.94
494.603	80123.35
494.954	80122.16
495.306	80121.83
495.657	80122.35
496.009	80124.35
496.36	80124.09
496.712	80124.13
497.063	80123.38
497.414	80122.35
497.765	80122.9
498.117	80121.79
498.468	80121.5
498.819	80122.79
499.17	80122.42
499.521	80120.79
499.872	80122.31
500.223	80122.2
500.574	80123.61
500.924	80124.16
501.275	80124.68
501.626	80123.57
501.977	80124.09
502.327	80123.5
502.678	80124.98
503.029	80126.87
503.379	80126.53
503.73	80127.05
504.08	80126.46
504.43	80126.79
504.781	80128.2
505.131	80127.94
505.481	80128.09
505.831	80127.64
506.182	80126.31
506.532	80126.53
506.882	80128.24
507.232	80126.01
507.582	80124.98
507.932	80124.35
508.281	80124.64
508.631	80123.24
508.981	80125.87
509.331	80125.94
509.681	80126.42
510.03	80125.39
510.38	80124.5
510.729	80122.61
511.079	80121.98
511.428	80123.31
511.778	80123.94
512.127	80124.76
512.476	80122.83
512.826	80122.72
513.175	80123.27
513.524	80124.02
513.873	80123.02
514.222	80121.24
514.571	80122.13
514.92	80123.53
515.269	80124.13
515.618	80123.94
515.967	80124.09
516.316	80121.42
516.665	80121.27
517.014	80122.46
517.362	80122.27
517.711	80121.5
518.059	80122.9
518.408	80122.68
518.757	80120.94
519.105	80119.9
519.453	80119.01
519.802	80120.09
520.15	80120.31
520.498	80120.83
520.847	80118.57
521.195	80120.05
521.543	80120.72
521.891	80120.31
522.239	80119.94
522.587	80120.27
522.935	80122.42
523.283	80124.83
523.631	80125.05
523.979	80124.76
524.326	80124.05
524.674	80124.87
525.022	80125.79
525.369	80125.16
525.717	80125.76
526.064	80126.16
526.412	80126.46
526.759	80126.09
527.107	80125.87
527.454	80125.5
527.801	80125.05
528.149	80127.42
528.496	80128.53
528.843	80128.38
529.19	80130.68
529.537	80130.46
529.884	80131.94
530.231	80130.27
530.578	80128.98
530.925	80131.09
531.272	80132.53
531.619	80132.75
531.966	80130.53
532.312	80129.79
532.659	80129.16
533.006	80129.53
533.352	80129.53
533.699	80128.87
534.045	80128.01
534.392	80127.27
534.738	80127.83
535.084	80128.2
535.431	80126.87
535.777	80124.79
536.123	80126.05
536.469	80123.76
536.815	80123.16
537.161	80121.83
537.507	80122.27
537.853	80120.02
538.199	80117.02
538.545	80114.39
538.891	80114.02
539.237	80116.13
539.582	80116.46
539.928	80116.65
540.274	80116.76
540.619	80116.83
540.965	80117.5
541.31	80119.46
541.656	80119.72
542.001	80119.72
542.347	80118.57
542.692	80117.94
543.037	80118.31
543.382	80116.57
543.728	80117.83
544.073	80119.61
544.418	80119.83
544.763	80119.61
545.108	80121.09
545.453	80121.64
545.798	80123.01
546.142	80124.09
546.487	80123.83
546.832	80124.05
547.177	80123.68
547.521	80124.09
547.866	80123.13
548.211	80123.9
548.555	80123.05
548.9	80122.24
549.244	80121.16
549.588	80121.46
549.933	80123.24
550.277	80123.31
550.621	80124.35
550.965	80123.98
551.31	80121.13
551.654	80120.09
551.998	80119.24
552.342	80119.68
552.686	80118.72
553.03	80118.61
553.373	80117.9
553.717	80116.39
554.061	80114.61
554.405	80116.35
554.748	80115.94
555.092	80117.05
555.436	80116.02
555.779	80114.87
556.123	80116.2
556.466	80117.24
556.81	80116.79
557.153	80118.61
557.496	80118.09
557.839	80118.65
558.183	80119.24
558.526	80121.61
558.869	80123.42
559.212	80122.9
559.555	80122.94
559.898	80124.46
560.241	80124.09
560.584	80123.87
560.927	80125.46
561.269	80126.61
561.612	80126.42
561.955	80126.2
562.297	80127.16
562.64	80128.94
562.983	80129.35
563.325	80129.42
563.668	80129.64
564.01	80130.83
564.352	80129.09
564.695	80128.01
565.037	80126.9
565.379	80125.53
565.721	80125.13
566.063	80123.27
566.406	80123.72
566.748	80122.76
567.09	80123.24
567.431	80123.46
567.773	80122.64
568.115	80121.27
568.457	80122.61
568.799	80122.87
569.14	80121.64
569.482	80119.98
569.824	80120.16
570.165	80121.09
570.507	80121.13
570.848	80121.35
571.19	80122.31
571.531	80121.83
571.872	80122.68
572.214	80123.46
572.555	80123.46
572.896	80123.02
573.237	80122.87
573.578	80122.2
573.919	80123.05
574.26	80124.2
574.601	80124.09
574.942	80124.16
575.283	80124.68
575.624	80122.61
575.964	80121.57
576.305	80121.83
576.646	80123.09
576.986	80120.16
577.327	80119.27
577.667	80117.5
578.008	80116.76
578.348	80115.39
578.689	80115.57
579.029	80115.42
579.369	80115.16
579.71	80115.94
580.05	80117.53
580.39	80118.02
580.73	80118.05
581.07	80116.65
581.41	80114.39
581.75	80112.13
582.09	80113.79
582.43	80113.83
582.769	80114.68
583.109	80113.09
583.449	80114.05
583.789	80112.54
584.128	80112.68
584.468	80111.98
584.807	80114.17
585.147	80112.83
585.486	80113.24
585.825	80112.17
