Data from 24HourExp_27052025_FLMS018081_09-28-19-370.txt Node
Date: Wed May 28 09:28:19 BST 2025
User: adleo
Spectrometer: FLMS01808
Trigger mode: 0
Integration Time (sec): 4.000000E-1
Scans to average: 10
Electric dark correction enabled: true
Nonlinearity correction enabled: true
Boxcar width: 10
XAxis mode: Wavelengths
Number of Pixels in Spectrum: 2048
>>>>>Begin Spectral Data<<<<<
178.471	-124.73
178.857	-118
179.244	-111.65
179.631	-102.94
180.017	-95.52
180.404	-88.02
180.79	-77.51
181.176	-69.43
181.563	-60.37
181.949	-48.91
182.335	-38.96
182.722	-23.12
183.108	-4.4
183.494	22.18
183.88	74.99
184.266	128.95
184.653	183.85
185.039	238.83
185.425	292.77
185.811	347.18
186.197	399.56
186.582	451.8
186.968	502.97
187.354	553.59
187.74	603.44
188.126	653.81
188.511	703.89
188.897	751.61
189.283	800.69
189.668	847.53
190.054	890.22
190.439	936.26
190.825	978.49
191.21	1017.96
191.596	1049.94
191.981	1059.48
192.366	1065.55
192.752	1066.76
193.137	1069.37
193.522	1070.82
193.908	1071.44
194.293	1074.12
194.678	1075.87
195.063	1078.01
195.448	1080.22
195.833	1079.89
196.218	1079.5
196.603	1079.08
196.988	1078.99
197.373	1078.79
197.757	1078.4
198.142	1079.31
198.527	1076.92
198.912	1077.35
199.296	1076.25
199.681	1075.76
200.066	1072.9
200.45	1071.06
200.835	1073.64
201.219	1073.22
201.604	1074.31
201.988	1076.19
202.372	1078.42
202.757	1077.31
203.141	1077.94
203.525	1079.53
203.91	1080.55
204.294	1084.26
204.678	1084.92
205.062	1083.72
205.446	1082.83
205.83	1084.36
206.214	1084.39
206.598	1085.52
206.982	1086.04
207.366	1088.17
207.75	1089.26
208.134	1090.89
208.517	1092.92
208.901	1090.8
209.285	1092.33
209.669	1092.32
210.052	1091.5
210.436	1091.12
210.819	1092.79
211.203	1092.62
211.586	1091.9
211.97	1091.65
212.353	1090.14
212.737	1092.23
213.12	1094.83
213.503	1097.14
213.886	1096.71
214.27	1098.78
214.653	1100.07
215.036	1101.5
215.419	1102.88
215.802	1104.35
216.185	1106.11
216.568	1107.9
216.951	1112.16
217.334	1114.14
217.717	1118.1
218.1	1121.48
218.482	1124.94
218.865	1129.33
219.248	1134.18
219.631	1139.34
220.013	1145.77
220.396	1152.74
220.778	1157.61
221.161	1163.01
221.544	1168.68
221.926	1177.1
222.308	1183.48
222.691	1191.38
223.073	1200.8
223.455	1208.98
223.838	1218.93
224.22	1227.47
224.602	1238.6
224.984	1249.23
225.366	1259.34
225.749	1275.62
226.131	1289.08
226.513	1300.71
226.895	1314.67
227.276	1330.97
227.658	1345.11
228.04	1361.17
228.422	1375.81
228.804	1393.1
229.186	1409.01
229.567	1427.72
229.949	1443.49
230.331	1460.93
230.712	1478.96
231.094	1497.33
231.475	1517.7
231.857	1536.68
232.238	1557.87
232.62	1576.2
233.001	1595.3
233.382	1617.11
233.763	1631.98
234.145	1651.79
234.526	1673.2
234.907	1691.44
235.288	1709.75
235.669	1729.94
236.05	1747.43
236.431	1765.16
236.812	1783.75
237.193	1805.82
237.574	1823.76
237.955	1845.87
238.336	1864.74
238.717	1885.45
239.097	1907.4
239.478	1928.36
239.859	1949.53
240.239	1970.53
240.62	1995.63
241.001	2017.01
241.381	2039.95
241.762	2062.91
242.142	2085.75
242.522	2108
242.903	2131.06
243.283	2155.12
243.663	2180.38
244.044	2209.36
244.424	2236.5
244.804	2262.73
245.184	2288.96
245.564	2319.38
245.944	2348.86
246.324	2378.75
246.704	2408.36
247.084	2435.5
247.464	2465.31
247.844	2494.64
248.224	2523.5
248.604	2551.6
248.983	2582.7
249.363	2612.36
249.743	2643.23
250.122	2671.52
250.502	2701.42
250.882	2733.2
251.261	2764.97
251.641	2795.82
252.02	2825.58
252.399	2859.79
252.779	2894.55
253.158	2929.18
253.537	2964.2
253.917	3003.79
254.296	3042.1
254.675	3080.95
255.054	3118.28
255.433	3160.52
255.812	3198.72
256.191	3239.97
256.57	3278.88
256.949	3321.8
257.328	3365.57
257.707	3410.52
258.086	3458.19
258.465	3506.19
258.843	3556.66
259.222	3605.55
259.601	3659.14
259.979	3710.41
260.358	3762.41
260.736	3816.87
261.115	3873.4
261.493	3926.37
261.872	3976.36
262.25	4034.67
262.629	4089.73
263.007	4152.9
263.385	4210.2
263.763	4275.51
264.142	4340.64
264.52	4405.4
264.898	4467.72
265.276	4532.27
265.654	4600.8
266.032	4670.66
266.41	4738.95
266.788	4808.11
267.166	4883.21
267.544	4955.39
267.921	5034.94
268.299	5112.16
268.677	5191.77
269.055	5272.36
269.432	5356.33
269.81	5440.4
270.188	5524.31
270.565	5612.91
270.943	5700.73
271.32	5788.51
271.697	5877.06
272.075	5970.57
272.452	6066.52
272.829	6163.44
273.207	6263.42
273.584	6365.34
273.961	6467.4
274.338	6577.92
274.715	6693.75
275.092	6811.53
275.469	6930.27
275.846	7052.84
276.223	7175.23
276.6	7292.47
276.977	7416.58
277.354	7543.76
277.731	7672.19
278.108	7804.56
278.484	7936.52
278.861	8068.03
279.238	8205.65
279.614	8346.27
279.991	8484.14
280.367	8627.26
280.744	8774.94
281.12	8924.96
281.497	9072.25
281.873	9227.04
282.249	9379.05
282.625	9525.27
283.002	9670.05
283.378	9818.79
283.754	9964.94
284.13	10116.78
284.506	10279.85
284.882	10438.42
285.258	10590.48
285.634	10748.66
286.01	10907.47
286.386	11065.14
286.762	11228.2
287.138	11392.13
287.513	11556.79
287.889	11723.42
288.265	11883.31
288.641	12044.56
289.016	12205.2
289.392	12371.77
289.767	12535.58
290.143	12698.9
290.518	12860.9
290.894	13027.01
291.269	13187.5
291.644	13348.8
292.02	13504.29
292.395	13656.67
292.77	13809.29
293.145	13966.7
293.52	14122.08
293.895	14273.94
294.27	14429.63
294.646	14579.38
295.02	14724.11
295.395	14875.98
295.77	15027.54
296.145	15187.45
296.52	15343.96
296.895	15500.11
297.269	15653.61
297.644	15804.18
298.019	15957.83
298.393	16110.81
298.768	16259.02
299.143	16411.36
299.517	16559.94
299.891	16718.74
300.266	16874.75
300.64	17037.29
301.015	17202.94
301.389	17371.6
301.763	17542.32
302.137	17708.19
302.512	17894.7
302.886	18074.89
303.26	18259.55
303.634	18438.92
304.008	18615.19
304.382	18798.41
304.756	18975.12
305.13	19160.91
305.504	19345.04
305.877	19532.94
306.251	19737.32
306.625	19942.13
306.999	20154.35
307.372	20367.9
307.746	20584.5
308.119	20799.46
308.493	21004.16
308.866	21209.24
309.24	21420.92
309.613	21627.26
309.987	21841.71
310.36	22031.68
310.733	22243.59
311.107	22456.66
311.48	22673.22
311.853	22899.65
312.226	23118.32
312.599	23352.89
312.972	23571.12
313.345	23795.41
313.718	24023.79
314.091	24241.09
314.464	24473.4
314.837	24695.43
315.21	24908.28
315.582	25123.71
315.955	25332.64
316.328	25555.89
316.7	25776.51
317.073	25995.71
317.446	26216.47
317.818	26438.62
318.191	26670.19
318.563	26894.34
318.936	27097.74
319.308	27304.74
319.68	27507.25
320.053	27705.66
320.425	27887.37
320.797	28066.59
321.169	28231.58
321.541	28375.02
321.913	28505.13
322.285	28618.23
322.657	28735.88
323.029	28885.01
323.401	29031.17
323.773	29198.52
324.145	29370.02
324.517	29554.44
324.889	29726.92
325.26	29925.99
325.632	30142.33
326.004	30377.62
326.375	30628
326.747	30907.09
327.118	31202.78
327.49	31489.55
327.861	31799.02
328.233	32110.25
328.604	32422
328.975	32735.09
329.346	33051.01
329.718	33360.72
330.089	33665.01
330.46	33964.32
330.831	34231.23
331.202	34489.93
331.573	34734.18
331.944	34954.77
332.315	35181.8
332.686	35404.25
333.057	35607.82
333.428	35787.88
333.799	35956.44
334.169	36112.58
334.54	36251.51
334.911	36372.93
335.281	36500.17
335.652	36627.53
336.022	36758.83
336.393	36906.91
336.763	37077.09
337.134	37259.47
337.504	37460.69
337.874	37663.68
338.245	37864.03
338.615	38084.62
338.985	38308.18
339.355	38531
339.726	38759.59
340.096	38983.74
340.466	39236.53
340.836	39478.21
341.206	39721.06
341.576	39964.99
341.945	40208.56
342.315	40442.3
342.685	40686.5
343.055	40935.29
343.425	41173
343.794	41400.22
344.164	41629.5
344.533	41853.98
344.903	42084.76
345.273	42315.89
345.642	42542.75
346.011	42778.31
346.381	43008.07
346.75	43236.18
347.12	43482.41
347.489	43734.86
347.858	43973.57
348.227	44182
348.596	44404.88
348.965	44640.31
349.334	44865.9
349.704	45099.98
350.072	45337.76
350.441	45568.11
350.81	45803.75
351.179	46031.99
351.548	46273.93
351.917	46496.56
352.285	46696.7
352.654	46894.68
353.023	47107.43
353.391	47306.63
353.76	47516.65
354.129	47705.46
354.497	47931.64
354.865	48144.56
355.234	48374.86
355.602	48591.53
355.971	48838.37
356.339	49050.65
356.707	49266.5
357.075	49488.9
357.443	49713.02
357.811	49925.8
358.18	50141.5
358.548	50352.36
358.916	50560.69
359.284	50774.93
359.651	50995.33
360.019	51207.94
360.387	51413.92
360.755	51609.83
361.123	51837.7
361.49	52062.14
361.858	52273.18
362.226	52471.77
362.593	52673.21
362.961	52849.02
363.328	53051.73
363.696	53218.48
364.063	53437.7
364.43	53640.3
364.798	53848.98
365.165	54027.94
365.532	54212.9
365.899	54395.05
366.267	54560.08
366.634	54710.88
367.001	54874.65
367.368	55012.25
367.735	55196.84
368.102	55379.74
368.469	55569.28
368.835	55745.65
369.202	55903.08
369.569	56099.37
369.936	56290.68
370.303	56473.79
370.669	56663.66
371.036	56828.37
371.402	57028.2
371.769	57207.08
372.135	57360.46
372.502	57493.13
372.868	57625.37
373.235	57768.59
373.601	57906.37
373.967	58071.56
374.333	58257.41
374.7	58433.9
375.066	58636.59
375.432	58821.26
375.798	58991.83
376.164	59159.19
376.53	59308.76
376.896	59481.12
377.262	59652.82
377.628	59777.06
377.993	59929
378.359	60079.37
378.725	60232.67
379.091	60380.33
379.456	60508.66
379.822	60637.91
380.187	60779.54
380.553	60979.07
380.918	61171.34
381.284	61344.91
381.649	61523.69
382.015	61661.95
382.38	61785.63
382.745	61953.39
383.11	62104.88
383.476	62246.52
383.841	62371.8
384.206	62525.81
384.571	62642.39
384.936	62778.58
385.301	62954.01
385.666	63079.62
386.031	63229.13
386.396	63388.79
386.76	63540.04
387.125	63727.34
387.49	63929.25
387.855	64128.14
388.219	64288.97
388.584	64458.42
388.948	64645.29
389.313	64804.98
389.677	65005.92
390.042	65239.32
390.406	65383.77
390.771	65563.01
391.135	65754.18
391.499	65988.21
391.863	66217.79
392.227	66456.53
392.592	66646.35
392.956	66832.6
393.32	67031.31
393.684	67250.64
394.048	67423.19
394.412	67600.48
394.775	67754.44
395.139	67908.08
395.503	68058.3
395.867	68204.99
396.231	68344.13
396.594	68448.02
396.958	68588.2
397.321	68744.05
397.685	68861.26
398.048	68997.11
398.412	69137.98
398.775	69260.7
399.139	69382.91
399.502	69484.15
399.865	69627.94
400.228	69826.35
400.592	69959.58
400.955	70156.96
401.318	70286.41
401.681	70443.24
402.044	70583.63
402.407	70730.98
402.77	70882.43
403.133	71072.31
403.496	71220.43
403.859	71376.94
404.221	71619.28
404.584	71853.21
404.947	72094.79
405.309	72295.26
405.672	72540.33
406.034	72763.96
406.397	73020.15
406.759	73239.7
407.122	73428.4
407.484	73604.38
407.847	73786.35
408.209	74039.09
408.571	74267.38
408.933	74529.59
409.296	74783.87
409.658	75015.97
410.02	75293.92
410.382	75603.19
410.744	75859.4
411.106	76145.61
411.468	76420.86
411.83	76656.62
412.191	76859.68
412.553	77040.47
412.915	77271.55
413.277	77478.83
413.638	77679.65
414	77853.16
414.361	78035.8
414.723	78269.91
415.084	78488.49
415.446	78666
415.807	78814.08
416.169	78929.75
416.53	79026.4
416.891	79144.31
417.252	79286.31
417.614	79371.47
417.975	79423.23
418.336	79483.83
418.697	79547.98
419.058	79605.19
419.419	79648.79
419.78	79694.87
420.141	79731.07
420.501	79759.33
420.862	79785.33
421.223	79803.09
421.584	79841.3
421.944	79866.97
422.305	79883.15
422.666	79892.18
423.026	79896.42
423.387	79909.47
423.747	79920.2
424.107	79930.82
424.468	79942.66
424.828	79950.12
425.188	79954.48
425.549	79961.46
425.909	79967.92
426.269	79965.01
426.629	79973.17
426.989	79980.3
427.349	79986.06
427.709	79989.5
428.069	79992.64
428.429	79999.44
428.789	80005.01
429.149	80011
429.508	80014.29
429.868	80017.77
430.228	80023.16
430.587	80026.9
430.947	80029.96
431.306	80035.03
431.666	80040.43
432.025	80041.94
432.385	80044.64
432.744	80047.57
433.103	80049.19
433.463	80051.93
433.822	80062.02
434.181	80063.76
434.54	80065.39
434.899	80068.27
435.258	80072.01
435.618	80075.86
435.976	80077.11
436.335	80080.15
436.694	80081.92
437.053	80083.59
437.412	80084.89
437.771	80084.18
438.129	80086.03
438.488	80088.1
438.847	80088.81
439.205	80089.36
439.564	80091.92
439.922	80092.58
440.281	80092.43
440.639	80093.8
440.997	80093.47
441.356	80092.17
441.714	80092.99
442.072	80091.92
442.431	80092.36
442.789	80092.77
443.147	80091.21
443.505	80092.77
443.863	80092.91
444.221	80092.66
444.579	80094.66
444.937	80095.95
445.294	80097.02
445.652	80098.25
446.01	80099.84
446.368	80099.8
446.725	80100.99
447.083	80099.32
447.441	80099.65
447.798	80102.8
448.156	80102.84
448.513	80103.65
448.87	80105.69
449.228	80105.06
449.585	80104.8
449.942	80104.13
450.3	80103.65
450.657	80105.76
451.014	80106.02
451.371	80106.17
451.728	80106.5
452.085	80105.13
452.442	80103.43
452.799	80104.35
453.156	80104.72
453.513	80103.28
453.869	80104.32
454.226	80103.8
454.583	80105.24
454.939	80104.28
455.296	80103.83
455.653	80104.83
456.009	80103.06
456.366	80102.5
456.722	80104.5
457.078	80105.76
457.435	80106.17
457.791	80106.35
458.147	80104.87
458.503	80105.61
458.86	80106.17
459.216	80105.54
459.572	80105.09
459.928	80107.61
460.284	80107.98
460.64	80108.43
460.996	80109.05
461.351	80109.68
461.707	80110.54
462.063	80110.83
462.419	80110.98
462.774	80111.13
463.13	80111.35
463.486	80112.46
463.841	80114.02
464.197	80112.05
464.552	80110.91
464.908	80111.35
465.263	80113.2
465.618	80115.02
465.974	80114.57
466.329	80115.05
466.684	80116.16
467.039	80116.57
467.394	80115.9
467.749	80116.31
468.104	80115.9
468.459	80116.13
468.814	80116.16
469.169	80115.68
469.524	80116.53
469.879	80117.24
470.233	80117.5
470.588	80117.68
470.943	80118.79
471.297	80119.31
471.652	80121.98
472.006	80124.61
472.361	80124.79
472.715	80124.42
473.07	80122.75
473.424	80123.72
473.778	80123.05
474.133	80123.38
474.487	80125.42
474.841	80126.42
475.195	80127.57
475.549	80127.68
475.903	80129.16
476.257	80129.31
476.611	80129.53
476.965	80130.35
477.319	80131.27
477.673	80132.46
478.026	80133.42
478.38	80135.27
478.734	80134.42
479.087	80135.2
479.441	80135.24
479.795	80135.13
480.148	80135.38
480.502	80137.46
480.855	80138.13
481.208	80139.94
481.562	80139.79
481.915	80140.46
482.268	80141.01
482.621	80140.83
482.974	80142.98
483.328	80144.16
483.681	80145.09
484.034	80146.24
484.387	80146.13
484.739	80147.39
485.092	80145.2
485.445	80144.9
485.798	80143.2
486.151	80145.09
486.503	80145.42
486.856	80144.2
487.209	80145.5
487.561	80145.5
487.914	80145.28
488.266	80144.65
488.618	80143.42
488.971	80144.09
489.323	80142.24
489.675	80142.61
490.028	80144.09
490.38	80143.68
490.732	80142.57
491.084	80143.2
491.436	80142.61
491.788	80142.79
492.14	80143.28
492.492	80144.57
492.844	80145.68
493.196	80146.76
493.548	80145.13
493.899	80144.76
494.251	80147.46
494.603	80147.35
494.954	80146.39
495.306	80146.2
495.657	80146.39
496.009	80148.76
496.36	80149.83
496.712	80151.24
497.063	80150.68
497.414	80149.16
497.765	80149.61
498.117	80149.2
498.468	80147.94
498.819	80150.05
499.17	80150.09
499.521	80148.57
499.872	80148.42
500.223	80148.31
500.574	80149.39
500.924	80150.28
501.275	80149.65
501.626	80149.2
501.977	80148.46
502.327	80149.68
502.678	80151.31
503.029	80152.35
503.379	80152.13
503.73	80152.5
504.08	80151.31
504.43	80148.91
504.781	80149.39
505.131	80148.79
505.481	80149.02
505.831	80147.98
506.182	80148.02
506.532	80147.31
506.882	80146.57
507.232	80147.94
507.582	80147.83
507.932	80146.5
508.281	80146.42
508.631	80146.5
508.981	80145.68
509.331	80146.76
509.681	80146.76
510.03	80145.94
510.38	80146.61
510.729	80145.79
511.079	80144.5
511.428	80143.68
511.778	80145.76
512.127	80144.68
512.476	80144.27
512.826	80145.02
513.175	80146.98
513.524	80145.53
513.873	80145.05
514.222	80145.46
514.571	80145.09
514.92	80144.57
515.269	80144.57
515.618	80145.31
515.967	80147.05
516.316	80147.39
516.665	80148.65
517.014	80149.28
517.362	80150.68
517.711	80149.2
518.059	80149.17
518.408	80148.94
518.757	80150.46
519.105	80151.05
519.453	80151.65
519.802	80151.2
520.15	80150.94
520.498	80149.61
520.847	80148.5
521.195	80149.54
521.543	80152.02
521.891	80152.46
522.239	80153.91
522.587	80154.32
522.935	80154.35
523.283	80153.17
523.631	80152.76
523.979	80151.91
524.326	80151.09
524.674	80149.02
525.022	80149.2
525.369	80148.46
525.717	80150.17
526.064	80148.46
526.412	80147.39
526.759	80148.98
527.107	80149.28
527.454	80148.65
527.801	80149.72
528.149	80151.43
528.496	80152.91
528.843	80151.17
529.19	80151.28
529.537	80149.72
529.884	80150.42
530.231	80148.72
530.578	80149.94
530.925	80151.02
531.272	80150.35
531.619	80152.5
531.966	80154.58
532.312	80154.17
532.659	80154.69
533.006	80153.28
533.352	80154.98
533.699	80155.76
534.045	80153.94
534.392	80154.5
534.738	80155.09
535.084	80155.91
535.431	80155.09
535.777	80153.31
536.123	80155.35
536.469	80154.91
536.815	80155.39
537.161	80155.17
537.507	80153.76
537.853	80153.28
538.199	80151.61
538.545	80151.31
538.891	80149.76
539.237	80148.54
539.582	80149.54
539.928	80150.02
540.274	80149.05
540.619	80149.8
540.965	80148.72
541.31	80148.24
541.656	80147.61
542.001	80148.46
542.347	80146.87
542.692	80146.16
543.037	80146.2
543.382	80142.57
543.728	80142.76
544.073	80141.57
544.418	80140.87
544.763	80142.16
545.108	80141.57
545.453	80141.79
545.798	80143.83
546.142	80142.42
546.487	80142.09
546.832	80142.76
547.177	80143.61
547.521	80144.83
547.866	80144.28
548.211	80144.68
548.555	80143.87
548.9	80145.02
549.244	80144.02
549.588	80144.39
549.933	80146.39
550.277	80148.24
550.621	80151.72
550.965	80151.83
551.31	80151.39
551.654	80152.02
551.998	80153.46
552.342	80152.2
552.686	80153.39
553.03	80151.5
553.373	80153.06
553.717	80152.61
554.061	80150.87
554.405	80149.13
554.748	80148.13
555.092	80148.28
555.436	80149.13
555.779	80151.87
556.123	80150.87
556.466	80152.94
556.81	80153.09
557.153	80150.35
557.496	80149.13
557.839	80146.65
558.183	80146.42
558.526	80147.79
558.869	80147.72
559.212	80146.72
559.555	80147.39
559.898	80146.94
560.241	80146.68
560.584	80146.39
560.927	80149.05
561.269	80148.17
561.612	80150.31
561.955	80149.09
562.297	80147.2
562.64	80147.32
562.983	80145.98
563.325	80146.17
563.668	80144.05
564.01	80142.24
564.352	80142.46
564.695	80141.16
565.037	80141.13
565.379	80139.61
565.721	80139.68
566.063	80137.46
566.406	80136.16
566.748	80136.13
567.09	80133.79
567.431	80132.91
567.773	80132.76
568.115	80130.61
568.457	80132.39
568.799	80129.61
569.14	80130.72
569.482	80131.64
569.824	80131.53
570.165	80129.72
570.507	80129.46
570.848	80130.13
571.19	80132.64
571.531	80134.76
571.872	80134.94
572.214	80135.39
572.555	80135.39
572.896	80134.31
573.237	80135.16
573.578	80136.39
573.919	80136.31
574.26	80138.2
574.601	80139.35
574.942	80139.46
575.283	80137.72
575.624	80137.16
575.964	80138.57
576.305	80139.42
576.646	80139.57
576.986	80139.53
577.327	80139.53
577.667	80139.72
578.008	80139.87
578.348	80138.42
578.689	80137.72
579.029	80136.83
579.369	80137.75
579.71	80139.09
580.05	80139.87
580.39	80139.87
580.73	80139.31
581.07	80139.2
581.41	80139.46
581.75	80138.87
582.09	80138.79
582.43	80140.53
582.769	80139.57
583.109	80139.87
583.449	80138.94
583.789	80137.31
584.128	80137.42
584.468	80137.83
584.807	80137.57
585.147	80133.31
585.486	80132.39
585.825	80131.61
586.165	80133.09
