Data from 24HourExp_27052025_FLMS018081_07-08-19-959.txt Node
Date: Wed May 28 07:08:19 BST 2025
User: adleo
Spectrometer: FLMS01808
Trigger mode: 0
Integration Time (sec): 4.000000E-1
Scans to average: 10
Electric dark correction enabled: true
Nonlinearity correction enabled: true
Boxcar width: 10
XAxis mode: Wavelengths
Number of Pixels in Spectrum: 2048
>>>>>Begin Spectral Data<<<<<
178.471	-129.53
178.857	-121.69
179.244	-116.24
179.631	-106.2
180.017	-97.56
180.404	-90.15
180.79	-79.33
181.176	-71.11
181.563	-60.93
181.949	-49.01
182.335	-39.7
182.722	-23.07
183.108	-3.86
183.494	24.29
183.88	78.36
184.266	130.86
184.653	186.68
185.039	242.11
185.425	297.42
185.811	351.09
186.197	404.63
186.582	456.97
186.968	509.25
187.354	562.57
187.74	612.63
188.126	662.49
188.511	712.2
188.897	759.3
189.283	807.09
189.668	851.77
190.054	894.05
190.439	941.08
190.825	984.8
191.21	1023.67
191.596	1055.21
191.981	1063.99
192.366	1070.25
192.752	1071.39
193.137	1075.43
193.522	1075.87
193.908	1078.47
194.293	1080.61
194.678	1083.43
195.063	1085.4
195.448	1086.19
195.833	1086.54
196.218	1086.26
196.603	1086.68
196.988	1087.63
197.373	1087.58
197.757	1088.63
198.142	1090.64
198.527	1088.2
198.912	1087.35
199.296	1088.44
199.681	1086.96
200.066	1084.75
200.45	1081.77
200.835	1083.22
201.219	1083.35
201.604	1081.93
201.988	1082.62
202.372	1084.46
202.757	1083.76
203.141	1084.42
203.525	1086.12
203.91	1085.42
204.294	1086.66
204.678	1086.66
205.062	1085.43
205.446	1086.45
205.83	1086.97
206.214	1085.99
206.598	1086.92
206.982	1087.72
207.366	1087.36
207.75	1088.8
208.134	1088.88
208.517	1092.65
208.901	1093.5
209.285	1092.09
209.669	1095.68
210.052	1095.2
210.436	1092.95
210.819	1093.95
211.203	1095.41
211.586	1094.65
211.97	1097
212.353	1096.42
212.737	1098.09
213.12	1101.36
213.503	1102.4
213.886	1104.13
214.27	1106.36
214.653	1106.59
215.036	1107.77
215.419	1108.99
215.802	1110.88
216.185	1114.27
216.568	1116.84
216.951	1120.5
217.334	1124.45
217.717	1127.35
218.1	1130.13
218.482	1135.07
218.865	1138.4
219.248	1140.35
219.631	1146.6
220.013	1151.78
220.396	1158.63
220.778	1163.61
221.161	1169.63
221.544	1176.5
221.926	1184.48
222.308	1192.13
222.691	1201.37
223.073	1210.84
223.455	1220.78
223.838	1230.74
224.22	1240.4
224.602	1251.45
224.984	1260.25
225.366	1270.46
225.749	1283.87
226.131	1297.02
226.513	1309.89
226.895	1323.69
227.276	1338.42
227.658	1353.38
228.04	1368.25
228.422	1384.03
228.804	1401.38
229.186	1415.69
229.567	1434.04
229.949	1449.94
230.331	1467.29
230.712	1485.59
231.094	1503.35
231.475	1522.29
231.857	1542.52
232.238	1561.21
232.62	1578.91
233.001	1598.88
233.382	1622.47
233.763	1638.39
234.145	1659.58
234.526	1680.42
234.907	1702.15
235.288	1721.48
235.669	1739.52
236.05	1759.53
236.431	1778.16
236.812	1797.96
237.193	1819.63
237.574	1838.68
237.955	1860.44
238.336	1881.34
238.717	1902.76
239.097	1925.16
239.478	1948.25
239.859	1969.47
240.239	1991.74
240.62	2014.79
241.001	2038.45
241.381	2061.04
241.762	2086.88
242.142	2109.35
242.522	2132.12
242.903	2156.65
243.283	2182.86
243.663	2209.33
244.044	2235.66
244.424	2264.65
244.804	2292.38
245.184	2321.84
245.564	2350.04
245.944	2381.25
246.324	2409.74
246.704	2438.84
247.084	2468.42
247.464	2497.96
247.844	2529.63
248.224	2562.87
248.604	2594.59
248.983	2624.37
249.363	2655.29
249.743	2685.76
250.122	2715.24
250.502	2746.59
250.882	2775.84
251.261	2806.69
251.641	2838.24
252.02	2870.66
252.399	2904.12
252.779	2941.68
253.158	2976.78
253.537	3014.37
253.917	3055.73
254.296	3094.78
254.675	3134.22
255.054	3172.72
255.433	3215.69
255.812	3251.92
256.191	3290.23
256.57	3332.01
256.949	3376.13
257.328	3417.07
257.707	3462.94
258.086	3511.41
258.465	3557.8
258.843	3609.49
259.222	3661.95
259.601	3716.27
259.979	3771.01
260.358	3825.79
260.736	3880.19
261.115	3935.39
261.493	3989.69
261.872	4040.03
262.25	4096.95
262.629	4154.73
263.007	4213.4
263.385	4271.62
263.763	4335.62
264.142	4399.89
264.52	4464.44
264.898	4528.67
265.276	4595.78
265.654	4664.18
266.032	4735.37
266.41	4805.47
266.788	4875.65
267.166	4949.59
267.544	5025.17
267.921	5100.53
268.299	5176.33
268.677	5251.89
269.055	5335.39
269.432	5417.49
269.81	5503.68
270.188	5593.08
270.565	5679.76
270.943	5773.07
271.32	5862.56
271.697	5957.51
272.075	6052.87
272.452	6148.48
272.829	6247.22
273.207	6351.72
273.584	6455.61
273.961	6557.74
274.338	6672.93
274.715	6793.31
275.092	6908.96
275.469	7026.87
275.846	7148.34
276.223	7270.86
276.6	7396.87
276.977	7520.65
277.354	7647.62
277.731	7773.15
278.108	7901.23
278.484	8036.82
278.861	8168.69
279.238	8311.35
279.614	8450.73
279.991	8593.94
280.367	8741.97
280.744	8892.28
281.12	9040.33
281.497	9186.68
281.873	9340.34
282.249	9490.3
282.625	9637.17
283.002	9788.42
283.378	9937.22
283.754	10084.99
284.13	10241.55
284.506	10399.94
284.882	10557.96
285.258	10718.53
285.634	10876.35
286.01	11039.04
286.386	11193.53
286.762	11359.46
287.138	11521.26
287.513	11686.84
287.889	11849.43
288.265	12010.02
288.641	12172.01
289.016	12335.46
289.392	12506.65
289.767	12669.64
290.143	12839.53
290.518	13001.95
290.894	13164.18
291.269	13325.56
291.644	13491.69
292.02	13647.11
292.395	13802.03
292.77	13956.82
293.145	14110.62
293.52	14272.7
293.895	14422.63
294.27	14587
294.646	14741.49
295.02	14893.33
295.395	15043.78
295.77	15202.26
296.145	15357.79
296.52	15515.82
296.895	15670.82
297.269	15821.84
297.644	15977.72
298.019	16122
298.393	16277.34
298.768	16430.45
299.143	16587.29
299.517	16737.75
299.891	16893.91
300.266	17057.17
300.64	17220.21
301.015	17387.18
301.389	17556.55
301.763	17731.17
302.137	17896.84
302.512	18075.89
302.886	18253.32
303.26	18440.32
303.634	18621.72
304.008	18801.32
304.382	18981.13
304.756	19163.3
305.13	19352.27
305.504	19531.57
305.877	19725.29
306.251	19931.29
306.625	20135.94
306.999	20347.03
307.372	20566.36
307.746	20784.61
308.119	20996.65
308.493	21205.11
308.866	21415.04
309.24	21630.44
309.613	21840.85
309.987	22051.63
310.36	22246.31
310.733	22452.94
311.107	22670.31
311.48	22886.25
311.853	23119.06
312.226	23346.48
312.599	23583.88
312.972	23805.93
313.345	24044.08
313.718	24281.17
314.091	24504.85
314.464	24733.69
314.837	24958.17
315.21	25170.84
315.582	25393.34
315.955	25602.78
316.328	25828.25
316.7	26048.04
317.073	26265.11
317.446	26492.06
317.818	26724.2
318.191	26957.6
318.563	27187.15
318.936	27399.06
319.308	27602.52
319.68	27799.16
320.053	27997.28
320.425	28179.76
320.797	28361.25
321.169	28520.65
321.541	28661.69
321.913	28790.92
322.285	28912.03
322.657	29028.67
323.029	29180.52
323.401	29322.14
323.773	29489.7
324.145	29661.3
324.517	29852.43
324.889	30034.14
325.26	30238.4
325.632	30456.1
326.004	30692.16
326.375	30952.18
326.747	31224.39
327.118	31534.47
327.49	31829.65
327.861	32141.92
328.233	32452.22
328.604	32764.42
328.975	33087.17
329.346	33399.16
329.718	33706.77
330.089	34014.9
330.46	34317.12
330.831	34580.24
331.202	34838.57
331.573	35088.56
331.944	35319.01
332.315	35548.53
332.686	35763.97
333.057	35955.38
333.428	36130.31
333.799	36303.69
334.169	36455.28
334.54	36595.28
334.911	36712.98
335.281	36843.13
335.652	36962.32
336.022	37095.66
336.393	37246.36
336.763	37407.4
337.134	37594.31
337.504	37798.4
337.874	38002.78
338.245	38208.58
338.615	38432.24
338.985	38665.72
339.355	38886.76
339.726	39104.09
340.096	39321.94
340.466	39579.46
340.836	39823.99
341.206	40073.05
341.576	40318.95
341.945	40558.12
342.315	40784.44
342.685	41024.64
343.055	41271.42
343.425	41514.78
343.794	41748.17
344.164	41971.65
344.533	42204.69
344.903	42433.55
345.273	42665.93
345.642	42890.92
346.011	43125.67
346.381	43354.08
346.75	43585.28
347.12	43835.69
347.489	44090.62
347.858	44333.31
348.227	44540.58
348.596	44767.16
348.965	45005.29
349.334	45236.97
349.704	45475.93
350.072	45730.07
350.441	45967.84
350.81	46207.01
351.179	46437.32
351.548	46679.75
351.917	46908.9
352.285	47102.53
352.654	47312.37
353.023	47516.48
353.391	47720.53
353.76	47931.74
354.129	48120.95
354.497	48354.1
354.865	48571.59
355.234	48806.08
355.602	49025.66
355.971	49274.17
356.339	49485.81
356.707	49696.11
357.075	49916.8
357.443	50143.91
357.811	50349.29
358.18	50555.97
358.548	50766.48
358.916	50977.73
359.284	51182.9
359.651	51405.55
360.019	51622.38
360.387	51818.49
360.755	52021.36
361.123	52243.08
361.49	52466.28
361.858	52689.84
362.226	52876.41
362.593	53070.19
362.961	53245.02
363.328	53446.36
363.696	53614.68
364.063	53835.04
364.43	54046.52
364.798	54257.31
365.165	54434.75
365.532	54629.28
365.899	54813.99
366.267	54975.55
366.634	55117.27
367.001	55288.59
367.368	55424.17
367.735	55611.59
368.102	55791.09
368.469	55985.15
368.835	56166.8
369.202	56331.58
369.569	56518.71
369.936	56718.77
370.303	56908.52
370.669	57116.54
371.036	57283.94
371.402	57485.7
371.769	57666.67
372.135	57819.64
372.502	57945.74
372.868	58082.31
373.235	58218.05
373.601	58357.48
373.967	58536.44
374.333	58729.54
374.7	58907.88
375.066	59111.91
375.432	59299.54
375.798	59485.32
376.164	59652.6
376.53	59803.96
376.896	59975.27
377.262	60147.7
377.628	60270.24
377.993	60416.76
378.359	60553.06
378.725	60712.55
379.091	60860.51
379.456	60987.32
379.822	61114.42
380.187	61259.98
380.553	61454.63
380.918	61655.39
381.284	61833.49
381.649	62000.47
382.015	62146.02
382.38	62268.45
382.745	62438.45
383.11	62588.9
383.476	62728.39
383.841	62854.62
384.206	63009.03
384.571	63131.8
384.936	63266.91
385.301	63440.45
385.666	63575.06
386.031	63727.58
386.396	63887.01
386.76	64032.37
387.125	64227.4
387.49	64432.03
387.855	64628.68
388.219	64796.47
388.584	64969.31
388.948	65164.73
389.313	65328.46
389.677	65529.48
390.042	65766.89
390.406	65915.45
390.771	66093.59
391.135	66286.48
391.499	66520.64
391.863	66750.46
392.227	66988.24
392.592	67186.53
392.956	67378.84
393.32	67583.41
393.684	67805.55
394.048	67974.98
394.412	68162.01
394.775	68309.82
395.139	68458.65
395.503	68623.32
395.867	68774.48
396.231	68917.89
396.594	69026.16
396.958	69167.87
397.321	69324.47
397.685	69448.1
398.048	69588.19
398.412	69734.08
398.775	69865.93
399.139	69988.96
399.502	70104.12
399.865	70243.43
400.228	70437.82
400.592	70580.07
400.955	70774.31
401.318	70903.7
401.681	71074.06
402.044	71210.67
402.407	71378.84
402.77	71529.8
403.133	71706.81
403.496	71850.7
403.859	72000.99
404.221	72233.72
404.584	72472.89
404.947	72717.25
405.309	72927.41
405.672	73167.63
406.034	73389.65
406.397	73641.37
406.759	73872.79
407.122	74053.59
407.484	74225.62
407.847	74415.27
408.209	74667.34
408.571	74893.51
408.933	75159.16
409.296	75412.48
409.658	75665.42
410.02	75928.46
410.382	76240.14
410.744	76501.94
411.106	76788.38
411.468	77062.99
411.83	77292.6
412.191	77487.68
412.553	77656.45
412.915	77856.51
413.277	78051.4
413.638	78236.19
414	78392.11
414.361	78548.74
414.723	78763.04
415.084	78961.67
415.446	79110.06
415.807	79225.56
416.169	79316.03
416.53	79386.54
416.891	79470.26
417.252	79568.79
417.614	79628.49
417.975	79658.22
418.336	79690.35
418.697	79729.3
419.058	79761.03
419.419	79785.1
419.78	79809.26
420.141	79827.11
420.501	79845.12
420.862	79858.12
421.223	79868.37
421.584	79893.44
421.944	79908.03
422.305	79915.08
422.666	79921.98
423.026	79924.27
423.387	79931.64
423.747	79938.94
424.107	79946.4
424.468	79954.15
424.828	79959.69
425.188	79963.35
425.549	79969.55
425.909	79973.65
426.269	79971.4
426.629	79975.2
426.989	79979.01
427.349	79983.48
427.709	79986.62
428.069	79987.95
428.429	79992.46
428.789	79997.78
429.149	80002.69
429.508	80006.06
429.868	80009.28
430.228	80014.49
430.587	80019.63
430.947	80023.99
431.306	80028.61
431.666	80031.6
432.025	80032.71
432.385	80036.78
432.744	80038.11
433.103	80038.15
433.463	80040.66
433.822	80047.64
434.181	80051.42
434.54	80054.04
434.899	80054.56
435.258	80056.11
435.618	80058.26
435.976	80061.33
436.335	80060.18
436.694	80060.14
437.053	80061.59
437.412	80063.55
437.771	80063.29
438.129	80063.81
438.488	80064.92
438.847	80066.14
439.205	80068.14
439.564	80070.06
439.922	80069.84
440.281	80070.24
440.639	80072.13
440.997	80073.94
441.356	80076.24
441.714	80077.24
442.072	80077.5
442.431	80079.53
442.789	80081.79
443.147	80082.09
443.505	80081.68
443.863	80084.45
444.221	80085.16
444.579	80085.56
444.937	80085.34
445.294	80086.9
445.652	80087.86
446.01	80089.15
446.368	80089.71
446.725	80089.63
447.083	80088.82
447.441	80088.45
447.798	80089.52
448.156	80090.74
448.513	80090.41
448.87	80089.34
449.228	80089
449.585	80089.3
449.942	80088.34
450.3	80088.89
450.657	80090.74
451.014	80091.89
451.371	80091.97
451.728	80092.11
452.085	80090.97
452.442	80091.19
452.799	80090.63
453.156	80090
453.513	80089.52
453.869	80089.12
454.226	80088.86
454.583	80091.08
454.939	80091.19
455.296	80091.23
455.653	80090.89
456.009	80091.74
456.366	80092.45
456.722	80091.63
457.078	80092.15
457.435	80092.56
457.791	80091.85
458.147	80090
458.503	80090.6
458.86	80089.3
459.216	80088.08
459.572	80089.41
459.928	80089.56
460.284	80088.38
460.64	80089.97
460.996	80089.45
461.351	80088.75
461.707	80087.93
462.063	80088.53
462.419	80088.12
462.774	80089.3
463.13	80089.3
463.486	80090.82
463.841	80090.3
464.197	80091.04
464.552	80093.08
464.908	80093.93
465.263	80094.52
465.618	80095.08
465.974	80094.93
466.329	80097.34
466.684	80098.89
467.039	80098.85
467.394	80099.89
467.749	80101.55
468.104	80101.3
468.459	80103.48
468.814	80104.96
469.169	80105.66
469.524	80104.14
469.879	80106.29
470.233	80106.44
470.588	80106.88
470.943	80106
471.297	80106.59
471.652	80108.22
472.006	80107.77
472.361	80108.44
472.715	80108.55
473.07	80109.73
473.424	80110.1
473.778	80110.81
474.133	80112.47
474.487	80113.03
474.841	80112.33
475.195	80113.55
475.549	80113.07
475.903	80113.36
476.257	80113.03
476.611	80116.4
476.965	80117.51
477.319	80117.44
477.673	80117.58
478.026	80118.44
478.38	80121.44
478.734	80122.1
479.087	80122.32
479.441	80122.99
479.795	80124.25
480.148	80124.92
480.502	80124.88
480.855	80126.07
481.208	80125.77
481.562	80126.81
481.915	80127.95
482.268	80130.58
482.621	80132.07
482.974	80133.55
483.328	80135.47
483.681	80137.29
484.034	80136.55
484.387	80137.14
484.739	80139.07
485.092	80140.14
485.445	80141.07
485.798	80140.44
486.151	80140.4
486.503	80140.77
486.856	80139.47
487.209	80138.32
487.561	80139.66
487.914	80139.14
488.266	80138.73
488.618	80139.1
488.971	80137.99
489.323	80137.51
489.675	80136.14
490.028	80136.18
490.38	80135.36
490.732	80134.66
491.084	80133.81
491.436	80134.21
491.788	80135.55
492.14	80133.69
492.492	80133.43
492.844	80134.21
493.196	80134.47
493.548	80135.69
493.899	80135.84
494.251	80137.81
494.603	80136.99
494.954	80135.29
495.306	80136.25
495.657	80136.36
496.009	80137.32
496.36	80138.58
496.712	80139.7
497.063	80141.18
497.414	80140.55
497.765	80141.1
498.117	80139.66
498.468	80140.4
498.819	80139.81
499.17	80139.18
499.521	80139.21
499.872	80139.32
500.223	80139.84
500.574	80139.88
500.924	80139.99
501.275	80140.21
501.626	80139.58
501.977	80142.25
502.327	80141.7
502.678	80142.36
503.029	80141.96
503.379	80140.44
503.73	80139.4
504.08	80137.18
504.43	80136.25
504.781	80136.99
505.131	80137.25
505.481	80135.14
505.831	80135.03
506.182	80136.18
506.532	80135.4
506.882	80134.81
507.232	80132.7
507.582	80131.55
507.932	80128.77
508.281	80127.44
508.631	80125.66
508.981	80124.99
509.331	80123.29
509.681	80123.77
510.03	80123.96
510.38	80125.1
510.729	80125.96
511.079	80127.29
511.428	80126.85
511.778	80127.03
512.127	80124.66
512.476	80124.07
512.826	80126.03
513.175	80126.99
513.524	80126.59
513.873	80127.4
514.222	80129.25
514.571	80131.07
514.92	80130.62
515.269	80130.84
515.618	80131.18
515.967	80133.51
516.316	80133.92
516.665	80132.92
517.014	80133.95
517.362	80132.07
517.711	80132.77
518.059	80131.84
518.408	80130.21
518.757	80132.03
519.105	80131.99
519.453	80132.36
519.802	80133.92
520.15	80134.58
520.498	80133.99
520.847	80132.81
521.195	80131.88
521.543	80130.66
521.891	80131.77
522.239	80130.58
522.587	80131.99
522.935	80132.81
523.283	80132.95
523.631	80133.36
523.979	80134.66
524.326	80134.14
524.674	80134.77
525.022	80132.84
525.369	80133.21
525.717	80133.92
526.064	80134.62
526.412	80134.03
526.759	80135.73
527.107	80135.14
527.454	80134.88
527.801	80134.77
528.149	80135.51
528.496	80136.18
528.843	80134.88
529.19	80135.43
529.537	80137.66
529.884	80137.55
530.231	80138.18
530.578	80138.92
530.925	80139.07
531.272	80139.25
531.619	80138.4
531.966	80140.84
532.312	80141.29
532.659	80141.77
533.006	80142.36
533.352	80142.44
533.699	80143.14
534.045	80141.66
534.392	80141.7
534.738	80141.81
535.084	80140.81
535.431	80140.92
535.777	80140.47
536.123	80143.92
536.469	80142.81
536.815	80140.92
537.161	80139.29
537.507	80138.7
537.853	80138.18
538.199	80137.29
538.545	80136.07
538.891	80137.99
539.237	80136.47
539.582	80136.99
539.928	80136.73
540.274	80137.03
540.619	80135.55
540.965	80135.84
541.31	80136.36
541.656	80136.58
542.001	80137.81
542.347	80139.58
542.692	80138.73
543.037	80138.81
543.382	80136.25
543.728	80137.51
544.073	80137.92
544.418	80140.69
544.763	80140.07
545.108	80137.92
545.453	80135.51
545.798	80136.33
546.142	80135.47
546.487	80135.1
546.832	80135.36
547.177	80134.44
547.521	80133.66
547.866	80132.73
548.211	80132.88
548.555	80133.66
548.9	80132.47
549.244	80130.55
549.588	80127.77
549.933	80127.62
550.277	80128.47
550.621	80129.47
550.965	80127.95
551.31	80126.81
551.654	80126.1
551.998	80127.29
552.342	80127.55
552.686	80130.69
553.03	80130.47
553.373	80130.95
553.717	80130.32
554.061	80129.84
554.405	80130.77
554.748	80129.21
555.092	80131.32
555.436	80130.44
555.779	80130.55
556.123	80129.81
556.466	80130.95
556.81	80132.06
557.153	80133.47
557.496	80133.18
557.839	80132.1
558.183	80133.14
558.526	80134.58
558.869	80133.32
559.212	80132.66
559.555	80133.06
559.898	80132.55
560.241	80132.55
560.584	80132.77
560.927	80134.03
561.269	80134.03
561.612	80134.36
561.955	80136.88
562.297	80136.1
562.64	80135.66
562.983	80134.95
563.325	80135.51
563.668	80135.03
564.01	80135.06
564.352	80133.69
564.695	80132.73
565.037	80132.4
565.379	80131.62
565.721	80131.4
566.063	80132.17
566.406	80131.99
566.748	80132.66
567.09	80132.29
567.431	80131.84
567.773	80132.88
568.115	80130.62
568.457	80131.29
568.799	80129.66
569.14	80128.29
569.482	80128.29
569.824	80127.73
570.165	80127.92
570.507	80128.99
570.848	80129.66
571.19	80130.36
571.531	80131.1
571.872	80131.1
572.214	80131.29
572.555	80131.06
572.896	80129.81
573.237	80128.25
573.578	80126.4
573.919	80124.55
574.26	80124.92
574.601	80125.32
574.942	80123.88
575.283	80124.32
575.624	80121.99
575.964	80121.55
576.305	80122.14
576.646	80121.55
576.986	80121.99
577.327	80122.32
577.667	80122.18
578.008	80122.81
578.348	80122.03
578.689	80120.33
579.029	80120.73
579.369	80122.07
579.71	80122.44
580.05	80124.21
580.39	80124.88
580.73	80125.07
581.07	80125.81
581.41	80124.25
581.75	80122.62
582.09	80122.36
582.43	80122.62
582.769	80123.36
583.109	80123.07
583.449	80121.25
583.789	80122.21
584.128	80122.33
584.468	80121.44
584.807	80121.25
585.147	80118.58
585.486	80118.62
