Data from 24HourExp_27052025_FLMS018081_01-18-20-666.txt Node
Date: Wed May 28 01:18:20 BST 2025
User: adleo
Spectrometer: FLMS01808
Trigger mode: 0
Integration Time (sec): 4.000000E-1
Scans to average: 10
Electric dark correction enabled: true
Nonlinearity correction enabled: true
Boxcar width: 10
XAxis mode: Wavelengths
Number of Pixels in Spectrum: 2048
>>>>>Begin Spectral Data<<<<<
178.471	-129.38
178.857	-121.34
179.244	-113.34
179.631	-105.23
180.017	-97.44
180.404	-90.17
180.79	-78.65
181.176	-69.51
181.563	-60.02
181.949	-50.56
182.335	-39.85
182.722	-24.72
183.108	-6.38
183.494	19.23
183.88	72.34
184.266	126.11
184.653	181.82
185.039	237.53
185.425	292.22
185.811	346.17
186.197	398.88
186.582	449.41
186.968	501.24
187.354	551.99
187.74	605.09
188.126	655.6
188.511	706.66
188.897	754.03
189.283	801.1
189.668	847.09
190.054	893.44
190.439	939.35
190.825	983.53
191.21	1025.15
191.596	1059.57
191.981	1069.17
192.366	1075.36
192.752	1076.83
193.137	1080.44
193.522	1081.89
193.908	1083.4
194.293	1087.04
194.678	1090.78
195.063	1093.02
195.448	1096.4
195.833	1094.83
196.218	1094.73
196.603	1095.82
196.988	1094.84
197.373	1095.85
197.757	1095.98
198.142	1095.02
198.527	1092.86
198.912	1092.55
199.296	1091.96
199.681	1090.9
200.066	1086.96
200.45	1084.51
200.835	1083.12
201.219	1083.23
201.604	1084.49
201.988	1085.76
202.372	1087
202.757	1087.86
203.141	1087.3
203.525	1087.04
203.91	1088.06
204.294	1088.48
204.678	1086.25
205.062	1086.82
205.446	1085.64
205.83	1086.29
206.214	1086.68
206.598	1086.16
206.982	1087.61
207.366	1088.53
207.75	1089.32
208.134	1092.4
208.517	1094.06
208.901	1094.82
209.285	1095.09
209.669	1095.18
210.052	1095.08
210.436	1094.47
210.819	1094.25
211.203	1095.16
211.586	1096.16
211.97	1098.08
212.353	1099.96
212.737	1103.41
213.12	1105.54
213.503	1107.47
213.886	1108.81
214.27	1111.01
214.653	1112.24
215.036	1114.19
215.419	1116.35
215.802	1118.92
216.185	1120.41
216.568	1123.4
216.951	1127.84
217.334	1130.74
217.717	1134.22
218.1	1137.1
218.482	1141.26
218.865	1142.6
219.248	1148.03
219.631	1152.46
220.013	1155.06
220.396	1161.86
220.778	1165.61
221.161	1171.4
221.544	1176.85
221.926	1185.98
222.308	1193.68
222.691	1203.57
223.073	1211.31
223.455	1220.6
223.838	1228.48
224.22	1239.46
224.602	1250.13
224.984	1260.78
225.366	1272.09
225.749	1287.39
226.131	1299.29
226.513	1311.56
226.895	1326.78
227.276	1338.93
227.658	1352.62
228.04	1368.27
228.422	1382.43
228.804	1399.36
229.186	1415.12
229.567	1434.04
229.949	1448.81
230.331	1464.83
230.712	1482.28
231.094	1500.06
231.475	1517.54
231.857	1537.98
232.238	1556.27
232.62	1575.29
233.001	1597.09
233.382	1619.13
233.763	1636.5
234.145	1658.3
234.526	1677.98
234.907	1695.41
235.288	1715.91
235.669	1735.93
236.05	1755.3
236.431	1773.68
236.812	1795.84
237.193	1815.75
237.574	1835.42
237.955	1858.46
238.336	1881.51
238.717	1903.17
239.097	1927.9
239.478	1950.12
239.859	1973.71
240.239	1998.92
240.62	2021.25
241.001	2043.11
241.381	2064.4
241.762	2086.37
242.142	2110.11
242.522	2135.69
242.903	2163.24
243.283	2191.85
243.663	2217.92
244.044	2248.71
244.424	2278.99
244.804	2306.89
245.184	2338.35
245.564	2367.44
245.944	2398.85
246.324	2430.8
246.704	2460.63
247.084	2488.35
247.464	2519.66
247.844	2550.71
248.224	2581.63
248.604	2614.54
248.983	2645.05
249.363	2680.02
249.743	2714.63
250.122	2745.8
250.502	2778.57
250.882	2812.2
251.261	2844.17
251.641	2878.06
252.02	2909.5
252.399	2944.16
252.779	2979.61
253.158	3015.26
253.537	3057.02
253.917	3098.18
254.296	3135.18
254.675	3175.88
255.054	3218.46
255.433	3263.82
255.812	3304.36
256.191	3345.28
256.57	3387.82
256.949	3432.33
257.328	3475.24
257.707	3519.33
258.086	3567.95
258.465	3615.58
258.843	3666.87
259.222	3716.46
259.601	3769.62
259.979	3824.85
260.358	3879.54
260.736	3935.48
261.115	3991.57
261.493	4045.37
261.872	4095.33
262.25	4154.79
262.629	4213.02
263.007	4272.75
263.385	4331
263.763	4392.86
264.142	4458.78
264.52	4523.57
264.898	4585.62
265.276	4653.69
265.654	4723.79
266.032	4794.72
266.41	4867.45
266.788	4937.94
267.166	5017.61
267.544	5093.98
267.921	5170.92
268.299	5250.99
268.677	5330.34
269.055	5413.33
269.432	5500.04
269.81	5589.52
270.188	5679.01
270.565	5769.67
270.943	5861.26
271.32	5950.96
271.697	6045.28
272.075	6139.41
272.452	6235.47
272.829	6339.94
273.207	6443.06
273.584	6548.24
273.961	6649.52
274.338	6762.7
274.715	6880.08
275.092	6998.07
275.469	7120.12
275.846	7242.13
276.223	7364.92
276.6	7486.87
276.977	7612.86
277.354	7736.63
277.731	7861.91
278.108	7991.41
278.484	8121.47
278.861	8252.77
279.238	8395.71
279.614	8535.09
279.991	8680.6
280.367	8828.65
280.744	8980.55
281.12	9129.48
281.497	9278.7
281.873	9433.88
282.249	9582.39
282.625	9732.51
283.002	9878.99
283.378	10027.14
283.754	10178.95
284.13	10336.31
284.506	10496.19
284.882	10654.52
285.258	10811.11
285.634	10971.35
286.01	11131.66
286.386	11294.97
286.762	11461.48
287.138	11624.25
287.513	11792.04
287.889	11955.04
288.265	12113.32
288.641	12270.63
289.016	12431.63
289.392	12595.9
289.767	12762.01
290.143	12928.01
290.518	13085.64
290.894	13253.5
291.269	13410.46
291.644	13569.09
292.02	13719.65
292.395	13873.39
292.77	14030.4
293.145	14183.86
293.52	14337.73
293.895	14487.87
294.27	14639.56
294.646	14792.23
295.02	14940.04
295.395	15090.83
295.77	15243.97
296.145	15400.05
296.52	15553.98
296.895	15706.54
297.269	15855.89
297.644	16011.14
298.019	16165.33
298.393	16323.64
298.768	16472.29
299.143	16628.93
299.517	16780.41
299.891	16938.98
300.266	17099.13
300.64	17259.38
301.015	17429.82
301.389	17602.96
301.763	17780.1
302.137	17949.1
302.512	18127.55
302.886	18306.51
303.26	18492.88
303.634	18675.6
304.008	18852.79
304.382	19040.93
304.756	19231.12
305.13	19424.08
305.504	19603.39
305.877	19791.77
306.251	20000.62
306.625	20204.6
306.999	20419.39
307.372	20635.71
307.746	20856.2
308.119	21070.24
308.493	21277.57
308.866	21489.33
309.24	21702.75
309.613	21905.93
309.987	22118.45
310.36	22310.05
310.733	22520
311.107	22736.57
311.48	22952
311.853	23192.62
312.226	23414.76
312.599	23644.51
312.972	23871.54
313.345	24102.09
313.718	24332.83
314.091	24550.59
314.464	24777.78
314.837	25002.76
315.21	25211.26
315.582	25427.12
315.955	25637.94
316.328	25862.18
316.7	26077.5
317.073	26300.23
317.446	26529.28
317.818	26763.32
318.191	27001.26
318.563	27226.86
318.936	27431.11
319.308	27638.98
319.68	27837.92
320.053	28037.71
320.425	28220.47
320.797	28400.83
321.169	28562.9
321.541	28703.31
321.913	28835.82
322.285	28954.19
322.657	29071.07
323.029	29224.94
323.401	29371.6
323.773	29545.92
324.145	29715.05
324.517	29906.4
324.889	30081.16
325.26	30277.33
325.632	30490.97
326.004	30728.59
326.375	30986.24
326.747	31264.82
327.118	31570.03
327.49	31860.85
327.861	32174.79
328.233	32488.97
328.604	32801.5
328.975	33118
329.346	33441.99
329.718	33748.31
330.089	34058.26
330.46	34362.54
330.831	34638.95
331.202	34897.7
331.573	35140.06
331.944	35373.66
332.315	35602.28
332.686	35826.05
333.057	36036.45
333.428	36214.37
333.799	36386.39
334.169	36536.93
334.54	36679.21
334.911	36795.9
335.281	36924.07
335.652	37048.7
336.022	37179.89
336.393	37329.24
336.763	37500.95
337.134	37681.9
337.504	37887.55
337.874	38090.99
338.245	38300.51
338.615	38517.69
338.985	38747.67
339.355	38973.1
339.726	39201.61
340.096	39421.49
340.466	39668.07
340.836	39909.43
341.206	40164.98
341.576	40414.23
341.945	40660.97
342.315	40889.05
342.685	41138.67
343.055	41388.42
343.425	41625.85
343.794	41857.24
344.164	42085.55
344.533	42320.89
344.903	42548.79
345.273	42785.66
345.642	43010.03
346.011	43235.79
346.381	43461.8
346.75	43688.24
347.12	43936.39
347.489	44181.3
347.858	44424.29
348.227	44637.15
348.596	44859.41
348.965	45089.88
349.334	45314.29
349.704	45558.2
350.072	45812.31
350.441	46036.36
350.81	46276.14
351.179	46506.52
351.548	46745.45
351.917	46972.47
352.285	47163.63
352.654	47368.09
353.023	47579.1
353.391	47784.16
353.76	47997.85
354.129	48195.92
354.497	48429.68
354.865	48645.5
355.234	48869.22
355.602	49091.64
355.971	49338.15
356.339	49552.19
356.707	49769.65
357.075	49991.11
357.443	50203.28
357.811	50411.76
358.18	50630.02
358.548	50837.38
358.916	51044.99
359.284	51261.54
359.651	51475.9
360.019	51698.22
360.387	51909.19
360.755	52104.12
361.123	52334.46
361.49	52556.16
361.858	52770.19
362.226	52967.31
362.593	53166.53
362.961	53358.04
363.328	53557.82
363.696	53726.63
364.063	53939.8
364.43	54147.66
364.798	54359.66
365.165	54550.65
365.532	54737.24
365.899	54925.21
366.267	55089.65
366.634	55248.96
367.001	55414.32
367.368	55552.56
367.735	55728.88
368.102	55901.52
368.469	56089.43
368.835	56266.21
369.202	56431.92
369.569	56623.08
369.936	56814.62
370.303	57002.1
370.669	57196.55
371.036	57364.41
371.402	57562.76
371.769	57744.09
372.135	57888.92
372.502	58012.87
372.868	58153.27
373.235	58294.75
373.601	58430.56
373.967	58603.12
374.333	58783.9
374.7	58965.15
375.066	59172.79
375.432	59363
375.798	59545.81
376.164	59711.52
376.53	59857.43
376.896	60028.66
377.262	60202.04
377.628	60332.31
377.993	60478.51
378.359	60631.4
378.725	60788.75
379.091	60944.82
379.456	61083.32
379.822	61221.95
380.187	61380.53
380.553	61563.29
380.918	61760.26
381.284	61939.26
381.649	62115.59
382.015	62259.37
382.38	62380.66
382.745	62544.04
383.11	62700.12
383.476	62847.66
383.841	62981.96
384.206	63138.88
384.571	63257.9
384.936	63390.75
385.301	63561.47
385.666	63690.48
386.031	63836.92
386.396	63993.58
386.76	64147.64
387.125	64341.73
387.49	64543.37
387.855	64731.22
388.219	64903.65
388.584	65076.47
388.948	65264.64
389.313	65436.26
389.677	65643.61
390.042	65878.54
390.406	66036.66
390.771	66217.5
391.135	66406.32
391.499	66645.41
391.863	66883.59
392.227	67126.06
392.592	67327.13
392.956	67528.29
393.32	67731.08
393.684	67951.1
394.048	68127.13
394.412	68305.51
394.775	68446.93
395.139	68593.06
395.503	68754.58
395.867	68906.4
396.231	69043.19
396.594	69148.09
396.958	69276.8
397.321	69439.6
397.685	69569.73
398.048	69709.03
398.412	69847.56
398.775	69976.32
399.139	70106.86
399.502	70207.66
399.865	70350.81
400.228	70543.02
400.592	70674.65
400.955	70880.93
401.318	71016.87
401.681	71183.14
402.044	71323.37
402.407	71485.83
402.77	71648.62
403.133	71844.42
403.496	71981.99
403.859	72140.45
404.221	72381.66
404.584	72625.69
404.947	72858.78
405.309	73066.77
405.672	73312.04
406.034	73534.9
406.397	73793.59
406.759	74006.78
407.122	74201.74
407.484	74374.18
407.847	74557.95
408.209	74807.42
408.571	75030.84
408.933	75289.4
409.296	75545.08
409.658	75796.77
410.02	76063.51
410.382	76361.05
410.744	76605.29
411.106	76895.22
411.468	77168.64
411.83	77398.3
412.191	77586.28
412.553	77751.73
412.915	77948.4
413.277	78129.98
413.638	78309.89
414	78457.03
414.361	78614.68
414.723	78816.39
415.084	79006.63
415.446	79155.89
415.807	79268.65
416.169	79353.59
416.53	79417.75
416.891	79495.26
417.252	79585.97
417.614	79642.12
417.975	79668.94
418.336	79700.67
418.697	79732.7
419.058	79758.35
419.419	79775.82
419.78	79798.44
420.141	79814.97
420.501	79828.71
420.862	79840.3
421.223	79850.32
421.584	79873.37
421.944	79885.17
422.305	79893.17
422.666	79898.92
423.026	79901.03
423.387	79909.84
423.747	79915.3
424.107	79924.51
424.468	79930.31
424.828	79936.47
425.188	79938.76
425.549	79945.07
425.909	79948.8
426.269	79948.69
426.629	79953.93
426.989	79957.55
427.349	79959.32
427.709	79960.21
428.069	79962.13
428.429	79967.6
428.789	79971.29
429.149	79975.54
429.508	79978.2
429.868	79979.49
430.228	79983.44
430.587	79987.25
430.947	79991.5
431.306	79995.19
431.666	79997.34
432.025	79999.74
432.385	80001.96
432.744	80003.18
433.103	80003.84
433.463	80005.39
433.822	80010.27
434.181	80013.19
434.54	80015.22
434.899	80018.36
435.258	80018.55
435.618	80020.91
435.976	80023.13
436.335	80024.09
436.694	80024.17
437.053	80024.8
437.412	80028.2
437.771	80028.31
438.129	80029.34
438.488	80029.31
438.847	80029.08
439.205	80029.79
439.564	80030.71
439.922	80028.34
440.281	80031.38
440.639	80032.52
440.997	80032.49
441.356	80033.37
441.714	80032.52
442.072	80031.82
442.431	80028.97
442.789	80032.63
443.147	80032.04
443.505	80032.23
443.863	80033.45
444.221	80033.56
444.579	80033.48
444.937	80033.37
445.294	80033.96
445.652	80033.93
446.01	80033.3
446.368	80033.63
446.725	80032.49
447.083	80032.67
447.441	80033.63
447.798	80030.6
448.156	80030.56
448.513	80032.12
448.87	80033.34
449.228	80033.63
449.585	80035.04
449.942	80037.18
450.3	80036.18
450.657	80037
451.014	80037.85
451.371	80037.62
451.728	80040.07
452.085	80040.32
452.442	80040.14
452.799	80039.77
453.156	80041.21
453.513	80042.43
453.869	80043.62
454.226	80045.58
454.583	80047.06
454.939	80047.65
455.296	80049.53
455.653	80050.46
456.009	80050.46
456.366	80050.83
456.722	80052.79
457.078	80051.2
457.435	80052.53
457.791	80052.57
458.147	80052.97
458.503	80051.86
458.86	80051.16
459.216	80048.98
459.572	80049.5
459.928	80048.98
460.284	80049.46
460.64	80049.9
460.996	80049.31
461.351	80049.09
461.707	80048.42
462.063	80047.61
462.419	80048.46
462.774	80048.61
463.13	80050.09
463.486	80048.94
463.841	80048.79
464.197	80049.5
464.552	80051.86
464.908	80052.05
465.263	80053.16
465.618	80052.86
465.974	80052.49
466.329	80054.05
466.684	80055.23
467.039	80056.19
467.394	80056.12
467.749	80055.71
468.104	80053.42
468.459	80053.34
468.814	80054.38
469.169	80055.67
469.524	80055.75
469.879	80055.82
470.233	80056.75
470.588	80055.56
470.943	80056.74
471.297	80056.67
471.652	80056.08
472.006	80056.34
472.361	80056.67
472.715	80057.37
473.07	80057.93
473.424	80060.52
473.778	80062.63
474.133	80064.4
474.487	80065
474.841	80065.44
475.195	80067.96
475.549	80070.66
475.903	80072.73
476.257	80074.43
476.611	80075.43
476.965	80077.09
477.319	80077.76
477.673	80078.94
478.026	80078.8
478.38	80079.98
478.734	80081.24
479.087	80081.42
479.441	80081.13
479.795	80082.87
480.148	80082.68
480.502	80084.35
480.855	80084.2
481.208	80084.16
481.562	80085.57
481.915	80086.2
482.268	80086.94
482.621	80086.9
482.974	80087.27
483.328	80087.75
483.681	80086.27
484.034	80087.23
484.387	80086.42
484.739	80087.42
485.092	80086.6
485.445	80088.94
485.798	80089.12
486.151	80090.01
486.503	80090.68
486.856	80091.75
487.209	80089.6
487.561	80090.45
487.914	80089.57
488.266	80088.57
488.618	80087.05
488.971	80084.98
489.323	80083.09
489.675	80084.61
490.028	80083.53
490.38	80082.76
490.732	80082.64
491.084	80081.94
491.436	80080.79
491.788	80081.68
492.14	80080.98
492.492	80080.79
492.844	80082.72
493.196	80084.46
493.548	80084.09
493.899	80084.31
494.251	80083.16
494.603	80084.2
494.954	80084.27
495.306	80083.35
495.657	80085.01
496.009	80086.01
496.36	80086.61
496.712	80088.83
497.063	80087.86
497.414	80088.97
497.765	80089.31
498.117	80088.42
498.468	80091.08
498.819	80091.23
499.17	80091.01
499.521	80091.42
499.872	80091.71
500.223	80088.31
500.574	80086.46
500.924	80086.01
501.275	80086.57
501.626	80086.94
501.977	80086.86
502.327	80085.68
502.678	80086.49
503.029	80085.68
503.379	80086.53
503.73	80085.9
504.08	80084.53
504.43	80084.35
504.781	80084.68
505.131	80085.57
505.481	80086.94
505.831	80085.16
506.182	80085.09
506.532	80084.75
506.882	80084.09
507.232	80084.94
507.582	80085.31
507.932	80084.86
508.281	80085.49
508.631	80084.24
508.981	80083.53
509.331	80082.72
509.681	80085.01
510.03	80087.34
510.38	80088.6
510.729	80086.6
511.079	80086.86
511.428	80088.46
511.778	80088.64
512.127	80087.31
512.476	80084.5
512.826	80084.68
513.175	80085.72
513.524	80087.75
513.873	80088.42
514.222	80090.05
514.571	80090.2
514.92	80091.12
515.269	80091.75
515.618	80091.08
515.967	80091.6
516.316	80091.82
516.665	80092.82
517.014	80090.64
517.362	80089.08
517.711	80087.16
518.059	80087.46
518.408	80087.53
518.757	80086.27
519.105	80087.49
519.453	80087.53
519.802	80090.68
520.15	80090.79
520.498	80089.45
520.847	80086.64
521.195	80088.16
521.543	80087.09
521.891	80086.2
522.239	80085.94
522.587	80085.98
522.935	80086.01
523.283	80087.12
523.631	80087.53
523.979	80087.79
524.326	80089.16
524.674	80089.12
525.022	80090.01
525.369	80090.64
525.717	80090.68
526.064	80092.01
526.412	80092.6
526.759	80094.12
527.107	80092.53
527.454	80093.38
527.801	80092.79
528.149	80094.52
528.496	80093.75
528.843	80094.19
529.19	80095.86
529.537	80096.45
529.884	80096.6
530.231	80095.56
530.578	80095.3
530.925	80096.97
531.272	80097.49
531.619	80097.19
531.966	80097.15
532.312	80097.89
532.659	80099.04
533.006	80099.34
533.352	80098.67
533.699	80097.49
534.045	80096.12
534.392	80096.12
534.738	80094.01
535.084	80095.82
535.431	80095.34
535.777	80093.78
536.123	80093.93
536.469	80091.79
536.815	80090.6
537.161	80089.97
537.507	80091.23
537.853	80090.9
538.199	80090.19
538.545	80088.01
538.891	80086.46
539.237	80087.46
539.582	80087.31
539.928	80086.49
540.274	80085.79
540.619	80084.79
540.965	80086.05
541.31	80086.16
541.656	80086.94
542.001	80087.53
542.347	80087.34
542.692	80086.53
543.037	80086.42
543.382	80085.12
543.728	80086.94
544.073	80087.2
544.418	80087.57
544.763	80087.6
545.108	80086.79
545.453	80088.01
545.798	80090.45
546.142	80091.08
546.487	80090.68
546.832	80092.08
547.177	80091.08
547.521	80091.08
547.866	80092.42
548.211	80089.64
548.555	80090.16
548.9	80090.01
549.244	80089.05
549.588	80088.53
549.933	80088.53
550.277	80088.57
550.621	80090.6
550.965	80090.23
551.31	80090.34
551.654	80090.27
551.998	80088.68
552.342	80088.16
552.686	80086.05
553.03	80085.42
553.373	80086.79
553.717	80085.12
554.061	80082.83
554.405	80082.68
554.748	80082.53
555.092	80082.64
555.436	80084.72
555.779	80084.35
556.123	80081.83
556.466	80083.98
556.81	80084.83
557.153	80087.49
557.496	80086.53
557.839	80084.64
558.183	80084.31
558.526	80083.72
558.869	80083.87
559.212	80085.46
559.555	80084.68
559.898	80084.94
560.241	80084.09
560.584	80084.16
560.927	80083.9
561.269	80084.27
561.612	80085.87
561.955	80086.72
562.297	80085.05
562.64	80083.76
562.983	80083.02
563.325	80084.94
563.668	80083.2
564.01	80081.42
564.352	80078.8
564.695	80080.35
565.037	80080.87
565.379	80079.76
565.721	80078.54
566.063	80078.83
566.406	80078.57
566.748	80081.09
567.09	80080.46
567.431	80081.02
567.773	80080.94
568.115	80080.83
568.457	80079.79
568.799	80078.28
569.14	80076.46
569.482	80077.06
569.824	80077.91
570.165	80077.09
570.507	80077.72
570.848	80078.06
571.19	80078.28
571.531	80079.24
571.872	80078.91
572.214	80078.65
572.555	80078.94
572.896	80080.61
573.237	80078.72
573.578	80077.76
573.919	80075.65
574.26	80076.21
574.601	80074.47
574.942	80072.76
575.283	80072.99
575.624	80072.02
575.964	80070.66
576.305	80071.51
576.646	80070.84
576.986	80068.62
577.327	80068.62
577.667	80067.18
578.008	80066.47
578.348	80067.14
578.689	80067.73
579.029	80067.62
579.369	80069.4
579.71	80069.81
580.05	80068.18
580.39	80069.73
580.73	80069.44
581.07	80070.62
581.41	80070.18
581.75	80071.58
582.09	80071.84
582.43	80071.43
582.769	80073.39
583.109	80075.13
583.449	80072.95
583.789	80072.99
584.128	80073.88
584.468	80074.95
584.807	80075.21
585.147	80075.98
585.486	80075.36
585.825	80073.43
