Data from 24HourExp_27052025_FLMS018081_08-18-19-802.txt Node
Date: Wed May 28 08:18:19 BST 2025
User: adleo
Spectrometer: FLMS01808
Trigger mode: 0
Integration Time (sec): 4.000000E-1
Scans to average: 10
Electric dark correction enabled: true
Nonlinearity correction enabled: true
Boxcar width: 10
XAxis mode: Wavelengths
Number of Pixels in Spectrum: 2048
>>>>>Begin Spectral Data<<<<<
178.471	-123.41
178.857	-117.63
179.244	-110.81
179.631	-103.69
180.017	-96.48
180.404	-87.27
180.79	-77.5
181.176	-69.19
181.563	-59.37
181.949	-48.61
182.335	-37.64
182.722	-22.52
183.108	-4.68
183.494	22.02
183.88	76.08
184.266	130.17
184.653	187.68
185.039	241.19
185.425	296.38
185.811	349.68
186.197	403.23
186.582	454.78
186.968	508.65
187.354	560.88
187.74	612.47
188.126	664.1
188.511	712.41
188.897	762.12
189.283	810.47
189.668	855.55
190.054	899.33
190.439	945.05
190.825	990.7
191.21	1033.57
191.596	1066.5
191.981	1071.87
192.366	1075.8
192.752	1077.73
193.137	1083.05
193.522	1084.69
193.908	1085.86
194.293	1089.89
194.678	1092.17
195.063	1092.84
195.448	1093.16
195.833	1091.65
196.218	1089.78
196.603	1090.36
196.988	1087.8
197.373	1088.38
197.757	1087.99
198.142	1088.89
198.527	1085.2
198.912	1083.52
199.296	1081.01
199.681	1078.85
200.066	1078.09
200.45	1076.65
200.835	1075.58
201.219	1074.94
201.604	1073.17
201.988	1074.22
202.372	1074.76
202.757	1075.6
203.141	1075.93
203.525	1076.38
203.91	1078.22
204.294	1079.71
204.678	1080.79
205.062	1081.75
205.446	1080.58
205.83	1084.14
206.214	1083.99
206.598	1085.64
206.982	1087.1
207.366	1088.52
207.75	1089.97
208.134	1092.82
208.517	1095.01
208.901	1095.43
209.285	1095.92
209.669	1100.15
210.052	1099.79
210.436	1098.11
210.819	1098.84
211.203	1099.42
211.586	1100.43
211.97	1100.54
212.353	1101.68
212.737	1102.25
213.12	1104.08
213.503	1105.33
213.886	1104.84
214.27	1107.39
214.653	1108.94
215.036	1109.56
215.419	1112.84
215.802	1116.07
216.185	1117.38
216.568	1121.46
216.951	1126.09
217.334	1127.6
217.717	1129.04
218.1	1132.36
218.482	1137.26
218.865	1139.89
219.248	1143.66
219.631	1148.84
220.013	1157.04
220.396	1163.3
220.778	1168.89
221.161	1175.21
221.544	1184.16
221.926	1193.19
222.308	1201.26
222.691	1208.87
223.073	1220.4
223.455	1227.63
223.838	1236.58
224.22	1246.56
224.602	1256.27
224.984	1265.32
225.366	1277.16
225.749	1291.11
226.131	1304.08
226.513	1317.49
226.895	1331.81
227.276	1346.21
227.658	1362.43
228.04	1376.83
228.422	1393.84
228.804	1408.61
229.186	1424.96
229.567	1440.98
229.949	1457.02
230.331	1472.57
230.712	1490.16
231.094	1506.6
231.475	1525.29
231.857	1543.25
232.238	1561.21
232.62	1581.1
233.001	1600.93
233.382	1623.07
233.763	1641.55
234.145	1663.28
234.526	1681.66
234.907	1700.64
235.288	1719.63
235.669	1737.83
236.05	1754.43
236.431	1771.92
236.812	1794.71
237.193	1815.19
237.574	1834.22
237.955	1853.7
238.336	1874.86
238.717	1896.78
239.097	1917.55
239.478	1940.62
239.859	1963.32
240.239	1987.76
240.62	2010.18
241.001	2032.45
241.381	2054.54
241.762	2076.37
242.142	2097.49
242.522	2123.29
242.903	2149.12
243.283	2174.3
243.663	2201.21
244.044	2230.74
244.424	2259.36
244.804	2288.66
245.184	2317.24
245.564	2346.57
245.944	2376.58
246.324	2406.29
246.704	2436.79
247.084	2466.23
247.464	2495.5
247.844	2526.45
248.224	2557.28
248.604	2588.41
248.983	2620.19
249.363	2651.2
249.743	2684.66
250.122	2715.42
250.502	2745.23
250.882	2776.59
251.261	2809.38
251.641	2840.47
252.02	2873.07
252.399	2908.25
252.779	2939.72
253.158	2973.8
253.537	3012.91
253.917	3054.88
254.296	3095.64
254.675	3134.92
255.054	3175.22
255.433	3219.65
255.812	3260.55
256.191	3299.29
256.57	3338.89
256.949	3381.06
257.328	3426.1
257.707	3470.47
258.086	3517.13
258.465	3565.24
258.843	3615.71
259.222	3667.94
259.601	3720.39
259.979	3774.75
260.358	3823.99
260.736	3878.92
261.115	3937.43
261.493	3990.48
261.872	4042.13
262.25	4096.59
262.629	4150.28
263.007	4207.07
263.385	4262.32
263.763	4325.06
264.142	4390.07
264.52	4456.1
264.898	4524.29
265.276	4588.47
265.654	4656.55
266.032	4726.87
266.41	4795.54
266.788	4867.29
267.166	4942.26
267.544	5017.28
267.921	5092.04
268.299	5173.24
268.677	5253.01
269.055	5334.64
269.432	5418.41
269.81	5506.47
270.188	5596.05
270.565	5688.12
270.943	5784.3
271.32	5877.85
271.697	5970.74
272.075	6066.17
272.452	6163.01
272.829	6257.89
273.207	6361.59
273.584	6465.58
273.961	6572.22
274.338	6686.09
274.715	6801.16
275.092	6918.56
275.469	7039.28
275.846	7161.66
276.223	7286.53
276.6	7409.06
276.977	7534.44
277.354	7658.51
277.731	7781.86
278.108	7911.35
278.484	8043.04
278.861	8173.93
279.238	8312.63
279.614	8451.18
279.991	8594.03
280.367	8736.69
280.744	8889.27
281.12	9038
281.497	9184.92
281.873	9337.57
282.249	9484.63
282.625	9633.02
283.002	9780.54
283.378	9929.37
283.754	10082.1
284.13	10235
284.506	10392.59
284.882	10550.29
285.258	10710.3
285.634	10870.68
286.01	11035.18
286.386	11196.9
286.762	11359.43
287.138	11524.54
287.513	11691.46
287.889	11856.18
288.265	12023.1
288.641	12183.17
289.016	12342.57
289.392	12512.27
289.767	12677.67
290.143	12848.88
290.518	13012.22
290.894	13173.98
291.269	13334.61
291.644	13497.32
292.02	13652.09
292.395	13808.64
292.77	13961.46
293.145	14118.74
293.52	14278.41
293.895	14427.16
294.27	14579.85
294.646	14736.74
295.02	14884.68
295.395	15040.44
295.77	15199.65
296.145	15355.87
296.52	15513.68
296.895	15673.63
297.269	15823.38
297.644	15972.49
298.019	16124.19
298.393	16278.95
298.768	16432.73
299.143	16588.44
299.517	16737.21
299.891	16897.38
300.266	17054.84
300.64	17222.37
301.015	17383.09
301.389	17552.3
301.763	17727.76
302.137	17903.91
302.512	18085.43
302.886	18265.32
303.26	18447.02
303.634	18623.67
304.008	18798.6
304.382	18980.17
304.756	19162.97
305.13	19356.95
305.504	19542.4
305.877	19735.65
306.251	19946.6
306.625	20154.54
306.999	20365.17
307.372	20579.49
307.746	20798.4
308.119	21019.38
308.493	21229.31
308.866	21447.6
309.24	21662.23
309.613	21873.31
309.987	22083.77
310.36	22281.56
310.733	22489.25
311.107	22707.69
311.48	22924.39
311.853	23155.7
312.226	23379.73
312.599	23610.83
312.972	23833.39
313.345	24065.55
313.718	24294.24
314.091	24510.01
314.464	24737.23
314.837	24960.75
315.21	25175.92
315.582	25395.95
315.955	25605.19
316.328	25827.38
316.7	26045.86
317.073	26264.32
317.446	26486.22
317.818	26714.32
318.191	26951.79
318.563	27179.65
318.936	27390.12
319.308	27595.09
319.68	27801.66
320.053	27998.46
320.425	28182.84
320.797	28367.35
321.169	28534.76
321.541	28678.95
321.913	28813.11
322.285	28935.4
322.657	29060.61
323.029	29209.05
323.401	29350.77
323.773	29516.96
324.145	29688.03
324.517	29877.13
324.889	30060.18
325.26	30263.34
325.632	30480.27
326.004	30711.92
326.375	30966.49
326.747	31240.57
327.118	31554.75
327.49	31845.06
327.861	32161.06
328.233	32476.56
328.604	32787.32
328.975	33102.79
329.346	33417.78
329.718	33731.31
330.089	34039.4
330.46	34339.22
330.831	34613.58
331.202	34867.85
331.573	35120.95
331.944	35347.72
332.315	35572.08
332.686	35788.47
333.057	35986.16
333.428	36163.24
333.799	36334.43
334.169	36489.93
334.54	36632.36
334.911	36744.04
335.281	36869.98
335.652	36996.7
336.022	37128.34
336.393	37270.31
336.763	37434.6
337.134	37620.48
337.504	37822.35
337.874	38024.14
338.245	38225.43
338.615	38439.88
338.985	38671.5
339.355	38889.9
339.726	39114.27
340.096	39337.2
340.466	39585.34
340.836	39826.66
341.206	40075.01
341.576	40317.32
341.945	40560.68
342.315	40786.67
342.685	41033.51
343.055	41287.64
343.425	41525.24
343.794	41762.41
344.164	41994.02
344.533	42233.1
344.903	42463.21
345.273	42691.48
345.642	42919.8
346.011	43156.2
346.381	43399.57
346.75	43629.62
347.12	43872.35
347.489	44122.85
347.858	44364.7
348.227	44578.69
348.596	44806.92
348.965	45044.67
349.334	45275.87
349.704	45518.74
350.072	45771.22
350.441	45998.82
350.81	46233.58
351.179	46467.23
351.548	46704.17
351.917	46930.67
352.285	47117.59
352.654	47325.97
353.023	47538.12
353.391	47733.67
353.76	47943.95
354.129	48129.43
354.497	48369.31
354.865	48592.81
355.234	48826.73
355.602	49048.35
355.971	49297.52
356.339	49511.65
356.707	49719.21
357.075	49939.19
357.443	50150.5
357.811	50359.44
358.18	50574.17
358.548	50787.21
358.916	50989.48
359.284	51202.18
359.651	51415.54
360.019	51637.03
360.387	51840.65
360.755	52038
361.123	52268.86
361.49	52491.79
361.858	52702.79
362.226	52895.01
362.593	53092.78
362.961	53267.57
363.328	53466.95
363.696	53633.55
364.063	53851.23
364.43	54062.6
364.798	54272.44
365.165	54458.1
365.532	54648.93
365.899	54841.44
366.267	55002.64
366.634	55156.02
367.001	55322.59
367.368	55463.58
367.735	55649.23
368.102	55825.07
368.469	56017.96
368.835	56201.38
369.202	56367.71
369.569	56560.89
369.936	56751.47
370.303	56942.08
370.669	57148.96
371.036	57314.25
371.402	57518.51
371.769	57694.07
372.135	57848.59
372.502	57973.42
372.868	58117.98
373.235	58253.86
373.601	58389.03
373.967	58562.27
374.333	58748.11
374.7	58932.17
375.066	59142.11
375.432	59322.63
375.798	59497.89
376.164	59661.48
376.53	59802.44
376.896	59968.8
377.262	60150.17
377.628	60274.41
377.993	60419.25
378.359	60572.2
378.725	60726.8
379.091	60874.93
379.456	61010.7
379.822	61144.41
380.187	61301.79
380.553	61492.44
380.918	61690.12
381.284	61865.13
381.649	62037.99
382.015	62181.46
382.38	62297.56
382.745	62464.33
383.11	62616.31
383.476	62764.97
383.841	62900.19
384.206	63061.66
384.571	63184.63
384.936	63310.59
385.301	63487.93
385.666	63623.74
386.031	63762.25
386.396	63931.98
386.76	64080.66
387.125	64276.77
387.49	64475.38
387.855	64669.62
388.219	64838.45
388.584	65016.73
388.948	65207.67
389.313	65375.38
389.677	65582.16
390.042	65818.48
390.406	65971.83
390.771	66166.98
391.135	66354.6
391.499	66577.5
391.863	66809.78
392.227	67049.54
392.592	67252.67
392.956	67444.69
393.32	67646.03
393.684	67869.47
394.048	68040.63
394.412	68224.03
394.775	68365.04
395.139	68517.19
395.503	68674.73
395.867	68828.53
396.231	68976.28
396.594	69087.16
396.958	69229.37
397.321	69385.35
397.685	69501.88
398.048	69647.39
398.412	69774.91
398.775	69907.56
399.139	70043.62
399.502	70155.92
399.865	70294.56
400.228	70486.08
400.592	70614.4
400.955	70810.66
401.318	70935.76
401.681	71095.66
402.044	71236.9
402.407	71398.66
402.77	71558.11
403.133	71743.87
403.496	71884.93
403.859	72026.43
404.221	72255.92
404.584	72487.94
404.947	72727.08
405.309	72938.86
405.672	73170.82
406.034	73398.88
406.397	73653.96
406.759	73874.39
407.122	74056.18
407.484	74235.61
407.847	74422.84
408.209	74679.17
408.571	74902.5
408.933	75169.52
409.296	75430.94
409.658	75685.84
410.02	75959.36
410.382	76263.37
410.744	76517.15
411.106	76800.85
411.468	77076.97
411.83	77309.63
412.191	77503.42
412.553	77672.97
412.915	77879.07
413.277	78072.82
413.638	78256.21
414	78413.22
414.361	78575.33
414.723	78785.55
415.084	78980.7
415.446	79129.4
415.807	79251.52
416.169	79342.33
416.53	79413.39
416.891	79494.36
417.252	79587.65
417.614	79645.07
417.975	79672.81
418.336	79707.62
418.697	79745.39
419.058	79775.19
419.419	79799.35
419.78	79825.97
420.141	79845.21
420.501	79862.27
420.862	79875.2
421.223	79884.85
421.584	79906.34
421.944	79918.47
422.305	79927.84
422.666	79933.19
423.026	79935.89
423.387	79946.03
423.747	79954.63
424.107	79963.27
424.468	79971.09
424.828	79976.08
425.188	79978.81
425.549	79983.14
425.909	79988.13
426.269	79986.32
426.629	79992.04
426.989	79996.37
427.349	79998.21
427.709	80001.32
428.069	80003.06
428.429	80007.27
428.789	80013
429.149	80018.65
429.508	80021.28
429.868	80024.97
430.228	80029.04
430.587	80031.59
430.947	80035.29
431.306	80039.54
431.666	80041.02
432.025	80042.91
432.385	80041.98
432.744	80044.05
433.103	80045.39
433.463	80046.53
433.822	80053.63
434.181	80055.81
434.54	80057.14
434.899	80060.99
435.258	80063.24
435.618	80066.09
435.976	80068.46
436.335	80068.46
436.694	80069.76
437.053	80071.75
437.412	80072.16
437.771	80072.94
438.129	80073.34
438.488	80072.97
438.847	80071.94
439.205	80074.49
439.564	80076.75
439.922	80079.74
440.281	80080.71
440.639	80081.45
440.997	80081.48
441.356	80084.15
441.714	80084.74
442.072	80084.56
442.431	80082.22
442.789	80084.22
443.147	80084.45
443.505	80085.22
443.863	80085.74
444.221	80085.11
444.579	80083.85
444.937	80084.3
445.294	80085.59
445.652	80087.07
446.01	80086
446.368	80087.66
446.725	80087.33
447.083	80085.85
447.441	80087.59
447.798	80086.67
448.156	80087.66
448.513	80089.4
448.87	80086.96
449.228	80087.55
449.585	80088.15
449.942	80089.77
450.3	80089
450.657	80089.66
451.014	80090.14
451.371	80092.59
451.728	80093.7
452.085	80094.84
452.442	80094.96
452.799	80094.22
453.156	80093.62
453.513	80096.66
453.869	80097.07
454.226	80097.81
454.583	80098.51
454.939	80098.62
455.296	80100.47
455.653	80102.25
456.009	80102.43
456.366	80103.91
456.722	80102.99
457.078	80104.43
457.435	80105.58
457.791	80105.28
458.147	80105.69
458.503	80106.43
458.86	80106.1
459.216	80105.99
459.572	80105.54
459.928	80105.99
460.284	80106.62
460.64	80108.17
460.996	80107.25
461.351	80107.06
461.707	80107.25
462.063	80107.39
462.419	80105.36
462.774	80104.17
463.13	80102.69
463.486	80103.47
463.841	80103.32
464.197	80103.25
464.552	80102.17
464.908	80100.91
465.263	80102.58
465.618	80103.65
465.974	80103.65
466.329	80103.47
466.684	80103.95
467.039	80103.73
467.394	80102.99
467.749	80103.77
468.104	80104.28
468.459	80104.36
468.814	80103.65
469.169	80102.77
469.524	80103.47
469.879	80104.02
470.233	80105.65
470.588	80106.58
470.943	80106.21
471.297	80106.95
471.652	80110.13
472.006	80111.47
472.361	80113.84
472.715	80114.43
473.07	80112.17
473.424	80112.61
473.778	80113.13
474.133	80113.06
474.487	80114.54
474.841	80117.13
475.195	80118.43
475.549	80118.95
475.903	80120.13
476.257	80121.91
476.611	80122.5
476.965	80124.5
477.319	80127.13
477.673	80127.28
478.026	80127.87
478.38	80128.98
478.734	80129.98
479.087	80128.57
479.441	80129.2
479.795	80130.02
480.148	80131.06
480.502	80132.68
480.855	80133.09
481.208	80133.68
481.562	80132.87
481.915	80134.24
482.268	80134.46
482.621	80134.76
482.974	80135.54
483.328	80135.76
483.681	80135.83
484.034	80136.68
484.387	80135.05
484.739	80134.02
485.092	80134.72
485.445	80134.28
485.798	80134.72
486.151	80134.76
486.503	80137.02
486.856	80135.91
487.209	80135.35
487.561	80134.65
487.914	80135.91
488.266	80135.87
488.618	80135.98
488.971	80137.76
489.323	80137.46
489.675	80136.5
490.028	80136.87
490.38	80133.98
490.732	80134.13
491.084	80135.09
491.436	80134.65
491.788	80135.91
492.14	80136.57
492.492	80137.09
492.844	80138.95
493.196	80137.83
493.548	80137.54
493.899	80134.95
494.251	80135.13
494.603	80133.21
494.954	80132.83
495.306	80132.09
495.657	80131.95
496.009	80132.69
496.36	80132.98
496.712	80134.09
497.063	80134.65
497.414	80134.84
497.765	80138.17
498.117	80137.43
498.468	80137.72
498.819	80139.87
499.17	80139.28
499.521	80139.28
499.872	80139.13
500.223	80138.76
500.574	80140.39
500.924	80140.46
501.275	80142.83
501.626	80143.28
501.977	80144.65
502.327	80144.43
502.678	80143.61
503.029	80144.61
503.379	80143.2
503.73	80142.09
504.08	80142.02
504.43	80140.91
504.781	80140.5
505.131	80139.35
505.481	80139.87
505.831	80139.69
506.182	80139.35
506.532	80140.31
506.882	80139.94
507.232	80138.69
507.582	80138.31
507.932	80137.5
508.281	80137.57
508.631	80136.83
508.981	80137.2
509.331	80140.09
509.681	80139.91
510.03	80141.61
510.38	80140.65
510.729	80140.5
511.079	80140.13
511.428	80139.17
511.778	80139.06
512.127	80138.09
512.476	80138.5
512.826	80137.65
513.175	80137.35
513.524	80135.65
513.873	80136.02
514.222	80135.87
514.571	80135.76
514.92	80135.5
515.269	80135.2
515.618	80135.5
515.967	80135.72
516.316	80136.09
516.665	80132.98
517.014	80134.91
517.362	80133.91
517.711	80135.46
518.059	80136.65
518.408	80137.57
518.757	80138.32
519.105	80139.72
519.453	80140.06
519.802	80139.54
520.15	80141.2
520.498	80141.35
520.847	80141.28
521.195	80139.83
521.543	80140.24
521.891	80141.2
522.239	80141.61
522.587	80140.39
522.935	80140.46
523.283	80139.17
523.631	80138.83
523.979	80140.61
524.326	80138.69
524.674	80137.8
525.022	80138.2
525.369	80138.28
525.717	80138.8
526.064	80139.09
526.412	80136.65
526.759	80137.02
527.107	80137.39
527.454	80136.72
527.801	80135.57
528.149	80136.5
528.496	80136.28
528.843	80135.69
529.19	80134.69
529.537	80134.02
529.884	80135.43
530.231	80135.35
530.578	80136.17
530.925	80137.43
531.272	80136.17
531.619	80136.76
531.966	80136.8
532.312	80133.2
532.659	80132.65
533.006	80132.8
533.352	80131.76
533.699	80134.46
534.045	80134.24
534.392	80134.76
534.738	80134.91
535.084	80136.98
535.431	80138.43
535.777	80137.13
536.123	80138.32
536.469	80137.98
536.815	80140.13
537.161	80140.95
537.507	80140.5
537.853	80140.54
538.199	80139.87
538.545	80138.76
538.891	80138.1
539.237	80140.32
539.582	80141.91
539.928	80141.58
540.274	80141.17
540.619	80142.98
540.965	80141.76
541.31	80142.5
541.656	80141.32
542.001	80141.32
542.347	80139.28
542.692	80137.35
543.037	80138.87
543.382	80138.76
543.728	80140.46
544.073	80137.8
544.418	80136.35
544.763	80137.39
545.108	80138.91
545.453	80139.39
545.798	80140.87
546.142	80140.87
546.487	80140.17
546.832	80140.46
547.177	80139.69
547.521	80140.09
547.866	80139.61
548.211	80140.95
548.555	80140.65
548.9	80141.95
549.244	80140.28
549.588	80140.91
549.933	80142.2
550.277	80141.98
550.621	80141.13
550.965	80140.91
551.31	80141.5
551.654	80142.43
551.998	80142.06
552.342	80140.43
552.686	80139.8
553.03	80139.28
553.373	80139.87
553.717	80139.17
554.061	80140.43
554.405	80140.94
554.748	80140.02
555.092	80138.98
555.436	80137.54
555.779	80138.54
556.123	80137.98
556.466	80140.43
556.81	80139.94
557.153	80139.46
557.496	80138.65
557.839	80138.76
558.183	80139.72
558.526	80139.83
558.869	80139.76
559.212	80139.17
559.555	80138.65
559.898	80138.28
560.241	80138.94
560.584	80139.54
560.927	80138.28
561.269	80138.43
561.612	80137.76
561.955	80137.39
562.297	80136.72
562.64	80138.28
562.983	80138.17
563.325	80138.17
563.668	80137.32
564.01	80137.94
564.352	80137.35
564.695	80139.06
565.037	80138.69
565.379	80134.83
565.721	80135.24
566.063	80133.87
566.406	80133.24
566.748	80132.95
567.09	80130.98
567.431	80130.17
567.773	80130.91
568.115	80130.69
568.457	80129.95
568.799	80131.43
569.14	80132.54
569.482	80132.61
569.824	80131.95
570.165	80131.13
570.507	80130.28
570.848	80130.87
571.19	80130.17
571.531	80131.13
571.872	80129.87
572.214	80129.98
572.555	80130.91
572.896	80129.8
573.237	80130.72
573.578	80130.24
573.919	80130.65
574.26	80132.17
574.601	80133.28
574.942	80131.39
575.283	80133.09
575.624	80130.69
575.964	80129.06
576.305	80128.17
576.646	80126.39
576.986	80126.09
577.327	80124.83
577.667	80126.39
578.008	80124.5
578.348	80125.61
578.689	80124.39
579.029	80124.94
579.369	80123.46
579.71	80123.98
580.05	80124.46
580.39	80123.65
580.73	80124.32
581.07	80123.28
581.41	80122.57
581.75	80121.98
582.09	80121.5
582.43	80119.58
582.769	80121.32
583.109	80121.2
583.449	80120.43
583.789	80120.65
584.128	80118.91
584.468	80119.43
584.807	80116.69
585.147	80115.65
585.486	80113.91
