Data from 24HourExp_27052025_FLMS018081_05-18-20-061.txt Node
Date: Wed May 28 05:18:20 BST 2025
User: adleo
Spectrometer: FLMS01808
Trigger mode: 0
Integration Time (sec): 4.000000E-1
Scans to average: 10
Electric dark correction enabled: true
Nonlinearity correction enabled: true
Boxcar width: 10
XAxis mode: Wavelengths
Number of Pixels in Spectrum: 2048
>>>>>Begin Spectral Data<<<<<
178.471	-126.12
178.857	-121.01
179.244	-114.14
179.631	-105.69
180.017	-97.66
180.404	-90.68
180.79	-79.67
181.176	-69.37
181.563	-61.21
181.949	-50.7
182.335	-39.54
182.722	-24.42
183.108	-6.11
183.494	21.58
183.88	75.22
184.266	128.12
184.653	184.48
185.039	237.06
185.425	292.51
185.811	345.71
186.197	398.46
186.582	448.25
186.968	502.21
187.354	552.9
187.74	604.51
188.126	654.4
188.511	705.98
188.897	752.84
189.283	798.99
189.668	847.2
190.054	889.94
190.439	933.99
190.825	977.22
191.21	1016.96
191.596	1046.4
191.981	1053.68
192.366	1057.07
192.752	1059.26
193.137	1064.11
193.522	1065.18
193.908	1067.45
194.293	1070.26
194.678	1073.33
195.063	1073.63
195.448	1077.23
195.833	1075.61
196.218	1075.34
196.603	1072.48
196.988	1073.22
197.373	1072.82
197.757	1071.31
198.142	1073.04
198.527	1070.94
198.912	1069.87
199.296	1069.38
199.681	1069.25
200.066	1068.99
200.45	1069.33
200.835	1068.62
201.219	1068.27
201.604	1069
201.988	1070.52
202.372	1070.87
202.757	1070.21
203.141	1071.32
203.525	1070.92
203.91	1072.24
204.294	1073.53
204.678	1076.33
205.062	1074.56
205.446	1076.59
205.83	1076.91
206.214	1075.51
206.598	1076.74
206.982	1079.19
207.366	1080.07
207.75	1081.07
208.134	1082.79
208.517	1085.46
208.901	1085.87
209.285	1087.59
209.669	1088.33
210.052	1086.52
210.436	1085.43
210.819	1086.04
211.203	1086.32
211.586	1085.91
211.97	1087.06
212.353	1087.53
212.737	1089.17
213.12	1091.4
213.503	1090.68
213.886	1092
214.27	1094.04
214.653	1096.27
215.036	1097.72
215.419	1100.22
215.802	1104.05
216.185	1105.16
216.568	1107.56
216.951	1110.58
217.334	1111.27
217.717	1114.01
218.1	1115.89
218.482	1118.95
218.865	1123.65
219.248	1126.76
219.631	1132.18
220.013	1137.36
220.396	1145.57
220.778	1149.01
221.161	1155.22
221.544	1162.64
221.926	1170.92
222.308	1178.65
222.691	1184.99
223.073	1193.81
223.455	1201.05
223.838	1209.84
224.22	1220.07
224.602	1230
224.984	1240.37
225.366	1252.88
225.749	1266.34
226.131	1280.04
226.513	1294.19
226.895	1307.52
227.276	1324.51
227.658	1341.34
228.04	1355.88
228.422	1368.65
228.804	1385.76
229.186	1402.13
229.567	1420.56
229.949	1436.68
230.331	1454.8
230.712	1472.58
231.094	1489.16
231.475	1510.29
231.857	1528.41
232.238	1547.52
232.62	1565.76
233.001	1585.59
233.382	1605.72
233.763	1623.94
234.145	1644.2
234.526	1665.52
234.907	1686.03
235.288	1702.01
235.669	1718.42
236.05	1738.54
236.431	1757.01
236.812	1776.08
237.193	1796.6
237.574	1815.81
237.955	1837.47
238.336	1858.57
238.717	1880.78
239.097	1906.33
239.478	1926.94
239.859	1949.77
240.239	1971.45
240.62	1994.95
241.001	2017.11
241.381	2042.1
241.762	2064.48
242.142	2089.58
242.522	2113.06
242.903	2135.41
243.283	2161.31
243.663	2187.77
244.044	2216.95
244.424	2245.32
244.804	2274.39
245.184	2302.13
245.564	2329.65
245.944	2358.96
246.324	2387.72
246.704	2417.32
247.084	2444.23
247.464	2475.73
247.844	2505.89
248.224	2538.67
248.604	2568.86
248.983	2602.27
249.363	2632.8
249.743	2666.55
250.122	2694.98
250.502	2725.1
250.882	2757.8
251.261	2789.43
251.641	2822.75
252.02	2853.53
252.399	2888.3
252.779	2924.38
253.158	2959.44
253.537	2998.45
253.917	3041.94
254.296	3081.18
254.675	3121.27
255.054	3161.19
255.433	3200.5
255.812	3241.08
256.191	3280.54
256.57	3322.04
256.949	3363.81
257.328	3405.72
257.707	3448.89
258.086	3497.29
258.465	3545.61
258.843	3596.57
259.222	3648.68
259.601	3699.66
259.979	3750.93
260.358	3806.4
260.736	3856.34
261.115	3912.16
261.493	3966.04
261.872	4015.06
262.25	4072.38
262.629	4127.95
263.007	4187.13
263.385	4248.67
263.763	4308.6
264.142	4372.63
264.52	4437.85
264.898	4501.8
265.276	4568.18
265.654	4637.51
266.032	4707.09
266.41	4776.05
266.788	4844.97
267.166	4917.95
267.544	4993.54
267.921	5069.61
268.299	5143.93
268.677	5224
269.055	5305.71
269.432	5390.74
269.81	5476.29
270.188	5561.27
270.565	5647.82
270.943	5740.04
271.32	5829.22
271.697	5922.72
272.075	6015.86
272.452	6110.46
272.829	6206.48
273.207	6309.69
273.584	6410.86
273.961	6513.24
274.338	6622.72
274.715	6740.65
275.092	6859.11
275.469	6978.55
275.846	7102.08
276.223	7225.51
276.6	7348.53
276.977	7472.85
277.354	7595.95
277.731	7721.53
278.108	7850.4
278.484	7983
278.861	8108.96
279.238	8245.12
279.614	8384.51
279.991	8530.25
280.367	8677.02
280.744	8826.48
281.12	8973.21
281.497	9120.9
281.873	9273.09
282.249	9427.01
282.625	9573.38
283.002	9717.59
283.378	9863.86
283.754	10011.39
284.13	10163.29
284.506	10322.21
284.882	10481.1
285.258	10638.45
285.634	10794.89
286.01	10956.64
286.386	11114.58
286.762	11280.69
287.138	11444.57
287.513	11609.08
287.889	11766.84
288.265	11925.64
288.641	12087.25
289.016	12246.98
289.392	12409.92
289.767	12570.96
290.143	12735.54
290.518	12896.26
290.894	13062.87
291.269	13219.49
291.644	13378.45
292.02	13529.83
292.395	13680.1
292.77	13829.32
293.145	13981.52
293.52	14138.76
293.895	14289.07
294.27	14445.02
294.646	14598
295.02	14746.65
295.395	14894.68
295.77	15054.14
296.145	15208.22
296.52	15361.5
296.895	15514.82
297.269	15669.6
297.644	15825.37
298.019	15974.55
298.393	16127.29
298.768	16277.55
299.143	16439.32
299.517	16596.95
299.891	16760.59
300.266	16921.53
300.64	17083.46
301.015	17246.42
301.389	17413.14
301.763	17583.07
302.137	17751.11
302.512	17928.72
302.886	18103
303.26	18285.74
303.634	18462.98
304.008	18638.93
304.382	18816.4
304.756	18996.85
305.13	19181.65
305.504	19361.47
305.877	19552.86
306.251	19754.14
306.625	19956.47
306.999	20162.28
307.372	20366.92
307.746	20579.03
308.119	20795.92
308.493	21005.84
308.866	21219.27
309.24	21429.92
309.613	21642.36
309.987	21850.89
310.36	22042.77
310.733	22252.54
311.107	22468.81
311.48	22681.81
311.853	22912.92
312.226	23137.2
312.599	23366.45
312.972	23584.7
313.345	23810.01
313.718	24031.33
314.091	24252.52
314.464	24478.74
314.837	24698.3
315.21	24909.84
315.582	25125.78
315.955	25330.4
316.328	25552.39
316.7	25766.96
317.073	25990.25
317.446	26207.66
317.818	26439.02
318.191	26677.68
318.563	26901.88
318.936	27111.47
319.308	27314.71
319.68	27514.13
320.053	27710.53
320.425	27899.92
320.797	28088.61
321.169	28251.5
321.541	28396.82
321.913	28527.69
322.285	28644.17
322.657	28768.89
323.029	28910.9
323.401	29056.45
323.773	29226.07
324.145	29397.87
324.517	29587.56
324.889	29765.51
325.26	29966.66
325.632	30175.7
326.004	30406.38
326.375	30658.5
326.747	30931.2
327.118	31240.61
327.49	31522.83
327.861	31834.49
328.233	32138.11
328.604	32444.26
328.975	32762.04
329.346	33074.81
329.718	33385.18
330.089	33692.52
330.46	33983.87
330.831	34259.24
331.202	34519.22
331.573	34766.94
331.944	34990.37
332.315	35214.99
332.686	35431.77
333.057	35627.94
333.428	35810.24
333.799	35978.99
334.169	36137.92
334.54	36272.47
334.911	36386.79
335.281	36524.77
335.652	36646.8
336.022	36780.41
336.393	36922.07
336.763	37082.23
337.134	37268.16
337.504	37465.6
337.874	37666.36
338.245	37870.93
338.615	38095.98
338.985	38317.9
339.355	38530.13
339.726	38754.96
340.096	38973.73
340.466	39221.98
340.836	39468.22
341.206	39712.62
341.576	39958.76
341.945	40193.43
342.315	40427.63
342.685	40669.81
343.055	40915.93
343.425	41157.82
343.794	41389.88
344.164	41627.31
344.533	41865.91
344.903	42093.68
345.273	42330.52
345.642	42558.75
346.011	42792.89
346.381	43019.67
346.75	43245.84
347.12	43492.7
347.489	43739.91
347.858	43983.12
348.227	44196.43
348.596	44412.31
348.965	44647.01
349.334	44875.91
349.704	45116.84
350.072	45364.05
350.441	45593.66
350.81	45830.73
351.179	46059.3
351.548	46296.68
351.917	46513.08
352.285	46702.87
352.654	46908.12
353.023	47108.18
353.391	47306.73
353.76	47515.32
354.129	47700.76
354.497	47940.43
354.865	48164.43
355.234	48398.24
355.602	48616.81
355.971	48856.81
356.339	49072.55
356.707	49291.07
357.075	49509.97
357.443	49731.44
357.811	49942.26
358.18	50152.81
358.548	50362.5
358.916	50569.52
359.284	50784.3
359.651	51008.13
360.019	51223.8
360.387	51428.36
360.755	51630
361.123	51860.93
361.49	52080.5
361.858	52298.35
362.226	52488.62
362.593	52681.81
362.961	52855.07
363.328	53055.38
363.696	53225.33
364.063	53445.39
364.43	53642.61
364.798	53855.65
365.165	54039.91
365.532	54220.41
365.899	54406.47
366.267	54569.05
366.634	54712.39
367.001	54876.89
367.368	55010.73
367.735	55198.82
368.102	55372.4
368.469	55568.79
368.835	55745.37
369.202	55917.31
369.569	56112
369.936	56304.21
370.303	56494
370.669	56688.88
371.036	56848.55
371.402	57045.75
371.769	57229.89
372.135	57378.62
372.502	57496.26
372.868	57627.23
373.235	57774.19
373.601	57915.01
373.967	58087.6
374.333	58279.96
374.7	58458.39
375.066	58659.54
375.432	58842
375.798	59018.52
376.164	59182.11
376.53	59327.54
376.896	59488.19
377.262	59657.34
377.628	59782.29
377.993	59923.52
378.359	60067.94
378.725	60224.48
379.091	60382.05
379.456	60506.81
379.822	60643.91
380.187	60797.92
380.553	60991.19
380.918	61183.82
381.284	61357.34
381.649	61528.09
382.015	61666.27
382.38	61790.71
382.745	61961.39
383.11	62109.83
383.476	62253.83
383.841	62383.81
384.206	62537.52
384.571	62654.3
384.936	62788.5
385.301	62960.46
385.666	63092.2
386.031	63248.75
386.396	63412.49
386.76	63559.14
387.125	63754.82
387.49	63958.78
387.855	64143.71
388.219	64313.75
388.584	64483.19
388.948	64669.9
389.313	64823.71
389.677	65031.05
390.042	65255.32
390.406	65410.85
390.771	65592.2
391.135	65776.68
391.499	66001.22
391.863	66224.7
392.227	66469.36
392.592	66668.33
392.956	66861.37
393.32	67048.97
393.684	67262.54
394.048	67434.65
394.412	67611.33
394.775	67745.29
395.139	67884.51
395.503	68051.88
395.867	68192.12
396.231	68332.47
396.594	68434.78
396.958	68583.47
397.321	68729.92
397.685	68858.21
398.048	68986.1
398.412	69126.9
398.775	69250.68
399.139	69371.38
399.502	69491.83
399.865	69626.47
400.228	69818.43
400.592	69948.48
400.955	70152.17
401.318	70286.47
401.681	70445.05
402.044	70582.41
402.407	70746.2
402.77	70904.34
403.133	71092.23
403.496	71242.21
403.859	71398.56
404.221	71637.39
404.584	71872.6
404.947	72125.5
405.309	72324.08
405.672	72558.56
406.034	72778.96
406.397	73032.21
406.759	73256.4
407.122	73426.69
407.484	73605.8
407.847	73790.83
408.209	74036.64
408.571	74265.48
408.933	74524.62
409.296	74774.36
409.658	75016.08
410.02	75289.26
410.382	75604.08
410.744	75859.61
411.106	76147.23
411.468	76420.66
411.83	76661.05
412.191	76864.23
412.553	77040.1
412.915	77267.49
413.277	77485.26
413.638	77688.92
414	77867.97
414.361	78051.67
414.723	78295.05
415.084	78516.32
415.446	78688.42
415.807	78837.34
416.169	78952.53
416.53	79047.02
416.891	79161.75
417.252	79294.33
417.614	79377.08
417.975	79422.92
418.336	79476.26
418.697	79535.66
419.058	79590.43
419.419	79630.91
419.78	79672.11
420.141	79704.16
420.501	79731.27
420.862	79753.23
421.223	79770.83
421.584	79809.78
421.944	79832.22
422.305	79843.56
422.666	79850.42
423.026	79853.48
423.387	79866.63
423.747	79878.05
424.107	79891.94
424.468	79905.43
424.828	79912.85
425.188	79918.79
425.549	79927.61
425.909	79934.48
426.269	79932.41
426.629	79937.69
426.989	79941.6
427.349	79946.92
427.709	79952.42
428.069	79954.75
428.429	79962.17
428.789	79970.11
429.149	79975.98
429.508	79979.34
429.868	79983.78
430.228	79989.13
430.587	79994.49
430.947	79998.59
431.306	80004.32
431.666	80007.12
432.025	80007.57
432.385	80011.67
432.744	80013.34
433.103	80014.22
433.463	80015.96
433.822	80025.6
434.181	80029.33
434.54	80031.55
434.899	80031.92
435.258	80033.25
435.618	80035.47
435.976	80037.43
436.335	80037.91
436.694	80039.17
437.053	80040.13
437.412	80041.75
437.771	80041.87
438.129	80042.98
438.488	80044.82
438.847	80045.08
439.205	80046.93
439.564	80048.52
439.922	80048.34
440.281	80049.67
440.639	80050.89
440.997	80052.66
441.356	80053.4
441.714	80055.18
442.072	80056.77
442.431	80057.18
442.789	80057.58
443.147	80059.47
443.505	80059.77
443.863	80060.17
444.221	80059.1
444.579	80059.69
444.937	80059.88
445.294	80062.21
445.652	80063.43
446.01	80064.54
446.368	80064.76
446.725	80064.76
447.083	80063.8
447.441	80061.47
447.798	80060.51
448.156	80059.69
448.513	80058.81
448.87	80058.77
449.228	80057.14
449.585	80056.51
449.942	80056.48
450.3	80058.29
450.657	80059.44
451.014	80059.81
451.371	80059.4
451.728	80059.92
452.085	80059.1
452.442	80059.77
452.799	80060.8
453.156	80061.1
453.513	80060.92
453.869	80061.4
454.226	80060.92
454.583	80062.8
454.939	80063.99
455.296	80064.47
455.653	80066.54
456.009	80066.91
456.366	80067.31
456.722	80069.94
457.078	80070.16
457.435	80071.09
457.791	80070.5
458.147	80070.61
458.503	80071.64
458.86	80073.23
459.216	80074.71
459.572	80075.93
459.928	80075.86
460.284	80074.49
460.64	80074.86
460.996	80073.09
461.351	80072.53
461.707	80072.94
462.063	80072.09
462.419	80073.05
462.774	80074.34
463.13	80074.2
463.486	80075.19
463.841	80074.6
464.197	80073.05
464.552	80072.42
464.908	80073.01
465.263	80072.12
465.618	80070.46
465.974	80072.2
466.329	80072.38
466.684	80072.64
467.039	80072.75
467.394	80073.23
467.749	80073.42
468.104	80073.16
468.459	80075.94
468.814	80076.75
469.169	80078.23
469.524	80079.23
469.879	80080.3
470.233	80080.26
470.588	80082.19
470.943	80081.71
471.297	80082.41
471.652	80084
472.006	80085.56
472.361	80086.52
472.715	80089.03
473.07	80090.44
473.424	80089.7
473.778	80090.33
474.133	80090.52
474.487	80092.37
474.841	80091.85
475.195	80091.92
475.549	80093.03
475.903	80092.51
476.257	80094.59
476.611	80095.73
476.965	80097.03
477.319	80097.62
477.673	80098.7
478.026	80099.77
478.38	80101.14
478.734	80101.88
479.087	80102.92
479.441	80103.55
479.795	80104.54
480.148	80104.21
480.502	80104.99
480.855	80105.29
481.208	80105.14
481.562	80106.28
481.915	80105.73
482.268	80106.99
482.621	80108.14
482.974	80107.88
483.328	80109.8
483.681	80108.62
484.034	80107.65
484.387	80107.69
484.739	80107.65
485.092	80107.36
485.445	80106.54
485.798	80105.28
486.151	80105.77
486.503	80107.36
486.856	80107.54
487.209	80107.69
487.561	80108.03
487.914	80106.43
488.266	80106.21
488.618	80106.1
488.971	80105.47
489.323	80107.4
489.675	80107.88
490.028	80107.51
490.38	80108.32
490.732	80106.77
491.084	80108.69
491.436	80108.43
491.788	80108.54
492.14	80108.73
492.492	80109.36
492.844	80109.06
493.196	80109.77
493.548	80109.06
493.899	80107.77
494.251	80106.91
494.603	80106.43
494.954	80104.69
495.306	80104.84
495.657	80106.4
496.009	80107.43
496.36	80105.73
496.712	80104.77
497.063	80104.92
497.414	80106.25
497.765	80106.29
498.117	80107.25
498.468	80105.51
498.819	80107.73
499.17	80107.91
499.521	80108.62
499.872	80107.25
500.223	80107.92
500.574	80108.84
500.924	80109.43
501.275	80109.14
501.626	80109.62
501.977	80111.1
502.327	80113.1
502.678	80114.5
503.029	80114.02
503.379	80113.47
503.73	80114.54
504.08	80113.73
504.43	80112.84
504.781	80113.21
505.131	80112.91
505.481	80111.91
505.831	80111.99
506.182	80110.39
506.532	80110.21
506.882	80108.99
507.232	80111.36
507.582	80111.54
507.932	80111.65
508.281	80112.84
508.631	80111.99
508.981	80112.36
509.331	80112.36
509.681	80112.43
510.03	80112.58
510.38	80110.62
510.729	80109.91
511.079	80112.69
511.428	80113.99
511.778	80114.17
512.127	80114.21
512.476	80114.54
512.826	80115.95
513.175	80116.21
513.524	80117.32
513.873	80118.24
514.222	80118.24
514.571	80117.69
514.92	80115.65
515.269	80114.62
515.618	80112.47
515.967	80113.06
516.316	80112.47
516.665	80110.21
517.014	80109.91
517.362	80109.43
517.711	80111.8
518.059	80112.88
518.408	80110.32
518.757	80108.8
519.105	80109.39
519.453	80108.65
519.802	80108.06
520.15	80107.03
520.498	80106.47
520.847	80104.99
521.195	80103.62
521.543	80104.25
521.891	80104.06
522.239	80104.99
522.587	80106.47
522.935	80108.32
523.283	80108.21
523.631	80108.54
523.979	80108.84
524.326	80108.36
524.674	80107.62
525.022	80105.06
525.369	80104.73
525.717	80106.77
526.064	80108.02
526.412	80108.8
526.759	80108.62
527.107	80108.65
527.454	80108.25
527.801	80108.77
528.149	80109.54
528.496	80110.58
528.843	80110.69
529.19	80109.88
529.537	80110.95
529.884	80110.73
530.231	80109.95
530.578	80109.25
530.925	80110.65
531.272	80111.65
531.619	80112.17
531.966	80112.1
532.312	80113.39
532.659	80112.47
533.006	80111.06
533.352	80110.43
533.699	80110.91
534.045	80111.21
534.392	80111.8
534.738	80111.47
535.084	80112.88
535.431	80113.36
535.777	80113.8
536.123	80112.28
536.469	80112.32
536.815	80111.54
537.161	80111.58
537.507	80110.8
537.853	80111.88
538.199	80110.54
538.545	80110.1
538.891	80108.47
539.237	80110.06
539.582	80110.43
539.928	80111.91
540.274	80111.65
540.619	80112.25
540.965	80110.62
541.31	80111.95
541.656	80112.1
542.001	80114.65
542.347	80114.13
542.692	80112.65
543.037	80111.36
543.382	80113.32
543.728	80114.1
544.073	80114.17
544.418	80112.21
544.763	80114.43
545.108	80113.91
545.453	80113.54
545.798	80113.06
546.142	80113.47
546.487	80113.95
546.832	80114.8
547.177	80115.91
547.521	80116.95
547.866	80117.84
548.211	80119.17
548.555	80117.84
548.9	80116.62
549.244	80114.91
549.588	80113.99
549.933	80114.21
550.277	80116.28
550.621	80116.28
550.965	80115.43
551.31	80115.84
551.654	80115.95
551.998	80115.21
552.342	80114.73
552.686	80116.88
553.03	80116.62
553.373	80118.13
553.717	80117.5
554.061	80116.73
554.405	80115.17
554.748	80114.02
555.092	80111.76
555.436	80110.69
555.779	80109.51
556.123	80109.51
556.466	80110.58
556.81	80110.28
557.153	80110.84
557.496	80109.91
557.839	80109.32
558.183	80109.51
558.526	80108.95
558.869	80110.84
559.212	80109.62
559.555	80109.58
559.898	80108.32
560.241	80109.17
560.584	80109.65
560.927	80108.69
561.269	80110.36
561.612	80110.65
561.955	80110.25
562.297	80112.1
562.64	80111.36
562.983	80111.91
563.325	80111.43
563.668	80110.65
564.01	80110.88
564.352	80108.88
564.695	80107.58
565.037	80106.47
565.379	80106.17
565.721	80105.51
566.063	80104.92
566.406	80105.32
566.748	80105.18
567.09	80104.14
567.431	80103.36
567.773	80102.84
568.115	80101.88
568.457	80099.07
568.799	80098.47
569.14	80098.88
569.482	80096.92
569.824	80099.03
570.165	80097.47
570.507	80098.36
570.848	80098.4
571.19	80097.55
571.531	80099.66
571.872	80100.44
572.214	80101.99
572.555	80101.55
572.896	80101.32
573.237	80100.99
573.578	80100.55
573.919	80099.77
574.26	80099.1
574.601	80100.29
574.942	80098.66
575.283	80100.36
575.624	80100.36
575.964	80100.18
576.305	80099.22
576.646	80099.33
576.986	80098.47
577.327	80099.55
577.667	80098.47
578.008	80098.73
578.348	80098.22
578.689	80097.96
579.029	80096.59
579.369	80094.81
579.71	80095.29
580.05	80096.07
580.39	80094.99
580.73	80094.44
581.07	80095.77
581.41	80096.92
581.75	80094.74
582.09	80095.77
582.43	80094.99
582.769	80096.55
583.109	80095.44
583.449	80095.7
583.789	80094.96
584.128	80093.59
584.468	80092.63
584.807	80093.33
585.147	80092.07
585.486	80092.66
585.825	80091.74
