Data from 24HourExp_27052025_FLMS018081_02-08-20-561.txt Node
Date: Wed May 28 02:08:20 BST 2025
User: adleo
Spectrometer: FLMS01808
Trigger mode: 0
Integration Time (sec): 4.000000E-1
Scans to average: 10
Electric dark correction enabled: true
Nonlinearity correction enabled: true
Boxcar width: 10
XAxis mode: Wavelengths
Number of Pixels in Spectrum: 2048
>>>>>Begin Spectral Data<<<<<
178.471	-126.58
178.857	-121.01
179.244	-114.98
179.631	-106.13
180.017	-98.73
180.404	-89.75
180.79	-79.14
181.176	-69.59
181.563	-60.22
181.949	-48.82
182.335	-38.19
182.722	-22.19
183.108	-3.6
183.494	22.37
183.88	75.05
184.266	128.94
184.653	186.34
185.039	240.85
185.425	297.35
185.811	350
186.197	402.61
186.582	455.63
186.968	509.55
187.354	563.48
187.74	613.68
188.126	665.68
188.511	713.94
188.897	760.53
189.283	807.43
189.668	853.22
190.054	894.99
190.439	939.05
190.825	981.54
191.21	1022.18
191.596	1054.65
191.981	1063.35
192.366	1067.29
192.752	1068.47
193.137	1072.37
193.522	1073.1
193.908	1077.09
194.293	1079.92
194.678	1083.27
195.063	1084.85
195.448	1085.88
195.833	1086.37
196.218	1085.64
196.603	1087.08
196.988	1088.38
197.373	1088.9
197.757	1090.59
198.142	1091.75
198.527	1089.69
198.912	1089.36
199.296	1089.62
199.681	1089.61
200.066	1087.68
200.45	1087.83
200.835	1086.76
201.219	1084.73
201.604	1084.58
201.988	1084.71
202.372	1085.4
202.757	1084.17
203.141	1085.67
203.525	1086.44
203.91	1087.52
204.294	1087.97
204.678	1089.26
205.062	1087.78
205.446	1087.74
205.83	1088.48
206.214	1089.38
206.598	1090.92
206.982	1093.36
207.366	1093.27
207.75	1094.43
208.134	1096.11
208.517	1096.58
208.901	1097.91
209.285	1100.22
209.669	1101.72
210.052	1099.93
210.436	1099.92
210.819	1100.82
211.203	1100.25
211.586	1099.04
211.97	1099.56
212.353	1100.94
212.737	1101.23
213.12	1105.42
213.503	1106.23
213.886	1106.61
214.27	1109.66
214.653	1110.44
215.036	1112.64
215.419	1114.02
215.802	1115.8
216.185	1118.08
216.568	1121.55
216.951	1124.8
217.334	1126.59
217.717	1130.33
218.1	1135.16
218.482	1139.46
218.865	1141.71
219.248	1144.96
219.631	1150.16
220.013	1155.86
220.396	1162.61
220.778	1168.36
221.161	1173.8
221.544	1180.93
221.926	1188.65
222.308	1194.9
222.691	1203.63
223.073	1212.34
223.455	1221.31
223.838	1231.93
224.22	1241.36
224.602	1250.93
224.984	1261.14
225.366	1273.25
225.749	1287.84
226.131	1300.89
226.513	1315.89
226.895	1331.11
227.276	1344.7
227.658	1360.41
228.04	1375.94
228.422	1390.91
228.804	1406.23
229.186	1420.66
229.567	1439.74
229.949	1455.15
230.331	1472.22
230.712	1491.31
231.094	1508.31
231.475	1527.81
231.857	1546.24
232.238	1566.46
232.62	1586.08
233.001	1606.24
233.382	1627.16
233.763	1643.39
234.145	1663.02
234.526	1681.23
234.907	1699.11
235.288	1720.24
235.669	1739.76
236.05	1759.65
236.431	1778.43
236.812	1800.43
237.193	1822.73
237.574	1841.54
237.955	1863.68
238.336	1885.85
238.717	1908.04
239.097	1932.43
239.478	1954.37
239.859	1977.26
240.239	2000.65
240.62	2024.9
241.001	2047.91
241.381	2070.56
241.762	2094.05
242.142	2118.09
242.522	2142.8
242.903	2171.44
243.283	2196.73
243.663	2223.06
244.044	2249.59
244.424	2278.57
244.804	2304.59
245.184	2334.08
245.564	2362.65
245.944	2394.6
246.324	2425.54
246.704	2455.24
247.084	2482.57
247.464	2514.1
247.844	2546.39
248.224	2575.77
248.604	2606.6
248.983	2636.86
249.363	2668.67
249.743	2703.41
250.122	2734.82
250.502	2763.36
250.882	2793.03
251.261	2827.59
251.641	2858.97
252.02	2893.1
252.399	2926.82
252.779	2963.83
253.158	3000.69
253.537	3042.97
253.917	3082.67
254.296	3120.97
254.675	3161.38
255.054	3201.97
255.433	3242.19
255.812	3280.47
256.191	3324.24
256.57	3364.54
256.949	3409.36
257.328	3455.79
257.707	3497.55
258.086	3544.05
258.465	3595.2
258.843	3649.08
259.222	3697.53
259.601	3753.7
259.979	3807.08
260.358	3862.14
260.736	3916.62
261.115	3973
261.493	4023.48
261.872	4074.84
262.25	4132.58
262.629	4189.3
263.007	4249.75
263.385	4311.68
263.763	4376.91
264.142	4439.18
264.52	4507.42
264.898	4572.96
265.276	4638.18
265.654	4710.32
266.032	4782.05
266.41	4853.07
266.788	4922.84
267.166	5000.31
267.544	5073.23
267.921	5150.06
268.299	5225.89
268.677	5309.33
269.055	5390.6
269.432	5477.75
269.81	5567.65
270.188	5655.45
270.565	5743.3
270.943	5835.75
271.32	5928.32
271.697	6019.55
272.075	6114.84
272.452	6209.03
272.829	6308.51
273.207	6407.34
273.584	6511.1
273.961	6615.79
274.338	6726.83
274.715	6844.21
275.092	6961.69
275.469	7082.15
275.846	7202.98
276.223	7326.48
276.6	7447.06
276.977	7571.23
277.354	7694.27
277.731	7818.57
278.108	7948.15
278.484	8080.07
278.861	8213.71
279.238	8353.07
279.614	8492.45
279.991	8635.7
280.367	8778.69
280.744	8922.95
281.12	9076.15
281.497	9218.84
281.873	9372.08
282.249	9521.12
282.625	9666.01
283.002	9810.66
283.378	9961.8
283.754	10111.66
284.13	10267.7
284.506	10422.78
284.882	10580.72
285.258	10740.91
285.634	10895.89
286.01	11055.2
286.386	11214.4
286.762	11376.68
287.138	11535.08
287.513	11695.06
287.889	11859.6
288.265	12024.57
288.641	12190.32
289.016	12352.71
289.392	12522.23
289.767	12686.85
290.143	12853.08
290.518	13018.45
290.894	13186.35
291.269	13345.38
291.644	13503.6
292.02	13653.49
292.395	13808.06
292.77	13961.11
293.145	14116.64
293.52	14277.14
293.895	14425.59
294.27	14584.37
294.646	14737.77
295.02	14889.76
295.395	15048.14
295.77	15204.88
296.145	15357.96
296.52	15515.18
296.895	15668.21
297.269	15822.01
297.644	15971.23
298.019	16123.75
298.393	16274.29
298.768	16424.67
299.143	16584.76
299.517	16739.3
299.891	16897.37
300.266	17055.24
300.64	17218
301.015	17378.08
301.389	17542.92
301.763	17720.97
302.137	17890.62
302.512	18069.08
302.886	18247.51
303.26	18432.53
303.634	18612.3
304.008	18791.54
304.382	18975.29
304.756	19160.7
305.13	19348.48
305.504	19527.95
305.877	19719.5
306.251	19922.57
306.625	20125.55
306.999	20327.95
307.372	20541.29
307.746	20760.67
308.119	20976.07
308.493	21186.26
308.866	21395.68
309.24	21613.46
309.613	21823.94
309.987	22033.56
310.36	22233.3
310.733	22441.59
311.107	22658.4
311.48	22868.56
311.853	23099.36
312.226	23317.6
312.599	23547.33
312.972	23768.31
313.345	24007.52
313.718	24235.93
314.091	24459.87
314.464	24689.44
314.837	24914.45
315.21	25123.66
315.582	25343.47
315.955	25556.39
316.328	25779.51
316.7	25994.76
317.073	26220.16
317.446	26435.79
317.818	26664.02
318.191	26891.69
318.563	27114.03
318.936	27315.17
319.308	27525.11
319.68	27725.46
320.053	27920.42
320.425	28101.58
320.797	28288.22
321.169	28446.43
321.541	28590.87
321.913	28724.42
322.285	28843.23
322.657	28971.4
323.029	29126.97
323.401	29273.16
323.773	29438.37
324.145	29603.96
324.517	29798.46
324.889	29971.62
325.26	30174.92
325.632	30385.83
326.004	30623.86
326.375	30884.23
326.747	31157.4
327.118	31460.94
327.49	31750.89
327.861	32064.41
328.233	32378.75
328.604	32686.82
328.975	33003.78
329.346	33317.54
329.718	33621.31
330.089	33929.03
330.46	34224.5
330.831	34491.37
331.202	34744.42
331.573	34990.55
331.944	35226.17
332.315	35454.69
332.686	35670.92
333.057	35874.29
333.428	36056.47
333.799	36221.98
334.169	36369.89
334.54	36519.13
334.911	36632.16
335.281	36761.42
335.652	36886.89
336.022	37019.98
336.393	37167.05
336.763	37335.52
337.134	37516.99
337.504	37720.29
337.874	37917.98
338.245	38116.61
338.615	38335.96
338.985	38569.49
339.355	38790.24
339.726	39009.48
340.096	39229.8
340.466	39482.38
340.836	39724.32
341.206	39973.11
341.576	40226.51
341.945	40475.73
342.315	40701.69
342.685	40946.15
343.055	41197.74
343.425	41438.95
343.794	41671.89
344.164	41898.23
344.533	42126.33
344.903	42357.47
345.273	42594.54
345.642	42825.2
346.011	43060.28
346.381	43292.48
346.75	43522.62
347.12	43773.58
347.489	44025.28
347.858	44268.93
348.227	44473.96
348.596	44693.39
348.965	44926.44
349.334	45151.63
349.704	45391.67
350.072	45643.98
350.441	45882.85
350.81	46125.34
351.179	46359
351.548	46593.73
351.917	46815
352.285	47012.68
352.654	47225.43
353.023	47432.57
353.391	47631.78
353.76	47845.68
354.129	48038.99
354.497	48269.04
354.865	48485.97
355.234	48723.81
355.602	48941.15
355.971	49199.25
356.339	49416.02
356.707	49632.53
357.075	49855.08
357.443	50068.45
357.811	50281.88
358.18	50495.46
358.548	50703.67
358.916	50908
359.284	51124.51
359.651	51351.55
360.019	51569.64
360.387	51768.83
360.755	51972.38
361.123	52198.4
361.49	52424.93
361.858	52638.46
362.226	52829.41
362.593	53027.43
362.961	53203.39
363.328	53407.25
363.696	53571.66
364.063	53794.09
364.43	54000.57
364.798	54205.03
365.165	54391.51
365.532	54572.44
365.899	54756.23
366.267	54917.05
366.634	55071.34
367.001	55237.57
367.368	55367.39
367.735	55552.55
368.102	55726.47
368.469	55908.45
368.835	56087.24
369.202	56240.81
369.569	56434.5
369.936	56633.18
370.303	56823.71
370.669	57015.42
371.036	57174.77
371.402	57373.68
371.769	57550.9
372.135	57707.5
372.502	57837.76
372.868	57975.72
373.235	58120.74
373.601	58252.22
373.967	58426.45
374.333	58606.6
374.7	58787.97
375.066	59001.71
375.432	59182.05
375.798	59361.15
376.164	59533.11
376.53	59685.46
376.896	59859.74
377.262	60032.11
377.628	60157.23
377.993	60302.19
378.359	60457.45
378.725	60614.92
379.091	60767.43
379.456	60894.33
379.822	61026.82
380.187	61177.39
380.553	61368.73
380.918	61558.6
381.284	61743.36
381.649	61909.88
382.015	62056.66
382.38	62184.86
382.745	62344.97
383.11	62497.93
383.476	62643.47
383.841	62767.32
384.206	62924.34
384.571	63042.6
384.936	63179.54
385.301	63351.3
385.666	63489.17
386.031	63635.03
386.396	63801.49
386.76	63949.81
387.125	64148.32
387.49	64344.47
387.855	64531.63
388.219	64697.02
388.584	64866.07
388.948	65057.01
389.313	65228.44
389.677	65431.97
390.042	65660.81
390.406	65813.87
390.771	65999.41
391.135	66189.16
391.499	66424.94
391.863	66653.69
392.227	66896.18
392.592	67093.2
392.956	67291.91
393.32	67483.24
393.684	67707.32
394.048	67880.54
394.412	68065.51
394.775	68206.67
395.139	68351.09
395.503	68519.25
395.867	68676.12
396.231	68823.86
396.594	68921.02
396.958	69051.53
397.321	69212.12
397.685	69330.49
398.048	69477.79
398.412	69612.33
398.775	69742.3
399.139	69872.22
399.502	69987.48
399.865	70126.88
400.228	70315.62
400.592	70444.29
400.955	70635.87
401.318	70763.23
401.681	70929.3
402.044	71064.55
402.407	71223.96
402.77	71388.01
403.133	71581.68
403.496	71721.47
403.859	71871.11
404.221	72119.59
404.584	72364.74
404.947	72598.03
405.309	72808.76
405.672	73043.54
406.034	73270.1
406.397	73529.22
406.759	73745.85
407.122	73926.35
407.484	74109.22
407.847	74303.76
408.209	74556.22
408.571	74791.18
408.933	75047.77
409.296	75301.9
409.658	75552.41
410.02	75823.95
410.382	76127.04
410.744	76374.94
411.106	76664.49
411.468	76946.39
411.83	77173.89
412.191	77365.61
412.553	77538.27
412.915	77742.1
413.277	77937.51
413.638	78123.35
414	78279.73
414.361	78448.43
414.723	78663.8
415.084	78856.75
415.446	79004.03
415.807	79127.78
416.169	79223.35
416.53	79303.09
416.891	79389.13
417.252	79492.97
417.614	79559.52
417.975	79592.9
418.336	79629.91
418.697	79668.57
419.058	79700.87
419.419	79726.29
419.78	79755.99
420.141	79780.32
420.501	79799.63
420.862	79814.23
421.223	79828.22
421.584	79854.71
421.944	79869.26
422.305	79877.74
422.666	79884.7
423.026	79888.47
423.387	79897.57
423.747	79905.9
424.107	79916.3
424.468	79924.6
424.828	79928.77
425.188	79931.43
425.549	79937.3
425.909	79940.81
426.269	79940.58
426.629	79945.79
426.989	79948.82
427.349	79952.21
427.709	79953.1
428.069	79956.68
428.429	79961.44
428.789	79965.36
429.149	79969.05
429.508	79972.23
429.868	79977.77
430.228	79982.06
430.587	79984.87
430.947	79989.26
431.306	79991.74
431.666	79992.22
432.025	79994.07
432.385	79996.95
432.744	79999.27
433.103	80000.31
433.463	80002.45
433.822	80008.88
434.181	80010.88
434.54	80013.69
434.899	80016.75
435.258	80019.86
435.618	80020.04
435.976	80023.78
436.335	80027.07
436.694	80028.92
437.053	80029.4
437.412	80029.06
437.771	80029.51
438.129	80032.98
438.488	80032.91
438.847	80035.53
439.205	80038.01
439.564	80039.53
439.922	80042.6
440.281	80044.26
440.639	80045.96
440.997	80046.55
441.356	80046.11
441.714	80046.89
442.072	80046
442.431	80045.7
442.789	80046.63
443.147	80048.92
443.505	80049.92
443.863	80048.81
444.221	80047.66
444.579	80049.4
444.937	80049.11
445.294	80049.25
445.652	80049.92
446.01	80050.4
446.368	80050.29
446.725	80050.03
447.083	80049.77
447.441	80046.92
447.798	80047.51
448.156	80048.92
448.513	80049.92
448.87	80051.8
449.228	80052.95
449.585	80053.28
449.942	80054.25
450.3	80054.1
450.657	80055.43
451.014	80054.02
451.371	80054.58
451.728	80056.39
452.085	80055.39
452.442	80055.17
452.799	80055.39
453.156	80055.28
453.513	80057.17
453.869	80057.35
454.226	80056.87
454.583	80056.69
454.939	80057.87
455.296	80058.09
455.653	80058.28
456.009	80058.91
456.366	80056.98
456.722	80055.32
457.078	80056.69
457.435	80056.47
457.791	80057.24
458.147	80055.95
458.503	80057.09
458.86	80057.39
459.216	80057.13
459.572	80058.28
459.928	80060.09
460.284	80061.09
460.64	80061.87
460.996	80061.13
461.351	80061.98
461.707	80062.75
462.063	80063.05
462.419	80062.01
462.774	80062.87
463.13	80063.49
463.486	80064.23
463.841	80065.08
464.197	80066.42
464.552	80066.12
464.908	80067.75
465.263	80067.16
465.618	80067.9
465.974	80067.67
466.329	80069.27
466.684	80070.64
467.039	80070.56
467.394	80070.34
467.749	80070.08
468.104	80069.34
468.459	80071.19
468.814	80071.23
469.169	80072.63
469.524	80074.41
469.879	80076.63
470.233	80076.96
470.588	80076.3
470.943	80076.33
471.297	80078.4
471.652	80078.92
472.006	80081.4
472.361	80081.48
472.715	80084.1
473.07	80084.33
473.424	80085.44
473.778	80084.47
474.133	80084.29
474.487	80084.84
474.841	80085.21
475.195	80086.58
475.549	80087.17
475.903	80086.36
476.257	80087.17
476.611	80085.84
476.965	80085.47
477.319	80086.95
477.673	80087.06
478.026	80088.51
478.38	80088.21
478.734	80088.4
479.087	80089.77
479.441	80087.69
479.795	80086.21
480.148	80084.88
480.502	80086.92
480.855	80088.06
481.208	80089.84
481.562	80090.91
481.915	80091.77
482.268	80091.51
482.621	80094.1
482.974	80095.73
483.328	80095.76
483.681	80097.24
484.034	80099.35
484.387	80100.61
484.739	80101.28
485.092	80101.28
485.445	80100.72
485.798	80100.46
486.151	80101.06
486.503	80099.28
486.856	80100.98
487.209	80101.65
487.561	80102.8
487.914	80102.91
488.266	80102.5
488.618	80101.28
488.971	80100.83
489.323	80100.24
489.675	80101.13
490.028	80099.24
490.38	80098.61
490.732	80098.72
491.084	80098.35
491.436	80097.32
491.788	80097.21
492.14	80095.32
492.492	80093.99
492.844	80095.06
493.196	80095.39
493.548	80094.76
493.899	80094.1
494.251	80092.58
494.603	80092.1
494.954	80090.77
495.306	80087.77
495.657	80087.51
496.009	80087.47
496.36	80088.29
496.712	80089.58
497.063	80089.4
497.414	80089.36
497.765	80088.29
498.117	80088.03
498.468	80088.44
498.819	80090.92
499.17	80089.92
499.521	80090.88
499.872	80093.14
500.223	80093.43
500.574	80094.84
500.924	80096.32
501.275	80098.36
501.626	80099.35
501.977	80100.46
502.327	80100.83
502.678	80102.98
503.029	80103.72
503.379	80104.61
503.73	80103.83
504.08	80101.8
504.43	80101.2
504.781	80102.02
505.131	80103.39
505.481	80103.17
505.831	80101.69
506.182	80099.98
506.532	80099.46
506.882	80098.28
507.232	80098.09
507.582	80096.24
507.932	80095.47
508.281	80093.84
508.631	80094.24
508.981	80094.43
509.331	80095.13
509.681	80096.17
510.03	80094.8
510.38	80093.65
510.729	80093.21
511.079	80093.73
511.428	80094.21
511.778	80094.1
512.127	80092.84
512.476	80092.13
512.826	80093.84
513.175	80095.17
513.524	80095.98
513.873	80096.69
514.222	80097.13
514.571	80096.98
514.92	80098.28
515.269	80098.87
515.618	80099.65
515.967	80098.95
516.316	80098.17
516.665	80096.76
517.014	80096.13
517.362	80096.84
517.711	80096.69
518.059	80097.58
518.408	80097.13
518.757	80098.13
519.105	80100.28
519.453	80100.32
519.802	80099.94
520.15	80099.06
520.498	80096.87
520.847	80095.91
521.195	80096.47
521.543	80097.54
521.891	80097.83
522.239	80097.24
522.587	80096.43
522.935	80095.61
523.283	80096.17
523.631	80096.84
523.979	80097.02
524.326	80096.24
524.674	80096.69
525.022	80096.98
525.369	80097.43
525.717	80097.46
526.064	80097.28
526.412	80096.06
526.759	80095.98
527.107	80095.58
527.454	80095.91
527.801	80098.2
528.149	80098.65
528.496	80099.46
528.843	80099.57
529.19	80098.91
529.537	80100.24
529.884	80100.94
530.231	80101.87
530.578	80102.54
530.925	80102.72
531.272	80104.35
531.619	80105.94
531.966	80106.61
532.312	80107.13
532.659	80106.28
533.006	80105.72
533.352	80105.9
533.699	80105.35
534.045	80105.16
534.392	80105.65
534.738	80105.13
535.084	80102.61
535.431	80101.72
535.777	80098.72
536.123	80098.54
536.469	80097.84
536.815	80096.21
537.161	80096.28
537.507	80093.32
537.853	80091.65
538.199	80089.06
538.545	80087.66
538.891	80087.69
539.237	80087.44
539.582	80086.73
539.928	80085.92
540.274	80086.51
540.619	80086.33
540.965	80086.21
541.31	80086.51
541.656	80087.4
542.001	80089.03
542.347	80091.14
542.692	80092.43
543.037	80094.17
543.382	80093.91
543.728	80094.99
544.073	80096.06
544.418	80095.36
544.763	80098.95
545.108	80100.91
545.453	80103.09
545.798	80104.13
546.142	80103.68
546.487	80102.87
546.832	80102.68
547.177	80103.09
547.521	80102.68
547.866	80102.28
548.211	80102.87
548.555	80103.5
548.9	80102.68
549.244	80101.09
549.588	80100.31
549.933	80100.2
550.277	80099.57
550.621	80097.54
550.965	80096.43
551.31	80095.17
551.654	80096.35
551.998	80093.39
552.342	80091.91
552.686	80093.32
553.03	80093.25
553.373	80092.54
553.717	80092.65
554.061	80092.39
554.405	80091.03
554.748	80091.43
555.092	80093.02
555.436	80092.58
555.779	80092.54
556.123	80091.95
556.466	80092.8
556.81	80092.47
557.153	80092.1
557.496	80092.95
557.839	80095.02
558.183	80095.76
558.526	80094.99
558.869	80094.43
559.212	80096.54
559.555	80097.35
559.898	80097.06
560.241	80096.24
560.584	80096.1
560.927	80096.87
561.269	80098.69
561.612	80099.83
561.955	80099.02
562.297	80096.8
562.64	80095.98
562.983	80095.73
563.325	80097.06
563.668	80096.21
564.01	80094.62
564.352	80092.76
564.695	80093.51
565.037	80092.99
565.379	80091.69
565.721	80093.32
566.063	80092.95
566.406	80092.1
566.748	80092.21
567.09	80090.91
567.431	80090.36
567.773	80091.36
568.115	80088.69
568.457	80087.84
568.799	80087.58
569.14	80087.18
569.482	80088.25
569.824	80088.8
570.165	80088.4
570.507	80087.84
570.848	80088.73
571.19	80089.51
571.531	80089.95
571.872	80088.84
572.214	80088.95
572.555	80089.95
572.896	80089.84
573.237	80089.03
573.578	80088.14
573.919	80087.03
574.26	80087.43
574.601	80088.36
574.942	80089.03
575.283	80088.51
575.624	80087.66
575.964	80089.58
576.305	80090.03
576.646	80090.88
576.986	80091.4
577.327	80092.21
577.667	80091.91
578.008	80092.36
578.348	80093.28
578.689	80094.39
579.029	80092.65
579.369	80092.88
579.71	80094.65
580.05	80094.25
580.39	80094.95
580.73	80096.39
581.07	80097.24
581.41	80097.73
581.75	80096.95
582.09	80093.14
582.43	80094.62
582.769	80096.28
583.109	80094.65
583.449	80093.25
583.789	80090.8
584.128	80091.1
584.468	80089.1
584.807	80088.29
585.147	80086.1
585.486	80085.81
