Data from 24HourExp_27052025_FLMS018081_18-18-21-236.txt Node
Date: Tue May 27 18:18:21 BST 2025
User: adleo
Spectrometer: FLMS01808
Trigger mode: 0
Integration Time (sec): 4.000000E-1
Scans to average: 10
Electric dark correction enabled: true
Nonlinearity correction enabled: true
Boxcar width: 10
XAxis mode: Wavelengths
Number of Pixels in Spectrum: 2048
>>>>>Begin Spectral Data<<<<<
178.471	-131.9
178.857	-124.75
179.244	-115.19
179.631	-106.1
180.017	-99.46
180.404	-90.84
180.79	-78.87
181.176	-68.96
181.563	-59.85
181.949	-49.12
182.335	-38.21
182.722	-22.54
183.108	-3.36
183.494	24.35
183.88	77.74
184.266	130.64
184.653	189.52
185.039	245.03
185.425	303.57
185.811	358.97
186.197	413.15
186.582	466.48
186.968	519.32
187.354	569.7
187.74	620.46
188.126	673.31
188.511	723.12
188.897	770.51
189.283	817.22
189.668	863.68
190.054	908.88
190.439	956.05
190.825	1001.19
191.21	1041.7
191.596	1073.71
191.981	1081.49
192.366	1085.67
192.752	1086.84
193.137	1089.94
193.522	1089.16
193.908	1088.54
194.293	1092.96
194.678	1094.27
195.063	1096.1
195.448	1099.38
195.833	1100.38
196.218	1098.77
196.603	1097.78
196.988	1095.83
197.373	1096.46
197.757	1096.17
198.142	1097.34
198.527	1093.48
198.912	1091.32
199.296	1090.59
199.681	1089.74
200.066	1087.31
200.45	1087.29
200.835	1087.05
201.219	1086.53
201.604	1085.71
201.988	1088.13
202.372	1088.42
202.757	1089.21
203.141	1090.18
203.525	1090.28
203.91	1089.93
204.294	1091.24
204.678	1092.39
205.062	1092.71
205.446	1092.64
205.83	1094.86
206.214	1092.82
206.598	1094.66
206.982	1096.92
207.366	1097.86
207.75	1097.33
208.134	1100.44
208.517	1102.92
208.901	1102.75
209.285	1104.13
209.669	1104.97
210.052	1104.78
210.436	1103.56
210.819	1104.53
211.203	1103.34
211.586	1103.65
211.97	1105.05
212.353	1104.61
212.737	1106.57
213.12	1109.67
213.503	1111.62
213.886	1112.42
214.27	1114.57
214.653	1113.92
215.036	1114.19
215.419	1117.41
215.802	1120.86
216.185	1122.4
216.568	1124.17
216.951	1126.32
217.334	1128.3
217.717	1132.25
218.1	1134.65
218.482	1139.35
218.865	1143.43
219.248	1148.22
219.631	1150.79
220.013	1155.26
220.396	1163.19
220.778	1166.82
221.161	1171.96
221.544	1177.31
221.926	1185.53
222.308	1193.58
222.691	1202.13
223.073	1212.76
223.455	1220.16
223.838	1230.15
224.22	1239.37
224.602	1249.8
224.984	1261.33
225.366	1272.61
225.749	1287.38
226.131	1299.23
226.513	1312.16
226.895	1324.86
227.276	1338.22
227.658	1354.68
228.04	1367.7
228.422	1383.5
228.804	1401.18
229.186	1416.9
229.567	1435.57
229.949	1452.44
230.331	1469.53
230.712	1486.95
231.094	1503.15
231.475	1520.95
231.857	1540.58
232.238	1559.85
232.62	1578.57
233.001	1601.5
233.382	1622.5
233.763	1641.41
234.145	1662.61
234.526	1681.64
234.907	1701.25
235.288	1720.87
235.669	1741.09
236.05	1764.72
236.431	1783.09
236.812	1804.65
237.193	1827.78
237.574	1849.09
237.955	1870.42
238.336	1892.24
238.717	1915.21
239.097	1940.2
239.478	1964.8
239.859	1985.85
240.239	2009.82
240.62	2035.45
241.001	2056.2
241.381	2081.68
241.762	2105.07
242.142	2128.76
242.522	2154.15
242.903	2182.38
243.283	2211.18
243.663	2238.11
244.044	2267.33
244.424	2297.58
244.804	2326.65
245.184	2355.63
245.564	2385.24
245.944	2415.06
246.324	2446.5
246.704	2476.59
247.084	2504.91
247.464	2536.21
247.844	2569.84
248.224	2603.35
248.604	2635.81
248.983	2666.9
249.363	2699.25
249.743	2731.84
250.122	2766.03
250.502	2799.9
250.882	2830.91
251.261	2864.7
251.641	2897.01
252.02	2929.94
252.399	2965.27
252.779	3003.53
253.158	3040.34
253.537	3078.39
253.917	3124.7
254.296	3166.98
254.675	3208.97
255.054	3252.79
255.433	3297.24
255.812	3339.07
256.191	3381.3
256.57	3421.78
256.949	3467.3
257.328	3510.38
257.707	3555.64
258.086	3602.27
258.465	3650.34
258.843	3700.7
259.222	3752.03
259.601	3807.53
259.979	3862.34
260.358	3916.86
260.736	3969.45
261.115	4026.27
261.493	4080.83
261.872	4132.37
262.25	4187.18
262.629	4245.97
263.007	4305.85
263.385	4365.35
263.763	4428.48
264.142	4492.99
264.52	4561.75
264.898	4630.14
265.276	4697.79
265.654	4768.71
266.032	4840.58
266.41	4910.3
266.788	4984.1
267.166	5060.24
267.544	5135.74
267.921	5213.55
268.299	5294.18
268.677	5376.97
269.055	5460.3
269.432	5546.33
269.81	5631.52
270.188	5719.18
270.565	5808.01
270.943	5899.48
271.32	5990.06
271.697	6085.86
272.075	6181.36
272.452	6276.14
272.829	6374.57
273.207	6476.4
273.584	6580.52
273.961	6686.14
274.338	6803.53
274.715	6918.31
275.092	7037.35
275.469	7160.47
275.846	7278.74
276.223	7400.03
276.6	7519.31
276.977	7647.47
277.354	7773.89
277.731	7900.45
278.108	8031.57
278.484	8162.65
278.861	8293.57
279.238	8435.01
279.614	8572.68
279.991	8715.72
280.367	8861.19
280.744	9008.58
281.12	9157.51
281.497	9306.52
281.873	9458.3
282.249	9604.66
282.625	9753.3
283.002	9897.15
283.378	10046.56
283.754	10198.58
284.13	10352.72
284.506	10512.92
284.882	10664.42
285.258	10823.64
285.634	10982.13
286.01	11143.73
286.386	11303.87
286.762	11470.9
287.138	11633.72
287.513	11795.36
287.889	11957.35
288.265	12115.67
288.641	12276.55
289.016	12440.46
289.392	12603.38
289.767	12766.8
290.143	12933.64
290.518	13098.33
290.894	13263.34
291.269	13420.56
291.644	13583.55
292.02	13737.33
292.395	13892.7
292.77	14056.44
293.145	14207.97
293.52	14364.35
293.895	14515.36
294.27	14667.09
294.646	14817.06
295.02	14966.71
295.395	15122.58
295.77	15281.71
296.145	15442.86
296.52	15597.31
296.895	15751.92
297.269	15903.43
297.644	16049.1
298.019	16196.79
298.393	16347.46
298.768	16499.83
299.143	16656.25
299.517	16808.3
299.891	16962.53
300.266	17120.24
300.64	17271.25
301.015	17434.19
301.389	17603.23
301.763	17778.75
302.137	17953.38
302.512	18133.39
302.886	18304.29
303.26	18489.34
303.634	18663.88
304.008	18837.83
304.382	19020.77
304.756	19205.95
305.13	19399.76
305.504	19584.65
305.877	19777.96
306.251	19984.42
306.625	20188.16
306.999	20394.8
307.372	20605.15
307.746	20827.14
308.119	21042.4
308.493	21259.29
308.866	21473.65
309.24	21688.79
309.613	21891.46
309.987	22100.59
310.36	22298.29
310.733	22516.15
311.107	22723.35
311.48	22941.81
311.853	23174.51
312.226	23400.94
312.599	23629.55
312.972	23844.83
313.345	24083.68
313.718	24312.66
314.091	24535.08
314.464	24766.75
314.837	24991.06
315.21	25210.28
315.582	25429.77
315.955	25642.22
316.328	25870.09
316.7	26090.06
317.073	26311.71
317.446	26538.69
317.818	26771.32
318.191	27010.17
318.563	27231.18
318.936	27444.29
319.308	27647.93
319.68	27851.98
320.053	28050.52
320.425	28236.69
320.797	28420.76
321.169	28580.44
321.541	28729.07
321.913	28858.99
322.285	28978.26
322.657	29107.06
323.029	29247.96
323.401	29391.91
323.773	29557.8
324.145	29718.96
324.517	29909.8
324.889	30086.07
325.26	30289.46
325.632	30503.07
326.004	30733.85
326.375	30989.45
326.747	31267.71
327.118	31574.91
327.49	31861.21
327.861	32173.56
328.233	32483.74
328.604	32801.35
328.975	33118.09
329.346	33427.17
329.718	33740.45
330.089	34046.95
330.46	34344.65
330.831	34621.87
331.202	34879.65
331.573	35124.88
331.944	35356.65
332.315	35581.49
332.686	35806.59
333.057	36005.65
333.428	36184.73
333.799	36348.25
334.169	36507.81
334.54	36647.3
334.911	36761.77
335.281	36887.27
335.652	37011.08
336.022	37149.79
336.393	37290.98
336.763	37462.66
337.134	37653.95
337.504	37853.72
337.874	38058.84
338.245	38263.35
338.615	38484.62
338.985	38717.98
339.355	38940.17
339.726	39165.77
340.096	39385.78
340.466	39635.67
340.836	39879.58
341.206	40134.11
341.576	40392.19
341.945	40635.97
342.315	40865.56
342.685	41115.12
343.055	41377.17
343.425	41621.86
343.794	41854.21
344.164	42093.03
344.533	42321.25
344.903	42545.81
345.273	42782.81
345.642	43008.27
346.011	43237.45
346.381	43469.8
346.75	43697.04
347.12	43949.78
347.489	44201.03
347.858	44446.72
348.227	44653.64
348.596	44875.59
348.965	45103.52
349.334	45323.97
349.704	45559.19
350.072	45811.78
350.441	46044.75
350.81	46276.42
351.179	46499.89
351.548	46734.29
351.917	46957.23
352.285	47155.3
352.654	47369.31
353.023	47577.2
353.391	47779.04
353.76	47993.9
354.129	48176.44
354.497	48410.82
354.865	48623.53
355.234	48860.7
355.602	49084.51
355.971	49335
356.339	49547.65
356.707	49764.68
357.075	49993.59
357.443	50215.65
357.811	50429.48
358.18	50650.93
358.548	50860.57
358.916	51072.01
359.284	51288.65
359.651	51498.42
360.019	51718.76
360.387	51914.42
360.755	52116.86
361.123	52350.24
361.49	52574.06
361.858	52797.98
362.226	52993.3
362.593	53196.63
362.961	53369.77
363.328	53562.3
363.696	53726.48
364.063	53947.21
364.43	54151.35
364.798	54351.48
365.165	54533.37
365.532	54717.72
365.899	54899.01
366.267	55064.76
366.634	55215.55
367.001	55379.32
367.368	55521.99
367.735	55708.23
368.102	55885.74
368.469	56081.48
368.835	56251.05
369.202	56415.39
369.569	56607.16
369.936	56798.91
370.303	56985.64
370.669	57187.77
371.036	57357.26
371.402	57560.89
371.769	57744.32
372.135	57899.86
372.502	58032.41
372.868	58180.15
373.235	58322.37
373.601	58454.07
373.967	58636.65
374.333	58825.72
374.7	59012.44
375.066	59219.77
375.432	59395.31
375.798	59575.88
376.164	59733.34
376.53	59886.42
376.896	60051.16
377.262	60226.19
377.628	60351.65
377.993	60496.32
378.359	60635.72
378.725	60794.23
379.091	60948.59
379.456	61080.65
379.822	61217.69
380.187	61369.15
380.553	61551.71
380.918	61755.61
381.284	61933.98
381.649	62101.59
382.015	62243.87
382.38	62363.58
382.745	62532.52
383.11	62687.31
383.476	62843.31
383.841	62975.7
384.206	63135.19
384.571	63264.23
384.936	63398.24
385.301	63572.8
385.666	63712.71
386.031	63875.89
386.396	64038.78
386.76	64183.71
387.125	64375.78
387.49	64578.15
387.855	64765.53
388.219	64934.63
388.584	65095.62
388.948	65285.77
389.313	65451.63
389.677	65655.76
390.042	65893.91
390.406	66053.7
390.771	66254.33
391.135	66441.42
391.499	66676.46
391.863	66913.16
392.227	67148.16
392.592	67343.17
392.956	67541.53
393.32	67739.21
393.684	67947.81
394.048	68121.27
394.412	68311.31
394.775	68456.31
395.139	68605.93
395.503	68773.95
395.867	68934.07
396.231	69086.08
396.594	69196.92
396.958	69336.3
397.321	69496.71
397.685	69612.68
398.048	69756.11
398.412	69881.2
398.775	70005.44
399.139	70130.62
399.502	70240.48
399.865	70395.8
400.228	70597.92
400.592	70738.8
400.955	70940.06
401.318	71081.53
401.681	71245.91
402.044	71380.75
402.407	71542.96
402.77	71699.17
403.133	71886.59
403.496	72030.15
403.859	72183.12
404.221	72424.85
404.584	72664.09
404.947	72907.93
405.309	73118.71
405.672	73346.18
406.034	73571.56
406.397	73829.28
406.759	74052.34
407.122	74230.78
407.484	74391.34
407.847	74570.24
408.209	74813.41
408.571	75034.17
408.933	75291.53
409.296	75548.91
409.658	75800.2
410.02	76067.32
410.382	76366.6
410.744	76619.89
411.106	76899.09
411.468	77167.11
411.83	77389.66
412.191	77575.53
412.553	77735.89
412.915	77936.91
413.277	78128.72
413.638	78307.38
414	78459.49
414.361	78615.88
414.723	78821.91
415.084	79016.25
415.446	79161.99
415.807	79277.01
416.169	79364.76
416.53	79431.19
416.891	79508.45
417.252	79601.06
417.614	79657.38
417.975	79684.91
418.336	79714.04
418.697	79746.05
419.058	79772.85
419.419	79793.7
419.78	79816.13
420.141	79832.43
420.501	79846.58
420.862	79857.33
421.223	79866.5
421.584	79888.24
421.944	79899.63
422.305	79907.6
422.666	79911.84
423.026	79913.65
423.387	79921.47
423.747	79928.29
424.107	79934.68
424.468	79940.73
424.828	79945.46
425.188	79949.07
425.549	79954.58
425.909	79959.97
426.269	79959.08
426.629	79962.03
426.989	79965.29
427.349	79968.79
427.709	79971.82
428.069	79974.52
428.429	79978.84
428.789	79983.27
429.149	79987.85
429.508	79990.55
429.868	79993.92
430.228	79998.02
430.587	80002.08
430.947	80005.33
431.306	80008.81
431.666	80012.21
432.025	80014.8
432.385	80016.13
432.744	80018.38
433.103	80019.08
433.463	80020.53
433.822	80026.44
434.181	80031.32
434.54	80034.02
434.899	80036.75
435.258	80038.86
435.618	80039.67
435.976	80043.11
436.335	80042.74
436.694	80043.26
437.053	80043.37
437.412	80044.04
437.771	80044.96
438.129	80045.74
438.488	80045.7
438.847	80047.22
439.205	80047.92
439.564	80050.06
439.922	80050.73
440.281	80050.88
440.639	80051.95
440.997	80053.62
441.356	80053.21
441.714	80053.32
442.072	80053.65
442.431	80052.84
442.789	80054.61
443.147	80054.58
443.505	80054.54
443.863	80055.17
444.221	80055.8
444.579	80056.83
444.937	80056.24
445.294	80056.17
445.652	80056.28
446.01	80058.05
446.368	80057.13
446.725	80057.13
447.083	80055.43
447.441	80055.76
447.798	80056.46
448.156	80055.17
448.513	80055.21
448.87	80056.35
449.228	80057.13
449.585	80056.91
449.942	80057.13
450.3	80056.06
450.657	80057.57
451.014	80058.39
451.371	80062.35
451.728	80063.86
452.085	80064.6
452.442	80063.9
452.799	80065.71
453.156	80067.08
453.513	80066.82
453.869	80069.26
454.226	80069.97
454.583	80071.19
454.939	80072.22
455.296	80073.7
455.653	80076.7
456.009	80076.89
456.366	80078.29
456.722	80078.74
457.078	80079.48
457.435	80079.59
457.791	80080.59
458.147	80079.92
458.503	80078.85
458.86	80077.52
459.216	80076.63
459.572	80077.37
459.928	80079.51
460.284	80077.22
460.64	80077.29
460.996	80077.77
461.351	80078.51
461.707	80078.99
462.063	80078.4
462.419	80077.15
462.774	80077.22
463.13	80077.7
463.486	80077.85
463.841	80076.92
464.197	80077.07
464.552	80077.92
464.908	80080.25
465.263	80082.22
465.618	80084.47
465.974	80086.4
466.329	80086.92
466.684	80086.8
467.039	80086.88
467.394	80086.62
467.749	80090.32
468.104	80090.99
468.459	80090.32
468.814	80090.36
469.169	80091.39
469.524	80092.69
469.879	80095.54
470.233	80094.65
470.588	80093.95
470.943	80094.5
471.297	80094.8
471.652	80093.95
472.006	80093.84
472.361	80094.32
472.715	80092.84
473.07	80092.5
473.424	80092.06
473.778	80092.84
474.133	80093.1
474.487	80094.95
474.841	80096.57
475.195	80096.17
475.549	80096.5
475.903	80097.09
476.257	80097.2
476.611	80096.94
476.965	80096.94
477.319	80096.24
477.673	80098.02
478.026	80099.57
478.38	80100.16
478.734	80101.57
479.087	80104.76
479.441	80103.94
479.795	80103.87
480.148	80104.79
480.502	80104.83
480.855	80105.64
481.208	80105.9
481.562	80107.86
481.915	80107.35
482.268	80107.35
482.621	80107.16
482.974	80107.16
483.328	80108.24
483.681	80108.98
484.034	80109.57
484.387	80110.83
484.739	80111.42
485.092	80111.72
485.445	80111.09
485.798	80112.2
486.151	80113.34
486.503	80113.94
486.856	80115.34
487.209	80114.31
487.561	80114.97
487.914	80115.38
488.266	80115.57
488.618	80114.6
488.971	80114.38
489.323	80114.16
489.675	80114.16
490.028	80115.75
490.38	80116.12
490.732	80116.34
491.084	80116.38
491.436	80116.49
491.788	80115.09
492.14	80115.05
492.492	80115.42
492.844	80114.23
493.196	80114.79
493.548	80113.75
493.899	80114.01
494.251	80113.68
494.603	80114.42
494.954	80113.2
495.306	80111.2
495.657	80111.53
496.009	80112.31
496.36	80111.35
496.712	80113.01
497.063	80112.75
497.414	80111.35
497.765	80112.49
498.117	80113.31
498.468	80112.49
498.819	80112.05
499.17	80112.16
499.521	80111.05
499.872	80110.16
500.223	80113.53
500.574	80113.75
500.924	80114.94
501.275	80113.31
501.626	80114.9
501.977	80114.83
502.327	80114.75
502.678	80117.64
503.029	80118.05
503.379	80116.68
503.73	80116.68
504.08	80115.12
504.43	80115.86
504.781	80116.9
505.131	80116.09
505.481	80113.94
505.831	80114.86
506.182	80115.23
506.532	80114.61
506.882	80115.9
507.232	80116.12
507.582	80113.9
507.932	80111.31
508.281	80111.16
508.631	80109.83
508.981	80108.83
509.331	80110.05
509.681	80110.05
510.03	80108.42
510.38	80108.98
510.729	80109.75
511.079	80110.75
511.428	80110.09
511.778	80109.53
512.127	80107.64
512.476	80107.05
512.826	80108.61
513.175	80109.05
513.524	80109.16
513.873	80111.09
514.222	80111.2
514.571	80112.53
514.92	80112.68
515.269	80112.49
515.618	80112.16
515.967	80112.83
516.316	80112.23
516.665	80113.09
517.014	80113.27
517.362	80113.64
517.711	80113.16
518.059	80114.42
518.408	80114.83
518.757	80117.09
519.105	80118.46
519.453	80119.94
519.802	80120.45
520.15	80120.45
520.498	80119.97
520.847	80119.05
521.195	80119.16
521.543	80119.97
521.891	80119.57
522.239	80120.42
522.587	80122.49
522.935	80122.86
523.283	80123.93
523.631	80124.16
523.979	80123.38
524.326	80124.42
524.674	80125.12
525.022	80124.9
525.369	80124.01
525.717	80123.82
526.064	80123.93
526.412	80123.86
526.759	80122.56
527.107	80122.9
527.454	80123.01
527.801	80122.75
528.149	80123.6
528.496	80123.86
528.843	80122.86
529.19	80122.08
529.537	80122.16
529.884	80122.6
530.231	80121.86
530.578	80121.16
530.925	80120.79
531.272	80120.64
531.619	80121.05
531.966	80121.23
532.312	80121.56
532.659	80120.64
533.006	80121.45
533.352	80119.97
533.699	80119.49
534.045	80120.08
534.392	80120.45
534.738	80120.01
535.084	80119.68
535.431	80120.42
535.777	80119.08
536.123	80120.12
536.469	80120.64
536.815	80119.53
537.161	80118.82
537.507	80118.27
537.853	80116.83
538.199	80116.05
538.545	80115.31
538.891	80113.75
539.237	80112.86
539.582	80112.46
539.928	80114.49
540.274	80112.05
540.619	80112.6
540.965	80111.83
541.31	80112.94
541.656	80111.6
542.001	80111.16
542.347	80112.38
542.692	80111.46
543.037	80113.23
543.382	80113.01
543.728	80111.79
544.073	80112.38
544.418	80111.72
544.763	80112.42
545.108	80113.35
545.453	80115.01
545.798	80114.2
546.142	80113.42
546.487	80114.94
546.832	80115.79
547.177	80114.42
547.521	80114.53
547.866	80114.38
548.211	80115.27
548.555	80114.09
548.9	80115.86
549.244	80114.64
549.588	80112.31
549.933	80112.57
550.277	80111.72
550.621	80111.57
550.965	80110.86
551.31	80109.75
551.654	80109.01
551.998	80108.42
552.342	80107.9
552.686	80107.64
553.03	80107.46
553.373	80108.68
553.717	80107.42
554.061	80106.31
554.405	80105.09
554.748	80105.02
555.092	80104.42
555.436	80103.87
555.779	80103.76
556.123	80102.61
556.466	80104.31
556.81	80106.35
557.153	80106.83
557.496	80106.05
557.839	80105.53
558.183	80106.9
558.526	80107.57
558.869	80109.46
559.212	80109.83
559.555	80110.68
559.898	80111.27
560.241	80113.01
560.584	80113.12
560.927	80113.31
561.269	80113.49
561.612	80115.31
561.955	80114.42
562.297	80114.27
562.64	80114.49
562.983	80114.64
563.325	80114.75
563.668	80115.68
564.01	80114.97
564.352	80112.75
564.695	80112.83
565.037	80112.49
565.379	80112.23
565.721	80112.53
566.063	80111.68
566.406	80112.16
566.748	80111.16
567.09	80112.23
567.431	80110.35
567.773	80110.83
568.115	80110.83
568.457	80110.05
568.799	80109.61
569.14	80112.12
569.482	80113.2
569.824	80111.9
570.165	80112.01
570.507	80111.12
570.848	80109.38
571.19	80107.79
571.531	80108.35
571.872	80109.49
572.214	80109.24
572.555	80109.09
572.896	80109.12
573.237	80106.53
573.578	80103.05
573.919	80102.83
574.26	80100.8
574.601	80101.17
574.942	80100.13
575.283	80099.61
575.624	80099.2
575.964	80099.94
576.305	80098.5
576.646	80097.02
576.986	80097.09
577.327	80096.32
577.667	80096.43
578.008	80096.98
578.348	80097.87
578.689	80099.35
579.029	80097.98
579.369	80097.91
579.71	80096.87
580.05	80095.06
580.39	80096.83
580.73	80099.54
581.07	80100.13
581.41	80100.46
581.75	80099.91
582.09	80099.46
582.43	80098.28
582.769	80098.98
583.109	80098.57
583.449	80097.54
583.789	80098.39
584.128	80099.17
584.468	80099.02
584.807	80099.61
585.147	80098.46
