Data from 24HourExp_27052025_FLMS018081_00-18-20-792.txt Node
Date: Wed May 28 00:18:20 BST 2025
User: adleo
Spectrometer: FLMS01808
Trigger mode: 0
Integration Time (sec): 4.000000E-1
Scans to average: 10
Electric dark correction enabled: true
Nonlinearity correction enabled: true
Boxcar width: 10
XAxis mode: Wavelengths
Number of Pixels in Spectrum: 2048
>>>>>Begin Spectral Data<<<<<
178.471	-130.91
178.857	-123.51
179.244	-115.04
179.631	-109.14
180.017	-101.61
180.404	-92.83
180.79	-81.35
181.176	-71.59
181.563	-62.56
181.949	-51.57
182.335	-40.49
182.722	-24.14
183.108	-4.77
183.494	23.04
183.88	77.41
184.266	129.15
184.653	186.79
185.039	242.24
185.425	297.17
185.811	350.67
186.197	403.75
186.582	453.22
186.968	507.25
187.354	558.18
187.74	611.29
188.126	662.29
188.511	712.55
188.897	759.52
189.283	806.26
189.668	853.18
190.054	897.44
190.439	941.98
190.825	985.37
191.21	1025.52
191.596	1057.7
191.981	1065.32
192.366	1069.67
192.752	1071.9
193.137	1073.76
193.522	1074.97
193.908	1077.24
194.293	1080.68
194.678	1084.17
195.063	1083.85
195.448	1084.98
195.833	1084.03
196.218	1083.47
196.603	1083.9
196.988	1083.32
197.373	1084.76
197.757	1084.16
198.142	1083.46
198.527	1081.3
198.912	1079.89
199.296	1079.7
199.681	1078.1
200.066	1076.69
200.45	1077.56
200.835	1077.86
201.219	1078.58
201.604	1079.04
201.988	1077.66
202.372	1079.35
202.757	1079.28
203.141	1079.81
203.525	1081.66
203.91	1082.33
204.294	1083.58
204.678	1082.16
205.062	1082.71
205.446	1081.45
205.83	1083.15
206.214	1084.2
206.598	1086.92
206.982	1089.26
207.366	1090.42
207.75	1092.65
208.134	1094.53
208.517	1095.2
208.901	1096.58
209.285	1098.39
209.669	1099.55
210.052	1102.02
210.436	1100.22
210.819	1100.69
211.203	1101.47
211.586	1101.31
211.97	1103.05
212.353	1104.35
212.737	1107.2
213.12	1110.13
213.503	1110.48
213.886	1109.27
214.27	1110.75
214.653	1110.03
215.036	1111.7
215.419	1113.51
215.802	1115.63
216.185	1119.39
216.568	1122.47
216.951	1121.75
217.334	1122.37
217.717	1126.63
218.1	1128.6
218.482	1132.61
218.865	1137.12
219.248	1142.15
219.631	1145.77
220.013	1149.07
220.396	1155.63
220.778	1159.47
221.161	1164.06
221.544	1170.45
221.926	1179.36
222.308	1187.2
222.691	1195.6
223.073	1204.36
223.455	1213.14
223.838	1223.3
224.22	1230.45
224.602	1240.68
224.984	1254.51
225.366	1267.49
225.749	1281.77
226.131	1295.57
226.513	1310.31
226.895	1324.11
227.276	1337.23
227.658	1353.16
228.04	1369.2
228.422	1383.44
228.804	1400.05
229.186	1416.21
229.567	1434.79
229.949	1453.18
230.331	1470.77
230.712	1486.91
231.094	1505.11
231.475	1524.84
231.857	1544.55
232.238	1565.4
232.62	1586.38
233.001	1605.17
233.382	1626.13
233.763	1643.28
234.145	1664.61
234.526	1681.69
234.907	1701.79
235.288	1721.19
235.669	1741.82
236.05	1762.04
236.431	1782.67
236.812	1804.18
237.193	1825.77
237.574	1848.44
237.955	1868.66
238.336	1890.61
238.717	1914.66
239.097	1938.66
239.478	1959.19
239.859	1978.59
240.239	2002.39
240.62	2024.81
241.001	2047.98
241.381	2071.68
241.762	2098.16
242.142	2121.59
242.522	2147.6
242.903	2172.17
243.283	2198.15
243.663	2226.69
244.044	2258.89
244.424	2287.51
244.804	2314.43
245.184	2343.88
245.564	2370.71
245.944	2402.58
246.324	2433.03
246.704	2463.54
247.084	2492.06
247.464	2527.22
247.844	2560.87
248.224	2591.83
248.604	2623.23
248.983	2656.96
249.363	2689.55
249.743	2718.78
250.122	2750.26
250.502	2783.02
250.882	2816.43
251.261	2849.37
251.641	2879.39
252.02	2910.07
252.399	2945.93
252.779	2983.07
253.158	3021.07
253.537	3062.1
253.917	3106.71
254.296	3147.36
254.675	3188.19
255.054	3229.68
255.433	3271.47
255.812	3312.53
256.191	3354.49
256.57	3398.1
256.949	3442.09
257.328	3487.21
257.707	3534.5
258.086	3582.54
258.465	3630.92
258.843	3681.4
259.222	3735.42
259.601	3791.95
259.979	3844.64
260.358	3897.96
260.736	3953.39
261.115	4007.82
261.493	4064.2
261.872	4114.79
262.25	4171.11
262.629	4228.17
263.007	4289.6
263.385	4347.2
263.763	4410.4
264.142	4475.4
264.52	4540.49
264.898	4604.81
265.276	4671.26
265.654	4741.01
266.032	4808.86
266.41	4880.91
266.788	4956.04
267.166	5030.71
267.544	5103.62
267.921	5181.94
268.299	5261.2
268.677	5341.1
269.055	5425.49
269.432	5510.25
269.81	5597.31
270.188	5683.72
270.565	5773.65
270.943	5861.36
271.32	5952.71
271.697	6047.66
272.075	6143.78
272.452	6240.65
272.829	6340.66
273.207	6440.7
273.584	6544.45
273.961	6654.7
274.338	6767.91
274.715	6882.74
275.092	6999.59
275.469	7122.12
275.846	7243.41
276.223	7367.2
276.6	7492
276.977	7616.37
277.354	7742.54
277.731	7867.05
278.108	7998.34
278.484	8129.22
278.861	8264.62
279.238	8406.8
279.614	8545.86
279.991	8688.1
280.367	8832.08
280.744	8980.44
281.12	9130.12
281.497	9278.8
281.873	9429.77
282.249	9576.59
282.625	9724.11
283.002	9872.83
283.378	10018.63
283.754	10170.7
284.13	10324.67
284.506	10483.37
284.882	10643.17
285.258	10800.43
285.634	10963.88
286.01	11125.31
286.386	11286.42
286.762	11450.57
287.138	11615.99
287.513	11777.8
287.889	11943.34
288.265	12109.4
288.641	12271.09
289.016	12432.54
289.392	12601.13
289.767	12764.79
290.143	12931.89
290.518	13093.32
290.894	13258.63
291.269	13422.31
291.644	13582.33
292.02	13735.67
292.395	13889.39
292.77	14043.5
293.145	14199.02
293.52	14353.62
293.895	14501.95
294.27	14657.25
294.646	14808.55
295.02	14952.22
295.395	15108.95
295.77	15262.36
296.145	15418.05
296.52	15575.5
296.895	15731.03
297.269	15882.74
297.644	16032.94
298.019	16183.22
298.393	16339.04
298.768	16491.09
299.143	16644.86
299.517	16797.33
299.891	16959.26
300.266	17117.56
300.64	17275.16
301.015	17439.41
301.389	17605.63
301.763	17786.15
302.137	17958.88
302.512	18137.4
302.886	18314.97
303.26	18498.52
303.634	18677.21
304.008	18851.6
304.382	19031.58
304.756	19222.14
305.13	19411.04
305.504	19594.11
305.877	19785.46
306.251	19987.97
306.625	20190.71
306.999	20404.04
307.372	20618.31
307.746	20832.82
308.119	21047.71
308.493	21260.7
308.866	21472.86
309.24	21688.8
309.613	21890.42
309.987	22101.33
310.36	22300.85
310.733	22510.43
311.107	22726.25
311.48	22953.49
311.853	23184.97
312.226	23409.83
312.599	23634.57
312.972	23854.15
313.345	24089.75
313.718	24318.94
314.091	24542.32
314.464	24775.05
314.837	24999.99
315.21	25208.4
315.582	25429.56
315.955	25645.19
316.328	25866.72
316.7	26079.59
317.073	26302.3
317.446	26529.2
317.818	26755.2
318.191	26986.7
318.563	27212.72
318.936	27415.28
319.308	27618.46
319.68	27821.79
320.053	28025.06
320.425	28215.37
320.797	28403.71
321.169	28564.99
321.541	28713.62
321.913	28847.91
322.285	28960.44
322.657	29083.31
323.029	29240.26
323.401	29381.33
323.773	29545.78
324.145	29719.05
324.517	29907.04
324.889	30083.64
325.26	30290.4
325.632	30511.08
326.004	30751.88
326.375	31014.07
326.747	31297.41
327.118	31597.63
327.49	31889.65
327.861	32197.47
328.233	32505.41
328.604	32819.34
328.975	33133.76
329.346	33447.59
329.718	33755.93
330.089	34072.54
330.46	34366.77
330.831	34635.82
331.202	34896.37
331.573	35147.02
331.944	35378.47
332.315	35611.86
332.686	35830.17
333.057	36026.39
333.428	36204.97
333.799	36375.61
334.169	36527.73
334.54	36670.35
334.911	36785.97
335.281	36916.22
335.652	37043.37
336.022	37180.42
336.393	37321.75
336.763	37484.6
337.134	37672.67
337.504	37872.95
337.874	38079.76
338.245	38287.84
338.615	38507.98
338.985	38741.25
339.355	38960.36
339.726	39182.77
340.096	39396.46
340.466	39649.35
340.836	39889.97
341.206	40137.05
341.576	40381.24
341.945	40625.97
342.315	40855.63
342.685	41099.55
343.055	41350.96
343.425	41587.62
343.794	41818.49
344.164	42053.09
344.533	42292.54
344.903	42519.69
345.273	42760.02
345.642	42981.22
346.011	43211.31
346.381	43448.46
346.75	43679.79
347.12	43926.91
347.489	44179.89
347.858	44432.24
348.227	44638.65
348.596	44866.72
348.965	45103.76
349.334	45338.53
349.704	45579.72
350.072	45834.31
350.441	46074.27
350.81	46314.04
351.179	46545.68
351.548	46783.58
351.917	47003.52
352.285	47200.31
352.654	47403.76
353.023	47605.89
353.391	47806.77
353.76	48022.94
354.129	48210.28
354.497	48438.33
354.865	48660.96
355.234	48888.72
355.602	49113.74
355.971	49370.76
356.339	49584.36
356.707	49801.66
357.075	50015.56
357.443	50230.84
357.811	50437.9
358.18	50643.32
358.548	50849.9
358.916	51061.59
359.284	51283.34
359.651	51502.33
360.019	51724.42
360.387	51926.81
360.755	52128.82
361.123	52355.43
361.49	52577.08
361.858	52794.2
362.226	52993.9
362.593	53191.56
362.961	53376.21
363.328	53572.04
363.696	53735.99
364.063	53955.36
364.43	54161.74
364.798	54375.65
365.165	54558.82
365.532	54744.96
365.899	54932.23
366.267	55100.65
366.634	55251.91
367.001	55414.06
367.368	55554.06
367.735	55731.37
368.102	55915.35
368.469	56105.39
368.835	56284.05
369.202	56446.64
369.569	56643.2
369.936	56827.17
370.303	57010.16
370.669	57210.26
371.036	57376.12
371.402	57583.66
371.769	57764.01
372.135	57914.41
372.502	58044.42
372.868	58188.72
373.235	58328.71
373.601	58466.65
373.967	58639.93
374.333	58825.33
374.7	59002.12
375.066	59208.53
375.432	59399.26
375.798	59581.15
376.164	59752.8
376.53	59907.96
376.896	60079.23
377.262	60248.01
377.628	60375.48
377.993	60527.32
378.359	60677.24
378.725	60836.23
379.091	60980.99
379.456	61107.94
379.822	61234.91
380.187	61382.27
380.553	61576.44
380.918	61772.24
381.284	61949.12
381.649	62116.85
382.015	62255.06
382.38	62382.53
382.745	62549.91
383.11	62698.99
383.476	62836.07
383.841	62964.4
384.206	63115.49
384.571	63238.24
384.936	63368.24
385.301	63543.17
385.666	63675.46
386.031	63819.58
386.396	63986.38
386.76	64133.72
387.125	64327.87
387.49	64530.15
387.855	64734.17
388.219	64889.17
388.584	65065.98
388.948	65260.09
389.313	65430.74
389.677	65643.54
390.042	65877.11
390.406	66026.28
390.771	66214.15
391.135	66404.61
391.499	66637.49
391.863	66869.89
392.227	67109.88
392.592	67316.26
392.956	67511.63
393.32	67713.21
393.684	67932.54
394.048	68098.7
394.412	68285.13
394.775	68436.16
395.139	68583.08
395.503	68738.77
395.867	68895.08
396.231	69041.31
396.594	69145.4
396.958	69280.64
397.321	69432.77
397.685	69555.88
398.048	69705.69
398.412	69844.61
398.775	69982.59
399.139	70111.79
399.502	70227.23
399.865	70364.38
400.228	70563.03
400.592	70707.82
400.955	70912.75
401.318	71045.06
401.681	71212.04
402.044	71351.54
402.407	71515.33
402.77	71677.42
403.133	71862.37
403.496	72015.2
403.859	72167.33
404.221	72409.66
404.584	72654.35
404.947	72903.15
405.309	73120.29
405.672	73358.68
406.034	73586.19
406.397	73844.28
406.759	74068.35
407.122	74256.81
407.484	74436.87
407.847	74611.39
408.209	74854.7
408.571	75073.01
408.933	75335.76
409.296	75589.29
409.658	75834.65
410.02	76096.9
410.382	76399.49
410.744	76648.13
411.106	76927.08
411.468	77193.87
411.83	77419.14
412.191	77600.76
412.553	77759.76
412.915	77948.73
413.277	78132.6
413.638	78305.97
414	78451.87
414.361	78605.37
414.723	78802.37
415.084	78990.46
415.446	79136.32
415.807	79250.95
416.169	79338.03
416.53	79404.11
416.891	79483.17
417.252	79581.68
417.614	79639.74
417.975	79667.88
418.336	79700.72
418.697	79732.12
419.058	79759.58
419.419	79780.69
419.78	79803.62
420.141	79820.62
420.501	79834.54
420.862	79845.62
421.223	79855.83
421.584	79878.81
421.944	79891.09
422.305	79899.2
422.666	79906.39
423.026	79909.68
423.387	79917.57
423.747	79921.99
424.107	79930.44
424.468	79938.08
424.828	79943.18
425.188	79946.35
425.549	79952.19
425.909	79955.95
426.269	79955.55
426.629	79958.65
426.989	79961.94
427.349	79967.88
427.709	79971.28
428.069	79973.79
428.429	79978.15
428.789	79982.47
429.149	79986.2
429.508	79987.79
429.868	79991.56
430.228	79995
430.587	79998.92
430.947	80003.42
431.306	80009.41
431.666	80010.92
432.025	80013.07
432.385	80014.51
432.744	80015.92
433.103	80017.36
433.463	80019.1
433.822	80025.37
434.181	80029.11
434.54	80030.36
434.899	80031.44
435.258	80033.43
435.618	80036.61
435.976	80037.46
436.335	80036.17
436.694	80036.94
437.053	80037.2
437.412	80037.54
437.771	80038.02
438.129	80039.27
438.488	80039.83
438.847	80038.5
439.205	80040.16
439.564	80040.72
439.922	80040.42
440.281	80041.49
440.639	80043.01
440.997	80042.6
441.356	80044.3
441.714	80044.23
442.072	80045.12
442.431	80044.71
442.789	80044.9
443.147	80044.71
443.505	80047.3
443.863	80048.93
444.221	80049.19
444.579	80050.26
444.937	80050.78
445.294	80050.92
445.652	80050.26
446.01	80050.44
446.368	80052.07
446.725	80051.51
447.083	80050.96
447.441	80050.89
447.798	80051.7
448.156	80052.14
448.513	80054.88
448.87	80054.77
449.228	80055.99
449.585	80057.29
449.942	80058.51
450.3	80058.91
450.657	80060.36
451.014	80058.47
451.371	80058.95
451.728	80059.65
452.085	80061.43
452.442	80061.1
452.799	80062.21
453.156	80062.69
453.513	80063.83
453.869	80063.28
454.226	80063.95
454.583	80063.69
454.939	80064.2
455.296	80064.35
455.653	80064.54
456.009	80063.17
456.366	80063.46
456.722	80062.84
457.078	80062.5
457.435	80062.39
457.791	80062.32
458.147	80060.91
458.503	80064.02
458.86	80063.43
459.216	80064.91
459.572	80064.83
459.928	80066.72
460.284	80068.05
460.64	80068.68
460.996	80069.09
461.351	80070.94
461.707	80070.38
462.063	80071.09
462.419	80071.46
462.774	80072.38
463.13	80073.71
463.486	80073.05
463.841	80072.94
464.197	80073.75
464.552	80075.23
464.908	80075.23
465.263	80077.93
465.618	80079.97
465.974	80079.56
466.329	80081.37
466.684	80080.71
467.039	80079.89
467.394	80079.3
467.749	80077.86
468.104	80077.93
468.459	80079.23
468.814	80077.67
469.169	80078.34
469.524	80079.82
469.879	80080.19
470.233	80080.63
470.588	80081.15
470.943	80080.97
471.297	80081.71
471.652	80081.63
472.006	80081.11
472.361	80081.26
472.715	80080.04
473.07	80081.04
473.424	80081.3
473.778	80082.59
474.133	80082.45
474.487	80082.56
474.841	80081.63
475.195	80083.74
475.549	80086.37
475.903	80086.81
476.257	80086.78
476.611	80087.7
476.965	80088.15
477.319	80088.78
477.673	80089.07
478.026	80089.22
478.38	80092.85
478.734	80093.18
479.087	80094.29
479.441	80095.48
479.795	80096.62
480.148	80097.21
480.502	80096.14
480.855	80096.1
481.208	80097.25
481.562	80098.81
481.915	80099.44
482.268	80102.77
482.621	80102.1
482.974	80101.17
483.328	80101.32
483.681	80103.14
484.034	80104.69
484.387	80104.17
484.739	80105.88
485.092	80105.36
485.445	80105.62
485.798	80105.32
486.151	80106.17
486.503	80107.17
486.856	80106.28
487.209	80105.62
487.561	80106.5
487.914	80106.21
488.266	80107.65
488.618	80106.02
488.971	80105.17
489.323	80106.1
489.675	80104.47
490.028	80105.32
490.38	80105.39
490.732	80105.02
491.084	80105.62
491.436	80104.54
491.788	80105.17
492.14	80104.73
492.492	80105.13
492.844	80105.21
493.196	80105.47
493.548	80106.28
493.899	80106.62
494.251	80107.43
494.603	80107.87
494.954	80106.95
495.306	80107.87
495.657	80106.32
496.009	80107.32
496.36	80107.91
496.712	80108.69
497.063	80109.87
497.414	80109.35
497.765	80109.35
498.117	80108.73
498.468	80107.98
498.819	80109.35
499.17	80107.39
499.521	80107.21
499.872	80107.5
500.223	80107.06
500.574	80105.62
500.924	80104.84
501.275	80105.84
501.626	80105.43
501.977	80106.13
502.327	80104.36
502.678	80103.32
503.029	80104.77
503.379	80105.06
503.73	80104.99
504.08	80104.14
504.43	80102.99
504.781	80102.66
505.131	80102.8
505.481	80101.73
505.831	80102.88
506.182	80102.73
506.532	80103.65
506.882	80103.8
507.232	80104.06
507.582	80104.99
507.932	80105.02
508.281	80104.73
508.631	80102.77
508.981	80104.28
509.331	80103.84
509.681	80105.1
510.03	80103.95
510.38	80103.4
510.729	80103.03
511.079	80103.4
511.428	80103.69
511.778	80103.99
512.127	80104.1
512.476	80103.91
512.826	80104.47
513.175	80104.39
513.524	80104.54
513.873	80107.43
514.222	80106.54
514.571	80105.54
514.92	80103.51
515.269	80104.17
515.618	80103.84
515.967	80104.25
516.316	80104.1
516.665	80103.95
517.014	80104.69
517.362	80106.06
517.711	80104.73
518.059	80103.06
518.408	80102.54
518.757	80101.54
519.105	80102.25
519.453	80103.66
519.802	80105.77
520.15	80107.73
520.498	80106.28
520.847	80104.17
521.195	80103.32
521.543	80103.36
521.891	80104.4
522.239	80108.14
522.587	80107.43
522.935	80107.8
523.283	80108.32
523.631	80106.32
523.979	80106.32
524.326	80108.21
524.674	80107.66
525.022	80109.54
525.369	80110.8
525.717	80111.06
526.064	80110.21
526.412	80110.69
526.759	80108.91
527.107	80105.95
527.454	80104.77
527.801	80106.03
528.149	80106.58
528.496	80105.4
528.843	80107.54
529.19	80107.1
529.537	80103.95
529.884	80105.8
530.231	80106.69
530.578	80106.84
530.925	80108.65
531.272	80110.02
531.619	80108.76
531.966	80108.43
532.312	80106.69
532.659	80106.73
533.006	80106.32
533.352	80106.25
533.699	80105.21
534.045	80105.84
534.392	80106.99
534.738	80106.88
535.084	80107.36
535.431	80108.62
535.777	80109.25
536.123	80108.36
536.469	80108.5
536.815	80107.95
537.161	80105.99
537.507	80104.43
537.853	80101.69
538.199	80099.51
538.545	80097.55
538.891	80096.55
539.237	80097.88
539.582	80098.47
539.928	80098.18
540.274	80098.14
540.619	80100.06
540.965	80099.29
541.31	80098.21
541.656	80098.8
542.001	80099.14
542.347	80096.95
542.692	80095.92
543.037	80096.1
543.382	80096.18
543.728	80095.77
544.073	80097.25
544.418	80096.95
544.763	80097.66
545.108	80099.36
545.453	80099.32
545.798	80099.77
546.142	80098.69
546.487	80099.84
546.832	80100.84
547.177	80100.66
547.521	80099.73
547.866	80101.25
548.211	80103.1
548.555	80103.14
548.9	80100.84
549.244	80099.44
549.588	80101.95
549.933	80102.03
550.277	80100.47
550.621	80100.99
550.965	80100.58
551.31	80100.32
551.654	80101.25
551.998	80101.84
552.342	80102.58
552.686	80103.03
553.03	80102.99
553.373	80105.69
553.717	80104.91
554.061	80104.17
554.405	80103.91
554.748	80105.4
555.092	80104.14
555.436	80102.43
555.779	80103.43
556.123	80105.28
556.466	80107.39
556.81	80104.73
557.153	80104.99
557.496	80106.54
557.839	80106.84
558.183	80108.47
558.526	80109.69
558.869	80109.28
559.212	80108.36
559.555	80108.54
559.898	80109.99
560.241	80109.95
560.584	80109.39
560.927	80108.69
561.269	80107.62
561.612	80108.54
561.955	80108.62
562.297	80108.13
562.64	80109.84
562.983	80109.21
563.325	80108.5
563.668	80106.88
564.01	80108.17
564.352	80106.73
564.695	80105.14
565.037	80103.54
565.379	80103.1
565.721	80100.77
566.063	80101.47
566.406	80100.99
566.748	80099.84
567.09	80098.73
567.431	80097.84
567.773	80096.07
568.115	80095.32
568.457	80094.59
568.799	80094.88
569.14	80092.88
569.482	80092.92
569.824	80093.07
570.165	80092.88
570.507	80092.92
570.848	80092.62
571.19	80092.33
571.531	80093.81
571.872	80095.29
572.214	80095.03
572.555	80095.62
572.896	80095.36
573.237	80093.51
573.578	80094.25
573.919	80094.22
574.26	80092.37
574.601	80094.4
574.942	80094.96
575.283	80093.44
575.624	80094.77
575.964	80093.81
576.305	80094.18
576.646	80094.03
576.986	80092.81
577.327	80092.73
577.667	80092.77
578.008	80092.77
578.348	80091.66
578.689	80091.11
579.029	80089.66
579.369	80089.44
579.71	80088.29
580.05	80088.22
580.39	80089.29
580.73	80087.7
581.07	80086.29
581.41	80088.81
581.75	80087.55
582.09	80086.48
582.43	80087.66
582.769	80088.29
583.109	80088.33
583.449	80088.81
583.789	80087.96
584.128	80087.66
584.468	80088.22
584.807	80087.18
585.147	80086.48
585.486	80086.44
