Data from 24HourExp_27052025_FLMS018081_12-48-20-002.txt Node
Date: Tue May 27 12:48:20 BST 2025
User: adleo
Spectrometer: FLMS01808
Trigger mode: 0
Integration Time (sec): 4.000000E-1
Scans to average: 10
Electric dark correction enabled: true
Nonlinearity correction enabled: true
Boxcar width: 10
XAxis mode: Wavelengths
Number of Pixels in Spectrum: 2048
>>>>>Begin Spectral Data<<<<<
178.471	-120.56
178.857	-114.65
179.244	-110.07
179.631	-100.28
180.017	-93.17
180.404	-86.25
180.79	-75.63
181.176	-67.73
181.563	-58.99
181.949	-48.28
182.335	-38.5
182.722	-22.75
183.108	-4.93
183.494	21.41
183.88	73.94
184.266	124.81
184.653	179.66
185.039	234.31
185.425	290.56
185.811	341.81
186.197	392.97
186.582	444.13
186.968	495.77
187.354	548.58
187.74	598.65
188.126	648.39
188.511	700.21
188.897	746.94
189.283	794.51
189.668	840.27
190.054	883.72
190.439	928.87
190.825	970.75
191.21	1011.89
191.596	1045.66
191.981	1054.3
192.366	1061.48
192.752	1063.61
193.137	1066.4
193.522	1066.09
193.908	1069.21
194.293	1073.83
194.678	1074.5
195.063	1075.84
195.448	1077.94
195.833	1077
196.218	1077.97
196.603	1075.81
196.988	1075.92
197.373	1077.04
197.757	1077.95
198.142	1078.18
198.527	1076.27
198.912	1076.34
199.296	1076.25
199.681	1073.9
200.066	1070.74
200.45	1070.48
200.835	1071.44
201.219	1071.9
201.604	1073.41
201.988	1073.05
202.372	1072.9
202.757	1073.83
203.141	1076.16
203.525	1074.89
203.91	1076.01
204.294	1077.62
204.678	1078.15
205.062	1077.74
205.446	1078.76
205.83	1080.14
206.214	1079.88
206.598	1080.5
206.982	1081.94
207.366	1080.96
207.75	1081.88
208.134	1084.02
208.517	1084.57
208.901	1085.59
209.285	1085.71
209.669	1085.11
210.052	1086.18
210.436	1086.44
210.819	1087.54
211.203	1086.8
211.586	1089.31
211.97	1090.85
212.353	1088.59
212.737	1091.44
213.12	1094.07
213.503	1094.56
213.886	1093.53
214.27	1097.26
214.653	1098.25
215.036	1100.21
215.419	1103.74
215.802	1106.64
216.185	1108.87
216.568	1112.25
216.951	1113.81
217.334	1116.21
217.717	1121.42
218.1	1124.58
218.482	1127.32
218.865	1130.59
219.248	1136.21
219.631	1138.75
220.013	1143.03
220.396	1151.38
220.778	1154.52
221.161	1159.82
221.544	1165.15
221.926	1173.22
222.308	1179.67
222.691	1186.19
223.073	1195.76
223.455	1204.85
223.838	1213.82
224.22	1220.78
224.602	1229.7
224.984	1240.14
225.366	1252.9
225.749	1264.21
226.131	1276.58
226.513	1289.66
226.895	1303.78
227.276	1315.65
227.658	1333.32
228.04	1347.55
228.422	1361.72
228.804	1379.08
229.186	1393.85
229.567	1411.52
229.949	1427.5
230.331	1442.85
230.712	1461.11
231.094	1478.02
231.475	1496.1
231.857	1515.31
232.238	1537.03
232.62	1556.48
233.001	1576.98
233.382	1595.17
233.763	1615.82
234.145	1634.93
234.526	1655.3
234.907	1673.86
235.288	1692.2
235.669	1708.91
236.05	1727.01
236.431	1744.52
236.812	1764.08
237.193	1785.86
237.574	1806.04
237.955	1827.97
238.336	1850.95
238.717	1873.93
239.097	1895.7
239.478	1917.76
239.859	1937.11
240.239	1960.12
240.62	1982.43
241.001	2001.03
241.381	2024.86
241.762	2046.38
242.142	2068.73
242.522	2091.61
242.903	2115.78
243.283	2141.8
243.663	2167.29
244.044	2197.77
244.424	2226.63
244.804	2253.9
245.184	2283.41
245.564	2310.77
245.944	2340.37
246.324	2369.05
246.704	2400.61
247.084	2428.59
247.464	2458.6
247.844	2490.88
248.224	2520.32
248.604	2553.56
248.983	2586.93
249.363	2618.05
249.743	2646.77
250.122	2677.09
250.502	2705.81
250.882	2735.89
251.261	2767.92
251.641	2800.69
252.02	2830.65
252.399	2863.65
252.779	2897.29
253.158	2930.14
253.537	2967.73
253.917	3009.94
254.296	3046.99
254.675	3083.45
255.054	3124.25
255.433	3164.09
255.812	3202.33
256.191	3243.33
256.57	3280.61
256.949	3322.47
257.328	3364.15
257.707	3408.02
258.086	3454.25
258.465	3500.99
258.843	3554.24
259.222	3601.18
259.601	3653.24
259.979	3704.88
260.358	3757.01
260.736	3810.93
261.115	3863.78
261.493	3915.71
261.872	3963.43
262.25	4018.43
262.629	4070.84
263.007	4126.66
263.385	4180.92
263.763	4242.26
264.142	4302.76
264.52	4366.08
264.898	4428.37
265.276	4492.42
265.654	4561.6
266.032	4628.99
266.41	4698.19
266.788	4764.22
267.166	4840.86
267.544	4911.73
267.921	4990.29
268.299	5068.64
268.677	5146.13
269.055	5226.64
269.432	5308.92
269.81	5393.3
270.188	5481.39
270.565	5573.43
270.943	5663.03
271.32	5755.35
271.697	5846.11
272.075	5936.91
272.452	6031.47
272.829	6128.91
273.207	6226.13
273.584	6326.53
273.961	6431.03
274.338	6543.07
274.715	6657.35
275.092	6775.2
275.469	6898.35
275.846	7014.14
276.223	7133.18
276.6	7251.84
276.977	7378.41
277.354	7504.97
277.731	7631.39
278.108	7760.53
278.484	7889.42
278.861	8024.22
279.238	8165.15
279.614	8305.67
279.991	8449.1
280.367	8592.58
280.744	8738.5
281.12	8888.63
281.497	9037.62
281.873	9191.07
282.249	9337.71
282.625	9486.86
283.002	9633.06
283.378	9778.36
283.754	9929.29
284.13	10083.31
284.506	10246.34
284.882	10401.31
285.258	10556.14
285.634	10711.23
286.01	10871.27
286.386	11031.19
286.762	11191.88
287.138	11351.87
287.513	11513.41
287.889	11675.84
288.265	11841.01
288.641	11998.74
289.016	12156.58
289.392	12320.59
289.767	12480.59
290.143	12649.82
290.518	12811.57
290.894	12972.55
291.269	13129.66
291.644	13291.25
292.02	13447.03
292.395	13595.38
292.77	13752.93
293.145	13909.18
293.52	14065.41
293.895	14213.74
294.27	14366.55
294.646	14522.15
295.02	14673.14
295.395	14827.31
295.77	14985.66
296.145	15138.37
296.52	15299.4
296.895	15459.93
297.269	15614.71
297.644	15770.7
298.019	15919.76
298.393	16077.16
298.768	16232.04
299.143	16392.29
299.517	16541.33
299.891	16697.2
300.266	16861.04
300.64	17013.68
301.015	17174.64
301.389	17348.07
301.763	17520.6
302.137	17691.73
302.512	17867.2
302.886	18046.4
303.26	18231.53
303.634	18410.82
304.008	18588.79
304.382	18772.2
304.756	18955.12
305.13	19138.84
305.504	19316.59
305.877	19502.15
306.251	19704.78
306.625	19905.39
306.999	20107.62
307.372	20320.08
307.746	20537.23
308.119	20748.54
308.493	20963.39
308.866	21172.62
309.24	21381.02
309.613	21589.38
309.987	21794.11
310.36	21988.21
310.733	22198.65
311.107	22408.17
311.48	22624.23
311.853	22852
312.226	23073.6
312.599	23300.9
312.972	23522.01
313.345	23748.92
313.718	23979.85
314.091	24192.53
314.464	24424.4
314.837	24648.52
315.21	24862.25
315.582	25079.96
315.955	25290.46
316.328	25513.4
316.7	25737.31
317.073	25955.89
317.446	26176.98
317.818	26412.72
318.191	26646.33
318.563	26862.65
318.936	27072.37
319.308	27274.22
319.68	27473.91
320.053	27669.85
320.425	27853.1
320.797	28037.06
321.169	28201.15
321.541	28345.52
321.913	28478.75
322.285	28594.38
322.657	28720.59
323.029	28863.05
323.401	29004.28
323.773	29169.75
324.145	29334.79
324.517	29519.27
324.889	29699.23
325.26	29898.76
325.632	30107.22
326.004	30338.66
326.375	30590.68
326.747	30861.28
327.118	31160.42
327.49	31446.35
327.861	31752.32
328.233	32058.63
328.604	32366.07
328.975	32681.25
329.346	32999.35
329.718	33306.8
330.089	33604.92
330.46	33889.07
330.831	34163.85
331.202	34420.74
331.573	34668.98
331.944	34893.45
332.315	35116.86
332.686	35331.23
333.057	35530.01
333.428	35707.67
333.799	35882.3
334.169	36034.28
334.54	36176.52
334.911	36291.8
335.281	36420.12
335.652	36543.69
336.022	36684.39
336.393	36828.84
336.763	36990.88
337.134	37169.07
337.504	37372.03
337.874	37579.04
338.245	37790.21
338.615	38005.41
338.985	38231.99
339.355	38450.38
339.726	38677.17
340.096	38896.51
340.466	39147.33
340.836	39384.34
341.206	39632.32
341.576	39871.68
341.945	40116.49
342.315	40345.53
342.685	40590.28
343.055	40839.91
343.425	41077.84
343.794	41299.49
344.164	41531.39
344.533	41770.6
344.903	41996.14
345.273	42222.7
345.642	42448.16
346.011	42680.02
346.381	42916.69
346.75	43148.08
347.12	43385.57
347.489	43638.95
347.858	43882.44
348.227	44089.39
348.596	44311.37
348.965	44543.99
349.334	44772.18
349.704	45011.6
350.072	45261.99
350.441	45498.72
350.81	45738.61
351.179	45968.78
351.548	46208.5
351.917	46428.68
352.285	46616.83
352.654	46823.25
353.023	47030.69
353.391	47229.47
353.76	47438.49
354.129	47621.85
354.497	47853.65
354.865	48073.18
355.234	48297.8
355.602	48516.76
355.971	48769.36
356.339	48989.93
356.707	49205.47
357.075	49424.26
357.443	49643.92
357.811	49852.46
358.18	50058.95
358.548	50267.26
358.916	50478.24
359.284	50693.87
359.651	50916.88
360.019	51138.79
360.387	51341.12
360.755	51539.7
361.123	51765.75
361.49	51990.57
361.858	52205.75
362.226	52404.61
362.593	52612.69
362.961	52792.4
363.328	52989.54
363.696	53151.74
364.063	53367.99
364.43	53575.08
364.798	53785.61
365.165	53964.33
365.532	54152.45
365.899	54337.55
366.267	54508.5
366.634	54659.04
367.001	54826.22
367.368	54959.88
367.735	55137.59
368.102	55309.28
368.469	55509.93
368.835	55687.28
369.202	55844.32
369.569	56040.5
369.936	56225.41
370.303	56406.79
370.669	56608.74
371.036	56774.19
371.402	56977.99
371.769	57157.97
372.135	57302.88
372.502	57430.9
372.868	57574.13
373.235	57708.56
373.601	57847.85
373.967	58013.94
374.333	58193.9
374.7	58367.86
375.066	58569.24
375.432	58754.79
375.798	58937.44
376.164	59093.49
376.53	59238.45
376.896	59411.2
377.262	59576.86
377.628	59699.58
377.993	59844.52
378.359	59988.81
378.725	60144.15
379.091	60288.79
379.456	60419.76
379.822	60560.71
380.187	60702.38
380.553	60890.12
380.918	61090.55
381.284	61266.32
381.649	61428.86
382.015	61566.4
382.38	61692.67
382.745	61858.23
383.11	62013.75
383.476	62156.66
383.841	62286.6
384.206	62442.88
384.571	62557.25
384.936	62689.06
385.301	62861.14
385.666	62996.19
386.031	63142.72
386.396	63305.11
386.76	63457.82
387.125	63649.88
387.49	63845.01
387.855	64042.57
388.219	64205.04
388.584	64378.29
388.948	64567.58
389.313	64734.81
389.677	64947.52
390.042	65177.61
390.406	65331.66
390.771	65502.04
391.135	65692.33
391.499	65929.88
391.863	66161.44
392.227	66404.63
392.592	66599.53
392.956	66797.16
393.32	66984.81
393.684	67197.59
394.048	67369.5
394.412	67550.18
394.775	67690.31
395.139	67829.71
395.503	67988.93
395.867	68138.6
396.231	68272.23
396.594	68378.78
396.958	68520.06
397.321	68679.54
397.685	68801.64
398.048	68943.35
398.412	69085.92
398.775	69210.18
399.139	69332.79
399.502	69444.16
399.865	69578.15
400.228	69763.52
400.592	69896.12
400.955	70095.11
401.318	70226.75
401.681	70384.56
402.044	70513.27
402.407	70666.67
402.77	70834.11
403.133	71017.23
403.496	71153.17
403.859	71306.31
404.221	71546.65
404.584	71782.85
404.947	72017.61
405.309	72220.22
405.672	72442.33
406.034	72666.1
406.397	72921.67
406.759	73138.33
407.122	73311.98
407.484	73491.24
407.847	73688.22
408.209	73931.59
408.571	74161.6
408.933	74430.49
409.296	74680.19
409.658	74924.89
410.02	75200.82
410.382	75510.98
410.744	75772.44
411.106	76071.09
411.468	76351.29
411.83	76583.08
412.191	76778.15
412.553	76954.9
412.915	77177.82
413.277	77401.98
413.638	77605.35
414	77775.27
414.361	77959.08
414.723	78202.13
415.084	78426.28
415.446	78604.29
415.807	78755.4
416.169	78873.22
416.53	78965.8
416.891	79083.76
417.252	79222.17
417.614	79311.88
417.975	79358.5
418.336	79415.92
418.697	79477.12
419.058	79531.17
419.419	79576.61
419.78	79630.11
420.141	79670.48
420.501	79701.93
420.862	79727.73
421.223	79748.63
421.584	79791.9
421.944	79816.05
422.305	79830.7
422.666	79839.36
423.026	79845.07
423.387	79857.41
423.747	79866.54
424.107	79881.09
424.468	79894.54
424.828	79901.18
425.188	79905.94
425.549	79914.16
425.909	79920.21
426.269	79920.4
426.629	79925.38
426.989	79928.85
427.349	79934.87
427.709	79937.34
428.069	79941.81
428.429	79945.1
428.789	79953.85
429.149	79959.43
429.508	79962.86
429.868	79968.48
430.228	79974.57
430.587	79980.96
430.947	79986.65
431.306	79992.74
431.666	79996.77
432.025	79998.92
432.385	80001.5
432.744	80004.24
433.103	80007.42
433.463	80011.41
433.822	80019.68
434.181	80023.23
434.54	80026.4
434.899	80025.66
435.258	80029.06
435.618	80030.4
435.976	80034.79
436.335	80036.27
436.694	80037.16
437.053	80037.9
437.412	80036.86
437.771	80038.82
438.129	80038.08
438.488	80039.49
438.847	80041.12
439.205	80040.53
439.564	80042.89
439.922	80045.11
440.281	80046.03
440.639	80045.41
440.997	80046.29
441.356	80047.63
441.714	80047.63
442.072	80047.63
442.431	80049.18
442.789	80049.55
443.147	80049.47
443.505	80050.73
443.863	80050.33
444.221	80050.03
444.579	80049.29
444.937	80048.74
445.294	80048
445.652	80049.14
446.01	80048.92
446.368	80049.88
446.725	80051.03
447.083	80050.14
447.441	80050.66
447.798	80051.77
448.156	80055.14
448.513	80055.62
448.87	80056.5
449.228	80057.43
449.585	80057.61
449.942	80057.91
450.3	80058.58
450.657	80058.8
451.014	80057.98
451.371	80057.84
451.728	80057.72
452.085	80057.87
452.442	80060.17
452.799	80060.76
453.156	80060.83
453.513	80060.13
453.869	80059.57
454.226	80059.43
454.583	80060.31
454.939	80060.16
455.296	80059.35
455.653	80058.5
456.009	80057.28
456.366	80055.47
456.722	80053.84
457.078	80054.58
457.435	80054.58
457.791	80054.06
458.147	80053.73
458.503	80052.88
458.86	80055.25
459.216	80057.69
459.572	80059.06
459.928	80059.13
460.284	80060.17
460.64	80059.32
460.996	80059.39
461.351	80059.35
461.707	80059.17
462.063	80058.35
462.419	80058.61
462.774	80057.84
463.13	80055.91
463.486	80056.76
463.841	80058.13
464.197	80059.57
464.552	80060.65
464.908	80059.8
465.263	80061.9
465.618	80063.46
465.974	80064.16
466.329	80062.79
466.684	80061.61
467.039	80062.75
467.394	80063.42
467.749	80062.68
468.104	80063.64
468.459	80064.9
468.814	80065.49
469.169	80065.53
469.524	80067.01
469.879	80066.71
470.233	80066.86
470.588	80069.08
470.943	80069.38
471.297	80069.6
471.652	80070.78
472.006	80070.6
472.361	80071.93
472.715	80070.89
473.07	80070.97
473.424	80073.3
473.778	80074.26
474.133	80075.59
474.487	80075.89
474.841	80075
475.195	80076.07
475.549	80078.07
475.903	80079.59
476.257	80081.14
476.611	80084.4
476.965	80085.47
477.319	80086.73
477.673	80090.14
478.026	80091.51
478.38	80092.17
478.734	80092.62
479.087	80095.06
479.441	80095.65
479.795	80098.28
480.148	80099.69
480.502	80101.09
480.855	80101.21
481.208	80101.98
481.562	80100.8
481.915	80101.98
482.268	80104.91
482.621	80105.94
482.974	80105.68
483.328	80106.57
483.681	80106.02
484.034	80104.8
484.387	80102.95
484.739	80103.39
485.092	80101.54
485.445	80101.46
485.798	80102.35
486.151	80103.17
486.503	80102.8
486.856	80103.28
487.209	80100.54
487.561	80100.06
487.914	80100.2
488.266	80099.17
488.618	80096.95
488.971	80098.09
489.323	80096.39
489.675	80094.43
490.028	80092.36
490.38	80092.73
490.732	80091.36
491.084	80092.06
491.436	80091.58
491.788	80093.65
492.14	80094.69
492.492	80097.02
492.844	80097.06
493.196	80097.58
493.548	80097.95
493.899	80096.39
494.251	80096.1
494.603	80098.06
494.954	80097.61
495.306	80096.99
495.657	80097.84
496.009	80098.95
496.36	80098.76
496.712	80101.98
497.063	80103.09
497.414	80104.31
497.765	80103.31
498.117	80102.13
498.468	80102.2
498.819	80103.94
499.17	80103.39
499.521	80103.35
499.872	80101.02
500.223	80100.13
500.574	80099.21
500.924	80100.24
501.275	80101.02
501.626	80102.24
501.977	80103.28
502.327	80102.72
502.678	80105.54
503.029	80105.94
503.379	80107.5
503.73	80108.46
504.08	80105.72
504.43	80105.06
504.781	80105.06
505.131	80104.17
505.481	80105.35
505.831	80104.61
506.182	80105.02
506.532	80105.02
506.882	80104.24
507.232	80105.54
507.582	80106.06
507.932	80107.05
508.281	80105.8
508.631	80105.98
508.981	80105.13
509.331	80104.31
509.681	80106.24
510.03	80103.72
510.38	80104.87
510.729	80103.43
511.079	80103.24
511.428	80103.83
511.778	80105.05
512.127	80105.13
512.476	80106.16
512.826	80107.35
513.175	80107.87
513.524	80107.13
513.873	80107.9
514.222	80108.5
514.571	80107.35
514.92	80107.13
515.269	80105.42
515.618	80106.09
515.967	80106.87
516.316	80108.09
516.665	80106.98
517.014	80106.9
517.362	80106.13
517.711	80103.35
518.059	80103.91
518.408	80104.31
518.757	80104.5
519.105	80103.94
519.453	80103.94
519.802	80104.57
520.15	80102.06
520.498	80102.98
520.847	80101.72
521.195	80100.24
521.543	80101.61
521.891	80103.83
522.239	80104.17
522.587	80104.87
522.935	80104.72
523.283	80104.31
523.631	80102.35
523.979	80102.17
524.326	80102.17
524.674	80103.46
525.022	80106.2
525.369	80106.61
525.717	80105.24
526.064	80105.54
526.412	80104.5
526.759	80104.13
527.107	80102.76
527.454	80104.76
527.801	80104.5
528.149	80104.68
528.496	80105.61
528.843	80103.98
529.19	80102.8
529.537	80102.13
529.884	80102.17
530.231	80100.76
530.578	80101.65
530.925	80103.5
531.272	80103.28
531.619	80101.76
531.966	80100.39
532.312	80098.17
532.659	80096.72
533.006	80097.8
533.352	80097.95
533.699	80099.58
534.045	80099.69
534.392	80098.54
534.738	80098.43
535.084	80097.91
535.431	80099.28
535.777	80099.35
536.123	80100.65
536.469	80101.2
536.815	80100.87
537.161	80101.43
537.507	80101.54
537.853	80099.54
538.199	80098.65
538.545	80099.43
538.891	80099.72
539.237	80099.98
539.582	80102.09
539.928	80102.91
540.274	80101.5
540.619	80102.17
540.965	80100.39
541.31	80102.2
541.656	80104.13
542.001	80104.61
542.347	80103.83
542.692	80102.54
543.037	80102.91
543.382	80101.24
543.728	80101.35
544.073	80102.46
544.418	80101.32
544.763	80102.06
545.108	80102.06
545.453	80100.83
545.798	80099.98
546.142	80099.83
546.487	80100.5
546.832	80099.13
547.177	80099.65
547.521	80099.35
547.866	80100.13
548.211	80100.69
548.555	80099.95
548.9	80098.72
549.244	80096.95
549.588	80095.95
549.933	80097.36
550.277	80097.24
550.621	80096.84
550.965	80095.5
551.31	80094.99
551.654	80096.02
551.998	80096.54
552.342	80097.69
552.686	80099.46
553.03	80098.65
553.373	80099.13
553.717	80099.58
554.061	80099.98
554.405	80098.65
554.748	80100.28
555.092	80098.65
555.436	80099.98
555.779	80101.95
556.123	80103.35
556.466	80103.94
556.81	80105.76
557.153	80104.17
557.496	80102.35
557.839	80102.83
558.183	80103.43
558.526	80105.05
558.869	80104.06
559.212	80102.61
559.555	80101.28
559.898	80101.46
560.241	80102.57
560.584	80102.72
560.927	80102.35
561.269	80101.76
561.612	80102.24
561.955	80102.5
562.297	80102.06
562.64	80100.39
562.983	80098.61
563.325	80098.8
563.668	80098.8
564.01	80097.76
564.352	80097.02
564.695	80098.46
565.037	80097.39
565.379	80096.21
565.721	80093.65
566.063	80092.58
566.406	80091.99
566.748	80091.51
567.09	80090.32
567.431	80089.51
567.773	80089.17
568.115	80088.66
568.457	80088.69
568.799	80087.14
569.14	80085.55
569.482	80085.44
569.824	80086.92
570.165	80086.03
570.507	80086.29
570.848	80086.77
571.19	80086.51
571.531	80089.55
571.872	80090.32
572.214	80092.14
572.555	80092.32
572.896	80092.84
573.237	80094.17
573.578	80096.39
573.919	80096.98
574.26	80096.76
574.601	80096.95
574.942	80095.69
575.283	80095.02
575.624	80094.21
575.964	80095.06
576.305	80093.91
576.646	80094.17
576.986	80092.99
577.327	80091.58
577.667	80090.58
578.008	80089.62
578.348	80090.03
578.689	80086.07
579.029	80083.81
579.369	80082.33
579.71	80082.7
580.05	80083.55
580.39	80082.99
580.73	80081.03
581.07	80079.74
581.41	80079.14
581.75	80077.89
582.09	80078.89
582.43	80080.22
582.769	80081.48
583.109	80081.88
583.449	80082.81
583.789	80081.22
584.128	80080.81
584.468	80080.7
584.807	80079.55
585.147	80078.59
585.486	80078.96
