Data from Reference_27052025_FLMS018081_09-56-34-581.txt Node
Date: Tue May 27 09:56:34 BST 2025
User: adleo
Spectrometer: FLMS01808
Trigger mode: 0
Integration Time (sec): 4.000000E-1
Scans to average: 10
Electric dark correction enabled: true
Nonlinearity correction enabled: true
Boxcar width: 10
XAxis mode: Wavelengths
Number of Pixels in Spectrum: 2048
>>>>>Begin Spectral Data<<<<<
178.471	-128.98
178.857	-121.95
179.244	-114.72
179.631	-106.7
180.017	-98.94
180.404	-89.4
180.79	-79.61
181.176	-70.07
181.563	-61.06
181.949	-49.79
182.335	-40.36
182.722	-24.23
183.108	-4.68
183.494	21.14
183.88	75.79
184.266	130.42
184.653	186.76
185.039	242.3
185.425	298.88
185.811	353.84
186.197	407.56
186.582	460.76
186.968	513.07
187.354	565.1
187.74	616.77
188.126	667.73
188.511	717.07
188.897	766.06
189.283	814.57
189.668	861.16
190.054	904.3
190.439	951.14
190.825	994.52
191.21	1034.67
191.596	1069.21
191.981	1077.53
192.366	1081.28
192.752	1081.87
193.137	1085.06
193.522	1087.03
193.908	1088.2
194.293	1091.78
194.678	1092.34
195.063	1094.15
195.448	1096.25
195.833	1096.47
196.218	1097.41
196.603	1096.53
196.988	1096.03
197.373	1096.34
197.757	1097.08
198.142	1098.32
198.527	1095.83
198.912	1096.92
199.296	1096.86
199.681	1096.41
200.066	1095.79
200.45	1095.39
200.835	1096.34
201.219	1097.37
201.604	1097.15
201.988	1098.76
202.372	1099.52
202.757	1100.37
203.141	1102.01
203.525	1104.2
203.91	1105.6
204.294	1107.34
204.678	1109.67
205.062	1110.73
205.446	1112.53
205.83	1116.46
206.214	1117.83
206.598	1121.54
206.982	1124.15
207.366	1128
207.75	1130.85
208.134	1133.79
208.517	1137.68
208.901	1140.37
209.285	1143.34
209.669	1144.92
210.052	1148.51
210.436	1151.86
210.819	1155.92
211.203	1159.24
211.586	1161.28
211.97	1165.39
212.353	1168.33
212.737	1171.7
213.12	1176.15
213.503	1178.54
213.886	1181.01
214.27	1186.02
214.653	1190.17
215.036	1194.64
215.419	1198.92
215.802	1203.41
216.185	1208.95
216.568	1213.59
216.951	1220.77
217.334	1225.49
217.717	1233.26
218.1	1237.73
218.482	1243.19
218.865	1250.11
219.248	1258.6
219.631	1266.88
220.013	1274.63
220.396	1284.43
220.778	1293.86
221.161	1302.56
221.544	1311.43
221.926	1320.65
222.308	1329.74
222.691	1340.54
223.073	1350.69
223.455	1359.23
223.838	1372.27
224.22	1382.23
224.602	1394.87
224.984	1405.45
225.366	1416.49
225.749	1432
226.131	1445.28
226.513	1459.06
226.895	1471.8
227.276	1484.96
227.658	1500.78
228.04	1515.46
228.422	1529.88
228.804	1544.64
229.186	1559.21
229.567	1575.52
229.949	1589.68
230.331	1605.09
230.712	1620.63
231.094	1635.46
231.475	1653.26
231.857	1668.82
232.238	1686.64
232.62	1704.27
233.001	1722.76
233.382	1742.55
233.763	1757.59
234.145	1776.66
234.526	1794.62
234.907	1811.48
235.288	1827.4
235.669	1843.18
236.05	1860.13
236.431	1876.08
236.812	1895.12
237.193	1914.07
237.574	1933.01
237.955	1952.78
238.336	1973.69
238.717	1991.47
239.097	2014.49
239.478	2034.88
239.859	2053.89
240.239	2075.8
240.62	2096.44
241.001	2115.7
241.381	2136.52
241.762	2159.1
242.142	2180.01
242.522	2202.41
242.903	2226.23
243.283	2249.75
243.663	2275.4
244.044	2304.04
244.424	2329.94
244.804	2355.2
245.184	2383.64
245.564	2411.12
245.944	2441.9
246.324	2472.99
246.704	2504.51
247.084	2529.24
247.464	2558.43
247.844	2590.61
248.224	2617.74
248.604	2649.05
248.983	2680.43
249.363	2712.19
249.743	2742.81
250.122	2772.45
250.502	2803.54
250.882	2835.85
251.261	2870.07
251.641	2900.94
252.02	2931.35
252.399	2965.1
252.779	3002.95
253.158	3039.92
253.537	3079.91
253.917	3121.76
254.296	3158.48
254.675	3199.4
255.054	3244.96
255.433	3287.97
255.812	3327.97
256.191	3373.03
256.57	3412.4
256.949	3458.09
257.328	3504.78
257.707	3551.28
258.086	3602.01
258.465	3650.61
258.843	3702.56
259.222	3755.28
259.601	3808.26
259.979	3863.55
260.358	3921.26
260.736	3975.68
261.115	4032.98
261.493	4086.56
261.872	4139.62
262.25	4196.47
262.629	4253.7
263.007	4312.82
263.385	4373.7
263.763	4439.04
264.142	4505.02
264.52	4573.45
264.898	4640.34
265.276	4706.06
265.654	4775.08
266.032	4844.22
266.41	4915.51
266.788	4986.95
267.166	5062.46
267.544	5139.08
267.921	5217.12
268.299	5299.23
268.677	5379.37
269.055	5461.41
269.432	5548.58
269.81	5635.74
270.188	5727.44
270.565	5817.65
270.943	5911.31
271.32	6005.91
271.697	6103.21
272.075	6200.45
272.452	6300.46
272.829	6399.39
273.207	6503.8
273.584	6613.3
273.961	6723.03
274.338	6837.51
274.715	6957.94
275.092	7078.33
275.469	7205.19
275.846	7333.68
276.223	7461.09
276.6	7588.47
276.977	7717
277.354	7848.3
277.731	7977.13
278.108	8109.59
278.484	8243.77
278.861	8378.39
279.238	8520.71
279.614	8664.3
279.991	8807.77
280.367	8955.45
280.744	9111.11
281.12	9263.55
281.497	9413.63
281.873	9571.99
282.249	9730.6
282.625	9877.86
283.002	10029.68
283.378	10182.68
283.754	10336.07
284.13	10488.96
284.506	10655.12
284.882	10816.25
285.258	10976.36
285.634	11142.96
286.01	11310.23
286.386	11478.15
286.762	11649.97
287.138	11818.7
287.513	11985.46
287.889	12154.54
288.265	12321.87
288.641	12486.14
289.016	12653.36
289.392	12820.27
289.767	12985.57
290.143	13152.27
290.518	13322.36
290.894	13492.43
291.269	13656.84
291.644	13819.34
292.02	13984.79
292.395	14136.33
292.77	14298.42
293.145	14455.38
293.52	14614.74
293.895	14769.68
294.27	14926.66
294.646	15082.28
295.02	15237.26
295.395	15393.07
295.77	15553.23
296.145	15716
296.52	15874.92
296.895	16034.41
297.269	16192.86
297.644	16348.48
298.019	16502.81
298.393	16662.7
298.768	16815.61
299.143	16972.06
299.517	17123.37
299.891	17276.48
300.266	17441.57
300.64	17604.92
301.015	17773.63
301.389	17949.98
301.763	18124.27
302.137	18298
302.512	18476.91
302.886	18657.81
303.26	18844.62
303.634	19028.86
304.008	19210.08
304.382	19397.45
304.756	19586.17
305.13	19778.03
305.504	19961.73
305.877	20159.62
306.251	20372.11
306.625	20583.79
306.999	20798.57
307.372	21022.46
307.746	21252.32
308.119	21469.47
308.493	21683.89
308.866	21902.3
309.24	22116.31
309.613	22330.85
309.987	22543.07
310.36	22747.93
310.733	22960.26
311.107	23182.34
311.48	23401.59
311.853	23633.21
312.226	23865.11
312.599	24096.39
312.972	24327.25
313.345	24564.18
313.718	24799.38
314.091	25020.31
314.464	25248.72
314.837	25477.06
315.21	25688.8
315.582	25908.79
315.955	26125.85
316.328	26352.35
316.7	26567.91
317.073	26797.79
317.446	27024.28
317.818	27266.47
318.191	27503.04
318.563	27732.83
318.936	27939.02
319.308	28153.84
319.68	28362.37
320.053	28560.69
320.425	28751.8
320.797	28942.16
321.169	29113.93
321.541	29260.26
321.913	29398.45
322.285	29518.05
322.657	29644.77
323.029	29799.03
323.401	29944.07
323.773	30114.07
324.145	30280.42
324.517	30476.56
324.889	30649.16
325.26	30853.66
325.632	31067.76
326.004	31305.46
326.375	31559.77
326.747	31845.09
327.118	32156.16
327.49	32445.23
327.861	32766.04
328.233	33082.18
328.604	33392.68
328.975	33707.57
329.346	34020.86
329.718	34330.32
330.089	34644.24
330.46	34938.23
330.831	35210.41
331.202	35470.7
331.573	35722.11
331.944	35957.41
332.315	36190.29
332.686	36414.67
333.057	36620.31
333.428	36795.64
333.799	36964.19
334.169	37122.64
334.54	37261.79
334.911	37369.6
335.281	37501.82
335.652	37622.57
336.022	37751.99
336.393	37892.17
336.763	38066.36
337.134	38262.58
337.504	38462.61
337.874	38664.85
338.245	38878.97
338.615	39101.65
338.985	39330.7
339.355	39553.66
339.726	39786.76
340.096	40006.66
340.466	40260
340.836	40506.87
341.206	40765.01
341.576	41019.75
341.945	41269.55
342.315	41509.39
342.685	41760.25
343.055	42013.61
343.425	42261.53
343.794	42500.49
344.164	42736.36
344.533	42966.31
344.903	43190.22
345.273	43422.09
345.642	43655.84
346.011	43889.65
346.381	44123.81
346.75	44357.29
347.12	44608.94
347.489	44857.29
347.858	45108.09
348.227	45322.4
348.596	45545.12
348.965	45777.44
349.334	46003.62
349.704	46241.01
350.072	46485.38
350.441	46718.14
350.81	46955.36
351.179	47180.38
351.548	47422.42
351.917	47650.85
352.285	47846.77
352.654	48051.26
353.023	48266.74
353.391	48471.22
353.76	48689.99
354.129	48881.48
354.497	49116.82
354.865	49334.79
355.234	49567.12
355.602	49783.17
355.971	50028.79
356.339	50245.66
356.707	50464.8
357.075	50685.76
357.443	50908.18
357.811	51119.39
358.18	51327.71
358.548	51534.9
358.916	51745.99
359.284	51959.34
359.651	52174.27
360.019	52398.33
360.387	52613.37
360.755	52818.33
361.123	53043.59
361.49	53260.48
361.858	53479.95
362.226	53676.15
362.593	53874.68
362.961	54052.04
363.328	54253.02
363.696	54419.82
364.063	54633.54
364.43	54840.4
364.798	55057.09
365.165	55232.03
365.532	55419.86
365.899	55613.97
366.267	55781.29
366.634	55927.18
367.001	56095.03
367.368	56234.41
367.735	56415.36
368.102	56585.21
368.469	56776.54
368.835	56958.09
369.202	57120.57
369.569	57314.94
369.936	57504.74
370.303	57700.57
370.669	57904.82
371.036	58078.54
371.402	58288.18
371.769	58477.27
372.135	58633.59
372.502	58762.24
372.868	58913.51
373.235	59055.74
373.601	59195.79
373.967	59379.38
374.333	59578.42
374.7	59763.28
375.066	59976.04
375.432	60167.85
375.798	60354.25
376.164	60521.86
376.53	60674.85
376.896	60848.77
377.262	61025.5
377.628	61158.92
377.993	61307.39
378.359	61455.9
378.725	61603.53
379.091	61753.15
379.456	61888.48
379.822	62021.58
380.187	62174.37
380.553	62370.3
380.918	62573.41
381.284	62756.94
381.649	62925.38
382.015	63074.66
382.38	63200.82
382.745	63373.88
383.11	63530.45
383.476	63679.39
383.841	63813.22
384.206	63971.86
384.571	64091.44
384.936	64226.86
385.301	64410.24
385.666	64539.89
386.031	64698.78
386.396	64876.56
386.76	65037.47
387.125	65225.75
387.49	65432.44
387.855	65634.55
388.219	65807.48
388.584	65985.71
388.948	66182.02
389.313	66352.74
389.677	66554.3
390.042	66790.53
390.406	66947.14
390.771	67143
391.135	67337.18
391.499	67578.47
391.863	67819.54
392.227	68071.11
392.592	68274.58
392.956	68476.01
393.32	68684.83
393.684	68905.57
394.048	69082.16
394.412	69267.47
394.775	69427.63
395.139	69583.5
395.503	69747.18
395.867	69899.77
396.231	70054.63
396.594	70157.36
396.958	70298.52
397.321	70461.87
397.685	70593.46
398.048	70734.48
398.412	70867.66
398.775	70995.09
399.139	71122.07
399.502	71241.68
399.865	71385.99
400.228	71587.42
400.592	71720.9
400.955	71926.1
401.318	72061.09
401.681	72222.43
402.044	72363.73
402.407	72523.48
402.77	72680.23
403.133	72871.15
403.496	73021.32
403.859	73167.52
404.221	73415.73
404.584	73665.57
404.947	73911.51
405.309	74133.48
405.672	74382.76
406.034	74613.21
406.397	74879.72
406.759	75107.11
407.122	75299.5
407.484	75484.51
407.847	75666.33
408.209	75911.19
408.571	76127.29
408.933	76380.08
409.296	76636.03
409.658	76887.48
410.02	77139.58
410.382	77412.72
410.744	77632.79
411.106	77884.67
411.468	78127.53
411.83	78316.01
412.191	78464.96
412.553	78586.13
412.915	78730.12
413.277	78871.32
413.638	79001
414	79109.32
414.361	79220.19
414.723	79366.57
415.084	79506.83
415.446	79607.83
415.807	79680.19
416.169	79727.38
416.53	79759.82
416.891	79796.35
417.252	79840.81
417.614	79864.91
417.975	79874.98
418.336	79885.96
418.697	79900.52
419.058	79911.14
419.419	79919.74
419.78	79930.51
420.141	79937.96
420.501	79942.76
420.862	79948.63
421.223	79953.91
421.584	79967.1
421.944	79974.41
422.305	79976.26
422.666	79978.62
423.026	79979.4
423.387	79986.6
423.747	79990.51
424.107	79995.43
424.468	79999.86
424.828	80001.16
425.188	80002.89
425.549	80005.22
425.909	80009.03
426.269	80006.11
426.629	80007.66
426.989	80009.25
427.349	80011.95
427.709	80012.95
428.069	80014.8
428.429	80016.46
428.789	80019.38
429.149	80022.15
429.508	80023.33
429.868	80025.81
430.228	80029.1
430.587	80030.58
430.947	80033.43
431.306	80036.87
431.666	80037.54
432.025	80037.46
432.385	80040.53
432.744	80041.97
433.103	80043.75
433.463	80044.23
433.822	80049.48
434.181	80051.4
434.54	80053.58
434.899	80055.14
435.258	80057.36
435.618	80058.21
435.976	80060.09
436.335	80061.2
436.694	80062.61
437.053	80064.2
437.412	80065.42
437.771	80063.2
438.129	80064.38
438.488	80064.09
438.847	80064.09
439.205	80066.23
439.564	80068.08
439.922	80067.97
440.281	80069.38
440.639	80071.78
440.997	80075.19
441.356	80076.3
441.714	80077.89
442.072	80076.26
442.431	80075.89
442.789	80078.55
443.147	80080.77
443.505	80082.03
443.863	80081.7
444.221	80081.48
444.579	80081.96
444.937	80082.25
445.294	80084.96
445.652	80087.18
446.01	80086.33
446.368	80087.32
446.725	80087.55
447.083	80086.14
447.441	80084.66
447.798	80085.14
448.156	80083.74
448.513	80082.29
448.87	80081.07
449.228	80080.33
449.585	80081.14
449.942	80081.51
450.3	80080.03
450.657	80078.44
451.014	80079.7
451.371	80079.78
451.728	80079.59
452.085	80079.15
452.442	80080
452.799	80078.33
453.156	80076.67
453.513	80076.93
453.869	80075.7
454.226	80076.22
454.583	80077.26
454.939	80077.52
455.296	80075.85
455.653	80075.81
456.009	80075.74
456.366	80077.18
456.722	80078
457.078	80078
457.435	80078.03
457.791	80078.59
458.147	80079.77
458.503	80079.59
458.86	80080.77
459.216	80080.63
459.572	80080.11
459.928	80080.33
460.284	80081.77
460.64	80083.62
460.996	80084.03
461.351	80083.73
461.707	80083.59
462.063	80083.77
462.419	80085.73
462.774	80086.25
463.13	80086.29
463.486	80085.66
463.841	80085.47
464.197	80084.96
464.552	80085.58
464.908	80085.73
465.263	80085.58
465.618	80087.18
465.974	80086.44
466.329	80085.47
466.684	80087.43
467.039	80089.66
467.394	80088.29
467.749	80088.36
468.104	80087.58
468.459	80088.17
468.814	80090.14
469.169	80089.8
469.524	80091.65
469.879	80091.43
470.233	80092.21
470.588	80093.02
470.943	80095.61
471.297	80097.02
471.652	80098.69
472.006	80100.57
472.361	80101.09
472.715	80101.28
473.07	80100.54
473.424	80102.31
473.778	80104.83
474.133	80105.05
474.487	80104.61
474.841	80107.35
475.195	80107.46
475.549	80109.64
475.903	80111.46
476.257	80110.98
476.611	80112.12
476.965	80111.75
477.319	80113.16
477.673	80114.83
478.026	80116.38
478.38	80115.27
478.734	80114.61
479.087	80113.9
479.441	80112.68
479.795	80113.24
480.148	80112.94
480.502	80112.5
480.855	80111.57
481.208	80111.5
481.562	80111.31
481.915	80113.01
482.268	80112.57
482.621	80112.79
482.974	80112.24
483.328	80111.09
483.681	80112.09
484.034	80111.87
484.387	80114.01
484.739	80114.42
485.092	80112.61
485.445	80112.09
485.798	80113.94
486.151	80115.94
486.503	80118.12
486.856	80120.46
487.209	80120.27
487.561	80120.9
487.914	80122.64
488.266	80123.72
488.618	80122.75
488.971	80123.94
489.323	80123.09
489.675	80123.27
490.028	80122.75
490.38	80121.75
490.732	80122.23
491.084	80122.79
491.436	80123.35
491.788	80121.01
492.14	80120.6
492.492	80123.27
492.844	80123.97
493.196	80123.83
493.548	80124.6
493.899	80123.68
494.251	80123.12
494.603	80123.16
494.954	80123.72
495.306	80123.35
495.657	80123.35
496.009	80123.49
496.36	80122.64
496.712	80122.75
497.063	80122.16
497.414	80123.46
497.765	80125.16
498.117	80123.9
498.468	80124.35
498.819	80124.68
499.17	80124.97
499.521	80122.83
499.872	80121.86
500.223	80120.72
500.574	80119.98
500.924	80118.23
501.275	80118.42
501.626	80118.64
501.977	80118.16
502.327	80117.72
502.678	80118.75
503.029	80119.09
503.379	80119.42
503.73	80120.35
504.08	80118.24
504.43	80117.61
504.781	80117.09
505.131	80116.05
505.481	80118.31
505.831	80117.79
506.182	80118.42
506.532	80119.64
506.882	80121.49
507.232	80120.97
507.582	80122.49
507.932	80124.31
508.281	80125.12
508.631	80124.64
508.981	80123.68
509.331	80125.01
509.681	80124.94
510.03	80124.09
510.38	80123.64
510.729	80124.23
511.079	80124.57
511.428	80127.27
511.778	80127.27
512.127	80127.42
512.476	80127.68
512.826	80126.75
513.175	80126.16
513.524	80124.53
513.873	80123.38
514.222	80122.79
514.571	80125.01
514.92	80122.83
515.269	80121.12
515.618	80121.16
515.967	80121.75
516.316	80123.83
516.665	80121.72
517.014	80122.01
517.362	80121.38
517.711	80122.31
518.059	80122.09
518.408	80122.9
518.757	80122.31
519.105	80122.79
519.453	80121.75
519.802	80120.16
520.15	80121.94
520.498	80122.57
520.847	80122.79
521.195	80123.13
521.543	80123.35
521.891	80120.38
522.239	80122.16
522.587	80122.38
522.935	80122.9
523.283	80123.68
523.631	80122.83
523.979	80123.79
524.326	80124.23
524.674	80125.35
525.022	80125.23
525.369	80125.23
525.717	80125.09
526.064	80124.53
526.412	80126.86
526.759	80128.38
527.107	80129.49
527.454	80127.97
527.801	80128.09
528.149	80128.64
528.496	80130.09
528.843	80131.16
529.19	80132.68
529.537	80131.71
529.884	80131.6
530.231	80130.34
530.578	80129.38
530.925	80129.34
531.272	80130.27
531.619	80129.97
531.966	80130.38
532.312	80129.6
532.659	80129.94
533.006	80129.05
533.352	80129.2
533.699	80128.16
534.045	80127.38
534.392	80128.38
534.738	80128.05
535.084	80128.2
535.431	80127.83
535.777	80126.45
536.123	80126.68
536.469	80125.94
536.815	80125.94
537.161	80125.16
537.507	80124.34
537.853	80123.79
538.199	80123.12
538.545	80122.6
538.891	80124.42
539.237	80124.05
539.582	80123.83
539.928	80123.16
540.274	80122.75
540.619	80123.23
540.965	80122.23
541.31	80121.97
541.656	80122.16
542.001	80123.16
542.347	80123.42
542.692	80122.64
543.037	80122.01
543.382	80121.2
543.728	80121.72
544.073	80122.83
544.418	80123.16
544.763	80125.86
545.108	80126.68
545.453	80125.9
545.798	80126.31
546.142	80124.9
546.487	80124.38
546.832	80126.31
547.177	80126.97
547.521	80126.49
547.866	80125.42
548.211	80124.94
548.555	80127.79
548.9	80127.35
549.244	80126.01
549.588	80124.9
549.933	80125.05
550.277	80126.75
550.621	80126.46
550.965	80126.35
551.31	80124.83
551.654	80125.09
551.998	80123.27
552.342	80123.68
552.686	80125.6
553.03	80125.46
553.373	80126.2
553.717	80124.35
554.061	80122.61
554.405	80120.87
554.748	80121.38
555.092	80121.35
555.436	80122.35
555.779	80120.83
556.123	80120.38
556.466	80122.2
556.81	80122.6
557.153	80124.79
557.496	80124.79
557.839	80125.38
558.183	80124.57
558.526	80124.75
558.869	80124.57
559.212	80123.35
559.555	80122.9
559.898	80121.86
560.241	80120.94
560.584	80119.42
560.927	80122.42
561.269	80122.86
561.612	80124.38
561.955	80124.57
562.297	80126.12
562.64	80126.2
562.983	80125.9
563.325	80125.12
563.668	80123.23
564.01	80122.79
564.352	80119.75
564.695	80118.46
565.037	80118.2
565.379	80118.16
565.721	80118.27
566.063	80117.49
566.406	80118.49
566.748	80117.35
567.09	80117.01
567.431	80116.9
567.773	80117.64
568.115	80115.61
568.457	80115.79
568.799	80115.83
569.14	80115.09
569.482	80112.42
569.824	80111.53
570.165	80112.83
570.507	80113.38
570.848	80112.53
571.19	80111.46
571.531	80113.31
571.872	80111.94
572.214	80111.79
572.555	80111.98
572.896	80112.39
573.237	80111.5
573.578	80110.76
573.919	80109.87
574.26	80109.94
574.601	80110.83
574.942	80110.61
575.283	80110.05
575.624	80108.42
575.964	80108.35
576.305	80109.13
576.646	80110.28
576.986	80110.31
577.327	80109.53
577.667	80108.9
578.008	80111.09
578.348	80113.13
578.689	80110.53
579.029	80111.09
579.369	80111.83
579.71	80111.35
580.05	80110.57
580.39	80111.98
580.73	80111.9
581.07	80112.01
581.41	80111.46
581.75	80112.42
582.09	80111.02
582.43	80111.46
582.769	80110.76
583.109	80108.54
583.449	80107.13
583.789	80107.2
584.128	80106.65
584.468	80104.09
584.807	80102.69
585.147	80100.46
585.486	80098.76
585.825	80101.13
