Data from 20250626_urea_1M_exp2_MAYP1162681_02-03-58-068.txt Node
Date: Fri Jun 27 02:03:58 BST 2025
User: adleo
Spectrometer: MAYP116268
Trigger mode: 0
Integration Time (sec): 3.000000E0
Scans to average: 1
Electric dark correction enabled: true
Nonlinearity correction enabled: true
Boxcar width: 10
XAxis mode: Wavelengths
Number of Pixels in Spectrum: 2068
>>>>>Begin Spectral Data<<<<<
179.565	2775.63
179.642	2919.08
179.718	3025.01
179.795	3128
179.871	3207.74
179.948	3252.87
180.024	3306.97
180.101	3362.37
180.177	3394.02
180.254	3451.73
180.33	3508.97
180.407	3699.34
180.483	3916.74
180.56	4135.01
180.636	4334.27
180.712	4306.46
180.789	4320.33
180.865	4355.28
180.942	4374.36
181.018	4405.69
181.095	4440.05
181.171	4449.81
181.248	4452.97
181.324	4493.85
181.4	4510.07
181.477	4535.91
181.553	4565.56
181.63	4615.1
181.706	4655.83
181.782	4680.89
181.859	4685.39
181.935	4700.13
182.011	4689.17
182.088	4729.05
182.164	4778.01
182.24	4813.47
182.317	4833.8
182.393	4832.7
182.469	4858.89
182.546	4897.29
182.622	4905.42
182.698	4899.25
182.775	4934.15
182.851	4968.39
182.927	4951.1
183.003	4934.35
183.08	4923.63
183.156	4952.07
183.232	4945.46
183.308	4920.51
183.385	4938.32
183.461	4975.82
183.537	4977.11
183.613	5007.33
183.69	4982.76
183.766	4957.65
183.842	4973.21
183.918	4989.06
183.995	5019.42
184.071	5032.02
184.147	5013.82
184.223	4984.63
184.299	5011.41
184.375	4981.39
184.452	4994.18
184.528	5095.72
184.604	5128.8
184.68	5156.48
184.756	5171.81
184.832	5181.49
184.908	5193.79
184.985	5195.9
185.061	5155.38
185.137	5179.29
185.213	5155.87
185.289	5158.27
185.365	5137.87
185.441	5134.85
185.517	5167.35
185.593	5159.11
185.669	5156.09
185.745	5179.66
185.822	5220.63
185.898	5197.78
185.974	5225.21
186.05	5208.63
186.126	5144.99
186.202	5125.17
186.278	5116.74
186.354	5091.92
186.43	5108.65
186.506	5105.68
186.582	5106.3
186.658	5127.08
186.734	5077.32
186.81	5082.25
186.886	5091.35
186.962	5115.72
187.038	5102.46
187.114	5083.47
187.19	5100.24
187.266	5071.56
187.341	5081.29
187.417	5066.49
187.493	5069.12
187.569	5074.49
187.645	5055.81
187.721	5026.68
187.797	5047.89
187.873	5058.09
187.949	5044.5
188.025	5030.36
188.101	5033.33
188.176	5040.99
188.252	5027.58
188.328	5047.11
188.404	5043.95
188.48	5034.76
188.556	5022.01
188.632	5025.18
188.707	5022.35
188.783	5020.19
188.859	5014.26
188.935	4982.2
189.011	4998.25
189.086	4984.6
189.162	4963
189.238	4963.24
189.314	4959.02
189.39	4943.94
189.465	4925.93
189.541	4968.56
189.617	4929.39
189.693	4918.33
189.768	4934.48
189.844	4990.11
189.92	4966
189.996	4989.7
190.071	5013.65
190.147	5010.25
190.223	5031.04
190.298	5014.71
190.374	4982.38
190.45	5011.68
190.526	5029.74
190.601	5019.87
190.677	5021.02
190.753	5092.36
190.828	5099.11
190.904	5134.81
190.98	5167.34
191.055	5186.83
191.131	5162.78
191.207	5213.64
191.282	5235.86
191.358	5205.92
191.433	5174.71
191.509	5211.76
191.585	5204.81
191.66	5208.17
191.736	5230.25
191.811	5209.36
191.887	5249.67
191.963	5303.48
192.038	5312.58
192.114	5316.37
192.189	5327.19
192.265	5322.22
192.34	5262.13
192.416	5260.69
192.491	5246.5
192.567	5260.31
192.642	5277.14
192.718	5286.77
192.793	5259.12
192.869	5244.42
192.944	5251.22
193.02	5268.86
193.095	5274.13
193.171	5289.32
193.246	5292.53
193.322	5286.2
193.397	5288.93
193.473	5255.18
193.548	5212.34
193.624	5225.23
193.699	5219.68
193.775	5256.35
193.85	5261.76
193.925	5284.76
194.001	5282.18
194.076	5266.32
194.152	5235.64
194.227	5214.7
194.302	5185.15
194.378	5191.38
194.453	5192.29
194.529	5222.23
194.604	5186.11
194.679	5175.57
194.755	5127.58
194.83	5156.59
194.905	5151.32
194.981	5172.41
195.056	5152.92
195.131	5169.59
195.207	5160.86
195.282	5138.78
195.357	5089.99
195.433	5124.43
195.508	5096.64
195.583	5117.91
195.659	5154.76
195.734	5170.77
195.809	5169.29
195.884	5190.93
195.96	5191.17
196.035	5223.74
196.11	5219.91
196.185	5251.67
196.261	5256.37
196.336	5334.76
196.411	5293.57
196.486	5302.39
196.561	5286.77
196.637	5313.73
196.712	5353.82
196.787	5365.56
196.862	5406.96
196.937	5431.73
197.013	5446.74
197.088	5467.72
197.163	5515.68
197.238	5552.06
197.313	5556.33
197.388	5592.19
197.464	5670.23
197.539	5700.91
197.614	5685.67
197.689	5713.48
197.764	5753.15
197.839	5805.75
197.914	5784.22
197.989	5842.58
198.065	5879.02
198.14	6006.77
198.215	6068.03
198.29	6096.21
198.365	6133.15
198.44	6160.98
198.515	6232.48
198.59	6267.28
198.665	6336.67
198.74	6357.36
198.815	6363.22
198.89	6423.26
198.965	6492.22
199.04	6476.42
199.115	6516.97
199.19	6624.82
199.265	6629.96
199.34	6650.8
199.415	6729.31
199.49	6790.84
199.565	6813.94
199.64	6880.07
199.715	6867.66
199.79	6880.82
199.865	6892.4
199.94	6886.98
200.015	6961.73
200.09	6970.48
200.165	6988.06
200.24	6998.72
200.315	7095.33
200.39	7134.87
200.464	7142.56
200.539	7147.94
200.614	7190.6
200.689	7250.82
200.764	7265.72
200.839	7311.78
200.914	7322.63
200.989	7296.43
201.063	7328.73
201.138	7288.54
201.213	7282.87
201.288	7234.1
201.363	7249.96
201.438	7255.97
201.512	7291.79
201.587	7245.56
201.662	7259.35
201.737	7293.43
201.812	7324.14
201.886	7249.21
201.961	7277.96
202.036	7249.63
202.111	7240.49
202.186	7162.24
202.26	7112.39
202.335	7057.95
202.41	7043.2
202.485	7004.3
202.559	6957.75
202.634	6889.73
202.709	6907.78
202.784	6859.51
202.858	6864.21
202.933	6817.86
203.008	6799.32
203.082	6755.53
203.157	6756.63
203.232	6648.45
203.306	6589.74
203.381	6502.99
203.456	6441.72
203.53	6376.73
203.605	6327.56
203.68	6271.09
203.754	6260.73
203.829	6226.5
203.904	6178.42
203.978	6144.66
204.053	6157.53
204.127	6129.41
204.202	6120.06
204.277	6078.85
204.351	6059.13
204.426	6036.08
204.5	6015.36
204.575	5925.11
204.65	5942.73
204.724	5919.44
204.799	5943.98
204.873	5938.12
204.948	5938.74
205.022	5909.11
205.097	5887.22
205.171	5924.05
205.246	5944.93
205.32	5941.34
205.395	5939.85
205.469	5919.1
205.544	5937.15
205.618	5888.26
205.693	5913.98
205.767	5886.45
205.842	5938.95
205.916	5926.91
205.991	5902.64
206.065	5916.55
206.14	5956.22
206.214	5947.58
206.289	5927.47
206.363	5952.32
206.438	5953.38
206.512	5968.25
206.586	6014.96
206.661	6035.51
206.735	5978.75
206.81	5977.98
206.884	6020.33
206.958	5981.92
207.033	6022
207.107	6034.49
207.181	6114.78
207.256	6102.31
207.33	6154.94
207.405	6180.49
207.479	6226.36
207.553	6245.5
207.628	6205.51
207.702	6235.54
207.776	6223.06
207.851	6235.3
207.925	6280.73
207.999	6273.1
208.073	6264.32
208.148	6269.36
208.222	6240.36
208.296	6319.79
208.371	6362.59
208.445	6384.49
208.519	6458.81
208.593	6487.7
208.668	6475.94
208.742	6484.25
208.816	6489.39
208.89	6518.83
208.965	6517.15
209.039	6537.61
209.113	6581.59
209.187	6635.12
209.261	6626.62
209.336	6673.49
209.41	6723.24
209.484	6720.79
209.558	6779.24
209.632	6812.51
209.707	6839.45
209.781	6892.61
209.855	6933.94
209.929	6976.02
210.003	6990.81
210.077	6990.57
210.151	7109.84
210.226	7201.66
210.3	7268.13
210.374	7321.48
210.448	7331.82
210.522	7359.27
210.596	7381.47
210.67	7403.58
210.744	7521.51
210.818	7603.08
210.892	7655.25
210.966	7644.34
211.041	7678.37
211.115	7670.78
211.189	7732.21
211.263	7775.14
211.337	7794.12
211.411	7825.96
211.485	7810.52
211.559	7844.31
211.633	7849.64
211.707	7771.94
211.781	7785.7
211.855	7699.62
211.929	7679.68
212.003	7636.11
212.077	7664.83
212.151	7700.42
212.225	7726.43
212.299	7694.09
212.373	7661.98
212.447	7645.39
212.52	7709.87
212.594	7720.88
212.668	7746.22
212.742	7712.46
212.816	7697.7
212.89	7685.25
212.964	7684.24
213.038	7689.24
213.112	7715.07
213.186	7748.95
213.26	7695.53
213.333	7578.19
213.407	7589.34
213.481	7601.54
213.555	7628.58
213.629	7596.74
213.703	7546.59
213.777	7541.59
213.85	7488.94
213.924	7568.05
213.998	7565.07
214.072	7547.9
214.146	7501.84
214.219	7491.45
214.293	7483
214.367	7486.12
214.441	7503.24
214.515	7465.05
214.588	7398.67
214.662	7301.64
214.736	7244.71
214.81	7253.59
214.883	7273.56
214.957	7237.78
215.031	7196
215.105	7128.13
215.178	7076.86
215.252	7054.71
215.326	6980.86
215.4	6925.74
215.473	6794.1
215.547	6738.93
215.621	6685.95
215.694	6690.76
215.768	6619.29
215.842	6566.13
215.915	6511.6
215.989	6428.98
216.063	6385.22
216.136	6377.1
216.21	6364.15
216.284	6372.93
216.357	6357.43
216.431	6323.2
216.504	6319.27
216.578	6359.22
216.652	6367.09
216.725	6355.47
216.799	6362
216.873	6346.45
216.946	6352.83
217.02	6326.17
217.093	6301.98
217.167	6237.38
217.24	6175.01
217.314	6148.92
217.387	6115.16
217.461	6082.72
217.535	6098.37
217.608	6057.2
217.682	6035.94
217.755	6045.82
217.829	6006.09
217.902	5993.46
217.976	5980.9
218.049	5946.17
218.123	5889.95
218.196	5893.59
218.27	5864.95
218.343	5812.92
218.417	5815.22
218.49	5792.87
218.563	5825.92
218.637	5830.96
218.71	5882.54
218.784	5907.49
218.857	5934.59
218.931	5950.5
219.004	5956.88
219.077	5970.85
219.151	5985.77
219.224	5975.26
219.298	5969.45
219.371	6002.95
219.444	5977.68
219.518	5983.48
219.591	5999.31
219.665	6074.12
219.738	6080.31
219.811	6067.27
219.885	6101.82
219.958	6123.37
220.031	6131.62
220.105	6149.09
220.178	6156.58
220.251	6138.14
220.325	6155.19
220.398	6160.03
220.471	6174.33
220.544	6202.07
220.618	6184.59
220.691	6203.11
220.764	6218.23
220.838	6242.28
220.911	6232.29
220.984	6298.13
221.057	6328.12
221.131	6341.89
221.204	6273.79
221.277	6328.04
221.35	6422.86
221.424	6416.95
221.497	6422.09
221.57	6440.27
221.643	6462.03
221.716	6495.02
221.79	6500.97
221.863	6506.83
221.936	6518.5
222.009	6533.95
222.082	6558.78
222.155	6568.72
222.229	6615.26
222.302	6638.78
222.375	6642.19
222.448	6671.63
222.521	6674.17
222.594	6675.85
222.667	6661.7
222.74	6704.09
222.814	6696.98
222.887	6680.06
222.96	6717.86
223.033	6752.12
223.106	6768.82
223.179	6796.36
223.252	6806.26
223.325	6828.64
223.398	6840.17
223.471	6868.12
223.544	6883.29
223.617	6893.24
223.69	6910.86
223.763	6885.78
223.837	6901.73
223.91	6923.3
223.983	6888.96
224.056	6865.43
224.129	6883.68
224.202	6919.25
224.275	6909.64
224.348	6885.53
224.42	6861.8
224.493	6824.72
224.566	6804.83
224.639	6822.36
224.712	6795.06
224.785	6783.72
224.858	6781.03
224.931	6766.28
225.004	6732.18
225.077	6727.38
225.15	6661.32
225.223	6661.6
225.296	6722.31
225.369	6681.06
225.442	6657.19
225.514	6670.92
225.587	6680.09
225.66	6687.83
225.733	6690.18
225.806	6697.14
225.879	6696.76
225.952	6672.09
226.025	6702.77
226.097	6741.23
226.17	6732.44
226.243	6683.61
226.316	6676.02
226.389	6672.56
226.461	6690.44
226.534	6705.08
226.607	6699.46
226.68	6756.69
226.753	6751.55
226.825	6690.93
226.898	6733.82
226.971	6741.6
227.044	6754.95
227.117	6764.17
227.189	6777.72
227.262	6806.78
227.335	6819.95
227.407	6817.21
227.48	6845.44
227.553	6850.05
227.626	6836.69
227.698	6847.78
227.771	6880.47
227.844	6865.24
227.916	6879.7
227.989	6852.13
228.062	6851.94
228.134	6916.8
228.207	6922.28
228.28	6913.3
228.352	6918.1
228.425	6929.59
228.498	6960.87
228.57	6951.84
228.643	6993.12
228.716	6993.27
228.788	6987.88
228.861	6983.75
228.934	7035.59
229.006	7040.82
229.079	7054.62
229.151	7046.3
229.224	7018.69
229.296	7033.1
229.369	7116.16
229.442	7160.14
229.514	7145.88
229.587	7182.64
229.659	7126.65
229.732	7136.6
229.804	7169.6
229.877	7229.26
229.949	7246.81
230.022	7285.13
230.094	7283.4
230.167	7277.68
230.239	7243.96
230.312	7230.17
230.384	7283.25
230.457	7280.12
230.529	7283.2
230.602	7270.65
230.674	7275.31
230.747	7305.23
230.819	7332.62
230.892	7238.81
230.964	7231.02
231.037	7251.95
231.109	7239.17
231.181	7272.61
231.254	7241.14
231.326	7233.69
231.399	7220.99
231.471	7201.28
231.544	7141.18
231.616	7173.8
231.688	7178.61
231.761	7168.19
231.833	7163.77
231.905	7101.23
231.978	7096.71
232.05	7087.97
232.122	7099.12
232.195	7080.91
232.267	7108.73
232.339	7091
232.412	7145.13
232.484	7129.36
232.556	7109.34
232.629	7161.8
232.701	7173.67
232.773	7184
232.846	7172.52
232.918	7170.69
232.99	7182.8
233.062	7215.44
233.135	7224.38
233.207	7197.94
233.279	7236.46
233.351	7263.03
233.424	7264.14
233.496	7248.52
233.568	7316.01
233.64	7287.9
233.713	7300.44
233.785	7300.63
233.857	7314.18
233.929	7276.75
234.001	7326.58
234.074	7377.02
234.146	7321.83
234.218	7319.04
234.29	7317.36
234.362	7313.08
234.434	7280.83
234.507	7254.39
234.579	7213.64
234.651	7197.59
234.723	7219.55
234.795	7230.85
234.867	7225.08
234.939	7269.64
235.012	7280.07
235.084	7280.74
235.156	7308.22
235.228	7293.28
235.3	7279.68
235.372	7290.3
235.444	7334.85
235.516	7274.39
235.588	7276.65
235.66	7295.25
235.732	7273.34
235.804	7422.06
235.876	7456.37
235.948	7507.58
236.02	7516.27
236.092	7530.25
236.164	7544.24
236.236	7543.32
236.308	7541.45
236.38	7556.3
236.452	7540.29
236.524	7560.29
236.596	7609.71
236.668	7637.75
236.74	7659.18
236.812	7678.74
236.884	7697.55
236.956	7706.15
237.028	7699.62
237.1	7684.19
237.172	7731.9
237.244	7794.99
237.316	7708.38
237.388	7692.85
237.46	7674.72
237.532	7721.45
237.604	7719.1
237.675	7770.7
237.747	7806.97
237.819	7797.11
237.891	7803.99
237.963	7799.95
238.035	7792.98
238.107	7712.44
238.178	7756.13
238.25	7763.87
238.322	7832.68
238.394	7801.04
238.466	7798.59
238.538	7833.25
238.609	7870.36
238.681	7835.44
238.753	7817.54
238.825	7831.98
238.897	7856.25
238.968	7918.61
239.04	7905.29
239.112	7985.75
239.184	7957.12
239.255	7950.58
239.327	7974.37
239.399	7991.35
239.471	8026.65
239.542	8053.53
239.614	8098.98
239.686	8040.04
239.758	8084.05
239.829	8055.7
239.901	8105.77
239.973	8122.12
240.044	8144.06
240.116	8152.43
240.188	8159.49
240.259	8170.75
240.331	8160.5
240.403	8187.58
240.474	8147.44
240.546	8143.45
240.618	8099.72
240.689	8099.67
240.761	8114.05
240.833	8163.12
240.904	8161.68
240.976	8158.51
241.048	8169.96
241.119	8195.37
241.191	8225
241.262	8265.77
241.334	8272.84
241.405	8276.93
241.477	8274.62
241.549	8285.11
241.62	8309.75
241.692	8348.48
241.763	8390.78
241.835	8404.01
241.906	8416.72
241.978	8398.48
242.049	8450.4
242.121	8496.2
242.192	8545.04
242.264	8520.07
242.335	8489.37
242.407	8527.05
242.478	8534.79
242.55	8553.37
242.621	8538.44
242.693	8543.21
242.764	8537.62
242.836	8539.88
242.907	8568.86
242.979	8595.52
243.05	8608.7
243.122	8624.15
243.193	8617.8
243.264	8566.65
243.336	8576.46
243.407	8601.59
243.479	8657.89
243.55	8666.7
243.622	8673.82
243.693	8674.5
243.764	8730.12
243.836	8711.61
243.907	8702.13
243.978	8706.41
244.05	8724.27
244.121	8694
244.192	8723.7
244.264	8687.41
244.335	8690.15
244.407	8643.27
244.478	8653.96
244.549	8646.64
244.62	8612.57
244.692	8608.62
244.763	8641.15
244.834	8622.24
244.906	8607.75
244.977	8625.95
245.048	8668.52
245.119	8650.86
245.191	8632.28
245.262	8583.38
245.333	8641.17
245.405	8650.31
245.476	8675.96
245.547	8687.81
245.618	8732.94
245.689	8739.78
245.761	8760.96
245.832	8768.32
245.903	8801.91
245.974	8823.43
246.045	8834.16
246.117	8894.52
246.188	8887.06
246.259	8875.71
246.33	8902.42
246.401	8912.04
246.473	8882.24
246.544	8867.31
246.615	8913.09
246.686	8923.78
246.757	8986.78
246.828	8966.81
246.899	9025.31
246.97	8999.9
247.042	8989.26
247.113	9020.41
247.184	9082.5
247.255	9084.62
247.326	9104.89
247.397	9118.22
247.468	9125.97
247.539	9140.61
247.61	9108.45
247.681	9146.04
247.752	9180.02
247.823	9156.63
247.894	9166.01
247.965	9145.03
248.037	9132.94
248.108	9090.77
248.179	9091.25
248.25	9074.3
248.321	9103.33
248.392	9065.33
248.463	9127.62
248.534	9128.92
248.605	9143.32
248.675	9132
248.746	9148.27
248.817	9163.64
248.888	9180.78
248.959	9139.62
249.03	9153.87
249.101	9161.24
249.172	9148.09
249.243	9098.47
249.314	9149.21
249.385	9160.19
249.456	9190.03
249.527	9187.77
249.598	9208.08
249.669	9210.15
249.739	9217.57
249.81	9220.6
249.881	9192.24
249.952	9181.6
250.023	9172.65
250.094	9135.47
250.165	9110.62
250.235	9104.12
250.306	9105.8
250.377	9081.39
250.448	9105.31
250.519	9059.92
250.59	9100.17
250.66	9099.4
250.731	9150.13
250.802	9144.4
250.873	9154.8
250.944	9167.13
251.014	9160.43
251.085	9228.3
251.156	9245.48
251.227	9295.57
251.297	9339.35
251.368	9375.74
251.439	9414.08
251.51	9460.36
251.58	9450.49
251.651	9446.35
251.722	9489.21
251.792	9446.21
251.863	9441.93
251.934	9482.81
252.005	9568.43
252.075	9576.38
252.146	9611.96
252.217	9653.47
252.287	9683.43
252.358	9689.5
252.429	9748.5
252.499	9743.59
252.57	9751.25
252.641	9787.8
252.711	9788.53
252.782	9754.57
252.852	9813.44
252.923	9805.2
252.994	9813.19
253.064	9844.35
253.135	9826.77
253.205	9807.6
253.276	9870.83
253.347	9924.66
253.417	9909.16
253.488	9895.47
253.558	9890.42
253.629	9894.56
253.699	9903.81
253.77	9924.57
253.841	9917.97
253.911	9925.59
253.982	9940.27
254.052	9963.55
254.123	9974.34
254.193	9975.16
254.264	10076.14
254.334	10047.04
254.405	10023.39
254.475	9999.26
254.546	10003.06
254.616	10054.12
254.687	10078.2
254.757	10088.37
254.827	10085.23
254.898	10107.97
254.968	10111.25
255.039	10092.51
255.109	10115.05
255.18	10097.9
255.25	10052.57
255.321	10080.22
255.391	10046.79
255.461	10113.65
255.532	10049.81
255.602	10038.15
255.673	9997.16
255.743	9974.56
255.813	9924.53
255.884	9960.7
255.954	9989.55
256.024	10046.64
256.095	10049.48
256.165	10033.01
256.235	10049.63
256.306	10038.65
256.376	10075.7
256.446	10115.79
256.517	10147.77
256.587	10182.07
256.657	10195.37
256.728	10214.78
256.798	10213.96
256.868	10211.41
256.938	10191.22
257.009	10229.52
257.079	10253.46
257.149	10328.13
257.219	10284.47
257.29	10316.64
257.36	10274.01
257.43	10308.61
257.5	10261.83
257.571	10255.13
257.641	10276.85
257.711	10255.46
257.781	10279.31
257.852	10291.31
257.922	10241.92
257.992	10240.53
258.062	10237.15
258.132	10266.25
258.202	10266.78
258.273	10288.22
258.343	10347.1
258.413	10332.99
258.483	10339.11
258.553	10315.6
258.623	10293.14
258.693	10307.93
258.764	10356.83
258.834	10415.16
258.904	10422.05
258.974	10405.05
259.044	10410.54
259.114	10430.88
259.184	10450.78
259.254	10463.01
259.324	10419.89
259.394	10450.05
259.464	10514.57
259.535	10521.6
259.605	10522.71
259.675	10518.33
259.745	10538.71
259.815	10518.33
259.885	10525.5
259.955	10612.88
260.025	10611.78
260.095	10625.99
260.165	10652.01
260.235	10697.22
260.305	10687.15
260.375	10665.75
260.445	10743.56
260.515	10785.81
260.585	10822.63
260.655	10834.25
260.725	10862.15
260.795	10892.89
260.865	10946.52
260.934	10920.26
261.004	10942.42
261.074	10939.77
261.144	10984.53
261.214	11013.01
261.284	11016.44
261.354	11046.31
261.424	11009.29
261.494	11062.86
261.564	11068.45
261.634	11088.21
261.703	11041.37
261.773	11060.02
261.843	11087.2
261.913	11082.38
261.983	11052.16
262.053	11071.3
262.123	11065.61
262.192	11039.88
262.262	11062.14
262.332	11024.6
262.402	11050.29
262.472	11062.24
262.541	11021.63
262.611	11058.54
262.681	11038.83
262.751	11070.25
262.821	11077.14
262.89	11051.07
262.96	11068.42
263.03	11126.35
263.1	11149.29
263.169	11169.39
263.239	11190.4
263.309	11241.2
263.379	11267.75
263.448	11288.28
263.518	11307.61
263.588	11323.03
263.657	11376.52
263.727	11410.69
263.797	11424.19
263.867	11426.84
263.936	11392.33
264.006	11438.58
264.076	11430.63
264.145	11436.66
264.215	11421.76
264.285	11452.7
