Data from 20250626_urea_1M_exp2_MAYP1162681_01-13-58-276.txt Node
Date: Fri Jun 27 01:13:58 BST 2025
User: adleo
Spectrometer: MAYP116268
Trigger mode: 0
Integration Time (sec): 3.000000E0
Scans to average: 1
Electric dark correction enabled: true
Nonlinearity correction enabled: true
Boxcar width: 10
XAxis mode: Wavelengths
Number of Pixels in Spectrum: 2068
>>>>>Begin Spectral Data<<<<<
179.565	2780.38
179.642	2921.6
179.718	3025.49
179.795	3131.47
179.871	3216.16
179.948	3265.09
180.024	3316.77
180.101	3372.86
180.177	3406.61
180.254	3463.9
180.33	3516.46
180.407	3705.78
180.483	3922.74
180.56	4141.01
180.636	4340.5
180.712	4313.03
180.789	4329.68
180.865	4365.05
180.942	4392.03
181.018	4416.71
181.095	4450.31
181.171	4464.28
181.248	4468.68
181.324	4511.09
181.4	4525.69
181.477	4552.49
181.553	4579.8
181.63	4636.52
181.706	4676.01
181.782	4704.9
181.859	4707.34
181.935	4727.44
182.011	4718.4
182.088	4756.46
182.164	4804.31
182.24	4836.85
182.317	4859.34
182.393	4854.6
182.469	4884.57
182.546	4915.65
182.622	4929.1
182.698	4924.45
182.775	4960.61
182.851	4996
182.927	4979.05
183.003	4968.08
183.08	4953.43
183.156	4983.94
183.232	4971.81
183.308	4944.76
183.385	4960.7
183.461	4998.44
183.537	4998.49
183.613	5033.21
183.69	5012.67
183.766	4987.03
183.842	5009.06
183.918	5024.01
183.995	5060.45
184.071	5071.37
184.147	5055.76
184.223	5027.86
184.299	5052.72
184.375	5017.67
184.452	5031.95
184.528	5135.99
184.604	5165.63
184.68	5193.31
184.756	5209.84
184.832	5220.91
184.908	5234.46
184.985	5234.26
185.061	5198.73
185.137	5221.25
185.213	5192.36
185.289	5197.53
185.365	5183.02
185.441	5183.12
185.517	5212.65
185.593	5201.01
185.669	5192.09
185.745	5219.83
185.822	5262.05
185.898	5242.03
185.974	5270.8
186.05	5250.63
186.126	5185.16
186.202	5163.42
186.278	5153.5
186.354	5131.93
186.43	5147.66
186.506	5141.72
186.582	5138.99
186.658	5153.4
186.734	5107.86
186.81	5111.93
186.886	5114.75
186.962	5141.09
187.038	5129.74
187.114	5109.08
187.19	5128.29
187.266	5105.83
187.341	5104.59
187.417	5085.96
187.493	5086.43
187.569	5095.3
187.645	5083.47
187.721	5056.78
187.797	5080.82
187.873	5092.08
187.949	5071.73
188.025	5053.85
188.101	5070.18
188.176	5084.64
188.252	5074.59
188.328	5092.15
188.404	5093.54
188.48	5087.79
188.556	5067.44
188.632	5065.04
188.707	5070.03
188.783	5061.97
188.859	5050.78
188.935	5026.1
189.011	5048.23
189.086	5035.83
189.162	5007.66
189.238	4998.13
189.314	4988.56
189.39	4974.42
189.465	4959.81
189.541	5001.82
189.617	4965.1
189.693	4941.26
189.768	4951.03
189.844	5010.99
189.92	4989.74
189.996	5011.92
190.071	5037.16
190.147	5037.16
190.223	5058.05
190.298	5038.45
190.374	5006.08
190.45	5036.14
190.526	5052.67
190.601	5042.46
190.677	5039.69
190.753	5114.48
190.828	5126.59
190.904	5165.69
190.98	5195.26
191.055	5218.4
191.131	5197.41
191.207	5251.34
191.282	5277.38
191.358	5252.52
191.433	5217.23
191.509	5249.4
191.585	5241.07
191.66	5245.28
191.736	5271.2
191.811	5247.72
191.887	5287.08
191.963	5344.14
192.038	5357.75
192.114	5363.26
192.189	5370.4
192.265	5367.67
192.34	5313.04
192.416	5309.36
192.491	5298.23
192.567	5310.17
192.642	5319.28
192.718	5320.05
192.793	5295.03
192.869	5289.33
192.944	5293.21
193.02	5314.49
193.095	5323.02
193.171	5336.97
193.246	5334.04
193.322	5319.67
193.397	5323.74
193.473	5290.04
193.548	5249.44
193.624	5260.56
193.699	5254.14
193.775	5288.9
193.85	5290.38
193.925	5308.84
194.001	5308.55
194.076	5291.49
194.152	5261.67
194.227	5243.32
194.302	5217.7
194.378	5222.49
194.453	5212.77
194.529	5243.44
194.604	5209.99
194.679	5198.44
194.755	5150.31
194.83	5181.1
194.905	5177.08
194.981	5197.54
195.056	5181.49
195.131	5195.77
195.207	5191.88
195.282	5166.26
195.357	5122.21
195.433	5162.69
195.508	5132.12
195.583	5150.8
195.659	5182.34
195.734	5200.65
195.809	5197.77
195.884	5219.99
195.96	5219.79
196.035	5256.59
196.11	5249.25
196.185	5273.45
196.261	5275.89
196.336	5353.52
196.411	5312.53
196.486	5328.24
196.561	5309.79
196.637	5331.87
196.712	5372.25
196.787	5380.5
196.862	5419.06
196.937	5442.2
197.013	5456.4
197.088	5481.6
197.163	5531.19
197.238	5577.08
197.313	5576.93
197.388	5611.83
197.464	5692.66
197.539	5723.72
197.614	5707.33
197.689	5732.7
197.764	5773.04
197.839	5826.7
197.914	5816.96
197.989	5879.69
198.065	5913.64
198.14	6040.04
198.215	6107.73
198.29	6141.77
198.365	6176.08
198.44	6203.99
198.515	6274.3
198.59	6312.7
198.665	6379.27
198.74	6405.34
198.815	6406.78
198.89	6466.24
198.965	6540.44
199.04	6523.25
199.115	6558.62
199.19	6668.06
199.265	6683.28
199.34	6708.92
199.415	6795.6
199.49	6843.27
199.565	6868.25
199.64	6930.44
199.715	6927.37
199.79	6939.37
199.865	6944.8
199.94	6940.29
200.015	7021.48
200.09	7040.46
200.165	7052.76
200.24	7071.21
200.315	7168.12
200.39	7207.14
200.464	7222.85
200.539	7221.41
200.614	7266.18
200.689	7324.33
200.764	7338.27
200.839	7375.44
200.914	7380.63
200.989	7347.79
201.063	7382.87
201.138	7334.19
201.213	7333.9
201.288	7285.32
201.363	7297.14
201.438	7298.72
201.512	7337.77
201.587	7294.75
201.662	7300.14
201.737	7337.63
201.812	7358.44
201.886	7278.88
201.961	7302.49
202.036	7271.61
202.111	7266.13
202.186	7190.36
202.26	7149.17
202.335	7095
202.41	7085.01
202.485	7050.34
202.559	7003.12
202.634	6936.3
202.709	6958.85
202.784	6913.36
202.858	6911.1
202.933	6864.9
203.008	6853.76
203.082	6808.52
203.157	6803.18
203.232	6691.35
203.306	6628.74
203.381	6545.26
203.456	6484.51
203.53	6420.68
203.605	6368.82
203.68	6309.03
203.754	6295.08
203.829	6255.13
203.904	6200.52
203.978	6164.32
204.053	6174.31
204.127	6141.01
204.202	6139.43
204.277	6098.02
204.351	6078.97
204.426	6054.97
204.5	6035.44
204.575	5946.67
204.65	5966.97
204.724	5948.2
204.799	5971.73
204.873	5967.02
204.948	5962.71
205.022	5931.54
205.097	5914.16
205.171	5953.54
205.246	5979.22
205.32	5975.67
205.395	5971.16
205.469	5957.45
205.544	5977.37
205.618	5926.09
205.693	5960.06
205.767	5929.6
205.842	5985.27
205.916	5967.47
205.991	5946.94
206.065	5960.76
206.14	5998.85
206.214	5985.07
206.289	5964.49
206.363	5994.13
206.438	5998.02
206.512	6021.2
206.586	6072.52
206.661	6091.63
206.735	6031.89
206.81	6029.87
206.884	6068.91
206.958	6040.09
207.033	6075.62
207.107	6084.7
207.181	6170.76
207.256	6156.26
207.33	6208.8
207.405	6237.49
207.479	6282.88
207.553	6300.3
207.628	6260.83
207.702	6287.74
207.776	6270.85
207.851	6281.79
207.925	6318.58
207.999	6309.02
208.073	6296.07
208.148	6299.43
208.222	6272.25
208.296	6353.26
208.371	6398.33
208.445	6422.43
208.519	6494.27
208.593	6525.13
208.668	6518.6
208.742	6525.72
208.816	6530.18
208.89	6555.4
208.965	6553.09
209.039	6576.68
209.113	6619.7
209.187	6672.8
209.261	6666.27
209.336	6722.45
209.41	6774.71
209.484	6780.71
209.558	6837.05
209.632	6872.05
209.707	6892.27
209.781	6950.53
209.855	6984.5
209.929	7026.49
210.003	7040.71
210.077	7042.83
210.151	7156.99
210.226	7246.36
210.3	7315.1
210.374	7370.23
210.448	7378.16
210.522	7396.96
210.596	7417.53
210.67	7442.96
210.744	7564.75
210.818	7648.15
210.892	7695.71
210.966	7678.55
211.041	7711.19
211.115	7704.99
211.189	7764.46
211.263	7817
211.337	7829.31
211.411	7872.01
211.485	7852.77
211.559	7891.7
211.633	7895.11
211.707	7823.52
211.781	7842.82
211.855	7750.39
211.929	7733
212.003	7692.5
212.077	7722.04
212.151	7758.4
212.225	7779.84
212.299	7746.54
212.373	7717.64
212.447	7701.1
212.52	7772.84
212.594	7779.24
212.668	7810.49
212.742	7778.46
212.816	7765.67
212.89	7750.57
212.964	7746
213.038	7756.54
213.112	7779.43
213.186	7816.26
213.26	7767.82
213.333	7644.08
213.407	7654.55
213.481	7660.7
213.555	7683.81
213.629	7649.32
213.703	7597.87
213.777	7591.18
213.85	7539.06
213.924	7618.04
213.998	7616.6
214.072	7597.06
214.146	7566.63
214.219	7551.05
214.293	7534.95
214.367	7533.41
214.441	7555.96
214.515	7517.34
214.588	7447.68
214.662	7354.88
214.736	7293.17
214.81	7298.5
214.883	7320.16
214.957	7287.31
215.031	7245.96
215.105	7180.78
215.178	7134.27
215.252	7111.49
215.326	7043.26
215.4	6984.44
215.473	6849.17
215.547	6789.78
215.621	6740.64
215.694	6734.49
215.768	6664.41
215.842	6615.24
215.915	6560.32
215.989	6472.07
216.063	6433.69
216.136	6424.56
216.21	6410.21
216.284	6421.45
216.357	6405.51
216.431	6373.92
216.504	6368.69
216.578	6411.62
216.652	6422.32
216.725	6407.19
216.799	6412.19
216.873	6390.55
216.946	6396.64
217.02	6370.6
217.093	6350.58
217.167	6278.01
217.24	6213.1
217.314	6182.45
217.387	6149.51
217.461	6113.8
217.535	6129.54
217.608	6083.19
217.682	6064.32
217.755	6075.7
217.829	6036.43
217.902	6021.32
217.976	6008.41
218.049	5979.96
218.123	5918.7
218.196	5917.74
218.27	5892.41
218.343	5839.09
218.417	5845.23
218.49	5825.75
218.563	5855.63
218.637	5861.83
218.71	5921.61
218.784	5944.65
218.857	5970.78
218.931	5986.89
219.004	5994.85
219.077	6013.63
219.151	6028.35
219.224	6020.14
219.298	6011.99
219.371	6044.67
219.444	6017.58
219.518	6025.11
219.591	6038.92
219.665	6117.24
219.738	6124.3
219.811	6110.82
219.885	6143.21
219.958	6168.7
220.031	6176.56
220.105	6190.91
220.178	6197.78
220.251	6171.66
220.325	6193.8
220.398	6208.19
220.471	6227.04
220.544	6253.92
220.618	6231.21
220.691	6250.41
220.764	6255.97
220.838	6275.61
220.911	6260.77
220.984	6325.31
221.057	6352.47
221.131	6368.88
221.204	6297.66
221.277	6353.45
221.35	6448.94
221.424	6444.14
221.497	6450.77
221.57	6466.51
221.643	6492.11
221.716	6521.5
221.79	6529.52
221.863	6536.14
221.936	6542.14
222.009	6549.49
222.082	6578.6
222.155	6592.9
222.229	6639.45
222.302	6668.92
222.375	6674.64
222.448	6707.53
222.521	6712.91
222.594	6714.69
222.667	6697.7
222.74	6745.81
222.814	6737.64
222.887	6720.96
222.96	6764.43
223.033	6796.53
223.106	6816.16
223.179	6838.03
223.252	6850.14
223.325	6870.35
223.398	6881.98
223.471	6907.05
223.544	6923.8
223.617	6927.26
223.69	6942.54
223.763	6915.63
223.837	6934.7
223.91	6961.12
223.983	6929.29
224.056	6904.75
224.129	6916.18
224.202	6955.73
224.275	6943.96
224.348	6925.76
224.42	6903.37
224.493	6858.99
224.566	6844.09
224.639	6858.45
224.712	6839.37
224.785	6823.66
224.858	6820.11
224.931	6806.22
225.004	6770.74
225.077	6774.82
225.15	6706.69
225.223	6704.67
225.296	6763.65
225.369	6717.69
225.442	6691.61
225.514	6698.13
225.587	6710.95
225.66	6724.16
225.733	6724.64
225.806	6729.35
225.879	6724.21
225.952	6698.29
226.025	6736.47
226.097	6771.37
226.17	6760.08
226.243	6712.07
226.316	6715.82
226.389	6717.98
226.461	6729.6
226.534	6745.25
226.607	6735.79
226.68	6797.92
226.753	6793.74
226.825	6731.69
226.898	6771.83
226.971	6769.57
227.044	6791.86
227.117	6797
227.189	6814.01
227.262	6845.58
227.335	6862.68
227.407	6859.13
227.48	6885.97
227.553	6893.9
227.626	6880.34
227.698	6892.06
227.771	6925.18
227.844	6904.05
227.916	6917.69
227.989	6892.52
228.062	6894.97
228.134	6961.96
228.207	6960.66
228.28	6958.64
228.352	6969.02
228.425	6981.32
228.498	7022.11
228.57	7004.87
228.643	7055.77
228.716	7049.76
228.788	7038.17
228.861	7033.75
228.934	7086.79
229.006	7091.59
229.079	7094.28
229.151	7086.16
229.224	7059.7
229.296	7076.71
229.369	7158.91
229.442	7200.01
229.514	7191.7
229.587	7228.99
229.659	7170.54
229.732	7180.25
229.804	7203.41
229.877	7268.98
229.949	7292.16
230.022	7327.6
230.094	7329.23
230.167	7315.67
230.239	7282.86
230.312	7268.54
230.384	7321.72
230.457	7313.98
230.529	7328.44
230.602	7330.51
230.674	7330.36
230.747	7358.65
230.819	7378.6
230.892	7288.47
230.964	7280.54
231.037	7294.66
231.109	7286.58
231.181	7318.24
231.254	7296.86
231.326	7293.55
231.399	7273.49
231.471	7247.38
231.544	7188.2
231.616	7218.9
231.688	7221.3
231.761	7215.25
231.833	7215.25
231.905	7144.78
231.978	7144.78
232.05	7124.07
232.122	7124.07
232.195	7108.98
232.267	7143.3
232.339	7126.24
232.412	7176.87
232.484	7163.7
232.556	7147.04
232.629	7194.74
232.701	7203.05
232.773	7210.21
232.846	7199.21
232.918	7206.76
232.99	7220.08
233.062	7256.17
233.135	7269.34
233.207	7244.21
233.279	7279.37
233.351	7300.32
233.424	7311.22
233.496	7293.92
233.568	7364.2
233.64	7334.98
233.713	7348.06
233.785	7339.16
233.857	7351.66
233.929	7312.21
234.001	7362.57
234.074	7412.63
234.146	7362.04
234.218	7365.6
234.29	7365.6
234.362	7361.47
234.434	7319.35
234.507	7299.02
234.579	7255.53
234.651	7240.48
234.723	7266.73
234.795	7276.29
234.867	7271.53
234.939	7317.15
235.012	7330.46
235.084	7326.08
235.156	7360.59
235.228	7348.24
235.3	7342.18
235.372	7351.26
235.444	7399.66
235.516	7337.66
235.588	7343.62
235.66	7354.05
235.732	7335.88
235.804	7487.03
235.876	7516.48
235.948	7567.59
236.02	7575.71
236.092	7588.25
236.164	7597.86
236.236	7593.2
236.308	7594.84
236.38	7617.05
236.452	7600.65
236.524	7619.3
236.596	7672.19
236.668	7694.84
236.74	7714.49
236.812	7728.92
236.884	7752.87
236.956	7759.41
237.028	7755.47
237.1	7742.82
237.172	7790.39
237.244	7849.92
237.316	7755.27
237.388	7740.47
237.46	7721.04
237.532	7765.76
237.604	7762.2
237.675	7816.12
237.747	7851.03
237.819	7836.14
237.891	7837.96
237.963	7828.44
238.035	7822.19
238.107	7739.68
238.178	7782.7
238.25	7789.24
238.322	7857.61
238.394	7826.21
238.466	7827.6
238.538	7860.73
238.609	7890.73
238.681	7855.04
238.753	7835.46
238.825	7850.56
238.897	7882.19
238.968	7939.4
239.04	7926.32
239.112	8008.7
239.184	7977.43
239.255	7970.6
239.327	8002.95
239.399	8018.78
239.471	8054.12
239.542	8079.75
239.614	8125.87
239.686	8068.86
239.758	8110.81
239.829	8078.13
239.901	8127.43
239.973	8136.42
240.044	8160.14
240.116	8171.01
240.188	8186.4
240.259	8195.59
240.331	8190.77
240.403	8215.21
240.474	8181.71
240.546	8171.28
240.618	8126.72
240.689	8130.91
240.761	8153.72
240.833	8205.63
240.904	8210.15
240.976	8210.11
241.048	8220.4
241.119	8251.78
241.191	8282.23
241.262	8326.81
241.334	8338.26
241.405	8335.28
241.477	8338.74
241.549	8344.37
241.62	8364.63
241.692	8396.38
241.763	8443.88
241.835	8458.18
241.906	8472.56
241.978	8457.12
242.049	8511.68
242.121	8558.01
242.192	8606.47
242.264	8575
242.335	8532.08
242.407	8562.06
242.478	8564.27
242.55	8581.36
242.621	8568.17
242.693	8569.08
242.764	8562.53
242.836	8562.63
242.907	8589.44
242.979	8613.16
243.05	8628.9
243.122	8647.67
243.193	8646.22
243.264	8589
243.336	8589.53
243.407	8613.74
243.479	8673.95
243.55	8685.69
243.622	8697.2
243.693	8694.17
243.764	8752.15
243.836	8739.26
243.907	8734.6
243.978	8737.87
244.05	8761.21
244.121	8728.11
244.192	8761.89
244.264	8722.52
244.335	8738.79
244.407	8701.73
244.478	8714.29
244.549	8706.93
244.62	8674.49
244.692	8670.79
244.763	8710.44
244.834	8704.28
244.906	8683
244.977	8690.46
245.048	8736.17
245.119	8721.87
245.191	8709.07
245.262	8659.35
245.333	8716.18
245.405	8725.27
245.476	8757.37
245.547	8764.4
245.618	8804.29
245.689	8808.05
245.761	8831.78
245.832	8830.38
245.903	8866.72
245.974	8879.33
246.045	8894.25
246.117	8959.77
246.188	8953.32
246.259	8935.95
246.33	8947.16
246.401	8958.42
246.473	8932.66
246.544	8921.59
246.615	8961.84
246.686	8959.57
246.757	9019.16
246.828	9007.32
246.899	9058.8
246.97	9027.27
247.042	9022.07
247.113	9053.52
247.184	9126.3
247.255	9126.87
247.326	9147.48
247.397	9148.68
247.468	9164.09
247.539	9169
247.61	9133.42
247.681	9165.57
247.752	9208.89
247.823	9195.56
247.894	9209.28
247.965	9192.44
248.037	9175.92
248.108	9135.19
248.179	9145.54
248.25	9135.86
248.321	9154.01
248.392	9120.87
248.463	9187.45
248.534	9183.98
248.605	9198.48
248.675	9179.49
248.746	9192.97
248.817	9202.27
248.888	9222.06
248.959	9182.44
249.03	9203.53
249.101	9200.11
249.172	9188.89
249.243	9137.44
249.314	9186.15
249.385	9195.06
249.456	9220.24
249.527	9215.28
249.598	9238.05
249.669	9232.51
249.739	9238.58
249.81	9245.12
249.881	9219.32
249.952	9209.88
250.023	9208.73
250.094	9169.96
250.165	9139.66
250.235	9134.94
250.306	9146.6
250.377	9122.62
250.448	9150.73
250.519	9102.11
250.59	9150.46
250.66	9149.01
250.731	9198.93
250.802	9197.24
250.873	9213.71
250.944	9226.23
251.014	9219.2
251.085	9278.25
251.156	9309.26
251.227	9351.88
251.297	9394.55
251.368	9428.97
251.439	9458.64
251.51	9500.97
251.58	9493.8
251.651	9491.73
251.722	9534.4
251.792	9494.91
251.863	9493.23
251.934	9524.48
252.005	9611.74
252.075	9627.05
252.146	9666.92
252.217	9704.34
252.287	9738.74
252.358	9738.25
252.429	9796.06
252.499	9795.24
252.57	9803.81
252.641	9833.91
252.711	9841.86
252.782	9808.24
252.852	9863.4
252.923	9867.35
252.994	9882.57
253.064	9916.57
253.135	9908.91
253.205	9889.31
253.276	9942.86
253.347	9993.86
253.417	9981.53
253.488	9965.92
253.558	9953.78
253.629	9952.09
253.699	9955.75
253.77	9978.54
253.841	9970.79
253.911	9973.25
253.982	9981.48
254.052	10006.44
254.123	10007.69
254.193	10000.08
254.264	10107.67
254.334	10087.34
254.405	10054.97
254.475	10020.24
254.546	10027.08
254.616	10070.72
254.687	10097.07
254.757	10110.65
254.827	10114.7
254.898	10137.82
254.968	10142.39
255.039	10123.13
255.109	10151.11
255.18	10131.32
255.25	10072.06
255.321	10096.63
255.391	10072.25
255.461	10144.17
255.532	10083.22
255.602	10083.66
255.673	10050.18
255.743	10016.59
255.813	9959.86
255.884	10006.97
255.954	10040.54
256.024	10094.26
256.095	10094.02
256.165	10072.58
256.235	10092.82
256.306	10078.9
256.376	10117.68
256.446	10154.21
256.517	10180.31
256.587	10212.3
256.657	10229.84
256.728	10249.2
256.798	10260.42
256.868	10257.58
256.938	10230.31
257.009	10270.63
257.079	10289.04
257.149	10366.79
257.219	10327.14
257.29	10356.51
257.36	10312.44
257.43	10337.44
257.5	10280.45
257.571	10282.47
257.641	10308.63
257.711	10277.12
257.781	10302.89
257.852	10311.37
257.922	10262.33
257.992	10268.11
258.062	10262.13
258.132	10290.8
258.202	10297.78
258.273	10309.3
258.343	10364.37
258.413	10355.46
258.483	10357.34
258.553	10342.74
258.623	10319.32
258.693	10337.53
258.764	10394.77
258.834	10448.29
258.904	10459.51
258.974	10450.03
259.044	10453.54
259.114	10478.65
259.184	10505.24
259.254	10513.63
259.324	10477.73
259.394	10509.57
259.464	10568.65
259.535	10576.65
259.605	10575.06
259.675	10566.77
259.745	10593.8
259.815	10577.76
259.885	10581.42
259.955	10667.5
260.025	10668.17
260.095	10684.65
260.165	10713.28
260.235	10750.05
260.305	10732.65
260.375	10715.11
260.445	10798.27
260.515	10838.36
260.585	10872
260.655	10884.53
260.725	10912.14
260.795	10936.76
260.865	10993
260.934	10969.96
261.004	10991.12
261.074	11000.52
261.144	11048.5
261.214	11076.31
261.284	11080.89
261.354	11110.66
261.424	11077.21
261.494	11124.67
261.564	11119.51
261.634	11133.68
261.703	11089.64
261.773	11116.18
261.843	11142.26
261.913	11132.09
261.983	11100.33
262.053	11118.6
262.123	11114.65
262.192	11093.49
262.262	11117.92
262.332	11081.3
262.402	11107.18
262.472	11117.06
262.541	11071.24
262.611	11111.82
262.681	11089.16
262.751	11117.41
262.821	11126.18
262.89	11102.75
262.96	11125.36
263.03	11187.24
263.1	11213.8
263.169	11228.59
263.239	11256.73
263.309	11314.72
263.379	11333.37
263.448	11350.52
263.518	11370.43
263.588	11383.2
263.657	11436.12
263.727	11466
263.797	11479.01
263.867	11477.28
263.936	11449.23
264.006	11492.11
264.076	11480.25
264.145	11483.48
264.215	11469.7
264.285	11498.66
264.354	11466.52
