Data from 20250626_urea_1M_exp2_MAYP1162681_23-33-58-795.txt Node
Date: Thu Jun 26 23:33:58 BST 2025
User: adleo
Spectrometer: MAYP116268
Trigger mode: 0
Integration Time (sec): 3.000000E0
Scans to average: 1
Electric dark correction enabled: true
Nonlinearity correction enabled: true
Boxcar width: 10
XAxis mode: Wavelengths
Number of Pixels in Spectrum: 2068
>>>>>Begin Spectral Data<<<<<
179.565	2837.57
179.642	2983.7
179.718	3095.29
179.795	3204.29
179.871	3286.9
179.948	3333.7
180.024	3384.98
180.101	3445.45
180.177	3476.94
180.254	3537.93
180.33	3596.7
180.407	3789.9
180.483	4009.49
180.56	4231.64
180.636	4437.35
180.712	4406.81
180.789	4430.97
180.865	4458.51
180.942	4485.06
181.018	4511.13
181.095	4545.6
181.171	4553.59
181.248	4555.55
181.324	4596.58
181.4	4607.26
181.477	4634.83
181.553	4666.73
181.63	4723.32
181.706	4761.67
181.782	4790.56
181.859	4788.22
181.935	4800.86
182.011	4794.15
182.088	4834.04
182.164	4881.28
182.24	4915.93
182.317	4939.91
182.393	4933.78
182.469	4968.16
182.546	5003.02
182.622	5012.89
182.698	5003.88
182.775	5041
182.851	5074.18
182.927	5051.77
183.003	5043.92
183.08	5032.9
183.156	5054.84
183.232	5045.73
183.308	5016.04
183.385	5033.61
183.461	5077.11
183.537	5080.17
183.613	5109.53
183.69	5091.14
183.766	5068.71
183.842	5086.82
183.918	5101.48
183.995	5130.83
184.071	5141.18
184.147	5124.27
184.223	5097.57
184.299	5124.45
184.375	5098.53
184.452	5120.39
184.528	5223.71
184.604	5254.55
184.68	5286.36
184.756	5302.27
184.832	5313.73
184.908	5325.5
184.985	5325.79
185.061	5286.22
185.137	5308.17
185.213	5281.63
185.289	5285.37
185.365	5264.15
185.441	5257.78
185.517	5289.18
185.593	5289.13
185.669	5280.74
185.745	5307.24
185.822	5348.8
185.898	5330.25
185.974	5348.69
186.05	5321.9
186.126	5260.98
186.202	5241.06
186.278	5228.4
186.354	5210.82
186.43	5226.35
186.506	5223.67
186.582	5223.19
186.658	5240.19
186.734	5188.03
186.81	5193.16
186.886	5199.82
186.962	5232.77
187.038	5223.53
187.114	5202.52
187.19	5218.2
187.266	5195.06
187.341	5196.41
187.417	5178.49
187.493	5181.22
187.569	5193.4
187.645	5184.53
187.721	5149.41
187.797	5169.96
187.873	5181.7
187.949	5164.12
188.025	5147.44
188.101	5153.52
188.176	5163.87
188.252	5149.93
188.328	5171.13
188.404	5169.84
188.48	5155.23
188.556	5133.67
188.632	5137.55
188.707	5139.9
188.783	5133.05
188.859	5121.94
188.935	5093.72
189.011	5118.78
189.086	5102.78
189.162	5076.33
189.238	5071.97
189.314	5070.15
189.39	5051.95
189.465	5029.14
189.541	5073.22
189.617	5039.12
189.693	5028.2
189.768	5041.1
189.844	5107.96
189.92	5084.13
189.996	5109.71
190.071	5137.55
190.147	5138.6
190.223	5158.39
190.298	5137.16
190.374	5103.1
190.45	5137.24
190.526	5160.05
190.601	5140.12
190.677	5139.93
190.753	5216.17
190.828	5221.44
190.904	5260.64
190.98	5296.63
191.055	5326.63
191.131	5304.1
191.207	5353.73
191.282	5377.25
191.358	5347.69
191.433	5307.98
191.509	5345.08
191.585	5330.32
191.66	5333.87
191.736	5359.07
191.811	5335.98
191.887	5385.02
191.963	5444.98
192.038	5455.24
192.114	5458.83
192.189	5471
192.265	5465.54
192.34	5406.01
192.416	5405.87
192.491	5392.45
192.567	5405.01
192.642	5408.13
192.718	5408.56
192.793	5380.81
192.869	5369.12
192.944	5380.76
193.02	5402.96
193.095	5410.86
193.171	5434.2
193.246	5430.51
193.322	5417.62
193.397	5419.01
193.473	5380.12
193.548	5333.28
193.624	5352.6
193.699	5347.43
193.775	5385.02
193.85	5389.52
193.925	5407.4
194.001	5403.28
194.076	5383.97
194.152	5354.53
194.227	5337.32
194.302	5313.47
194.378	5314.24
194.453	5307.63
194.529	5339.98
194.604	5300.11
194.679	5288.18
194.755	5233.91
194.83	5266.81
194.905	5263.84
194.981	5287.7
195.056	5268.02
195.131	5285.7
195.207	5272.99
195.282	5246.69
195.357	5200.61
195.433	5237.56
195.508	5209.09
195.583	5228.64
195.659	5267.75
195.734	5285.92
195.809	5285.49
195.884	5309.63
195.96	5313.03
196.035	5356.73
196.11	5345.56
196.185	5377.52
196.261	5381.93
196.336	5461.86
196.411	5421.34
196.486	5430.4
196.561	5411.71
196.637	5436.38
196.712	5473.83
196.787	5486.54
196.862	5526.65
196.937	5551.72
197.013	5572.15
197.088	5598.36
197.163	5651.27
197.238	5693.37
197.313	5691.21
197.388	5725.49
197.464	5798.61
197.539	5832.17
197.614	5812.23
197.689	5844.51
197.764	5883.57
197.839	5940.16
197.914	5926
197.989	5991.53
198.065	6028.6
198.14	6158.92
198.215	6221.29
198.29	6252.02
198.365	6282.93
198.44	6309.65
198.515	6375.94
198.59	6408.39
198.665	6478.27
198.74	6502.62
198.815	6504.35
198.89	6565.31
198.965	6639.14
199.04	6629.34
199.115	6665.96
199.19	6777.16
199.265	6783.3
199.34	6813.46
199.415	6894.25
199.49	6948.11
199.565	6966.46
199.64	7027.27
199.715	7016.98
199.79	7038.36
199.865	7052.58
199.94	7042.64
200.015	7123.56
200.09	7138.37
200.165	7154.8
200.24	7174.02
200.315	7276.28
200.39	7320.69
200.464	7331.31
200.539	7337.8
200.614	7379.07
200.689	7439.1
200.764	7455.5
200.839	7494.84
200.914	7501.33
200.989	7475.55
201.063	7508.53
201.138	7463.01
201.213	7464.21
201.288	7416.58
201.363	7422.69
201.438	7425.04
201.512	7467.79
201.587	7421.4
201.662	7434.52
201.737	7470.05
201.812	7488.51
201.886	7395.95
201.961	7417.79
202.036	7389.49
202.111	7378.58
202.186	7305.06
202.26	7259.92
202.335	7204.73
202.41	7189.69
202.485	7149.92
202.559	7100.24
202.634	7036.15
202.709	7065.43
202.784	7011.29
202.858	7013.79
202.933	6969.88
203.008	6951.48
203.082	6910.46
203.157	6910.8
203.232	6803.89
203.306	6743.62
203.381	6657.87
203.456	6602.41
203.53	6536.74
203.605	6484.54
203.68	6424.59
203.754	6408.38
203.829	6370.97
203.904	6319.09
203.978	6291.81
204.053	6304.06
204.127	6273.53
204.202	6265.33
204.277	6218.25
204.351	6203.85
204.426	6182.39
204.5	6165.98
204.575	6074.51
204.65	6094.53
204.724	6072.78
204.799	6092.86
204.873	6083.45
204.948	6077.98
205.022	6047.77
205.097	6023.91
205.171	6063.48
205.246	6090.66
205.32	6088.93
205.395	6084.95
205.469	6058.92
205.544	6072.46
205.618	6023.27
205.693	6048.03
205.767	6020.4
205.842	6076.6
205.916	6063.7
205.991	6034.86
206.065	6042.73
206.14	6089.12
206.214	6071.98
206.289	6049.47
206.363	6080.51
206.438	6087.33
206.512	6112.53
206.586	6159.15
206.661	6188.78
206.735	6131.38
206.81	6128.98
206.884	6164.18
206.958	6135.55
207.033	6178.51
207.107	6194.94
207.181	6273.58
207.256	6263.45
207.33	6309.03
207.405	6338.15
207.479	6385.38
207.553	6408.7
207.628	6369.95
207.702	6394.76
207.776	6384.82
207.851	6398.12
207.925	6434.43
207.999	6425.83
208.073	6420.55
208.148	6430.92
208.222	6397.94
208.296	6480.69
208.371	6518.85
208.445	6548.62
208.519	6621.72
208.593	6650.62
208.668	6638.71
208.742	6646.21
208.816	6651.39
208.89	6686.79
208.965	6683.19
209.039	6701.45
209.113	6742.41
209.187	6795.61
209.261	6786.39
209.336	6835.33
209.41	6884.57
209.484	6883.23
209.558	6943.71
209.632	6968.25
209.707	6992.17
209.781	7048.81
209.855	7084.95
209.929	7127.13
210.003	7142.98
210.077	7137.07
210.151	7262.95
210.226	7347.42
210.3	7419.44
210.374	7482.9
210.448	7496.22
210.522	7521.03
210.596	7547.95
210.67	7575.87
210.744	7698.97
210.818	7781.52
210.892	7830.18
210.966	7817.11
211.041	7854.99
211.115	7843.26
211.189	7909.27
211.263	7960.62
211.337	7973.51
211.411	8006.22
211.485	7994.96
211.559	8028.23
211.633	8033.8
211.707	7950.55
211.781	7973.94
211.855	7879.63
211.929	7856.51
212.003	7811.72
212.077	7835.58
212.151	7864.83
212.225	7888.2
212.299	7853.21
212.373	7824.75
212.447	7812.96
212.52	7880.72
212.594	7894.72
212.668	7924.1
212.742	7889.14
212.816	7867.83
212.89	7854.37
212.964	7852.83
213.038	7860.67
213.112	7883.95
213.186	7919.57
213.26	7865.81
213.333	7741.67
213.407	7755.36
213.481	7759.69
213.555	7784.24
213.629	7752.01
213.703	7702.67
213.777	7695.26
213.85	7646.78
213.924	7723.8
213.998	7720.29
214.072	7702.82
214.146	7656.17
214.219	7646.7
214.293	7632.62
214.367	7635.55
214.441	7656.13
214.515	7620.97
214.588	7550.58
214.662	7462.57
214.736	7407.97
214.81	7420.36
214.883	7440.67
214.957	7406.85
215.031	7361.95
215.105	7293.01
215.178	7247.83
215.252	7225.39
215.326	7150.66
215.4	7087.75
215.473	6953.39
215.547	6888.99
215.621	6838.94
215.694	6840.86
215.768	6764.62
215.842	6715.25
215.915	6663.92
215.989	6580.37
216.063	6537.56
216.136	6526.9
216.21	6509.76
216.284	6520.86
216.357	6501.94
216.431	6468.19
216.504	6463.05
216.578	6511.75
216.652	6525.71
216.725	6509.77
216.799	6516.54
216.873	6497.25
216.946	6503.92
217.02	6478.78
217.093	6461.26
217.167	6389.07
217.24	6325.97
217.314	6300.25
217.387	6269.65
217.461	6230.68
217.535	6244.98
217.608	6199.97
217.682	6179.95
217.755	6188.78
217.829	6142.07
217.902	6126.66
217.976	6118.79
218.049	6085.92
218.123	6022.2
218.196	6015.44
218.27	5987.75
218.343	5937.87
218.417	5943.43
218.49	5923.43
218.563	5953.84
218.637	5959.99
218.71	6013.06
218.784	6040.18
218.857	6061.57
218.931	6075.09
219.004	6082.15
219.077	6102.08
219.151	6119.78
219.224	6112.24
219.298	6103.51
219.371	6140.8
219.444	6119.41
219.518	6123.92
219.591	6134.47
219.665	6216.56
219.738	6227.16
219.811	6214.93
219.885	6246.47
219.958	6266.05
220.031	6271.38
220.105	6286.59
220.178	6292.55
220.251	6273.15
220.325	6288.08
220.398	6302.05
220.471	6318.03
220.544	6348.41
220.618	6328
220.691	6345.43
220.764	6356.94
220.838	6380.32
220.911	6370.53
220.984	6436.23
221.057	6466.04
221.131	6487.88
221.204	6410.69
221.277	6465
221.35	6557.96
221.424	6551
221.497	6562.57
221.57	6584.59
221.643	6613.75
221.716	6644.2
221.79	6654.48
221.863	6662.79
221.936	6671.24
222.009	6681.65
222.082	6702.6
222.155	6709.9
222.229	6762.55
222.302	6790.45
222.375	6793.77
222.448	6821.19
222.521	6822.68
222.594	6824.46
222.667	6805.55
222.74	6859.86
222.814	6853.9
222.887	6839.53
222.96	6881.03
223.033	6913.9
223.106	6934.84
223.179	6960.12
223.252	6970.98
223.325	6990.29
223.398	7001.73
223.471	7028.53
223.544	7042.5
223.617	7053.22
223.69	7068.49
223.763	7035.43
223.837	7048.16
223.91	7073
223.983	7036.26
224.056	7010.42
224.129	7030.98
224.202	7069.34
224.275	7051.08
224.348	7030.72
224.42	7006.98
224.493	6967.78
224.566	6949.71
224.639	6956.48
224.712	6927.02
224.785	6918.17
224.858	6912.7
224.931	6899.39
225.004	6867.49
225.077	6871.72
225.15	6800.13
225.223	6801.42
225.296	6868.3
225.369	6825.17
225.442	6797.26
225.514	6809.93
225.587	6821.26
225.66	6824.67
225.733	6825.44
225.806	6833.32
225.879	6827.66
225.952	6802.64
226.025	6843.09
226.097	6881.26
226.17	6879.2
226.243	6835.69
226.316	6829.92
226.389	6830.36
226.461	6846.02
226.534	6855.34
226.607	6850.82
226.68	6916.03
226.753	6912.57
226.825	6850.4
226.898	6897.57
226.971	6907.7
227.044	6926.38
227.117	6936.42
227.189	6949.16
227.262	6978.33
227.335	6995.77
227.407	6996.93
227.48	7030.25
227.553	7034.87
227.626	7017.89
227.698	7023.17
227.771	7054
227.844	7040.74
227.916	7059.67
227.989	7029.02
228.062	7032.14
228.134	7095.15
228.207	7100.63
228.28	7095.39
228.352	7103.8
228.425	7110.53
228.498	7143.26
228.57	7124.86
228.643	7170.96
228.716	7168.7
228.788	7159.95
228.861	7155.53
228.934	7202.04
229.006	7205.5
229.079	7206.94
229.151	7200.84
229.224	7176.44
229.296	7197.97
229.369	7282.2
229.442	7323.02
229.514	7312.36
229.587	7346.77
229.659	7289.71
229.732	7296.39
229.804	7323.11
229.877	7382.54
229.949	7401.53
230.022	7439.72
230.094	7440.59
230.167	7428.56
230.239	7400.02
230.312	7391.37
230.384	7442.2
230.457	7438.16
230.529	7447.34
230.602	7443.78
230.674	7454.79
230.747	7482.31
230.819	7500.05
230.892	7404.39
230.964	7400.4
231.037	7419.85
231.109	7414.94
231.181	7443.2
231.254	7419.55
231.326	7413.69
231.399	7393.29
231.471	7377.14
231.544	7313.81
231.616	7354.74
231.688	7363.98
231.761	7353.41
231.833	7348.8
231.905	7278.99
231.978	7282.12
232.05	7265.35
232.122	7269.34
232.195	7245.16
232.267	7272.75
232.339	7257.99
232.412	7309.01
232.484	7282.23
232.556	7267.63
232.629	7317.55
232.701	7333.85
232.773	7337.07
232.846	7329.38
232.918	7332.17
232.99	7345.49
233.062	7380.62
233.135	7385.38
233.207	7356.15
233.279	7388.39
233.351	7413.76
233.424	7420.59
233.496	7401.89
233.568	7467.22
233.64	7440.26
233.713	7454.44
233.785	7458.53
233.857	7470.74
233.929	7431.33
234.001	7488.14
234.074	7536.34
234.146	7485.7
234.218	7479.97
234.29	7485.79
234.362	7479.16
234.434	7447.18
234.507	7423.48
234.579	7386.37
234.651	7377.34
234.723	7403.25
234.795	7419.3
234.867	7414.78
234.939	7459.54
235.012	7469.06
235.084	7469.87
235.156	7497.99
235.228	7481.74
235.3	7467.75
235.372	7474.43
235.444	7521.68
235.516	7454.78
235.588	7451.89
235.66	7461.65
235.732	7441.36
235.804	7588.29
235.876	7620.87
235.948	7666.51
236.02	7670.89
236.092	7680.54
236.164	7684.2
236.236	7677.18
236.308	7674.1
236.38	7691.22
236.452	7682.51
236.524	7699.19
236.596	7751.47
236.668	7781.19
236.74	7799.16
236.812	7816.57
236.884	7844.51
236.956	7854.85
237.028	7859.47
237.1	7848.51
237.172	7905.08
237.244	7971.78
237.316	7879.39
237.388	7866.89
237.46	7852.94
237.532	7907.14
237.604	7904.3
237.675	7958.22
237.747	7994.35
237.819	7984.49
237.891	7990.79
237.963	7981.61
238.035	7981.32
238.107	7895
238.178	7937.25
238.25	7951.29
238.322	8025.16
238.394	7996.87
238.466	7999.28
238.538	8030.29
238.609	8066.98
238.681	8027.72
238.753	8000.01
238.825	8017.81
238.897	8044.74
238.968	8102.73
239.04	8078.96
239.112	8160.73
239.184	8134.75
239.255	8130.37
239.327	8165.42
239.399	8175.67
239.471	8211.55
239.542	8242.57
239.614	8293.32
239.686	8233.46
239.758	8274.31
239.829	8247.35
239.901	8293.34
239.973	8301.08
240.044	8326.58
240.116	8337.99
240.188	8344.96
240.259	8363.48
240.331	8358.96
240.403	8384.21
240.474	8346.14
240.546	8341.23
240.618	8293.31
240.689	8295.81
240.761	8316.79
240.833	8365.16
240.904	8367.95
240.976	8367.27
241.048	8374.83
241.119	8400.72
241.191	8435.65
241.262	8482.25
241.334	8483.31
241.405	8480.09
241.477	8480.62
241.549	8489.18
241.62	8506.07
241.692	8542.02
241.763	8588.13
241.835	8596.8
241.906	8608.15
241.978	8585.73
242.049	8637.46
242.121	8685.67
242.192	8734.71
242.264	8702.81
242.335	8660.32
242.407	8694
242.478	8694.58
242.55	8706.66
242.621	8691.79
242.693	8691.4
242.764	8685.86
242.836	8691.4
242.907	8719.03
242.979	8744.63
243.05	8754.5
243.122	8773.85
243.193	8771.78
243.264	8716.67
243.336	8720.85
243.407	8746.32
243.479	8812.15
243.55	8827.61
243.622	8840.41
243.693	8837.09
243.764	8895.66
243.836	8882.24
243.907	8874.01
243.978	8878.68
244.05	8896.11
244.121	8867.81
244.192	8894.81
244.264	8851.58
244.335	8858.17
244.407	8815.67
244.478	8830.4
244.549	8825.98
244.62	8792.72
244.692	8791.66
244.763	8828.28
244.834	8818.61
244.906	8804.55
244.977	8816.73
245.048	8859.79
245.119	8840.2
245.191	8824.36
245.262	8777.67
245.333	8833.06
245.405	8845.86
245.476	8875.37
245.547	8889.76
245.618	8929.57
245.689	8944.78
245.761	8969.91
245.832	8972.85
245.903	9015.35
245.974	9039.71
246.045	9050.16
246.117	9119.24
246.188	9102.49
246.259	9089.16
246.33	9101.96
246.401	9107.45
246.473	9080.87
246.544	9063.15
246.615	9106.82
246.686	9114.9
246.757	9168.09
246.828	9154.04
246.899	9214.33
246.97	9182.71
247.042	9173.32
247.113	9203.37
247.184	9273.65
247.255	9279.58
247.326	9305.92
247.397	9306.97
247.468	9310.59
247.539	9320.12
247.61	9279.91
247.681	9314.66
247.752	9357.41
247.823	9341.34
247.894	9358.48
247.965	9339.51
248.037	9331.28
248.108	9294.83
248.179	9297.76
248.25	9291.75
248.321	9313.94
248.392	9275.21
248.463	9347.72
248.534	9356.82
248.605	9369.63
248.675	9344.82
248.746	9347.51
248.817	9354.11
248.888	9368.36
248.959	9322.29
249.03	9341.55
249.101	9348.53
249.172	9342.85
249.243	9283.3
249.314	9331.06
249.385	9337.75
249.456	9363.94
249.527	9356.96
249.598	9375.98
249.669	9372.32
249.739	9382.43
249.81	9394.27
249.881	9363.75
249.952	9352.58
250.023	9343.67
250.094	9304.08
250.165	9275.52
250.235	9276.77
250.306	9282.64
250.377	9258.95
250.448	9284.03
250.519	9236.85
250.59	9281.06
250.66	9282.55
250.731	9334.93
250.802	9335.55
250.873	9352.55
250.944	9367.05
251.014	9363.68
251.085	9431.6
251.156	9452.35
251.227	9487.27
251.297	9529.94
251.368	9564.95
251.439	9596.55
251.51	9636.76
251.58	9631.95
251.651	9634.16
251.722	9679.78
251.792	9647.94
251.863	9651.12
251.934	9700.73
252.005	9789.97
252.075	9797.14
252.146	9834.27
252.217	9874.2
252.287	9910.81
252.358	9914.42
252.429	9970.83
252.499	9963.08
252.57	9967.9
252.641	10006.09
252.711	10015.1
252.782	9977.91
252.852	10040.06
252.923	10035.24
252.994	10051.62
253.064	10090.77
253.135	10075.22
253.205	10059.51
253.276	10108.01
253.347	10158.73
253.417	10138.59
253.488	10114.93
253.558	10112.62
253.629	10113.2
253.699	10121.25
253.77	10141.77
253.841	10128
253.911	10137.49
253.982	10153
254.052	10179.65
254.123	10185.47
254.193	10187.59
254.264	10291.24
254.334	10263.96
254.405	10243.25
254.475	10214.11
254.546	10221.14
254.616	10270.95
254.687	10293.16
254.757	10312.23
254.827	10312.81
254.898	10329.19
254.968	10341.62
255.039	10319.75
255.109	10343.55
255.18	10323.7
255.25	10269.21
255.321	10302.59
255.391	10268.87
255.461	10341.76
255.532	10282.88
255.602	10281
255.673	10240.15
255.743	10211.42
255.813	10156.37
255.884	10198.43
255.954	10227.62
256.024	10276.38
256.095	10273.44
256.165	10246.42
256.235	10256.59
256.306	10242.33
256.376	10280.73
256.446	10311.47
256.517	10343.02
256.587	10380.03
256.657	10396.26
256.728	10415.1
256.798	10418.08
256.868	10419.38
256.938	10389.36
257.009	10422.8
257.079	10443.52
257.149	10519.21
257.219	10483.69
257.29	10513.5
257.36	10463.35
257.43	10490.29
257.5	10436.47
257.571	10432.95
257.641	10460.27
257.711	10437.29
257.781	10463.97
257.852	10479.2
257.922	10427.6
257.992	10429.48
258.062	10422.3
258.132	10452.71
258.202	10451.65
258.273	10467.98
258.343	10520.41
258.413	10508.46
258.483	10504.84
258.553	10481.77
258.623	10464.56
258.693	10480.08
258.764	10534.47
258.834	10592.67
258.904	10603.7
258.974	10597.58
259.044	10607.61
259.114	10633.14
259.184	10663.45
259.254	10672.66
259.324	10630.54
259.394	10671.15
259.464	10732.88
259.535	10741.85
259.605	10742.23
259.675	10743.92
259.745	10772.45
259.815	10758.57
259.885	10768.11
259.955	10861.61
260.025	10865.18
260.095	10867.49
260.165	10894.09
260.235	10941.61
260.305	10936.5
260.375	10918.87
260.445	10996.49
260.515	11042.94
260.585	11080.2
260.655	11089.98
260.725	11127.04
260.795	11153.83
260.865	11209.11
260.934	11181.88
261.004	11198.75
261.074	11202.55
261.144	11247.94
261.214	11277.63
261.284	11278.16
261.354	11305
261.424	11268.12
261.494	11315.49
261.564	11325.61
261.634	11343.06
261.703	11290.33
261.773	11300.74
261.843	11334.04
261.913	11325.95
261.983	11285.61
262.053	11299.64
262.123	11293.37
262.192	11260.75
262.262	11296.36
262.332	11258.72
262.402	11288.75
262.472	11303.3
262.541	11261.81
262.611	11301.14
262.681	11275.65
262.751	11304.76
262.821	11314.54
262.89	11291.6
262.96	11319.6
263.03	11382.59
263.1	11397.73
263.169	11418.35
263.239	11446.02
263.309	11493.64
263.379	11521.35
263.448	11543.42
263.518	11567.33
263.588	11586.76
263.657	11644.73
263.727	11670.86
263.797	11681.32
263.867	11677.41
263.936	11650.66
264.006	11697.69
264.076	11687.71
264.145	11690.51
264.215	11676.24
