Data from 20250626_urea_1M_exp2_MAYP1162681_06-23-59-777.txt Node
Date: Fri Jun 27 06:23:59 BST 2025
User: adleo
Spectrometer: MAYP116268
Trigger mode: 0
Integration Time (sec): 3.000000E0
Scans to average: 1
Electric dark correction enabled: true
Nonlinearity correction enabled: true
Boxcar width: 10
XAxis mode: Wavelengths
Number of Pixels in Spectrum: 2068
>>>>>Begin Spectral Data<<<<<
179.565	2757.57
179.642	2902.94
179.718	3011.96
179.795	3113.94
179.871	3197.44
179.948	3244.4
180.024	3301.42
180.101	3362.65
180.177	3398.36
180.254	3454.85
180.33	3513.04
180.407	3702.12
180.483	3919.61
180.56	4141.32
180.636	4338.09
180.712	4309.9
180.789	4329.32
180.865	4362.98
180.942	4388.66
181.018	4413.58
181.095	4452.73
181.171	4469.09
181.248	4469.95
181.324	4511.17
181.4	4527.15
181.477	4551.75
181.553	4584.99
181.63	4634.05
181.706	4671.34
181.782	4695.26
181.859	4698.7
181.935	4710.05
182.011	4701.77
182.088	4742.03
182.164	4785.09
182.24	4823.08
182.317	4845.14
182.393	4844.28
182.469	4874.49
182.546	4905.04
182.622	4916.52
182.698	4904.6
182.775	4934.29
182.851	4970.3
182.927	4949.32
183.003	4937.84
183.08	4925.34
183.156	4947.13
183.232	4942.39
183.308	4915.33
183.385	4931.94
183.461	4973.13
183.537	4975.29
183.613	5005.74
183.69	4988.6
183.766	4966.07
183.842	4988.21
183.918	5004.54
183.995	5032.59
184.071	5045.63
184.147	5034.42
184.223	5007.05
184.299	5036.17
184.375	5007.68
184.452	5025.99
184.528	5131.36
184.604	5159.27
184.68	5190.64
184.756	5210.67
184.832	5218.91
184.908	5231.07
184.985	5234.28
185.061	5190.22
185.137	5215.71
185.213	5189.32
185.289	5187.88
185.365	5167.72
185.441	5157.56
185.517	5191.65
185.593	5186.04
185.669	5177.51
185.745	5203.57
185.822	5241.1
185.898	5220.98
185.974	5239.6
186.05	5218.46
186.126	5156.4
186.202	5138.49
186.278	5125.99
186.354	5099.97
186.43	5115.84
186.506	5111.19
186.582	5106.6
186.658	5127.37
186.734	5076.99
186.81	5083.22
186.886	5091.22
186.962	5121.96
187.038	5111.71
187.114	5088.51
187.19	5107.34
187.266	5079.47
187.341	5079.71
187.417	5063.91
187.493	5067.88
187.569	5077.9
187.645	5059.12
187.721	5029.79
187.797	5054.7
187.873	5066.48
187.949	5051.5
188.025	5036.54
188.101	5044.15
188.176	5055.79
188.252	5042.96
188.328	5063.73
188.404	5062.68
188.48	5050.47
188.556	5026.95
188.632	5029.39
188.707	5031.12
188.783	5024.21
188.859	5016.32
188.935	4989.59
189.011	5011.19
189.086	4993.61
189.162	4968.18
189.238	4964.88
189.314	4957.4
189.39	4940.69
189.465	4922.73
189.541	4965.21
189.617	4927.38
189.693	4916.42
189.768	4928.83
189.844	4991.8
189.92	4967.4
189.996	4993.17
190.071	5021.86
190.147	5024.97
190.223	5045.72
190.298	5031.53
190.374	4999.88
190.45	5032.1
190.526	5055.47
190.601	5039.48
190.677	5040.82
190.753	5118.72
190.828	5130.21
190.904	5163.13
190.98	5199.16
191.055	5224.17
191.131	5205.38
191.207	5257.5
191.282	5278.14
191.358	5252.22
191.433	5212.14
191.509	5247.04
191.585	5235.01
191.66	5235.39
191.736	5257.38
191.811	5233.43
191.887	5272.69
191.963	5329.7
192.038	5339.96
192.114	5337.9
192.189	5355
192.265	5350.93
192.34	5294.1
192.416	5289.88
192.491	5282.31
192.567	5289.26
192.642	5298.61
192.718	5298.56
192.793	5269.95
192.869	5259.8
192.944	5262.67
193.02	5284.14
193.095	5292.1
193.171	5309.25
193.246	5312.22
193.322	5303.89
193.397	5307.81
193.473	5269.41
193.548	5229.1
193.624	5242.96
193.699	5238.93
193.775	5275.71
193.85	5277.81
193.925	5293.39
194.001	5290.61
194.076	5273.22
194.152	5249.35
194.227	5228.35
194.302	5204.03
194.378	5209.73
194.453	5202.88
194.529	5235.75
194.604	5197.9
194.679	5186.02
194.755	5135.59
194.83	5164.13
194.905	5159.38
194.981	5179.99
195.056	5163.61
195.131	5174.29
195.207	5166.76
195.282	5142.82
195.357	5092.53
195.433	5130.38
195.508	5103.31
195.583	5123.38
195.659	5160.14
195.734	5173.46
195.809	5176
195.884	5200.04
195.96	5199.32
196.035	5235.63
196.11	5228.25
196.185	5259.92
196.261	5261.26
196.336	5340.99
196.411	5300.38
196.486	5308.33
196.561	5293.1
196.637	5320.06
196.712	5362.98
196.787	5373.43
196.862	5416.84
196.937	5445.01
197.013	5458.77
197.088	5483.16
197.163	5535.01
197.238	5575.27
197.313	5573.07
197.388	5608.84
197.464	5685.21
197.539	5719.53
197.614	5703.19
197.689	5727.93
197.764	5768.22
197.839	5821.82
197.914	5808.39
197.989	5866.28
198.065	5900.9
198.14	6031.53
198.215	6098.51
198.29	6123.52
198.365	6156.91
198.44	6178.59
198.515	6248.43
198.59	6288.45
198.665	6356.17
198.74	6381.38
198.815	6385.17
198.89	6442.42
198.965	6514.46
199.04	6499.29
199.115	6535.23
199.19	6643.32
199.265	6656.47
199.34	6677.6
199.415	6760.81
199.49	6809.06
199.565	6838.02
199.64	6902.65
199.715	6891.74
199.79	6898.56
199.865	6912.92
199.94	6908.94
200.015	6990.75
200.09	7003.92
200.165	7017.08
200.24	7034.19
200.315	7131
200.39	7170.31
200.464	7186.3
200.539	7185.82
200.614	7230.21
200.689	7287.11
200.764	7304.56
200.839	7343.08
200.914	7357.3
200.989	7331.57
201.063	7371.18
201.138	7322.3
201.213	7321.39
201.288	7273.19
201.363	7286.45
201.438	7290.63
201.512	7329.72
201.587	7281.8
201.662	7291.27
201.737	7321.17
201.812	7338.71
201.886	7257.32
201.961	7278.96
202.036	7246.79
202.111	7240.49
202.186	7164.72
202.26	7118.19
202.335	7065.04
202.41	7054.23
202.485	7009.38
202.559	6965.47
202.634	6898.45
202.709	6923.26
202.784	6874.61
202.858	6874.89
202.933	6830.04
203.008	6814.14
203.082	6762.28
203.157	6762.81
203.232	6654.14
203.306	6599.12
203.381	6523.66
203.456	6461.58
203.53	6400.1
203.605	6353.72
203.68	6294.26
203.754	6279.11
203.829	6244.93
203.904	6190.6
203.978	6157.09
204.053	6174.37
204.127	6140.69
204.202	6125.91
204.277	6086.23
204.351	6069.48
204.426	6046.49
204.5	6028.59
204.575	5938.39
204.65	5963.59
204.724	5942.98
204.799	5965.99
204.873	5956.87
204.948	5951.07
205.022	5920.81
205.097	5897.43
205.171	5934.6
205.246	5957.21
205.32	5955.3
205.395	5951.98
205.469	5928.22
205.544	5945.59
205.618	5895.6
205.693	5924.87
205.767	5898.4
205.842	5946.15
205.916	5931.09
205.991	5906.38
206.065	5917.71
206.14	5957.43
206.214	5945.47
206.289	5927.28
206.363	5954.96
206.438	5961.16
206.512	5975.46
206.586	6026.97
206.661	6051.02
206.735	5989.94
206.81	5991.91
206.884	6029.94
206.958	5997.24
207.033	6039.04
207.107	6052.2
207.181	6136.87
207.256	6119.69
207.33	6166.41
207.405	6198.7
207.479	6247.26
207.553	6268.89
207.628	6228.95
207.702	6261.82
207.776	6245.88
207.851	6254.9
207.925	6291.93
207.999	6282.76
208.073	6279.5
208.148	6284.93
208.222	6252.52
208.296	6334.72
208.371	6374.26
208.445	6399.52
208.519	6468.8
208.593	6501.54
208.668	6491.98
208.742	6492.9
208.816	6499.81
208.89	6538.76
208.965	6533.14
209.039	6553.17
209.113	6593.45
209.187	6647.74
209.261	6637.95
209.336	6685.2
209.41	6730.44
209.484	6733.08
209.558	6793.36
209.632	6825.19
209.707	6850.64
209.781	6909.91
209.855	6950.61
209.929	6988.79
210.003	7005.03
210.077	7008.1
210.151	7129.63
210.226	7219.91
210.3	7290.61
210.374	7351.18
210.448	7361.13
210.522	7386.95
210.596	7411.07
210.67	7435.2
210.744	7552.12
210.818	7630
210.892	7685.62
210.966	7671.4
211.041	7709.48
211.115	7698.23
211.189	7757.55
211.263	7801.68
211.337	7815.96
211.411	7854.86
211.485	7845.77
211.559	7874.37
211.633	7878.84
211.707	7797.96
211.781	7820.05
211.855	7731.28
211.929	7708.89
212.003	7666.51
212.077	7692.2
212.151	7724.09
212.225	7745.82
212.299	7715.21
212.373	7685.07
212.447	7668.43
212.52	7745.41
212.594	7751.95
212.668	7779.69
212.742	7743.87
212.816	7728.1
212.89	7714.68
212.964	7711.22
213.038	7717.76
213.112	7745.03
213.186	7784.11
213.26	7731.22
213.333	7608.67
213.407	7617.8
213.481	7621.12
213.555	7642.34
213.629	7610.31
213.703	7563.71
213.777	7559.48
213.85	7509.62
213.924	7597.55
213.998	7603.8
214.072	7580.71
214.146	7541.23
214.219	7529.88
214.293	7523.59
214.367	7523.59
214.441	7543.68
214.515	7501.12
214.588	7431.23
214.662	7341.31
214.736	7282.73
214.81	7297.18
214.883	7313.17
214.957	7277.2
215.031	7235.76
215.105	7170.2
215.178	7122.62
215.252	7093.36
215.326	7022.78
215.4	6964.3
215.473	6820.05
215.547	6753.34
215.621	6705.17
215.694	6701.18
215.768	6626.26
215.842	6570.85
215.915	6521.26
215.989	6432.74
216.063	6393.2
216.136	6377.79
216.21	6359.17
216.284	6367.04
216.357	6351.24
216.431	6320.24
216.504	6323.55
216.578	6368.35
216.652	6380.29
216.725	6364.11
216.799	6373.09
216.873	6358.89
216.946	6362.53
217.02	6339.85
217.093	6318.97
217.167	6248.8
217.24	6187.83
217.314	6166.2
217.387	6131.58
217.461	6098.9
217.535	6117.28
217.608	6071.65
217.682	6054.18
217.755	6064.64
217.829	6025.18
217.902	6010.31
217.976	5996.16
218.049	5962.04
218.123	5902.03
218.196	5903.42
218.27	5876.13
218.343	5821.7
218.417	5818.82
218.49	5809.51
218.563	5841.6
218.637	5847.79
218.71	5903.12
218.784	5922.55
218.857	5948.35
218.931	5970.64
219.004	5976.01
219.077	5994.16
219.151	6006.87
219.224	6000.82
219.298	5999.1
219.371	6030.68
219.444	5999.46
219.518	6009.05
219.591	6018.35
219.665	6098.02
219.738	6102.24
219.811	6094.43
219.885	6130.27
219.958	6152.2
220.031	6150.81
220.105	6162.52
220.178	6166.08
220.251	6144.23
220.325	6170.45
220.398	6177.12
220.471	6193
220.544	6222.13
220.618	6203.89
220.691	6230.13
220.764	6248.9
220.838	6268.96
220.911	6258.88
220.984	6324.81
221.057	6353.75
221.131	6370.44
221.204	6303.15
221.277	6360.82
221.35	6449.59
221.424	6439.8
221.497	6452.19
221.57	6472.58
221.643	6501.97
221.716	6532.32
221.79	6541.2
221.863	6548.4
221.936	6561.27
222.009	6569.14
222.082	6588.4
222.155	6597.33
222.229	6644.36
222.302	6663.51
222.375	6667.64
222.448	6695.45
222.521	6700.3
222.594	6703.95
222.667	6692
222.74	6733.24
222.814	6727.38
222.887	6718.1
222.96	6764.98
223.033	6792.17
223.106	6800.86
223.179	6822.63
223.252	6838.68
223.325	6860.1
223.398	6869.18
223.471	6889.4
223.544	6904.86
223.617	6917.45
223.69	6935.07
223.763	6902.3
223.837	6923.83
223.91	6945.73
223.983	6910.87
224.056	6889.55
224.129	6901.75
224.202	6941.93
224.275	6933.04
224.348	6908.54
224.42	6881.35
224.493	6841.2
224.566	6825.44
224.639	6846.71
224.712	6827.48
224.785	6814.89
224.858	6805.86
224.931	6785.3
225.004	6755.68
225.077	6757.4
225.15	6691.72
225.223	6691.29
225.296	6760.36
225.369	6711.14
225.442	6687.02
225.514	6700.22
225.587	6711.22
225.66	6718.62
225.733	6719.2
225.806	6721.26
225.879	6716.32
225.952	6691.93
226.025	6729.97
226.097	6767.99
226.17	6759.1
226.243	6710.75
226.316	6708.2
226.389	6711.28
226.461	6732.7
226.534	6750.28
226.607	6746.1
226.68	6804.05
226.753	6796.12
226.825	6728.68
226.898	6768.1
226.971	6772.76
227.044	6793.07
227.117	6798.07
227.189	6811.43
227.262	6834.78
227.335	6855.63
227.407	6858.9
227.48	6888.28
227.553	6890.63
227.626	6876.64
227.698	6888.75
227.771	6918.12
227.844	6902.99
227.916	6921.39
227.989	6895.64
228.062	6894.35
228.134	6958.94
228.207	6958.17
228.28	6951.78
228.352	6960.14
228.425	6978.3
228.498	7013.91
228.57	6999.93
228.643	7047.8
228.716	7053.66
228.788	7046.26
228.861	7039.92
228.934	7083.69
229.006	7089.74
229.079	7092.33
229.151	7083.44
229.224	7055.11
229.296	7073.51
229.369	7151.77
229.442	7183.4
229.514	7169.19
229.587	7204.64
229.659	7147.4
229.732	7157.73
229.804	7190.11
229.877	7251.07
229.949	7265.54
230.022	7300.99
230.094	7302.52
230.167	7288.58
230.239	7248.99
230.312	7240.63
230.384	7289.67
230.457	7292.03
230.529	7297.31
230.602	7298.13
230.674	7306.88
230.747	7335.69
230.819	7357.51
230.892	7269.69
230.964	7271.62
231.037	7295.1
231.109	7286.16
231.181	7315.76
231.254	7296.63
231.326	7292.64
231.399	7277.25
231.471	7257.64
231.544	7203.88
231.616	7236.84
231.688	7247.27
231.761	7240.98
231.833	7236.56
231.905	7179.98
231.978	7178.01
232.05	7166.86
232.122	7171.28
232.195	7155.95
232.267	7189.07
232.339	7173.83
232.412	7222.83
232.484	7201.63
232.556	7177.76
232.629	7230.32
232.701	7241.28
232.773	7247.24
232.846	7242.19
232.918	7248.54
232.99	7264.69
233.062	7293.53
233.135	7297.96
233.207	7266.38
233.279	7302.07
233.351	7325.9
233.424	7322.44
233.496	7297.98
233.568	7359.51
233.64	7330.97
233.713	7343.41
233.785	7338.89
233.857	7351.54
233.929	7313.38
234.001	7370.62
234.074	7424.09
234.146	7369.47
234.218	7370.81
234.29	7368.22
234.362	7357.26
234.434	7317.41
234.507	7294.87
234.579	7255.26
234.651	7245.36
234.723	7273.38
234.795	7290.25
234.867	7286.79
234.939	7333.03
235.012	7352.16
235.084	7352.45
235.156	7381.85
235.228	7368.54
235.3	7354.22
235.372	7362.58
235.444	7408.76
235.516	7342.92
235.588	7349.12
235.66	7362.68
235.732	7342.83
235.804	7487.42
235.876	7516.25
235.948	7563.8
236.02	7571.11
236.092	7585.76
236.164	7589.46
236.236	7586.62
236.308	7583.98
236.38	7605.57
236.452	7593.02
236.524	7608.11
236.596	7660.09
236.668	7685.04
236.74	7701.72
236.812	7720.56
236.884	7750.29
236.956	7765.15
237.028	7760.34
237.1	7745.82
237.172	7796.9
237.244	7860.76
237.316	7775.94
237.388	7765.99
237.46	7756.51
237.532	7807.77
237.604	7801.43
237.675	7858.81
237.747	7889.11
237.819	7883.43
237.891	7884.49
237.963	7876.7
238.035	7875.12
238.107	7794.09
238.178	7845.68
238.25	7850.78
238.322	7921.6
238.394	7887.31
238.466	7879.71
238.538	7911.58
238.609	7942.98
238.681	7906.85
238.753	7883.71
238.825	7905.03
238.897	7934.21
238.968	7992.49
239.04	7974.88
239.112	8059.72
239.184	8036.77
239.255	8036.34
239.327	8060.04
239.399	8076.49
239.471	8112.7
239.542	8138.19
239.614	8181.38
239.686	8117.05
239.758	8160.53
239.829	8137.04
239.901	8180.43
239.973	8195.58
240.044	8222.56
240.116	8229.11
240.188	8235.41
240.259	8247.43
240.331	8236.12
240.403	8255.6
240.474	8220.22
240.546	8211.47
240.618	8166.48
240.689	8166.2
240.761	8185.25
240.833	8232.07
240.904	8235.19
240.976	8229.81
241.048	8242.99
241.119	8273.74
241.191	8313.62
241.262	8363.93
241.334	8371
241.405	8370.57
241.477	8373.46
241.549	8379.28
241.62	8405.31
241.692	8443.12
241.763	8486.83
241.835	8502.28
241.906	8517.86
241.978	8490.97
242.049	8542.55
242.121	8589.56
242.192	8637.44
242.264	8612.61
242.335	8577.82
242.407	8608.72
242.478	8618.53
242.55	8631.24
242.621	8616.07
242.693	8610.97
242.764	8603.46
242.836	8598.36
242.907	8629.02
242.979	8652.84
243.05	8675.27
243.122	8688.89
243.193	8685.95
243.264	8634.65
243.336	8632.39
243.407	8660.74
243.479	8726.91
243.55	8744.29
243.622	8752.28
243.693	8745.25
243.764	8797.71
243.836	8782.12
243.907	8772.26
243.978	8778.61
244.05	8799.31
244.121	8765.72
244.192	8799.85
244.264	8765.62
244.335	8779.58
244.407	8742.9
244.478	8755.37
244.549	8744.16
244.62	8716.19
244.692	8718.84
244.763	8752.77
244.834	8750.55
244.906	8731.78
244.977	8743.05
245.048	8784.03
245.119	8772.67
245.191	8763.14
245.262	8718.81
245.333	8775.45
245.405	8791.43
245.476	8819.68
245.547	8834.75
245.618	8882.82
245.689	8884.84
245.761	8904.87
245.832	8907.32
245.903	8942.6
245.974	8964.85
246.045	8976.3
246.117	9045.05
246.188	9036.43
246.259	9033.45
246.33	9046.98
246.401	9059.01
246.473	9033.11
246.544	9024.68
246.615	9061.94
246.686	9068.58
246.757	9126.15
246.828	9111.86
246.899	9166.71
246.97	9136.77
247.042	9130.27
247.113	9160.08
247.184	9225.73
247.255	9228.09
247.326	9251.01
247.397	9255.63
247.468	9262.13
247.539	9272.1
247.61	9231.74
247.681	9265.92
247.752	9293.79
247.823	9278.58
247.894	9285.85
247.965	9268.67
248.037	9249.79
248.108	9217.05
248.179	9225.62
248.25	9215.46
248.321	9239.53
248.392	9204.42
248.463	9266.81
248.534	9259.34
248.605	9275.05
248.675	9256.83
248.746	9267.81
248.817	9280.24
248.888	9294.2
248.959	9255.11
249.03	9281.01
249.101	9286.21
249.172	9269.89
249.243	9224.45
249.314	9272.31
249.385	9287.29
249.456	9306.35
249.527	9305.14
249.598	9322.52
249.669	9314.63
249.739	9324.69
249.81	9331.72
249.881	9296.39
249.952	9289.16
250.023	9288.58
250.094	9253.09
250.165	9233.2
250.235	9229.05
250.306	9227.03
250.377	9201.95
250.448	9222.98
250.519	9169.93
250.59	9211.92
250.66	9213.41
250.731	9259.48
250.802	9257.89
250.873	9267.57
250.944	9284.42
251.014	9280.62
251.085	9347.47
251.156	9374.58
251.227	9412.05
251.297	9449.19
251.368	9494.01
251.439	9525.46
251.51	9567.07
251.58	9553.5
251.651	9546.99
251.722	9595.83
251.792	9567.85
251.863	9569.54
251.934	9616.06
252.005	9703.8
252.075	9709.53
252.146	9747.81
252.217	9785.53
252.287	9821.94
252.358	9825.12
252.429	9887.45
252.499	9876.19
252.57	9884.76
252.641	9912.99
252.711	9918.58
252.782	9884.67
252.852	9940.21
252.923	9942.24
252.994	9962.04
253.064	10004.8
253.135	9991.79
253.205	9973.44
253.276	10023.67
253.347	10078.19
253.417	10056.46
253.488	10041.82
253.558	10036.71
253.629	10038.83
253.699	10055.98
253.77	10070
253.841	10065.86
253.911	10072.27
253.982	10090.57
254.052	10114.23
254.123	10122.23
254.193	10129.11
254.264	10238.34
254.334	10212.56
254.405	10185.93
254.475	10152.16
254.546	10154.04
254.616	10209.19
254.687	10226.72
254.757	10245.32
254.827	10243.25
254.898	10274.03
254.968	10279.76
255.039	10269.26
255.109	10300.04
255.18	10273.79
255.25	10222.48
255.321	10249.12
255.391	10216.94
255.461	10281.44
255.532	10215.77
255.602	10215.38
255.673	10172.12
255.743	10151.06
255.813	10097.75
255.884	10136
255.954	10168.95
256.024	10217.99
256.095	10223.92
256.165	10202.39
256.235	10217.42
256.306	10206.97
256.376	10229.71
256.446	10257.22
256.517	10282.13
256.587	10313.49
256.657	10331.8
256.728	10351.74
256.798	10355.35
256.868	10357.42
256.938	10337.38
257.009	10379.92
257.079	10402.61
257.149	10480.95
257.219	10427.47
257.29	10465.61
257.36	10422.35
257.43	10447.46
257.5	10406.36
257.571	10387.28
257.641	10409.2
257.711	10389.63
257.781	10415.12
257.852	10431.74
257.922	10392.81
257.992	10397.05
258.062	10383.46
258.132	10416.61
258.202	10417.58
258.273	10439.16
258.343	10494.38
258.413	10485.37
258.483	10484.17
258.553	10457.96
258.623	10445.19
258.693	10471.26
258.764	10517.84
258.834	10578.74
258.904	10594.16
258.974	10582.26
259.044	10592.19
259.114	10622.83
259.184	10645.04
259.254	10653.19
259.324	10613.92
259.394	10647.3
259.464	10706.29
259.535	10722.77
259.605	10714.77
259.675	10712.98
259.745	10735.87
259.815	10713.32
259.885	10714.24
259.955	10804.37
260.025	10804.51
260.095	10801.62
260.165	10828.08
260.235	10871.89
260.305	10857.53
260.375	10838.06
260.445	10910.28
260.515	10960.35
260.585	10992.01
260.655	11002.57
260.725	11039.53
260.795	11067.91
260.865	11119.28
260.934	11096
261.004	11118.17
261.074	11123.72
261.144	11174.74
261.214	11197.78
261.284	11200.77
261.354	11234.78
261.424	11198.97
261.494	11252.45
261.564	11263.54
261.634	11279.15
261.703	11227.39
261.773	11253.75
261.843	11283.05
261.913	11271.58
261.983	11232.02
262.053	11249.46
262.123	11239.1
262.192	11204.55
262.262	11233.76
262.332	11193.42
262.402	11219.92
262.472	11228.21
262.541	11189.57
262.611	11226.78
262.681	11205.86
262.751	11232.75
262.821	11235.6
262.89	11210.58
262.96	11230.34
263.03	11285.39
263.1	11308.33
263.169	11333.82
263.239	11350.11
263.309	11396.91
263.379	11427.32
263.448	11445.15
263.518	11470.85
263.588	11487.66
263.657	11549.11
263.727	11578.42
263.797	11599.14
263.867	11603.43
263.936	11573.02
264.006	11612.72
264.076	11601.06
264.145	11606.69
264.215	11601.92
