Data from 20250626_urea_1M_exp2_MAYP1162681_19-14-00-053.txt Node
Date: Thu Jun 26 19:14:00 BST 2025
User: adleo
Spectrometer: MAYP116268
Trigger mode: 0
Integration Time (sec): 3.000000E0
Scans to average: 1
Electric dark correction enabled: true
Nonlinearity correction enabled: true
Boxcar width: 10
XAxis mode: Wavelengths
Number of Pixels in Spectrum: 2068
>>>>>Begin Spectral Data<<<<<
179.565	3081.2
179.642	3245.3
179.718	3364.82
179.795	3483.78
179.871	3578.17
179.948	3636.57
180.024	3698.33
180.101	3757.36
180.177	3796.52
180.254	3857.91
180.33	3920.97
180.407	4136.02
180.483	4378.59
180.56	4627.12
180.636	4845.56
180.712	4812.12
180.789	4839.84
180.865	4873.34
180.942	4896.7
181.018	4929.6
181.095	4972.92
181.171	4988.58
181.248	4995.48
181.324	5041.62
181.4	5053.17
181.477	5082.58
181.553	5112.36
181.63	5169.34
181.706	5212.84
181.782	5236.49
181.859	5239.55
181.935	5257.28
182.011	5248.71
182.088	5291.74
182.164	5338.21
182.24	5379.74
182.317	5405.31
182.393	5400.24
182.469	5435.6
182.546	5470.64
182.622	5473.7
182.698	5464.55
182.775	5501.5
182.851	5533.33
182.927	5510.27
183.003	5502.51
183.08	5485.64
183.156	5516.27
183.232	5508.26
183.308	5482.33
183.385	5506.44
183.461	5551.93
183.537	5551.31
183.613	5588.03
183.69	5563.39
183.766	5534.9
183.842	5555.95
183.918	5570.66
183.995	5604.84
184.071	5610.55
184.147	5597.99
184.223	5571.3
184.299	5596.58
184.375	5561.87
184.452	5580.83
184.528	5690.52
184.604	5720.95
184.68	5755.47
184.756	5769.43
184.832	5782.43
184.908	5797.09
184.985	5796.04
185.061	5752.12
185.137	5779.51
185.213	5745.99
185.289	5751.98
185.365	5728.55
185.441	5720.2
185.517	5757.34
185.593	5745.35
185.669	5742.66
185.745	5768.9
185.822	5815.43
185.898	5796.62
185.974	5828.31
186.05	5804.99
186.126	5735.58
186.202	5714.82
186.278	5700.96
186.354	5679
186.43	5692.38
186.506	5684.05
186.582	5681.84
186.658	5705.04
186.734	5649.38
186.81	5654.75
186.886	5661.7
186.962	5699.76
187.038	5690.8
187.114	5671.79
187.19	5694.57
187.266	5669.84
187.341	5671.52
187.417	5650.23
187.493	5647.26
187.569	5652.48
187.645	5634.17
187.721	5605.15
187.797	5635.12
187.873	5648.45
187.949	5632.25
188.025	5614.88
188.101	5628.49
188.176	5638.46
188.252	5621.98
188.328	5642.62
188.404	5641.47
188.48	5629.3
188.556	5603.89
188.632	5606.28
188.707	5607.19
188.783	5602.01
188.859	5587.69
188.935	5559.39
189.011	5578.43
189.086	5564.86
189.162	5542.85
189.238	5538.78
189.314	5533.6
189.39	5511.78
189.465	5489.3
189.541	5531.35
189.617	5489.08
189.693	5471.63
189.768	5484.39
189.844	5551.31
189.92	5527.07
189.996	5548.98
190.071	5576.21
190.147	5581.63
190.223	5605.32
190.298	5582.92
190.374	5544.76
190.45	5578.26
190.526	5598.25
190.601	5587.56
190.677	5589.14
190.753	5671.12
190.828	5682.48
190.904	5718.4
190.98	5758.17
191.055	5789.15
191.131	5767.94
191.207	5824.81
191.282	5850.59
191.358	5823.65
191.433	5788.18
191.509	5826.32
191.585	5824.64
191.66	5828
191.736	5848.81
191.811	5822.77
191.887	5865.33
191.963	5929.84
192.038	5943.36
192.114	5945.81
192.189	5961.58
192.265	5952.81
192.34	5880.23
192.416	5877.6
192.491	5872.56
192.567	5880.48
192.642	5888.3
192.718	5888.54
192.793	5853.05
192.869	5842.83
192.944	5851.08
193.02	5870.37
193.095	5877.8
193.171	5895.26
193.246	5897.28
193.322	5888.65
193.397	5887.83
193.473	5853.86
193.548	5807.89
193.624	5826.46
193.699	5823.63
193.775	5861.93
193.85	5869.5
193.925	5904.77
194.001	5899.83
194.076	5876.43
194.152	5842.02
194.227	5822.59
194.302	5794.45
194.378	5806.49
194.453	5798.44
194.529	5832.2
194.604	5791.38
194.679	5782.32
194.755	5726.37
194.83	5755.22
194.905	5750.19
194.981	5777.96
195.056	5756
195.131	5774.13
195.207	5762.85
195.282	5734.8
195.357	5683.12
195.433	5721.77
195.508	5681.38
195.583	5708.04
195.659	5747.86
195.734	5763.16
195.809	5758.94
195.884	5786.36
195.96	5788.18
196.035	5829.95
196.11	5822.56
196.185	5853.74
196.261	5853.88
196.336	5939.74
196.411	5897.41
196.486	5911.17
196.561	5891.12
196.637	5917.73
196.712	5952.87
196.787	5963.86
196.862	6010.52
196.937	6033.35
197.013	6047.85
197.088	6075.28
197.163	6131.55
197.238	6179.06
197.313	6187.99
197.388	6228.68
197.464	6309.92
197.539	6342.7
197.614	6323.55
197.689	6354.42
197.764	6400.42
197.839	6459.79
197.914	6442.99
197.989	6506.78
198.065	6544.99
198.14	6689.1
198.215	6757.96
198.29	6795.58
198.365	6834.92
198.44	6862.19
198.515	6937.41
198.59	6976.37
198.665	7049.72
198.74	7068.85
198.815	7067.5
198.89	7126.59
198.965	7206.14
199.04	7194.51
199.115	7234.86
199.19	7352.52
199.265	7358.72
199.34	7380.92
199.415	7472.49
199.49	7530.96
199.565	7558.36
199.64	7628.74
199.715	7615.55
199.79	7628.72
199.865	7642.47
199.94	7631.81
200.015	7719.76
200.09	7737.94
200.165	7761.11
200.24	7772.89
200.315	7877.51
200.39	7924.35
200.464	7936.13
200.539	7934.88
200.614	7975.51
200.689	8039.77
200.764	8055.31
200.839	8093.95
200.914	8105.35
200.989	8071.37
201.063	8113.22
201.138	8067.23
201.213	8059.25
201.288	8003.51
201.363	8020.78
201.438	8020.34
201.512	8068.85
201.587	8021.46
201.662	8032.81
201.737	8062.15
201.812	8090.78
201.886	8006.98
201.961	8032.1
202.036	7998.93
202.111	7992.77
202.186	7911.28
202.26	7862.88
202.335	7807.13
202.41	7799.97
202.485	7759.21
202.559	7709.21
202.634	7627.95
202.709	7650.43
202.784	7599.86
202.858	7602.74
202.933	7554.29
203.008	7533.9
203.082	7476.37
203.157	7474.54
203.232	7356.12
203.306	7294.33
203.381	7206.4
203.456	7139.21
203.53	7074.36
203.605	7026.97
203.68	6964.72
203.754	6950.42
203.829	6909.47
203.904	6850.92
203.978	6818.19
204.053	6831.22
204.127	6800.09
204.202	6791.35
204.277	6741.55
204.351	6722.34
204.426	6700.77
204.5	6680.79
204.575	6586.95
204.65	6614.15
204.724	6587.32
204.799	6616.21
204.873	6606.89
204.948	6598.15
205.022	6565.28
205.097	6537.98
205.171	6574.99
205.246	6597.05
205.32	6597.67
205.395	6596.33
205.469	6572.58
205.544	6588.24
205.618	6534.26
205.693	6559.86
205.767	6532.84
205.842	6591.38
205.916	6576.93
205.991	6551.38
206.065	6562.96
206.14	6603.91
206.214	6590.27
206.289	6567.54
206.363	6594.82
206.438	6605.34
206.512	6629.31
206.586	6683.56
206.661	6713.35
206.735	6652.74
206.81	6651.83
206.884	6694.32
206.958	6657.4
207.033	6700.55
207.107	6719.48
207.181	6813.42
207.256	6800.69
207.33	6853.46
207.405	6889.96
207.479	6940.3
207.553	6957.87
207.628	6910.69
207.702	6949.63
207.776	6933.11
207.851	6946.9
207.925	6987.61
207.999	6980.93
208.073	6970.51
208.148	6978.58
208.222	6939.03
208.296	7022.47
208.371	7068.63
208.445	7095.06
208.519	7178.11
208.593	7217.36
208.668	7205.87
208.742	7208.18
208.816	7213.46
208.89	7248.8
208.965	7242.93
209.039	7263.7
209.113	7312.58
209.187	7374.79
209.261	7361.01
209.336	7415.94
209.41	7466.94
209.484	7472.47
209.558	7530.5
209.632	7566.83
209.707	7598.27
209.781	7660.04
209.855	7708.03
209.929	7755.77
210.003	7772.75
210.077	7765.49
210.151	7893.42
210.226	7987.81
210.3	8059.92
210.374	8120.67
210.448	8132.56
210.522	8164.31
210.596	8193.22
210.67	8221.12
210.744	8347.61
210.818	8434.64
210.892	8491.22
210.966	8478.24
211.041	8514.32
211.115	8503.26
211.189	8576.2
211.263	8622.1
211.337	8639.37
211.411	8672.92
211.485	8654.19
211.559	8688.68
211.633	8700.46
211.707	8616.59
211.781	8638.31
211.855	8542.88
211.929	8528.21
212.003	8478.01
212.077	8498.37
212.151	8530.28
212.225	8556.08
212.299	8524.39
212.373	8497.5
212.447	8482.91
212.52	8558.32
212.594	8565.92
212.668	8598.01
212.742	8552.92
212.816	8531.36
212.89	8514.86
212.964	8511.15
213.038	8521.36
213.112	8550.58
213.186	8588.58
213.26	8522.81
213.333	8387.71
213.407	8401.51
213.481	8404.16
213.555	8431.84
213.629	8399.6
213.703	8345.41
213.777	8334.49
213.85	8273.66
213.924	8357.13
213.998	8354.48
214.072	8329.45
214.146	8283.21
214.219	8273.68
214.293	8258.77
214.367	8257.95
214.441	8279.99
214.515	8242.16
214.588	8166.44
214.662	8064.37
214.736	7996.17
214.81	8008.86
214.883	8030.72
214.957	7996.06
215.031	7949.44
215.105	7878
215.178	7822.65
215.252	7801.06
215.326	7722.29
215.4	7662.08
215.473	7517
215.547	7449.33
215.621	7404
215.694	7403.81
215.768	7321.84
215.842	7270.32
215.915	7219.35
215.989	7125.03
216.063	7077.43
216.136	7064.4
216.21	7045.96
216.284	7058.02
216.357	7046.34
216.431	7011.99
216.504	7004.3
216.578	7047.99
216.652	7057.59
216.725	7045.77
216.799	7045.53
216.873	7024.88
216.946	7030.74
217.02	7001.07
217.093	6979.5
217.167	6898.4
217.24	6834.63
217.314	6804.29
217.387	6768.39
217.461	6729.34
217.535	6751.48
217.608	6701.83
217.682	6683.57
217.755	6690.63
217.829	6647.73
217.902	6630.63
217.976	6611.04
218.049	6574.88
218.123	6517.07
218.196	6515.34
218.27	6482.83
218.343	6429.08
218.417	6430.76
218.49	6412.61
218.563	6447.18
218.637	6449.1
218.71	6505.86
218.784	6526.08
218.857	6553.78
218.931	6572.69
219.004	6576.67
219.077	6594.21
219.151	6609.81
219.224	6603.71
219.298	6601.31
219.371	6634.41
219.444	6602.25
219.518	6616.51
219.591	6625.82
219.665	6707.82
219.738	6718.48
219.811	6701.92
219.885	6741.45
219.958	6769.02
220.031	6772.77
220.105	6788.77
220.178	6797.22
220.251	6777.23
220.325	6797.08
220.398	6810.19
220.471	6824.36
220.544	6855.67
220.618	6830.59
220.691	6854.41
220.764	6863.73
220.838	6886.41
220.911	6877.76
220.984	6947.25
221.057	6974.53
221.131	6997.92
221.204	6915.34
221.277	6979.36
221.35	7083.19
221.424	7077.28
221.497	7086.65
221.57	7101.68
221.643	7126.82
221.716	7159.31
221.79	7167.81
221.863	7173.43
221.936	7177.66
222.009	7188.33
222.082	7210
222.155	7223.79
222.229	7280.19
222.302	7302.29
222.375	7312.77
222.448	7342.66
222.521	7346.61
222.594	7348.53
222.667	7330.32
222.74	7382.02
222.814	7371.4
222.887	7358.31
222.96	7398.84
223.033	7431.73
223.106	7454.59
223.179	7482.63
223.252	7487.49
223.325	7511.72
223.398	7526.96
223.471	7555.46
223.544	7572.76
223.617	7585.6
223.69	7599.73
223.763	7566.26
223.837	7587.07
223.91	7605.82
223.983	7569.54
224.056	7541.71
224.129	7557.67
224.202	7597.98
224.275	7586.39
224.348	7561.25
224.42	7535.05
224.493	7491.02
224.566	7474.18
224.639	7491.97
224.712	7468.88
224.785	7467.15
224.858	7453.78
224.931	7435.95
225.004	7401.87
225.077	7404.61
225.15	7325.52
225.223	7325.09
225.296	7389.46
225.369	7342.4
225.442	7309.91
225.514	7324.27
225.587	7339.27
225.66	7351.67
225.733	7353.88
225.806	7361.48
225.879	7355.71
225.952	7330.82
226.025	7371.3
226.097	7410.88
226.17	7402.62
226.243	7345.62
226.316	7335.48
226.389	7340.86
226.461	7366.44
226.534	7386
226.607	7377.88
226.68	7446.43
226.753	7445.66
226.825	7379.91
226.898	7423.06
226.971	7431.81
227.044	7446.61
227.117	7456.76
227.189	7469.45
227.262	7496
227.335	7509.99
227.407	7505.66
227.48	7534.4
227.553	7537.81
227.626	7519.53
227.698	7525.49
227.771	7558.64
227.844	7545.13
227.916	7564.07
227.989	7530.71
228.062	7530.37
228.134	7602.27
228.207	7609.58
228.28	7600.11
228.352	7609.67
228.425	7619.53
228.498	7651.94
228.57	7636.66
228.643	7683.69
228.716	7680.52
228.788	7672.25
228.861	7666.33
228.934	7720.99
229.006	7720.27
229.079	7729.17
229.151	7721.43
229.224	7695.62
229.296	7713.79
229.369	7799.66
229.442	7836.56
229.514	7823.73
229.587	7858.44
229.659	7799.95
229.732	7804.81
229.804	7834.71
229.877	7897.31
229.949	7922.37
230.022	7975.4
230.094	7975.31
230.167	7960.15
230.239	7928.47
230.312	7915.53
230.384	7974.76
230.457	7971.34
230.529	7986.63
230.602	7980.76
230.674	7985.24
230.747	8019.84
230.819	8044.47
230.892	7949.28
230.964	7944.85
231.037	7963.73
231.109	7952.29
231.181	7984.22
231.254	7957.58
231.326	7949.07
231.399	7937.08
231.471	7916.4
231.544	7846.68
231.616	7886.1
231.688	7893.66
231.761	7884.43
231.833	7880.25
231.905	7810.3
231.978	7806.02
232.05	7790.15
232.122	7795.11
232.195	7781.93
232.267	7813.05
232.339	7796.07
232.412	7846.79
232.484	7825.33
232.556	7800.73
232.629	7866.22
232.701	7877.19
232.773	7882.38
232.846	7875.36
232.918	7874.93
232.99	7885.75
233.062	7918.03
233.135	7922.88
233.207	7897.1
233.279	7929.26
233.351	7955.66
233.424	7964.94
233.496	7947.92
233.568	8014.63
233.64	7984.87
233.713	7995.98
233.785	7990.54
233.857	8006.7
233.929	7969.05
234.001	8029.89
234.074	8092.91
234.146	8024.97
234.218	8020.25
234.29	8026.79
234.362	8017.18
234.434	7975.85
234.507	7950.22
234.579	7910.25
234.651	7895.87
234.723	7918.67
234.795	7931.22
234.867	7925.88
234.939	7964.41
235.012	7977.3
235.084	7985.19
235.156	8013.04
235.228	7995.77
235.3	7975.62
235.372	7979.18
235.444	8026.16
235.516	7955.61
235.588	7953.74
235.66	7975.24
235.732	7955.56
235.804	8111.46
235.876	8151.32
235.948	8200.92
236.02	8206.41
236.092	8222.8
236.164	8233.38
236.236	8229.87
236.308	8234.06
236.38	8253.59
236.452	8245.02
236.524	8268.11
236.596	8313.86
236.668	8345.18
236.74	8368.17
236.812	8397.32
236.884	8432.07
236.956	8439.38
237.028	8437.6
237.1	8430.63
237.172	8482.32
237.244	8548.34
237.316	8453.6
237.388	8437.53
237.46	8422.8
237.532	8474.19
237.604	8463.61
237.675	8527.82
237.747	8565.64
237.819	8553.9
237.891	8565.21
237.963	8559.68
238.035	8555.06
238.107	8469.13
238.178	8516.8
238.25	8525.02
238.322	8600.37
238.394	8566.3
238.466	8562.21
238.538	8596.08
238.609	8625.04
238.681	8580.52
238.753	8560.59
238.825	8570.46
238.897	8598.02
238.968	8668.03
239.04	8652.34
239.112	8739.68
239.184	8705.07
239.255	8706.75
239.327	8735.13
239.399	8747.65
239.471	8784.08
239.542	8809.63
239.614	8860.21
239.686	8798.4
239.758	8835.89
239.829	8808.63
239.901	8859.89
239.973	8880.06
240.044	8907.16
240.116	8921.16
240.188	8936.18
240.259	8943.2
240.331	8942.1
240.403	8972.18
240.474	8923.11
240.546	8920.75
240.618	8873.24
240.689	8875.02
240.761	8889.99
240.833	8943.52
240.904	8941.98
240.976	8938.95
241.048	8952.48
241.119	8984.07
241.191	9021.47
241.262	9076.8
241.334	9076.61
241.405	9075.46
241.477	9074.97
241.549	9081.19
241.62	9103.09
241.692	9140.4
241.763	9192.94
241.835	9217.88
241.906	9225.25
241.978	9205.61
242.049	9263.48
242.121	9319.13
242.192	9369.97
242.264	9344.27
242.335	9309.07
242.407	9349.18
242.478	9353.7
242.55	9371.47
242.621	9362.37
242.693	9359.19
242.764	9359.91
242.836	9364.92
242.907	9391.94
242.979	9421.31
243.05	9444.85
243.122	9463.78
243.193	9464.84
243.264	9405.71
243.336	9402.82
243.407	9442.5
243.479	9507.36
243.55	9517.33
243.622	9533.56
243.693	9525.47
243.764	9581.76
243.836	9559.96
243.907	9551.14
243.978	9559.18
244.05	9581.29
244.121	9539.93
244.192	9576.29
244.264	9529.14
244.335	9537.03
244.407	9494.9
244.478	9509.25
244.549	9499.57
244.62	9458.21
244.692	9455.7
244.763	9495.18
244.834	9484.45
244.906	9462.39
244.977	9486.96
245.048	9535.04
245.119	9516.16
245.191	9507.59
245.262	9452.55
245.333	9515.81
245.405	9527.36
245.476	9554.14
245.547	9564.69
245.618	9610.77
245.689	9615.92
245.761	9645.35
245.832	9646.69
245.903	9688.93
245.974	9709.98
246.045	9723.41
246.117	9801.24
246.188	9781.02
246.259	9769.46
246.33	9788.97
246.401	9799.32
246.473	9771.77
246.544	9759.53
246.615	9804.71
246.686	9811.74
246.757	9882.44
246.828	9863.66
246.899	9922
246.97	9891.37
247.042	9884.82
247.113	9921.34
247.184	9997.86
247.255	9994.34
247.326	10023.19
247.397	10026.95
247.468	10039.67
247.539	10046.94
247.61	10008.31
247.681	10051.55
247.752	10090.27
247.823	10068.07
247.894	10078.82
247.965	10053.82
248.037	10036.23
248.108	9994.81
248.179	10001.02
248.25	9988.45
248.321	10019.46
248.392	9982.99
248.463	10056.83
248.534	10053.12
248.605	10068.78
248.675	10045.84
248.746	10064.67
248.817	10075.61
248.888	10097.09
248.959	10047.19
249.03	10067.04
249.101	10072.19
249.172	10057.02
249.243	10006.4
249.314	10062.86
249.385	10076.59
249.456	10099.89
249.527	10099.99
249.598	10119.16
249.669	10110.44
249.739	10124.7
249.81	10132.22
249.881	10099.9
249.952	10088.24
250.023	10089.25
250.094	10047.05
250.165	10023.87
250.235	10021.51
250.306	10035.87
250.377	10006.48
250.448	10031.14
250.519	9984.03
250.59	10031.54
250.66	10036.02
250.731	10086.01
250.802	10086.2
250.873	10097.47
250.944	10116.07
251.014	10112.26
251.085	10184.44
251.156	10211.61
251.227	10251.8
251.297	10301.71
251.368	10346.9
251.439	10382.02
251.51	10426.11
251.58	10415.51
251.651	10413.05
251.722	10455.17
251.792	10409.64
251.863	10406.31
251.934	10452.52
252.005	10546.7
252.075	10556.44
252.146	10594.2
252.217	10637.62
252.287	10663.98
252.358	10668.99
252.429	10733.9
252.499	10722.19
252.57	10725.47
252.641	10762.9
252.711	10760.64
252.782	10718.33
252.852	10775.39
252.923	10774.42
252.994	10787.77
253.064	10832.67
253.135	10814.41
253.205	10795.67
253.276	10851.12
253.347	10913.75
253.417	10894.62
253.488	10880.36
253.558	10867.83
253.629	10868.55
253.699	10883.3
253.77	10913.28
253.841	10906
253.911	10917.38
253.982	10933.52
254.052	10956.07
254.123	10968.79
254.193	10969.71
254.264	11088.99
254.334	11063.93
254.405	11029.62
254.475	11001.87
254.546	11005.29
254.616	11057.86
254.687	11084.27
254.757	11098.29
254.827	11097.91
254.898	11127.59
254.968	11133.47
255.039	11121.71
255.109	11150.09
255.18	11122.77
255.25	11061.95
255.321	11093.37
255.391	11056.55
255.461	11127.97
255.532	11065.31
255.602	11053.84
255.673	11014.57
255.743	10982.81
255.813	10918.2
255.884	10964.36
255.954	10993.71
256.024	11046.05
256.095	11044.21
256.165	11016.17
256.235	11043.74
256.306	11034.63
256.376	11070.2
256.446	11104.37
256.517	11126.2
256.587	11170.68
256.657	11193.09
256.728	11211.98
256.798	11210.92
256.868	11205.28
256.938	11180.08
257.009	11221.09
257.079	11248.32
257.149	11336.36
257.219	11283.83
257.29	11323.14
257.36	11281.79
257.43	11317.07
257.5	11266.47
257.571	11263.29
257.641	11296.64
257.711	11261.65
257.781	11280.15
257.852	11282.75
257.922	11225.79
257.992	11225.6
258.062	11214.65
258.132	11252.2
258.202	11266.46
258.273	11285.65
258.343	11350.42
258.413	11341.99
258.483	11343.05
258.553	11319.72
258.623	11294.66
258.693	11316.2
258.764	11370.32
258.834	11429.31
258.904	11434.08
258.974	11422.03
259.044	11428.06
259.114	11446.95
259.184	11471.96
259.254	11482.81
259.324	11445.6
259.394	11488.01
259.464	11554.47
259.535	11557.13
259.605	11540.69
259.675	11526.91
259.745	11555.25
259.815	11530.38
259.885	11527.87
259.955	11626.79
260.025	11621.92
260.095	11630.45
260.165	11659.32
260.235	11705.69
260.305	11690.9
260.375	11667.33
260.445	11744.97
260.515	11800.64
260.585	11835.34
260.655	11851.15
260.725	11890.29
260.795	11925.52
260.865	11980.91
260.934	11957.48
261.004	11985.44
261.074	11993.73
261.144	12051.08
261.214	12084.87
261.284	12085.5
261.354	12123.14
261.424	12077.49
261.494	12138.65
261.564	12146.65
261.634	12161.11
261.703	12112.28
261.773	12131.71
261.843	12166.6
261.913	12158.6
261.983	12116.86
262.053	12138.12
262.123	12133.01
262.192	12093
262.262	12126.84
262.332	12088.81
262.402	12113.15
262.472	12122.12
262.541	12072.62
262.611	12104.87
262.681	12078.4
262.751	12108.67
262.821	12108.34
262.89	12078.93
262.96	12099.76
263.03	12163.82
263.1	12189.85
263.169	12208.79
263.239	12232.89
263.309	12287.51
263.379	12312.05
263.448	12328
263.518	12343.81
263.588	12353.55
263.657	12417.27
263.727	12443.21
263.797	12455.84
263.867	12462.87
263.936	12429.23
