Data from 20250626_urea_1M_exp2_MAYP1162681_22-13-59-157.txt Node
Date: Thu Jun 26 22:13:59 BST 2025
User: adleo
Spectrometer: MAYP116268
Trigger mode: 0
Integration Time (sec): 3.000000E0
Scans to average: 1
Electric dark correction enabled: true
Nonlinearity correction enabled: true
Boxcar width: 10
XAxis mode: Wavelengths
Number of Pixels in Spectrum: 2068
>>>>>Begin Spectral Data<<<<<
179.565	2923.97
179.642	3074.45
179.718	3183.76
179.795	3292.96
179.871	3378.22
179.948	3435.37
180.024	3487.09
180.101	3549.76
180.177	3584.47
180.254	3643.74
180.33	3700.24
180.407	3900.1
180.483	4128.01
180.56	4357.44
180.636	4569.65
180.712	4538.15
180.789	4560.74
180.865	4591.35
180.942	4614.84
181.018	4639.87
181.095	4680.57
181.171	4690.96
181.248	4690.81
181.324	4736.55
181.4	4748.85
181.477	4780.22
181.553	4810.22
181.63	4865.53
181.706	4902.35
181.782	4929.24
181.859	4931.44
181.935	4947.44
182.011	4942.08
182.088	4980.39
182.164	5028.32
182.24	5062.11
182.317	5085.91
182.393	5076.96
182.469	5112.74
182.546	5148.13
182.622	5160.73
182.698	5151.1
182.775	5188.99
182.851	5227.6
182.927	5207.24
183.003	5197.62
183.08	5181.43
183.156	5203.42
183.232	5198.53
183.308	5172.18
183.385	5188.37
183.461	5237.01
183.537	5238.68
183.613	5274.96
183.69	5254.55
183.766	5227.7
183.842	5249.03
183.918	5266.71
183.995	5304.07
184.071	5311.36
184.147	5297.8
184.223	5269.74
184.299	5295.91
184.375	5261.8
184.452	5275.47
184.528	5381.37
184.604	5411.69
184.68	5443.36
184.756	5458.41
184.832	5465.31
184.908	5480.64
184.985	5479.49
185.061	5433.91
185.137	5461.57
185.213	5422.33
185.289	5426.92
185.365	5407.72
185.441	5397.84
185.517	5428.15
185.593	5422.11
185.669	5414.73
185.745	5439.51
185.822	5480.46
185.898	5456.73
185.974	5478.86
186.05	5457.67
186.126	5391.07
186.202	5376.26
186.278	5366.1
186.354	5344.05
186.43	5361.22
186.506	5350.97
186.582	5351.59
186.658	5365.24
186.734	5309.33
186.81	5317.19
186.886	5328.35
186.962	5364.58
187.038	5357.05
187.114	5335.52
187.19	5347.4
187.266	5324.89
187.341	5327.67
187.417	5311.38
187.493	5315.31
187.569	5327.34
187.645	5315.55
187.721	5288.56
187.797	5305.33
187.873	5316.21
187.949	5297.58
188.025	5281.47
188.101	5289.94
188.176	5302.35
188.252	5293.49
188.328	5318.1
188.404	5316.9
188.48	5301.43
188.556	5277.03
188.632	5277.99
188.707	5279.29
188.783	5278.95
188.859	5262.91
188.935	5232.67
189.011	5253.08
189.086	5234.69
189.162	5210.01
189.238	5205.51
189.314	5197.84
189.39	5182.08
189.465	5164.58
189.541	5212.03
189.617	5176.39
189.693	5164.51
189.768	5178.36
189.844	5236.71
189.92	5214.44
189.996	5237.54
190.071	5264.52
190.147	5261.79
190.223	5283.69
190.298	5265.48
190.374	5226.57
190.45	5262.83
190.526	5281.08
190.601	5265.6
190.677	5269.24
190.753	5344.64
190.828	5350.49
190.904	5388.88
190.98	5429.73
191.055	5456.57
191.131	5434.85
191.207	5482.24
191.282	5509.07
191.358	5482.76
191.433	5451.49
191.509	5480.98
191.585	5473.08
191.66	5481.37
191.736	5502.74
191.811	5478.35
191.887	5520.4
191.963	5584.87
192.038	5593.17
192.114	5599.16
192.189	5610.04
192.265	5603.62
192.34	5546.19
192.416	5544.66
192.491	5530.41
192.567	5532.96
192.642	5539.14
192.718	5539.1
192.793	5512.64
192.869	5499.94
192.944	5503.53
193.02	5524.63
193.095	5537.38
193.171	5557.23
193.246	5550.32
193.322	5545.96
193.397	5546.54
193.473	5508.07
193.548	5462.71
193.624	5485.49
193.699	5481.61
193.775	5522.96
193.85	5530.71
193.925	5549.84
194.001	5548.07
194.076	5530.77
194.152	5505.25
194.227	5484.11
194.302	5461.45
194.378	5469.07
194.453	5461.93
194.529	5496.93
194.604	5457.47
194.679	5447.31
194.755	5395.13
194.83	5429
194.905	5425.55
194.981	5451.25
195.056	5436.63
195.131	5452.26
195.207	5437.91
195.282	5413.48
195.357	5362.12
195.433	5400.6
195.508	5370.59
195.583	5398.73
195.659	5440.21
195.734	5456.99
195.809	5454.4
195.884	5474.57
195.96	5475.86
196.035	5516.17
196.11	5503.61
196.185	5534.33
196.261	5535.72
196.336	5615.1
196.411	5570.3
196.486	5580.99
196.561	5564.69
196.637	5587.45
196.712	5625.59
196.787	5635.62
196.862	5676.65
196.937	5700.37
197.013	5714.14
197.088	5741.94
197.163	5788.44
197.238	5829.12
197.313	5830.12
197.388	5869.02
197.464	5948.15
197.539	5982.06
197.614	5965.22
197.689	5995.54
197.764	6036.67
197.839	6094.29
197.914	6080.32
197.989	6141.01
198.065	6184.44
198.14	6310.11
198.215	6378.6
198.29	6410.06
198.365	6448.27
198.44	6477.83
198.515	6549.84
198.59	6589.26
198.665	6658.02
198.74	6682.9
198.815	6681.41
198.89	6740.08
198.965	6813.78
199.04	6799.03
199.115	6837.4
199.19	6948.04
199.265	6958.5
199.34	6981.7
199.415	7063.18
199.49	7119.56
199.565	7148.09
199.64	7203.98
199.715	7198.2
199.79	7210.17
199.865	7229.49
199.94	7220.51
200.015	7301.59
200.09	7320.05
200.165	7333.6
200.24	7349.46
200.315	7447.22
200.39	7489.09
200.464	7503.84
200.539	7509.08
200.614	7552.52
200.689	7612.38
200.764	7628.35
200.839	7669.13
200.914	7685.38
200.989	7657.67
201.063	7701.33
201.138	7657.39
201.213	7652.53
201.288	7604.65
201.363	7619.6
201.438	7615.47
201.512	7661.3
201.587	7613.89
201.662	7620.05
201.737	7656.83
201.812	7686.41
201.886	7598.31
201.961	7622.7
202.036	7587.2
202.111	7576.62
202.186	7500.34
202.26	7457.11
202.335	7403.22
202.41	7389.42
202.485	7341.91
202.559	7293.32
202.634	7213.4
202.709	7233.28
202.784	7185.61
202.858	7182.82
202.933	7131.37
203.008	7114.17
203.082	7062.47
203.157	7059.16
203.232	6950.21
203.306	6888.11
203.381	6796.65
203.456	6739.26
203.53	6679.2
203.605	6633.94
203.68	6576.77
203.754	6558.4
203.829	6517.81
203.904	6462.07
203.978	6429.12
204.053	6444.64
204.127	6409.16
204.202	6403.79
204.277	6361.65
204.351	6346.19
204.426	6324.15
204.5	6305.76
204.575	6216.96
204.65	6240.49
204.724	6219.35
204.799	6241.12
204.873	6233.05
204.948	6227.34
205.022	6199.28
205.097	6179.01
205.171	6220.09
205.246	6240.93
205.32	6242.8
205.395	6239.73
205.469	6219.01
205.544	6239.57
205.618	6190.37
205.693	6221.71
205.767	6193.11
205.842	6241.4
205.916	6224.8
205.991	6204.16
206.065	6218.27
206.14	6257.82
206.214	6241.45
206.289	6225.94
206.363	6251.9
206.438	6255.69
206.512	6276.96
206.586	6326.62
206.661	6346.61
206.735	6280.75
206.81	6279.11
206.884	6315.72
206.958	6282.23
207.033	6325.6
207.107	6337.32
207.181	6419.72
207.256	6408.3
207.33	6454.18
207.405	6491.57
207.479	6540.58
207.553	6562.04
207.628	6519.77
207.702	6551.93
207.776	6535.37
207.851	6544.97
207.925	6586.77
207.999	6580.43
208.073	6571.54
208.148	6579.61
208.222	6550.6
208.296	6635.34
208.371	6680.18
208.445	6708.85
208.519	6784.03
208.593	6814.09
208.668	6807.18
208.742	6815.59
208.816	6819.05
208.89	6858.98
208.965	6853.83
209.039	6879.11
209.113	6920.37
209.187	6976.22
209.261	6961.92
209.336	7013.36
209.41	7056.7
209.484	7059.58
209.558	7122.63
209.632	7157.78
209.707	7183.39
209.781	7238.41
209.855	7278.35
209.929	7326.37
210.003	7343.57
210.077	7337.86
210.151	7458.08
210.226	7549.98
210.3	7620.13
210.374	7679.23
210.448	7688.18
210.522	7716.69
210.596	7736.41
210.67	7762.18
210.744	7886.89
210.818	7971.61
210.892	8033.22
210.966	8026.68
211.041	8066.07
211.115	8052.37
211.189	8115.17
211.263	8160.09
211.337	8177.54
211.411	8214.68
211.485	8188.02
211.559	8223.56
211.633	8233.12
211.707	8158.96
211.781	8177.73
211.855	8084.64
211.929	8059.7
212.003	8014.47
212.077	8038.68
212.151	8070.28
212.225	8091.26
212.299	8057.51
212.373	8030.87
212.447	8013.11
212.52	8080.07
212.594	8089.07
212.668	8119.6
212.742	8081.17
212.816	8064.38
212.89	8047.55
212.964	8041.34
213.038	8054.86
213.112	8080.9
213.186	8117.87
213.26	8058.03
213.333	7930.5
213.407	7941.79
213.481	7952.13
213.555	7977.35
213.629	7944.78
213.703	7901.53
213.777	7899.08
213.85	7846.12
213.924	7930.95
213.998	7927.3
214.072	7911.95
214.146	7871.93
214.219	7861.2
214.293	7842.79
214.367	7843.12
214.441	7862.99
214.515	7822.87
214.588	7756.51
214.662	7659.58
214.736	7594.68
214.81	7606.69
214.883	7623.98
214.957	7586.65
215.031	7546.15
215.105	7477.05
215.178	7430.76
215.252	7402.06
215.326	7323.95
215.4	7260.99
215.473	7117.02
215.547	7051.83
215.621	7000.57
215.694	6993.84
215.768	6915.9
215.842	6872.76
215.915	6821.71
215.989	6737.81
216.063	6699.56
216.136	6679.28
216.21	6660.56
216.284	6674.68
216.357	6655.28
216.431	6628.44
216.504	6631.8
216.578	6671.29
216.652	6679.92
216.725	6661.38
216.799	6663.26
216.873	6646.89
216.946	6653.89
217.02	6626.11
217.093	6609.07
217.167	6530.09
217.24	6468.08
217.314	6442.6
217.387	6406.19
217.461	6371.52
217.535	6383.48
217.608	6336.2
217.682	6322.56
217.755	6336.15
217.829	6295.52
217.902	6282.13
217.976	6267.68
218.049	6230.05
218.123	6176.21
218.196	6180.34
218.27	6147.7
218.343	6095.22
218.417	6098.82
218.49	6080.59
218.563	6116.77
218.637	6121.86
218.71	6179.4
218.784	6202.3
218.857	6226.68
218.931	6242.84
219.004	6247.83
219.077	6262.76
219.151	6279.8
219.224	6270.53
219.298	6264.19
219.371	6293.34
219.444	6269.69
219.518	6273.19
219.591	6280.96
219.665	6360.91
219.738	6369.21
219.811	6357.03
219.885	6398.89
219.958	6423.72
220.031	6427.36
220.105	6438.45
220.178	6444.6
220.251	6425.2
220.325	6446.38
220.398	6459.82
220.471	6477.24
220.544	6511.77
220.618	6495.92
220.691	6516.42
220.764	6528.56
220.838	6552.91
220.911	6548.2
220.984	6611.96
221.057	6646.38
221.131	6669.85
221.204	6593.07
221.277	6647.4
221.35	6751.28
221.424	6736.06
221.497	6743.07
221.57	6765.53
221.643	6794.89
221.716	6829.2
221.79	6836.35
221.863	6838.66
221.936	6850.09
222.009	6865.16
222.082	6882.99
222.155	6897.49
222.229	6946.65
222.302	6971.72
222.375	6975.04
222.448	7001.89
222.521	7007.37
222.594	7005.4
222.667	6984.42
222.74	7025.34
222.814	7020.78
222.887	7000.77
222.96	7047.91
223.033	7081.07
223.106	7101.05
223.179	7123.98
223.252	7127.35
223.325	7149.25
223.398	7164.73
223.471	7187.02
223.544	7198.74
223.617	7204.8
223.69	7216.85
223.763	7183.79
223.837	7198.3
223.91	7218.63
223.983	7180.44
224.056	7152.96
224.129	7165.07
224.202	7204.44
224.275	7197.81
224.348	7173.35
224.42	7151.01
224.493	7105.65
224.566	7084.55
224.639	7098
224.712	7072.18
224.785	7060.31
224.858	7053.34
224.931	7042.29
225.004	7008.9
225.077	7012.5
225.15	6944.54
225.223	6944.11
225.296	7012.68
225.369	6966.95
225.442	6943.69
225.514	6960.26
225.587	6974.19
225.66	6993.31
225.733	6996.34
225.806	7002.64
225.879	6998.6
225.952	6969.79
226.025	7009.09
226.097	7048.08
226.17	7040.58
226.243	6994.67
226.316	6991.78
226.389	6999.95
226.461	7009.18
226.534	7027
226.607	7020.32
226.68	7085.93
226.753	7083.48
226.825	7023.42
226.898	7074.29
226.971	7079.33
227.044	7098.79
227.117	7103.79
227.189	7107.49
227.262	7139.89
227.335	7158.15
227.407	7156.95
227.48	7187.88
227.553	7197.49
227.626	7182.3
227.698	7188.11
227.771	7220.52
227.844	7211.39
227.916	7222.88
227.989	7199.53
228.062	7196.93
228.134	7264.96
228.207	7265.49
228.28	7260.06
228.352	7268.66
228.425	7273.61
228.498	7307.79
228.57	7288.86
228.643	7335.49
228.716	7340.59
228.788	7331.59
228.861	7328.95
228.934	7374.89
229.006	7384.07
229.079	7380.75
229.151	7371.95
229.224	7345.3
229.296	7364.23
229.369	7445.64
229.442	7487.87
229.514	7475.86
229.587	7511.76
229.659	7453.25
229.732	7460.32
229.804	7492.8
229.877	7550.76
229.949	7573.31
230.022	7609.54
230.094	7613.43
230.167	7605.39
230.239	7570.16
230.312	7555.7
230.384	7608.94
230.457	7606.35
230.529	7608.41
230.602	7610.91
230.674	7620.1
230.747	7653.15
230.819	7671.42
230.892	7580.2
230.964	7576.5
231.037	7598.07
231.109	7593.79
231.181	7619.21
231.254	7598.21
231.326	7582.97
231.399	7565.65
231.471	7545.83
231.544	7483.51
231.616	7518.45
231.688	7524.99
231.761	7515.91
231.833	7511.25
231.905	7442.43
231.978	7443.54
232.05	7435.46
232.122	7440.22
232.195	7418.4
232.267	7450.42
232.339	7441.47
232.412	7492.66
232.484	7469.09
232.556	7446.51
232.629	7495.63
232.701	7510.2
232.773	7514.47
232.846	7512.84
232.918	7514.33
232.99	7527.31
233.062	7562.07
233.135	7565.87
233.207	7539.33
233.279	7572.77
233.351	7596.23
233.424	7601.23
233.496	7581.9
233.568	7645.13
233.64	7616.82
233.713	7631.44
233.785	7629.03
233.857	7632.45
233.929	7586.01
234.001	7636.58
234.074	7692.18
234.146	7633.31
234.218	7634.66
234.29	7631.96
234.362	7624.32
234.434	7591
234.507	7562.49
234.579	7522.87
234.651	7512.58
234.723	7536.91
234.795	7549.41
234.867	7544.41
234.939	7591.68
235.012	7607.31
235.084	7601.82
235.156	7630.08
235.228	7610.33
235.3	7596.53
235.372	7605.9
235.444	7655.8
235.516	7594.9
235.588	7596.29
235.66	7617.4
235.732	7597.01
235.804	7758.35
235.876	7791.8
235.948	7843.46
236.02	7854.76
236.092	7869.51
236.164	7877.83
236.236	7873.98
236.308	7878.41
236.38	7901.2
236.452	7881.24
236.524	7893.79
236.596	7948.86
236.668	7978.24
236.74	8002.81
236.812	8022.62
236.884	8055.09
236.956	8068.03
237.028	8066.01
237.1	8057.02
237.172	8108.7
237.244	8161.32
237.316	8068.52
237.388	8051.11
237.46	8026.09
237.532	8077.37
237.604	8071.98
237.675	8130.1
237.747	8162.43
237.819	8150.41
237.891	8156.57
237.963	8150.17
238.035	8150.75
238.107	8066.49
238.178	8113.27
238.25	8122.84
238.322	8193.35
238.394	8162.61
238.466	8154.77
238.538	8183.29
238.609	8213.35
238.681	8175.19
238.753	8163.06
238.825	8172.25
238.897	8200.29
238.968	8268.59
239.04	8249.19
239.112	8332.51
239.184	8305.03
239.255	8303.4
239.327	8332.93
239.399	8339.47
239.471	8379.88
239.542	8409.85
239.614	8460.36
239.686	8398.95
239.758	8442.16
239.829	8412.31
239.901	8460.23
239.973	8471.34
240.044	8501.75
240.116	8510.37
240.188	8515.32
240.259	8528.27
240.331	8522.68
240.403	8549.34
240.474	8510.82
240.546	8505.43
240.618	8460.63
240.689	8454.95
240.761	8478.01
240.833	8530.57
240.904	8538.5
240.976	8529.7
241.048	8535.43
241.119	8567.73
241.191	8600.3
241.262	8647.59
241.334	8652.06
241.405	8647.92
241.477	8658.56
241.549	8665.87
241.62	8688.3
241.692	8729.98
241.763	8779.52
241.835	8796.9
241.906	8808.01
241.978	8787.56
242.049	8844.11
242.121	8890.41
242.192	8944.75
242.264	8912.84
242.335	8873.32
242.407	8910.34
242.478	8918.52
242.55	8936.76
242.621	8923.18
242.693	8931.75
242.764	8926.79
242.836	8925.92
242.907	8949.22
242.979	8973
243.05	8988.07
243.122	9004.53
243.193	9004.44
243.264	8948.5
243.336	8951.15
243.407	8982.49
243.479	9042.95
243.55	9055.85
243.622	9071.4
243.693	9065.24
243.764	9119.1
243.836	9100.77
243.907	9087.49
243.978	9096.39
244.05	9113.43
244.121	9077.67
244.192	9103.48
244.264	9066.35
244.335	9081.33
244.407	9050.52
244.478	9062.65
244.549	9058.27
244.62	9021.83
244.692	9018.46
244.763	9050.95
244.834	9046.09
244.906	9024.56
244.977	9035.98
245.048	9075.96
245.119	9061.08
245.191	9051.5
245.262	8999.99
245.333	9061.26
245.405	9076.86
245.476	9102.66
245.547	9122.21
245.618	9167.08
245.689	9173.29
245.761	9197.12
245.832	9204.68
245.903	9240.55
245.974	9264.72
246.045	9278.78
246.117	9351.92
246.188	9337.57
246.259	9322.41
246.33	9335.26
246.401	9348.17
246.473	9324.86
246.544	9317.78
246.615	9359.77
246.686	9361.07
246.757	9425.24
246.828	9404.35
246.899	9459.07
246.97	9433.84
247.042	9426.23
247.113	9459.99
247.184	9528.93
247.255	9526.38
247.326	9542.08
247.397	9544.29
247.468	9552.29
247.539	9561.49
247.61	9522.19
247.681	9559.84
247.752	9609.34
247.823	9586.56
247.894	9603.56
247.965	9579.16
248.037	9560.66
248.108	9518.71
248.179	9522.13
248.25	9514.95
248.321	9539.12
248.392	9500.54
248.463	9560.92
248.534	9557.94
248.605	9573.11
248.675	9555.09
248.746	9572.71
248.817	9588.75
248.888	9598.92
248.959	9555.24
249.03	9571.28
249.101	9571.57
249.172	9559.72
249.243	9500.45
249.314	9553.08
249.385	9560.55
249.456	9591.36
249.527	9590.83
249.598	9603.97
249.669	9609.51
249.739	9616.45
249.81	9623.52
249.881	9594.63
249.952	9589.91
250.023	9589.05
250.094	9539.53
250.165	9517.08
250.235	9512.02
250.306	9523.06
250.377	9512.22
250.448	9534.03
250.519	9487.47
250.59	9535.58
250.66	9530.04
250.731	9584.26
250.802	9585.27
250.873	9589.7
250.944	9606.31
251.014	9596.35
251.085	9671.11
251.156	9688.78
251.227	9730.45
251.297	9780.6
251.368	9824.95
251.439	9862.58
251.51	9904.15
251.58	9899.48
251.651	9894.85
251.722	9933.82
251.792	9891.05
251.863	9890.18
251.934	9939.51
252.005	10029.1
252.075	10035.36
252.146	10080.82
252.217	10117.63
252.287	10147.69
252.358	10153.56
252.429	10211.72
252.499	10209.02
252.57	10216.15
252.641	10252.09
252.711	10262.4
252.782	10227.33
252.852	10277.63
252.923	10272.9
252.994	10281.14
253.064	10326.32
253.135	10304.55
253.205	10288.94
253.276	10345.88
253.347	10396.65
253.417	10375.06
253.488	10357.48
253.558	10359.64
253.629	10356.51
253.699	10370.2
253.77	10395.98
253.841	10390.1
253.911	10395.11
253.982	10407.34
254.052	10437.18
254.123	10439.88
254.193	10435.92
254.264	10545.55
254.334	10528.25
254.405	10504.17
254.475	10479.84
254.546	10481.96
254.616	10540.92
254.687	10568.33
254.757	10578.36
254.827	10577.97
254.898	10599.07
254.968	10605.34
255.039	10584.62
255.109	10610.49
255.18	10586.69
255.25	10529.74
255.321	10562.26
255.391	10532.82
255.461	10601.81
255.532	10526.69
255.602	10525.19
255.673	10485.88
255.743	10459.32
255.813	10400.17
255.884	10438.04
255.954	10465.12
256.024	10522.75
256.095	10520.1
256.165	10493.98
256.235	10516.63
256.306	10507.53
256.376	10545.5
256.446	10574.99
256.517	10605.1
256.587	10641.77
256.657	10654.88
256.728	10670.34
256.798	10675.54
256.868	10672.8
256.938	10652.32
257.009	10697.56
257.079	10721.99
257.149	10800.19
257.219	10751.57
257.29	10780.85
257.36	10734.74
257.43	10768.96
257.5	10709.3
257.571	10701.64
257.641	10729.88
257.711	10700.05
257.781	10721.63
257.852	10731.99
257.922	10685.4
257.992	10682.99
258.062	10673.5
258.132	10710.75
258.202	10716.48
258.273	10730.02
258.343	10788.72
258.413	10775.71
258.483	10775.27
258.553	10754.6
258.623	10730.89
258.693	10745.92
258.764	10797.19
258.834	10852.89
258.904	10863.06
258.974	10856.99
259.044	10864.55
259.114	10891.63
259.184	10918.96
259.254	10932.84
259.324	10892.07
259.394	10928.06
259.464	10990.71
259.535	11003.09
259.605	11000.3
259.675	10994.47
259.745	11018.81
259.815	11000.3
259.885	11006.47
259.955	11099.54
260.025	11093.95
260.095	11108.36
260.165	11140.8
260.235	11193.09
260.305	11179.99
260.375	11156.23
260.445	11228.55
260.515	11280.6
260.585	11314.49
260.655	11324.27
260.725	11351.5
260.795	11382.29
260.865	11447.6
260.934	11424.08
261.004	11444.76
261.074	11442.97
261.144	11494.58
261.214	11527.93
261.284	11532.71
261.354	11562.29
261.424	11526
261.494	11587.73
261.564	11590.67
261.634	11615.97
261.703	11569.75
261.773	11589.31
261.843	11621.32
261.913	11616.59
261.983	11579.43
262.053	11595.87
262.123	11594.57
262.192	11563.87
262.262	11596.07
262.332	11556.25
262.402	11579.87
262.472	11591.68
262.541	11551.83
262.611	11590.29
262.681	11561.51
262.751	11587.64
262.821	11587.83
262.89	11563.49
262.96	11578.62
263.03	11639.74
263.1	11650.2
263.169	11665.38
263.239	11697.53
263.309	11748.87
263.379	11774.37
263.448	11790.41
263.518	11811.09
263.588	11821.99
263.657	11877.27
263.727	11904.94
263.797	11912.12
263.867	11915.39
263.936	11883.34
264.006	11931.97
264.076	11919.72
264.145	11927.43
