Data from 20250626_urea_1M_exp2_MAYP1162681_20-33-59-653.txt Node
Date: Thu Jun 26 20:33:59 BST 2025
User: adleo
Spectrometer: MAYP116268
Trigger mode: 0
Integration Time (sec): 3.000000E0
Scans to average: 1
Electric dark correction enabled: true
Nonlinearity correction enabled: true
Boxcar width: 10
XAxis mode: Wavelengths
Number of Pixels in Spectrum: 2068
>>>>>Begin Spectral Data<<<<<
179.565	3009.21
179.642	3163.72
179.718	3276.37
179.795	3394.18
179.871	3485.69
179.948	3539.2
180.024	3601.66
180.101	3666
180.177	3707.81
180.254	3770.11
180.33	3829.59
180.407	4037.69
180.483	4271.83
180.56	4509.25
180.636	4726.59
180.712	4699.67
180.789	4721.55
180.865	4761.11
180.942	4785.33
181.018	4814.15
181.095	4851.9
181.171	4864.4
181.248	4864.45
181.324	4911.97
181.4	4923.84
181.477	4953.92
181.553	4988.63
181.63	5044.54
181.706	5087.85
181.782	5112.88
181.859	5111.35
181.935	5127.11
182.011	5124.95
182.088	5168.98
182.164	5221
182.24	5257.06
182.317	5282.2
182.393	5277.13
182.469	5309.52
182.546	5343.68
182.622	5356.18
182.698	5345.78
182.775	5378.94
182.851	5417.28
182.927	5398.06
183.003	5387.76
183.08	5374.77
183.156	5402.33
183.232	5393.79
183.308	5360.78
183.385	5375.92
183.461	5426.68
183.537	5431.08
183.613	5457.78
183.69	5435.4
183.766	5406.57
183.842	5426.85
183.918	5440.08
183.995	5475.02
184.071	5482.59
184.147	5469.31
184.223	5439.52
184.299	5472.51
184.375	5447.73
184.452	5464.95
184.528	5567.04
184.604	5598.9
184.68	5627.85
184.756	5641.47
184.832	5651.83
184.908	5668.84
184.985	5672.77
185.061	5625.46
185.137	5648.09
185.213	5619.38
185.289	5625.18
185.365	5607.01
185.441	5597.23
185.517	5636.09
185.593	5625.64
185.669	5621.28
185.745	5646.54
185.822	5688.61
185.898	5663.05
185.974	5679.58
186.05	5659.63
186.126	5596.09
186.202	5572.56
186.278	5559.33
186.354	5536.12
186.43	5550.99
186.506	5540.88
186.582	5537.52
186.658	5555.87
186.734	5506.22
186.81	5510.15
186.886	5517.34
186.962	5546.91
187.038	5542.02
187.114	5516.45
187.19	5541.24
187.266	5517.95
187.341	5525.81
187.417	5507.12
187.493	5508.51
187.569	5519.44
187.645	5506.98
187.721	5478.5
187.797	5501.16
187.873	5515.88
187.949	5496.86
188.025	5480.69
188.101	5493.2
188.176	5505.18
188.252	5497.08
188.328	5516.77
188.404	5516.63
188.48	5501.82
188.556	5479.86
188.632	5479.77
188.707	5482.45
188.783	5471.52
188.859	5458.78
188.935	5425.93
189.011	5448.75
189.086	5434.04
189.162	5415.34
189.238	5409.49
189.314	5398.95
189.39	5387.59
189.465	5371.19
189.541	5417.36
189.617	5374.56
189.693	5357.13
189.768	5361.78
189.844	5425.09
189.92	5396.02
189.996	5424.78
190.071	5454.65
190.147	5456.23
190.223	5481.26
190.298	5459.15
190.374	5426.71
190.45	5454.54
190.526	5477.84
190.601	5462.16
190.677	5461.49
190.753	5535.29
190.828	5543.77
190.904	5587.31
190.98	5620.5
191.055	5644.09
191.131	5623.94
191.207	5677.24
191.282	5704.65
191.358	5682.94
191.433	5645.03
191.509	5686.9
191.585	5674.77
191.66	5674.57
191.736	5694.8
191.811	5668.29
191.887	5715.92
191.963	5778.74
192.038	5794.57
192.114	5796.87
192.189	5805.98
192.265	5799.7
192.34	5737.79
192.416	5736.93
192.491	5723.11
192.567	5735.78
192.642	5744.8
192.718	5744.51
192.793	5718.76
192.869	5702.9
192.944	5709.08
193.02	5730.62
193.095	5736.99
193.171	5754.21
193.246	5752.63
193.322	5745.58
193.397	5749.22
193.473	5707.39
193.548	5661.14
193.624	5675.82
193.699	5672.18
193.775	5710.75
193.85	5717.22
193.925	5745.61
194.001	5738.71
194.076	5722.99
194.152	5687.39
194.227	5664.22
194.302	5638.35
194.378	5646.78
194.453	5651.24
194.529	5688.02
194.604	5644.96
194.679	5630.96
194.755	5579.96
194.83	5616.34
194.905	5613.17
194.981	5638.73
195.056	5622.87
195.131	5635.72
195.207	5630.83
195.282	5604.22
195.357	5559.61
195.433	5600.6
195.508	5567.75
195.583	5591.95
195.659	5627.11
195.734	5648.02
195.809	5653.35
195.884	5677.93
195.96	5677.21
196.035	5712.31
196.11	5701.57
196.185	5732.4
196.261	5741.93
196.336	5827.73
196.411	5784.69
196.486	5795.48
196.561	5774.33
196.637	5799.11
196.712	5842.97
196.787	5851.08
196.862	5893.85
196.937	5916.87
197.013	5930.35
197.088	5954.05
197.163	6007.47
197.238	6046.8
197.313	6047.09
197.388	6078.27
197.464	6160.36
197.539	6194.86
197.614	6176.29
197.689	6209.22
197.764	6254.77
197.839	6307.9
197.914	6289.12
197.989	6351.47
198.065	6389.14
198.14	6529.57
198.215	6597.12
198.29	6630.75
198.365	6667.58
198.44	6691.87
198.515	6764.91
198.59	6809.87
198.665	6872.68
198.74	6892.72
198.815	6896.66
198.89	6957.79
198.965	7037.14
199.04	7022.77
199.115	7061.14
199.19	7175.47
199.265	7186.85
199.34	7211.93
199.415	7299.87
199.49	7355.69
199.565	7378.08
199.64	7443.78
199.715	7431.75
199.79	7442.47
199.865	7456.55
199.94	7449.4
200.015	7536.41
200.09	7550.07
200.165	7563.19
200.24	7586.22
200.315	7690.15
200.39	7738.23
200.464	7748.27
200.539	7750.39
200.614	7788.94
200.689	7845.15
200.764	7860.89
200.839	7902.65
200.914	7918.71
200.989	7894.56
201.063	7933.94
201.138	7891.57
201.213	7888.16
201.288	7837.09
201.363	7856.71
201.438	7854.93
201.512	7895.68
201.587	7852.29
201.662	7868.26
201.737	7896.54
201.812	7920.64
201.886	7832.67
201.961	7858.18
202.036	7829.34
202.111	7822.94
202.186	7744.2
202.26	7700.68
202.335	7642.11
202.41	7623.36
202.485	7575.1
202.559	7521.07
202.634	7446.41
202.709	7472.74
202.784	7418.09
202.858	7418.09
202.933	7369.07
203.008	7348.69
203.082	7300.44
203.157	7294.29
203.232	7180.59
203.306	7123.33
203.381	7037.96
203.456	6980.64
203.53	6914.65
203.605	6864.92
203.68	6799.94
203.754	6788.23
203.829	6749.12
203.904	6695.05
203.978	6667.28
204.053	6677.95
204.127	6648.7
204.202	6644.28
204.277	6593.92
204.351	6585.32
204.426	6558.66
204.5	6535.8
204.575	6440.74
204.65	6468.22
204.724	6444.58
204.799	6464.01
204.873	6449.98
204.948	6445.61
205.022	6417.2
205.097	6390.01
205.171	6431.77
205.246	6453.05
205.32	6449.55
205.395	6449.79
205.469	6428.87
205.544	6444.39
205.618	6394.51
205.693	6418.9
205.767	6389.09
205.842	6449.55
205.916	6430.45
205.991	6408.8
206.065	6424.88
206.14	6469.33
206.214	6454.58
206.289	6430.57
206.363	6461.19
206.438	6470.32
206.512	6492.84
206.586	6538.87
206.661	6569.72
206.735	6505.67
206.81	6509.41
206.884	6551.46
206.958	6516.71
207.033	6556.63
207.107	6570.13
207.181	6662.31
207.256	6645.89
207.33	6697.79
207.405	6727.17
207.479	6778.27
207.553	6804.19
207.628	6761.58
207.702	6795.52
207.776	6774.82
207.851	6790.19
207.925	6833.44
207.999	6826.04
208.073	6810.43
208.148	6820.04
208.222	6787.42
208.296	6878.57
208.371	6920.49
208.445	6947.54
208.519	7027.79
208.593	7062.67
208.668	7055.79
208.742	7061.56
208.816	7071.17
208.89	7099.58
208.965	7096.06
209.039	7117.46
209.113	7156.19
209.187	7211.96
209.261	7198.99
209.336	7254.63
209.41	7304.67
209.484	7308.08
209.558	7369.6
209.632	7411.83
209.707	7438.89
209.781	7495.8
209.855	7539.94
209.929	7583.49
210.003	7601.28
210.077	7599.26
210.151	7726.29
210.226	7817.69
210.3	7879.34
210.374	7938.41
210.448	7956.64
210.522	7984.3
210.596	8010.94
210.67	8036
210.744	8158.09
210.818	8248.37
210.892	8304.51
210.966	8288.26
211.041	8322.22
211.115	8307.79
211.189	8369.32
211.263	8415.93
211.337	8434.45
211.411	8461.88
211.485	8444.5
211.559	8477.02
211.633	8483.27
211.707	8401.48
211.781	8417.66
211.855	8332.01
211.929	8305.18
212.003	8253.07
212.077	8276.61
212.151	8306.49
212.225	8332.09
212.299	8303.25
212.373	8271.64
212.447	8255.76
212.52	8334.42
212.594	8344.53
212.668	8380.65
212.742	8337.88
212.816	8324.5
212.89	8303.53
212.964	8299.68
213.038	8309.11
213.112	8339.48
213.186	8369.98
213.26	8308.73
213.333	8183.14
213.407	8194.72
213.481	8205.54
213.555	8237.45
213.629	8203.29
213.703	8161.14
213.777	8154.01
213.85	8097.34
213.924	8183.92
213.998	8178.82
214.072	8158.94
214.146	8116.89
214.219	8103.08
214.293	8090.77
214.367	8085.72
214.441	8109
214.515	8073.16
214.588	8002.26
214.662	7900.78
214.736	7842.65
214.81	7857.69
214.883	7876.52
214.957	7841.63
215.031	7799.1
215.105	7724.79
215.178	7676.61
215.252	7642.62
215.326	7565.69
215.4	7505.44
215.473	7356.87
215.547	7288.79
215.621	7234.96
215.694	7238.28
215.768	7162.63
215.842	7115.58
215.915	7063.66
215.989	6974.78
216.063	6928.97
216.136	6917.43
216.21	6901.73
216.284	6910.43
216.357	6892.27
216.431	6855.62
216.504	6847.93
216.578	6891.37
216.652	6900.3
216.725	6887.71
216.799	6893.86
216.873	6874.03
216.946	6878.88
217.02	6849.51
217.093	6832.22
217.167	6758.68
217.24	6687.71
217.314	6660.36
217.387	6623.55
217.461	6593.48
217.535	6610.67
217.608	6563.57
217.682	6541.76
217.755	6550.79
217.829	6509.43
217.902	6492.39
217.976	6486.82
218.049	6452.49
218.123	6390.85
218.196	6392.97
218.27	6357.92
218.343	6304.55
218.417	6310.31
218.49	6295.38
218.563	6333.54
218.637	6338.06
218.71	6392.36
218.784	6416.42
218.857	6442.96
218.931	6460.28
219.004	6459.71
219.077	6474.65
219.151	6490.87
219.224	6482.32
219.298	6477.43
219.371	6511.33
219.444	6484.27
219.518	6489.5
219.591	6502.75
219.665	6588.72
219.738	6601.68
219.811	6588.1
219.885	6618.64
219.958	6640.59
220.031	6645.54
220.105	6661.92
220.178	6673.3
220.251	6651.15
220.325	6666.91
220.398	6676.66
220.471	6690.68
220.544	6721.7
220.618	6703.98
220.691	6723.95
220.764	6738.6
220.838	6759.44
220.911	6749.35
220.984	6815.09
221.057	6843.37
221.131	6864.74
221.204	6786.6
221.277	6837.58
221.35	6942.07
221.424	6938.32
221.497	6948.99
221.57	6964.98
221.643	6991.46
221.716	7021.01
221.79	7033.26
221.863	7040.57
221.936	7051.09
222.009	7061.99
222.082	7085.97
222.155	7098.99
222.229	7154.08
222.302	7176.17
222.375	7187.85
222.448	7217.94
222.521	7225.77
222.594	7230.62
222.667	7208.29
222.74	7258.55
222.814	7253.5
222.887	7236.04
222.96	7283.67
223.033	7315.26
223.106	7336.11
223.179	7363.33
223.252	7374.43
223.325	7395.63
223.398	7410.67
223.471	7433.12
223.544	7451.13
223.617	7460.07
223.69	7470.98
223.763	7439.06
223.837	7456.41
223.91	7475.06
223.983	7437.72
224.056	7410.96
224.129	7420.43
224.202	7463.22
224.275	7451.98
224.348	7428.38
224.42	7406.5
224.493	7357.05
224.566	7338.01
224.639	7357.76
224.712	7329.15
224.785	7315.92
224.858	7310.16
224.931	7296.36
225.004	7266.71
225.077	7270.75
225.15	7197.34
225.223	7199.83
225.296	7264.38
225.369	7223.06
225.442	7192.82
225.514	7204.02
225.587	7221.12
225.66	7231.46
225.733	7236.12
225.806	7242.13
225.879	7235.45
225.952	7208.21
226.025	7250.02
226.097	7288.59
226.17	7281.52
226.243	7231.27
226.316	7229.01
226.389	7227.52
226.461	7240.16
226.534	7253.9
226.607	7241.84
226.68	7306.79
226.753	7303.67
226.825	7236.77
226.898	7285.49
226.971	7291.31
227.044	7312.21
227.117	7316.73
227.189	7328.8
227.262	7354.33
227.335	7365.63
227.407	7371.87
227.48	7399.55
227.553	7410.8
227.626	7398.39
227.698	7401.7
227.771	7437.1
227.844	7425.04
227.916	7444.85
227.989	7420.76
228.062	7419.23
228.134	7492.17
228.207	7492.5
228.28	7484.72
228.352	7498.9
228.425	7505.63
228.498	7545.92
228.57	7530.11
228.643	7577.67
228.716	7582.82
228.788	7572.62
228.861	7568.58
228.934	7612.28
229.006	7618.48
229.079	7618.29
229.151	7612.37
229.224	7579.51
229.296	7598.98
229.369	7679.64
229.442	7720.77
229.514	7710.05
229.587	7748.75
229.659	7690.03
229.732	7703.88
229.804	7740.95
229.877	7801.56
229.949	7824.94
230.022	7863.48
230.094	7863.29
230.167	7851.94
230.239	7814.53
230.312	7803.91
230.384	7862.17
230.457	7861.45
230.529	7870.39
230.602	7866.78
230.674	7865.82
230.747	7900.94
230.819	7918.78
230.892	7827.98
230.964	7822.21
231.037	7846.57
231.109	7843.78
231.181	7872.87
231.254	7847.63
231.326	7829.16
231.399	7812.85
231.471	7791.39
231.544	7731.69
231.616	7768.95
231.688	7773.9
231.761	7763.33
231.833	7761.94
231.905	7697
231.978	7697.33
232.05	7680.7
232.122	7684.89
232.195	7671.23
232.267	7701.33
232.339	7684.21
232.412	7733.82
232.484	7712.95
232.556	7687.57
232.629	7739.68
232.701	7758.25
232.773	7761.76
232.846	7761.86
232.918	7759.3
232.99	7774.79
233.062	7809.52
233.135	7816.01
233.207	7789.75
233.279	7829.5
233.351	7853.97
233.424	7857.68
233.496	7835.6
233.568	7902.5
233.64	7869.33
233.713	7884.96
233.785	7885.15
233.857	7903.91
233.929	7863.71
234.001	7920.16
234.074	7974.44
234.146	7911.31
234.218	7903.71
234.29	7909.87
234.362	7898.67
234.434	7863.89
234.507	7833.3
234.579	7789.97
234.651	7773.57
234.723	7796.47
234.795	7817.82
234.867	7813.16
234.939	7859.76
235.012	7875.97
235.084	7880.93
235.156	7912.17
235.228	7891.26
235.3	7879.62
235.372	7885.97
235.444	7937.27
235.516	7873.42
235.588	7876.98
235.66	7894.34
235.732	7876.5
235.804	8034.07
235.876	8069.55
235.948	8126.52
236.02	8135.89
236.092	8148.3
236.164	8160.56
236.236	8159.11
236.308	8150.02
236.38	8171.43
236.452	8154.59
236.524	8170.46
236.596	8223.48
236.668	8252.29
236.74	8277.78
236.812	8297.21
236.884	8327
236.956	8333.78
237.028	8328.25
237.1	8315.22
237.172	8372.39
237.244	8432.96
237.316	8334.66
237.388	8320.38
237.46	8300.4
237.532	8350.49
237.604	8347.27
237.675	8405.2
237.747	8444.9
237.819	8432.26
237.891	8438.75
237.963	8431.39
238.035	8428.99
238.107	8335.75
238.178	8390.73
238.25	8394.34
238.322	8468.71
238.394	8434.12
238.466	8430.17
238.538	8466.78
238.609	8497.61
238.681	8453.33
238.753	8430.42
238.825	8455.65
238.897	8482.92
238.968	8544.6
239.04	8529.29
239.112	8619.52
239.184	8589.91
239.255	8587.17
239.327	8620.89
239.399	8632.97
239.471	8669.83
239.542	8699.28
239.614	8754.76
239.686	8684.96
239.758	8729.04
239.829	8689.65
239.901	8738.93
239.973	8754.52
240.044	8777.05
240.116	8790.24
240.188	8799.67
240.259	8814.78
240.331	8797.45
240.403	8822.04
240.474	8781.3
240.546	8776.58
240.618	8725.85
240.689	8724.4
240.761	8739.38
240.833	8787.85
240.904	8791.03
240.976	8785.83
241.048	8797.19
241.119	8827.43
241.191	8868.72
241.262	8919.33
241.334	8932.29
241.405	8936.96
241.477	8937.25
241.549	8944.76
241.62	8966.08
241.692	9006.13
241.763	9057.46
241.835	9072.58
241.906	9087.02
241.978	9068.06
242.049	9125.25
242.121	9172.37
242.192	9228.65
242.264	9198.71
242.335	9160.34
242.407	9193.42
242.478	9205.98
242.55	9228.08
242.621	9218.54
242.693	9216.18
242.764	9212.43
242.836	9211.85
242.907	9232.07
242.979	9262.64
243.05	9281.9
243.122	9298.95
243.193	9294.23
243.264	9241.12
243.336	9244.49
243.407	9279.35
243.479	9345.32
243.55	9351.77
243.622	9366.02
243.693	9364
243.764	9427.27
243.836	9410.76
243.907	9405.32
243.978	9406.19
244.05	9424.25
244.121	9391.36
244.192	9427.04
244.264	9385.53
244.335	9398.1
244.407	9363.62
244.478	9373.59
244.549	9364.01
244.62	9333.63
244.692	9335.7
244.763	9368.19
244.834	9357.7
244.906	9332.94
244.977	9353.85
245.048	9405.83
245.119	9389.75
245.191	9373.47
245.262	9323.25
245.333	9387.8
245.405	9400.18
245.476	9432.92
245.547	9442.46
245.618	9479.68
245.689	9486.71
245.761	9515.99
245.832	9518.78
245.903	9555.86
245.974	9578.93
246.045	9593.86
246.117	9661.52
246.188	9651.12
246.259	9633.02
246.33	9655.41
246.401	9664.85
246.473	9632.43
246.544	9614.36
246.615	9664.69
246.686	9667.82
246.757	9729.85
246.828	9707.65
246.899	9768.3
246.97	9736.96
247.042	9732.81
247.113	9763.93
247.184	9832.78
247.255	9830.62
247.326	9859.32
247.397	9865.63
247.468	9870.21
247.539	9880.95
247.61	9843.57
247.681	9877.61
247.752	9923.65
247.823	9900.54
247.894	9914.89
247.965	9892.55
248.037	9878.43
248.108	9833.35
248.179	9839.99
248.25	9825.93
248.321	9850.29
248.392	9810.83
248.463	9882.45
248.534	9883.94
248.605	9897.92
248.675	9876.13
248.746	9892.22
248.817	9905.13
248.888	9921.56
248.959	9884.86
249.03	9902.73
249.101	9906.92
249.172	9898.83
249.243	9848.55
249.314	9904.9
249.385	9917.72
249.456	9939.24
249.527	9935.87
249.598	9955.37
249.669	9952.53
249.739	9965.64
249.81	9980.13
249.881	9943
249.952	9933.85
250.023	9928.45
250.094	9891.74
250.165	9871.51
250.235	9875.65
250.306	9874.01
250.377	9853.15
250.448	9875.79
250.519	9824.93
250.59	9870.41
250.66	9866.07
250.731	9914.85
250.802	9915.63
250.873	9927.28
250.944	9942.07
251.014	9936.24
251.085	10009
251.156	10036.07
251.227	10075.62
251.297	10121.78
251.368	10167.54
251.439	10198.03
251.51	10242.07
251.58	10231.76
251.651	10225.02
251.722	10257.01
251.792	10219.48
251.863	10209.56
251.934	10251.09
252.005	10344.98
252.075	10358.33
252.146	10399.99
252.217	10439.35
252.287	10464.79
252.358	10466.53
252.429	10528.73
252.499	10522.61
252.57	10526.37
252.641	10566.7
252.711	10572.39
252.782	10532.97
252.852	10596.68
252.923	10599.23
252.994	10606.41
253.064	10647.84
253.135	10631.94
253.205	10617.73
253.276	10675.05
253.347	10735.13
253.417	10723.47
253.488	10705.16
253.558	10699.28
253.629	10698.07
253.699	10712.38
253.77	10739.81
253.841	10735.33
253.911	10746.8
253.982	10761.15
254.052	10783.47
254.123	10787.13
254.193	10790.6
254.264	10898.84
254.334	10871.08
254.405	10841.2
254.475	10819.04
254.546	10827.33
254.616	10880.18
254.687	10908.42
254.757	10930.2
254.827	10923.65
254.898	10946.54
254.968	10959.35
255.039	10940.13
255.109	10968.27
255.18	10943.4
255.25	10881.39
255.321	10913.48
255.391	10882.83
255.461	10958.82
255.532	10898.48
255.602	10895.59
255.673	10856.17
255.743	10827.01
255.813	10763.18
255.884	10804.76
255.954	10832.23
256.024	10880.27
256.095	10887.41
256.165	10855.03
256.235	10874.11
256.306	10870.55
256.376	10907.61
256.446	10934.84
256.517	10961.15
256.587	11001.82
256.657	11019.75
256.728	11049.14
256.798	11055.26
256.868	11047.6
256.938	11023.83
257.009	11061.86
257.079	11085.81
257.149	11161.47
257.219	11124.02
257.29	11161.74
257.36	11118.76
257.43	11147.58
257.5	11097.89
257.571	11090.81
257.641	11120.59
257.711	11089.79
257.781	11119.38
257.852	11128.63
257.922	11078.85
257.992	11086.8
258.062	11079.33
258.132	11113.36
258.202	11116.15
258.273	11124.63
258.343	11193.41
258.413	11176.93
258.483	11172.54
258.553	11149.07
258.623	11121.36
258.693	11140.1
258.764	11201.5
258.834	11259.61
258.904	11273.25
258.974	11264.58
259.044	11273.5
259.114	11296.2
259.184	11321.98
259.254	11326.22
259.324	11287.18
259.394	11330.17
259.464	11385.69
259.535	11391.24
259.605	11391.77
259.675	11385.55
259.745	11417.07
259.815	11392.92
259.885	11402.75
259.955	11505.38
260.025	11499.31
260.095	11518.05
260.165	11543.02
260.235	11584.09
260.305	11575.08
260.375	11554.98
260.445	11632.95
260.515	11689.59
260.585	11729.26
260.655	11735.76
260.725	11770.66
260.795	11794.47
260.865	11850.09
260.934	11827.73
261.004	11852.84
261.074	11851.15
261.144	11900.5
261.214	11926.58
261.284	11928.8
261.354	11956.56
261.424	11917.32
261.494	11975.82
261.564	11980.84
261.634	11996.98
261.703	11945.41
261.773	11963.63
261.843	11993.41
261.913	11984.4
261.983	11935.72
262.053	11951.58
262.123	11944.4
262.192	11915.19
262.262	11954.13
262.332	11909.5
262.402	11935.67
262.472	11948.25
262.541	11903.24
262.611	11936.79
262.681	11923
262.751	11954.82
262.821	11958.91
262.89	11929.08
262.96	11948.16
263.03	12010.93
263.1	12034.69
263.169	12053.2
263.239	12073.59
263.309	12129.22
263.379	12159.78
263.448	12180.07
263.518	12202.19
263.588	12224.99
263.657	12288.62
263.727	12319.37
263.797	12332.87
263.867	12336.34
263.936	12297.25
264.006	12348
264.076	12345.44
