Data from 20250626_urea_1M_exp2_MAYP1162681_09-13-58-954.txt Node
Date: Fri Jun 27 09:13:58 BST 2025
User: adleo
Spectrometer: MAYP116268
Trigger mode: 0
Integration Time (sec): 3.000000E0
Scans to average: 1
Electric dark correction enabled: true
Nonlinearity correction enabled: true
Boxcar width: 10
XAxis mode: Wavelengths
Number of Pixels in Spectrum: 2068
>>>>>Begin Spectral Data<<<<<
179.565	3047.43
179.642	3201.59
179.718	3321.52
179.795	3437.96
179.871	3528.75
179.948	3585.52
180.024	3643.83
180.101	3710.23
180.177	3747.32
180.254	3806.74
180.33	3868.49
180.407	4078.36
180.483	4314.03
180.56	4552.22
180.636	4773.96
180.712	4738.32
180.789	4759.72
180.865	4790.77
180.942	4819.78
181.018	4842.9
181.095	4881.94
181.171	4894.39
181.248	4902.44
181.324	4944.45
181.4	4959.69
181.477	4988.04
181.553	5019.35
181.63	5073.34
181.706	5117.47
181.782	5147.96
181.859	5148.83
181.935	5165.12
182.011	5156.21
182.088	5201.92
182.164	5256.91
182.24	5290.87
182.317	5316.3
182.393	5308.06
182.469	5348.59
182.546	5379.98
182.622	5389.8
182.698	5377.58
182.775	5414.96
182.851	5449.04
182.927	5426.18
183.003	5413.72
183.08	5399.35
183.156	5422.78
183.232	5416.65
183.308	5384.2
183.385	5401.69
183.461	5447.03
183.537	5447.32
183.613	5481.78
183.69	5455.13
183.766	5427.55
183.842	5448.16
183.918	5459.71
183.995	5495.8
184.071	5501.65
184.147	5493.02
184.223	5467.06
184.299	5505.47
184.375	5474.89
184.452	5491.44
184.528	5600.68
184.604	5632.79
184.68	5666.29
184.756	5681.59
184.832	5693.1
184.908	5706.8
184.985	5710.64
185.061	5668.07
185.137	5692.24
185.213	5658.59
185.289	5666.36
185.365	5646.9
185.441	5639.51
185.517	5679.91
185.593	5667.06
185.669	5658.66
185.745	5684.08
185.822	5728.92
185.898	5704.85
185.974	5726.94
186.05	5702.33
186.126	5637.11
186.202	5613.62
186.278	5598.18
186.354	5578
186.43	5592.58
186.506	5587.21
186.582	5577.63
186.658	5594.87
186.734	5543.49
186.81	5555.81
186.886	5560.46
186.962	5590.51
187.038	5578.1
187.114	5553.63
187.19	5576.16
187.266	5553.06
187.341	5556.42
187.417	5535.33
187.493	5533.27
187.569	5542.67
187.645	5531.98
187.721	5499.56
187.797	5524.2
187.873	5534.99
187.949	5519.03
188.025	5505.07
188.101	5511.39
188.176	5526.35
188.252	5516.81
188.328	5536.88
188.404	5534.2
188.48	5522.31
188.556	5496.62
188.632	5494.84
188.707	5497.67
188.783	5490.91
188.859	5477.17
188.935	5446.48
189.011	5468.77
189.086	5449.6
189.162	5426.82
189.238	5421.36
189.314	5417.67
189.39	5401.61
189.465	5383.11
189.541	5425.63
189.617	5385.9
189.693	5372.39
189.768	5385.91
189.844	5450.33
189.92	5423.32
189.996	5446.04
190.071	5478.3
190.147	5480.94
190.223	5511.82
190.298	5487.99
190.374	5452.37
190.45	5488.59
190.526	5505.23
190.601	5496.84
190.677	5500.53
190.753	5576.2
190.828	5585.74
190.904	5623.43
190.98	5660.55
191.055	5692.72
191.131	5672.19
191.207	5726.94
191.282	5753.16
191.358	5725.59
191.433	5684.95
191.509	5725.47
191.585	5716.75
191.66	5719.82
191.736	5743.55
191.811	5718.57
191.887	5762.46
191.963	5825.51
192.038	5841.96
192.114	5848.77
192.189	5853.28
192.265	5849.11
192.34	5784.37
192.416	5783.75
192.491	5771.71
192.567	5780.3
192.642	5786.92
192.718	5786.73
192.793	5756.75
192.869	5748.94
192.944	5756.56
193.02	5780.69
193.095	5789.89
193.171	5805.57
193.246	5800.49
193.322	5793.63
193.397	5794.16
193.473	5760.53
193.548	5712.99
193.624	5725.9
193.699	5724.51
193.775	5769.18
193.85	5770.52
193.925	5798.24
194.001	5791.68
194.076	5773.6
194.152	5743.52
194.227	5721.5
194.302	5702.28
194.378	5708.18
194.453	5698.64
194.529	5727.85
194.604	5683.54
194.679	5672.61
194.755	5621.42
194.83	5659.63
194.905	5652.19
194.981	5676.65
195.056	5656.86
195.131	5677.52
195.207	5667.35
195.282	5636.28
195.357	5586.77
195.433	5624.16
195.508	5593.95
195.583	5616.38
195.659	5658.69
195.734	5673.18
195.809	5675.19
195.884	5692.45
195.96	5696.23
196.035	5731.04
196.11	5721.59
196.185	5758.22
196.261	5759.23
196.336	5845.6
196.411	5796.61
196.486	5805.67
196.561	5785.29
196.637	5808.68
196.712	5847.79
196.787	5860.08
196.862	5903.14
196.937	5925.48
197.013	5942.81
197.088	5971.82
197.163	6025.1
197.238	6070.31
197.313	6073.42
197.388	6107.01
197.464	6187.71
197.539	6216.78
197.614	6201.77
197.689	6232.1
197.764	6274.4
197.839	6335.34
197.914	6318.68
197.989	6383.86
198.065	6426.19
198.14	6566.67
198.215	6631.47
198.29	6666.31
198.365	6700.59
198.44	6727.67
198.515	6799.42
198.59	6845.39
198.665	6916.43
198.74	6941.56
198.815	6939.4
198.89	7000.82
198.965	7077.72
199.04	7070.03
199.115	7108.64
199.19	7225.13
199.265	7236.56
199.34	7258.86
199.415	7341.95
199.49	7397.43
199.565	7423.91
199.64	7491.25
199.715	7480.95
199.79	7501.91
199.865	7516.67
199.94	7512.63
200.015	7600.33
200.09	7616.92
200.165	7629.41
200.24	7644.8
200.315	7748.26
200.39	7786.49
200.464	7804.23
200.539	7809.86
200.614	7849.81
200.689	7917.81
200.764	7930.7
200.839	7971.5
200.914	7990.35
200.989	7965.09
201.063	8008.76
201.138	7962.39
201.213	7954.27
201.288	7903.68
201.363	7917.05
201.438	7913.58
201.512	7953.09
201.587	7904.61
201.662	7917.55
201.737	7955.69
201.812	7977.62
201.886	7889.93
201.961	7918.08
202.036	7890.73
202.111	7881.54
202.186	7799.72
202.26	7745.51
202.335	7693.57
202.41	7680.06
202.485	7635.74
202.559	7583.25
202.634	7503.34
202.709	7527.89
202.784	7482.27
202.858	7483.33
202.933	7434.98
203.008	7420.99
203.082	7369.76
203.157	7370.39
203.232	7253.76
203.306	7193.65
203.381	7102.76
203.456	7041.35
203.53	6980.65
203.605	6920.48
203.68	6859.59
203.754	6847.35
203.829	6810.5
203.904	6748.93
203.978	6721.4
204.053	6730.63
204.127	6698.31
204.202	6691.97
204.277	6647.02
204.351	6628.58
204.426	6600.19
204.5	6577.62
204.575	6482.97
204.65	6507.76
204.724	6483.05
204.799	6505.93
204.873	6494.07
204.948	6489.75
205.022	6458.27
205.097	6434.24
205.171	6477.68
205.246	6497.04
205.32	6494.5
205.395	6492.58
205.469	6475.26
205.544	6491.64
205.618	6443.05
205.693	6469.42
205.767	6436.3
205.842	6494.17
205.916	6472.53
205.991	6453.95
206.065	6469.84
206.14	6508.15
206.214	6495.81
206.289	6469.05
206.363	6497.86
206.438	6503.62
206.512	6525.19
206.586	6577.17
206.661	6603.03
206.735	6538.05
206.81	6538.2
206.884	6575.78
206.958	6539.74
207.033	6582.93
207.107	6597.54
207.181	6680.78
207.256	6668.78
207.33	6725.33
207.405	6751.97
207.479	6808.83
207.553	6828.37
207.628	6787.43
207.702	6822.77
207.776	6807.54
207.851	6825.02
207.925	6871.06
207.999	6858.77
208.073	6856.17
208.148	6862.27
208.222	6827.15
208.296	6915.23
208.371	6957.54
208.445	6985.45
208.519	7067.14
208.593	7098.61
208.668	7088.47
208.742	7097.94
208.816	7100.97
208.89	7137.55
208.965	7135.82
209.039	7156.44
209.113	7196.18
209.187	7249.32
209.261	7241.44
209.336	7292.91
209.41	7345.44
209.484	7345.3
209.558	7406.87
209.632	7437.24
209.707	7469.44
209.781	7530.87
209.855	7570.06
209.929	7618.08
210.003	7638.46
210.077	7635.15
210.151	7762.43
210.226	7855.37
210.3	7930.45
210.374	7990.72
210.448	8001.26
210.522	8028.63
210.596	8053.73
210.67	8087.21
210.744	8213.63
210.818	8298.73
210.892	8356.95
210.966	8341.17
211.041	8377.01
211.115	8370.81
211.189	8435.99
211.263	8477.45
211.337	8491.93
211.411	8530.14
211.485	8513.25
211.559	8546.44
211.633	8554.42
211.707	8466.33
211.781	8489.01
211.855	8392.23
211.929	8371.94
212.003	8326.27
212.077	8354.14
212.151	8388.93
212.225	8412.65
212.299	8387.37
212.373	8357.93
212.447	8341.71
212.52	8415.62
212.594	8434.34
212.668	8458.68
212.742	8421.2
212.816	8405.85
212.89	8389.11
212.964	8384.34
213.038	8393.15
213.112	8424.34
213.186	8457.14
213.26	8404.31
213.333	8275.19
213.407	8285.91
213.481	8295.33
213.555	8320.71
213.629	8281.1
213.703	8232.89
213.777	8222.49
213.85	8161.53
213.924	8241.71
213.998	8239.21
214.072	8217.31
214.146	8166.26
214.219	8160.15
214.293	8144.81
214.367	8147.79
214.441	8171.02
214.515	8135.56
214.588	8064.9
214.662	7957.89
214.736	7896.68
214.81	7906.96
214.883	7920.22
214.957	7882.01
215.031	7836.07
215.105	7764.01
215.178	7712.61
215.252	7682.13
215.326	7600.68
215.4	7536.68
215.473	7397
215.547	7330.06
215.621	7278.2
215.694	7280.18
215.768	7201.3
215.842	7152.18
215.915	7096.79
215.989	7007.95
216.063	6957.52
216.136	6943.06
216.21	6925.29
216.284	6935.96
216.357	6916.93
216.431	6889.12
216.504	6888.83
216.578	6931.89
216.652	6940.43
216.725	6930.68
216.799	6935.53
216.873	6925.16
216.946	6929.38
217.02	6895.59
217.093	6872.63
217.167	6797.7
217.24	6731.01
217.314	6705.38
217.387	6664.49
217.461	6630.57
217.535	6645.22
217.608	6598.55
217.682	6581.07
217.755	6592.5
217.829	6548.35
217.902	6531.45
217.976	6514.65
218.049	6475.85
218.123	6414.74
218.196	6411.53
218.27	6378.06
218.343	6321.91
218.417	6314.61
218.49	6295.8
218.563	6331.99
218.637	6335.25
218.71	6389.46
218.784	6412.61
218.857	6434.21
218.931	6454.45
219.004	6451.91
219.077	6463.2
219.151	6480.24
219.224	6469.87
219.298	6466.65
219.371	6498.92
219.444	6475.22
219.518	6481.12
219.591	6489.42
219.665	6572.61
219.738	6588.64
219.811	6572.38
219.885	6609.64
219.958	6637.83
220.031	6640.81
220.105	6656.71
220.178	6664.58
220.251	6646.86
220.325	6662.57
220.398	6676.35
220.471	6686.53
220.544	6718.32
220.618	6702.9
220.691	6724.17
220.764	6739.01
220.838	6761.44
220.911	6754.38
220.984	6817
221.057	6850.38
221.131	6871.98
221.204	6797.92
221.277	6851.69
221.35	6957.86
221.424	6952.29
221.497	6960.94
221.57	6981.77
221.643	7009.94
221.716	7045.4
221.79	7049.15
221.863	7061.65
221.936	7069.62
222.009	7085.27
222.082	7104.16
222.155	7110.21
222.229	7163.81
222.302	7186.68
222.375	7188.99
222.448	7216.91
222.521	7223.83
222.594	7222.19
222.667	7203.23
222.74	7249.21
222.814	7242.62
222.887	7223.77
222.96	7268.76
223.033	7306.02
223.106	7326.43
223.179	7345.24
223.252	7356.06
223.325	7374.02
223.398	7382.82
223.471	7409.4
223.544	7421.03
223.617	7434.68
223.69	7454.86
223.763	7417.65
223.837	7434.04
223.91	7463.75
223.983	7422.67
224.056	7398.45
224.129	7412.77
224.202	7461.14
224.275	7450.33
224.348	7426.68
224.42	7402.59
224.493	7353.95
224.566	7331.5
224.639	7343.46
224.712	7328.03
224.785	7319.18
224.858	7319.8
224.931	7300
225.004	7262.52
225.077	7266.84
225.15	7193.62
225.223	7194.54
225.296	7267.88
225.369	7219.88
225.442	7188.4
225.514	7200.5
225.587	7216.02
225.66	7230.15
225.733	7228.66
225.806	7237.51
225.879	7231.02
225.952	7203.45
226.025	7248.05
226.097	7287.73
226.17	7286.24
226.243	7231.7
226.316	7221.7
226.389	7218.53
226.461	7235.3
226.534	7256.68
226.607	7251.16
226.68	7321.01
226.753	7311.69
226.825	7242.62
226.898	7289.7
226.971	7290.62
227.044	7315.36
227.117	7319.02
227.189	7330.22
227.262	7364.79
227.335	7374.94
227.407	7374.12
227.48	7400.64
227.553	7402.51
227.626	7388.32
227.698	7394.95
227.771	7426.9
227.844	7413.83
227.916	7433.63
227.989	7408.68
228.062	7409.74
228.134	7482.88
228.207	7482.64
228.28	7477.35
228.352	7486
228.425	7496.49
228.498	7534.37
228.57	7516.16
228.643	7569.25
228.716	7572.28
228.788	7555.06
228.861	7555.35
228.934	7604.43
229.006	7612.5
229.079	7613.22
229.151	7598.89
229.224	7573.47
229.296	7591.93
229.369	7675.14
229.442	7715.59
229.514	7700.32
229.587	7732.34
229.659	7660.97
229.732	7668.57
229.804	7699.91
229.877	7771.16
229.949	7797.47
230.022	7839.38
230.094	7847.26
230.167	7830.18
230.239	7790.66
230.312	7783.69
230.384	7838.39
230.457	7833.87
230.529	7845.27
230.602	7841.85
230.674	7853.01
230.747	7886.12
230.819	7906.41
230.892	7814.12
230.964	7816
231.037	7840.36
231.109	7833.48
231.181	7873.43
231.254	7847.08
231.326	7842.37
231.399	7817.1
231.471	7790.74
231.544	7729.21
231.616	7758.01
231.688	7765.08
231.761	7757.97
231.833	7748.89
231.905	7674.95
231.978	7676.16
232.05	7658.08
232.122	7664.77
232.195	7639.09
232.267	7666.21
232.339	7647.36
232.412	7695.63
232.484	7664.45
232.556	7640.38
232.629	7690.13
232.701	7701.86
232.773	7710.28
232.846	7698.64
232.918	7704.46
232.99	7720.48
233.062	7752.75
233.135	7760.64
233.207	7731.93
233.279	7764.32
233.351	7785.96
233.424	7795.38
233.496	7776.34
233.568	7840.15
233.64	7815.35
233.713	7832.41
233.785	7832.94
233.857	7845.25
233.929	7807.61
234.001	7867.08
234.074	7924.52
234.146	7867.37
234.218	7863.86
234.29	7868.53
234.362	7860.93
234.434	7820.86
234.507	7787.97
234.579	7743.87
234.651	7726.85
234.723	7749.89
234.795	7761.96
234.867	7762.87
234.939	7808.13
235.012	7821.11
235.084	7828.09
235.156	7859.15
235.228	7842.13
235.3	7818.37
235.372	7827.85
235.444	7880.5
235.516	7814.63
235.588	7820.02
235.66	7832.47
235.732	7812.95
235.804	7969.03
235.876	8002.25
235.948	8052.52
236.02	8067.95
236.092	8083
236.164	8098.87
236.236	8092.23
236.308	8091.08
236.38	8114.45
236.452	8096.61
236.524	8114.4
236.596	8170.21
236.668	8190.61
236.74	8217.05
236.812	8246.97
236.884	8275.36
236.956	8282.91
237.028	8283.49
237.1	8262.86
237.172	8324.35
237.244	8383
237.316	8287.2
237.388	8277.92
237.46	8257.37
237.532	8303.94
237.604	8300.05
237.675	8358.76
237.747	8399.51
237.819	8390.66
237.891	8392.3
237.963	8388.98
238.035	8379.94
238.107	8288.77
238.178	8342.44
238.25	8344.37
238.322	8410.7
238.394	8380.44
238.466	8371.25
238.538	8407.66
238.609	8451.87
238.681	8406.58
238.753	8396.09
238.825	8413.28
238.897	8438.67
238.968	8508.43
239.04	8492.69
239.112	8583.59
239.184	8553.7
239.255	8549.8
239.327	8581.26
239.399	8591.55
239.471	8625.62
239.542	8657.85
239.614	8709.15
239.686	8642.82
239.758	8687.38
239.829	8659.98
239.901	8707.86
239.973	8723.6
240.044	8742.99
240.116	8748.82
240.188	8761.09
240.259	8770.81
240.331	8755.45
240.403	8781.24
240.474	8737.91
240.546	8731.94
240.618	8683.76
240.689	8679.57
240.761	8699.4
240.833	8746.38
240.904	8750.62
240.976	8747.78
241.048	8765.73
241.119	8797.13
241.191	8834.33
241.262	8892.26
241.334	8897.08
241.405	8900.98
241.477	8907.62
241.549	8916.86
241.62	8933.47
241.692	8972.7
241.763	9021.86
241.835	9039.1
241.906	9052.09
241.978	9028.8
242.049	9079.39
242.121	9127.67
242.192	9182.98
242.264	9155.79
242.335	9118.91
242.407	9158.49
242.478	9166.57
242.55	9179
242.621	9161.71
242.693	9158.58
242.764	9147.31
242.836	9146.58
242.907	9172.25
242.979	9197.52
243.05	9215.15
243.122	9237.73
243.193	9231.33
243.264	9168.49
243.336	9177.31
243.407	9211.3
243.479	9279.52
243.55	9303.89
243.622	9311.45
243.693	9304.76
243.764	9360.89
243.836	9344.92
243.907	9334.85
243.978	9338.13
244.05	9358.74
244.121	9322.39
244.192	9358.94
244.264	9315.6
244.335	9332.21
244.407	9287.53
244.478	9299.14
244.549	9294.32
244.62	9254.84
244.692	9254.26
244.763	9296.43
244.834	9284.49
244.906	9258.06
244.977	9272.8
245.048	9311.48
245.119	9297.47
245.191	9281.39
245.262	9228.42
245.333	9295.29
245.405	9309.3
245.476	9338.96
245.547	9355.48
245.618	9396.4
245.689	9408.92
245.761	9436.32
245.832	9437.86
245.903	9477.92
245.974	9496.51
246.045	9504.36
246.117	9578.86
246.188	9567.35
246.259	9552.67
246.33	9564.56
246.401	9578.62
246.473	9549.24
246.544	9536.13
246.615	9579.62
246.686	9590.55
246.757	9654.59
246.828	9628.54
246.899	9685.15
246.97	9660.11
247.042	9649.37
247.113	9682.84
247.184	9746.11
247.255	9747.26
247.326	9767.2
247.397	9770.38
247.468	9780.54
247.539	9792.39
247.61	9753.81
247.681	9789.49
247.752	9829.89
247.823	9811.55
247.894	9825.03
247.965	9803.27
248.037	9787.85
248.108	9753.99
248.179	9756.26
248.25	9746.43
248.321	9775.18
248.392	9738.71
248.463	9801.56
248.534	9796.59
248.605	9817.6
248.675	9794.47
248.746	9811.37
248.817	9824.53
248.888	9845.38
248.959	9796.45
249.03	9815.77
249.101	9822.85
249.172	9813.02
249.243	9754.95
249.314	9810.96
249.385	9823
249.456	9855.41
249.527	9856.18
249.598	9869.57
249.669	9870.39
249.739	9884.94
249.81	9898.18
249.881	9861.48
249.952	9853.87
250.023	9854.84
250.094	9812.78
250.165	9789.27
250.235	9779.92
250.306	9785.37
250.377	9766.39
250.448	9794.08
250.519	9743.61
250.59	9788.26
250.66	9790.48
250.731	9851.63
250.802	9845.9
250.873	9852.11
250.944	9865.17
251.014	9849.7
251.085	9924.96
251.156	9947.26
251.227	9988.89
251.297	10032.73
251.368	10074.44
251.439	10106.53
251.51	10148.92
251.58	10138.23
251.651	10140.59
251.722	10186.99
251.792	10152.3
251.863	10144.31
251.934	10199.28
252.005	10290.42
252.075	10296.05
252.146	10341.72
252.217	10377.56
252.287	10413.94
252.358	10422.85
252.429	10483.23
252.499	10481.45
252.57	10486.22
252.641	10521.43
252.711	10523.75
252.782	10488.53
252.852	10552.47
252.923	10552.28
252.994	10567.41
253.064	10608.4
253.135	10593.66
253.205	10575.97
253.276	10636.92
253.347	10697.13
253.417	10674.73
253.488	10656.03
253.558	10651.07
253.629	10640.85
253.699	10653
253.77	10675.36
253.841	10670.44
253.911	10675.02
253.982	10694.19
254.052	10714.29
254.123	10722.72
254.193	10723.45
254.264	10826.19
254.334	10793.52
254.405	10762.78
254.475	10732.95
254.546	10739.79
254.616	10783.11
254.687	10806.38
254.757	10814.77
254.827	10807.49
254.898	10828.02
254.968	10835.34
255.039	10813.81
255.109	10847.24
255.18	10828.93
255.25	10774.48
255.321	10802.48
255.391	10770.19
255.461	10845.99
255.532	10787.05
255.602	10782.09
255.673	10738.91
255.743	10711.39
255.813	10655.99
255.884	10700.66
255.954	10732.55
256.024	10782.05
256.095	10788.07
256.165	10756.85
256.235	10779.4
256.306	10769.81
256.376	10805.43
256.446	10833.52
256.517	10866.48
256.587	10902.58
256.657	10911.44
256.728	10929.12
256.798	10934.57
256.868	10935.44
256.938	10910.13
257.009	10948.25
257.079	10975.62
257.149	11057.21
257.219	11010.51
257.29	11040.42
257.36	10992.96
257.43	11019.37
257.5	10969.3
257.571	10959.33
257.641	10997.87
257.711	10964.76
257.781	10988.57
257.852	11000.57
257.922	10956.19
257.992	10959.95
258.062	10943.03
258.132	10979.56
258.202	10985
258.273	10990.16
258.343	11048.28
258.413	11031.75
258.483	11036.14
258.553	11011.56
258.623	10983.22
258.693	11010.21
258.764	11064.27
258.834	11121.37
258.904	11133.9
258.974	11127.11
259.044	11135.74
259.114	11162.34
259.184	11190.58
259.254	11196.61
259.324	11148.89
259.394	11182.38
259.464	11245.33
259.535	11261.76
259.605	11257.96
259.675	11248.37
259.745	11283.79
259.815	11256.22
259.885	11259.21
259.955	11343.52
260.025	11338.12
260.095	11353.49
260.165	11372.53
260.235	11429.31
260.305	11421.36
260.375	11399.24
260.445	11471.62
260.515	11527.96
260.585	11559.25
260.655	11563.78
260.725	11604.89
260.795	11639.25
260.865	11703.98
260.934	11676.65
261.004	11699.11
261.074	11701.38
261.144	11754.53
261.214	11779.55
261.284	11784.46
261.354	11813.76
261.424	11777.08
261.494	11830.48
261.564	11838.43
261.634	11859.06
261.703	11806.47
261.773	11825.8
261.843	11855.05
261.913	11849.99
261.983	11808.64
262.053	11824.35
262.123	11822.47
262.192	11782.37
262.262	11816.11
262.332	11769.6
262.402	11793.65
262.472	11798.28
262.541	11752.64
262.611	11790
262.681	11766.72
262.751	11802.72
262.821	11806
262.89	11781.13
262.96	11801.71
263.03	11860.23
263.1	11881.77
263.169	11904.09
263.239	11931.32
263.309	11985.55
263.379	12010.76
263.448	12025.22
263.518	12047.35
263.588	12067.98
263.657	12136.18
263.727	12169.87
263.797	12186.98
263.867	12187.9
263.936	12157.53
264.006	12207.8
264.076	12204.86
