Data from 20250626_urea_1M_exp2_MAYP1162681_23-13-58-862.txt Node
Date: Thu Jun 26 23:13:58 BST 2025
User: adleo
Spectrometer: MAYP116268
Trigger mode: 0
Integration Time (sec): 3.000000E0
Scans to average: 1
Electric dark correction enabled: true
Nonlinearity correction enabled: true
Boxcar width: 10
XAxis mode: Wavelengths
Number of Pixels in Spectrum: 2068
>>>>>Begin Spectral Data<<<<<
179.565	2842.45
179.642	2993.49
179.718	3107.15
179.795	3216.42
179.871	3299.99
179.948	3353.72
180.024	3406.98
180.101	3468
180.177	3500.33
180.254	3561.18
180.33	3619.34
180.407	3812.92
180.483	4034.62
180.56	4259.88
180.636	4468.41
180.712	4440.26
180.789	4457.11
180.865	4489.58
180.942	4516.56
181.018	4547.85
181.095	4588.83
181.171	4598.83
181.248	4600.27
181.324	4645.71
181.4	4660.41
181.477	4689.32
181.553	4715.73
181.63	4769.88
181.706	4810.48
181.782	4838.94
181.859	4837.56
181.935	4852.35
182.011	4849.43
182.088	4893.39
182.164	4942.17
182.24	4974.62
182.317	4997.17
182.393	4996.6
182.469	5027.34
182.546	5064.31
182.622	5072.17
182.698	5058.85
182.775	5095.77
182.851	5132.66
182.927	5110.95
183.003	5100.37
183.08	5089.64
183.156	5118
183.232	5111.62
183.308	5083.7
183.385	5099.07
183.461	5142.66
183.537	5144.72
183.613	5172.12
183.69	5148.17
183.766	5122.76
183.842	5142.7
183.918	5160.23
183.995	5192.75
184.071	5203.1
184.147	5184.85
184.223	5158.9
184.299	5190.63
184.375	5162.22
184.452	5179.2
184.528	5279.7
184.604	5306.05
184.68	5336.75
184.756	5352.52
184.832	5364.94
184.908	5380.74
184.985	5383.28
185.061	5345.29
185.137	5363.26
185.213	5335.95
185.289	5343.18
185.365	5323.35
185.441	5317.55
185.517	5347.52
185.593	5339.23
185.669	5333.38
185.745	5361.18
185.822	5403.17
185.898	5378.35
185.974	5397.74
186.05	5374.73
186.126	5308.87
186.202	5292.15
186.278	5279.5
186.354	5255.44
186.43	5268.1
186.506	5256.17
186.582	5257.32
186.658	5269.15
186.734	5220.92
186.81	5227.58
186.886	5231.36
186.962	5261.74
187.038	5253.97
187.114	5233.02
187.19	5249.03
187.266	5225.08
187.341	5228.34
187.417	5209.37
187.493	5212.34
187.569	5222.93
187.645	5208.51
187.721	5181.14
187.797	5203.75
187.873	5212.86
187.949	5197.1
188.025	5184.35
188.101	5196.51
188.176	5205.76
188.252	5195.75
188.328	5216.04
188.404	5216.95
188.48	5205.99
188.556	5184.04
188.632	5184.76
188.707	5191.47
188.783	5186.15
188.859	5169.73
188.935	5139.88
189.011	5160.09
189.086	5145.25
189.162	5126.94
189.238	5120
189.314	5111.76
189.39	5093.12
189.465	5076.4
189.541	5120.96
189.617	5082.93
189.693	5069.95
189.768	5079.01
189.844	5141.18
189.92	5120.98
189.996	5141.34
190.071	5168.08
190.147	5173.35
190.223	5194.34
190.298	5172.53
190.374	5139.86
190.45	5179.32
190.526	5200.11
190.601	5190.05
190.677	5192.73
190.753	5266.64
190.828	5277.8
190.904	5317.43
190.98	5355.2
191.055	5378.63
191.131	5354.66
191.207	5406.56
191.282	5431.7
191.358	5407.51
191.433	5375.76
191.509	5413.06
191.585	5403.47
191.66	5406.4
191.736	5425.13
191.811	5397.05
191.887	5440.78
191.963	5501.27
192.038	5507.79
192.114	5513.35
192.189	5518.71
192.265	5512.49
192.34	5448.64
192.416	5446.53
192.491	5438.19
192.567	5446.2
192.642	5456.32
192.718	5459.34
192.793	5428.8
192.869	5417.35
192.944	5427.7
193.02	5440.59
193.095	5448.07
193.171	5466.57
193.246	5460.24
193.322	5454.16
193.397	5459.57
193.473	5424.13
193.548	5379.93
193.624	5397
193.699	5385.92
193.775	5421.5
193.85	5427.01
193.925	5449.78
194.001	5448.96
194.076	5428.02
194.152	5400.21
194.227	5377.39
194.302	5355.93
194.378	5362.4
194.453	5350.76
194.529	5380.77
194.604	5348.03
194.679	5335.48
194.755	5285.23
194.83	5318.85
194.905	5308.21
194.981	5329.25
195.056	5308.12
195.131	5325.09
195.207	5315.4
195.282	5290.49
195.357	5246.09
195.433	5280.55
195.508	5249.87
195.583	5270.29
195.659	5309.17
195.734	5325.47
195.809	5330.26
195.884	5352.68
195.96	5353.78
196.035	5395.57
196.11	5381.04
196.185	5407.59
196.261	5412.38
196.336	5489.87
196.411	5448.11
196.486	5466.03
196.561	5451.75
196.637	5479.63
196.712	5519.26
196.787	5534.99
196.862	5580.32
196.937	5602.56
197.013	5616.61
197.088	5647.96
197.163	5696.31
197.238	5734.67
197.313	5736.49
197.388	5765.02
197.464	5838.68
197.539	5869.36
197.614	5852.73
197.689	5885.15
197.764	5926.84
197.839	5981.52
197.914	5971.45
197.989	6036.4
198.065	6065.75
198.14	6197.57
198.215	6262.88
198.29	6290.5
198.365	6319.87
198.44	6344.05
198.515	6421.24
198.59	6462.96
198.665	6526.71
198.74	6551.92
198.815	6554.18
198.89	6615.77
198.965	6691.18
199.04	6681.48
199.115	6721.51
199.19	6830.41
199.265	6842.6
199.34	6868.34
199.415	6951.68
199.49	7003.39
199.565	7025.49
199.64	7095.58
199.715	7082.69
199.79	7094.7
199.865	7108.39
199.94	7102.44
200.015	7186.54
200.09	7201.1
200.165	7219.07
200.24	7234.64
200.315	7330.99
200.39	7370.63
200.464	7381.4
200.539	7384.14
200.614	7424.26
200.689	7488.34
200.764	7505.61
200.839	7541.44
200.914	7556.34
200.989	7530.46
201.063	7567.67
201.138	7525.17
201.213	7521.37
201.288	7472.54
201.363	7487.01
201.438	7489.99
201.512	7531.49
201.587	7479.57
201.662	7486.25
201.737	7515.82
201.812	7537.12
201.886	7456.78
201.961	7480.44
202.036	7449.7
202.111	7444.02
202.186	7369.39
202.26	7319.1
202.335	7264.49
202.41	7256.56
202.485	7210.16
202.559	7158.12
202.634	7085.9
202.709	7112.45
202.784	7062.43
202.858	7060.65
202.933	7011.84
203.008	6992.29
203.082	6948.53
203.157	6947.23
203.232	6836.53
203.306	6778.52
203.381	6695.31
203.456	6630.91
203.53	6567.21
203.605	6521.77
203.68	6462.87
203.754	6442.44
203.829	6399.7
203.904	6344.46
203.978	6311.22
204.053	6326.97
204.127	6295.11
204.202	6293.33
204.277	6242.75
204.351	6222.01
204.426	6205.98
204.5	6185.05
204.575	6096.41
204.65	6115.62
204.724	6092.23
204.799	6117.92
204.873	6106.45
204.948	6102.56
205.022	6077.86
205.097	6061.87
205.171	6093.97
205.246	6116.39
205.32	6122.05
205.395	6123.63
205.469	6103.93
205.544	6118.19
205.618	6066.55
205.693	6097.99
205.767	6065.7
205.842	6124.3
205.916	6112.36
205.991	6085.54
206.065	6102.04
206.14	6142.97
206.214	6132.27
206.289	6117.82
206.363	6143.97
206.438	6154.53
206.512	6176.99
206.586	6224.78
206.661	6244.52
206.735	6185.48
206.81	6185.2
206.884	6219.11
206.958	6188.65
207.033	6227.31
207.107	6241.57
207.181	6322.32
207.256	6306.29
207.33	6353.31
207.405	6380.32
207.479	6428.08
207.553	6451.69
207.628	6407.7
207.702	6435.01
207.776	6420.94
207.851	6432.51
207.925	6474.3
207.999	6462.2
208.073	6450.63
208.148	6456.15
208.222	6428.93
208.296	6514.37
208.371	6558.63
208.445	6583.65
208.519	6654.35
208.593	6689.02
208.668	6687
208.742	6698.3
208.816	6701.13
208.89	6737.36
208.965	6737.36
209.039	6760.47
209.113	6800.43
209.187	6854.64
209.261	6847.25
209.336	6900.66
209.41	6947.4
209.484	6946.54
209.558	7005.97
209.632	7040.3
209.707	7069.41
209.781	7124.03
209.855	7161.14
209.929	7195.82
210.003	7210.23
210.077	7210.04
210.151	7328.47
210.226	7413.82
210.3	7481.56
210.374	7545.45
210.448	7558.43
210.522	7586.76
210.596	7610.99
210.67	7638.63
210.744	7765.59
210.818	7845.93
210.892	7895.75
210.966	7886.28
211.041	7925.86
211.115	7913.55
211.189	7972.69
211.263	8014.81
211.337	8029.23
211.411	8061.7
211.485	8049.77
211.559	8086.45
211.633	8095.63
211.707	8018.3
211.781	8034.18
211.855	7944.19
211.929	7920.73
212.003	7873.59
212.077	7894.38
212.151	7925.36
212.225	7944.55
212.299	7909.02
212.373	7881.28
212.447	7866.46
212.52	7937.4
212.594	7945.49
212.668	7980.49
212.742	7949.61
212.816	7935.52
212.89	7923.5
212.964	7919.94
213.038	7933.17
213.112	7961.12
213.186	7992.47
213.26	7938.03
213.333	7820.22
213.407	7835.45
213.481	7844.29
213.555	7866.34
213.629	7832.19
213.703	7785.68
213.777	7780.82
213.85	7722.58
213.924	7808.36
213.998	7807.06
214.072	7783.1
214.146	7739.38
214.219	7724.57
214.293	7708.04
214.367	7712.89
214.441	7732.66
214.515	7700.34
214.588	7631.48
214.662	7535.72
214.736	7477.7
214.81	7488.37
214.883	7506.62
214.957	7468.23
215.031	7422.6
215.105	7353.62
215.178	7305.75
215.252	7273.02
215.326	7197.95
215.4	7142.01
215.473	7004.16
215.547	6936.62
215.621	6889.07
215.694	6888.88
215.768	6818.44
215.842	6775.5
215.915	6716.96
215.989	6630.96
216.063	6585.07
216.136	6569.32
216.21	6548.44
216.284	6558.52
216.357	6540.47
216.431	6505.37
216.504	6499.41
216.578	6542.55
216.652	6555.74
216.725	6543.39
216.799	6553.67
216.873	6535.77
216.946	6542.3
217.02	6514.57
217.093	6490.04
217.167	6414
217.24	6350.94
217.314	6320.72
217.387	6282.68
217.461	6253.3
217.535	6270.24
217.608	6229.59
217.682	6211.83
217.755	6225.22
217.829	6181.92
217.902	6174.62
217.976	6162.53
218.049	6128.75
218.123	6070.83
218.196	6072.22
218.27	6045.16
218.343	5992.35
218.417	5989.32
218.49	5969.99
218.563	6001.8
218.637	6017.49
218.71	6077.77
218.784	6100.24
218.857	6126.81
218.931	6144.55
219.004	6145.47
219.077	6161.17
219.151	6168.6
219.224	6159.82
219.298	6158.29
219.371	6189.92
219.444	6152.98
219.518	6163.44
219.591	6175.67
219.665	6254.74
219.738	6261.6
219.811	6252.77
219.885	6282.53
219.958	6311.23
220.031	6315.22
220.105	6333.75
220.178	6330.58
220.251	6309.79
220.325	6325.06
220.398	6337.54
220.471	6350.49
220.544	6376.9
220.618	6356.34
220.691	6379.19
220.764	6393.3
220.838	6409.96
220.911	6399.3
220.984	6467.25
221.057	6495.39
221.131	6514.44
221.204	6446.17
221.277	6506.4
221.35	6598.23
221.424	6597.12
221.497	6605.91
221.57	6624.34
221.643	6641.97
221.716	6677.03
221.79	6683.8
221.863	6694.56
221.936	6704.98
222.009	6717.27
222.082	6742.25
222.155	6755.69
222.229	6806.04
222.302	6830.25
222.375	6836.15
222.448	6864.15
222.521	6871.55
222.594	6867.04
222.667	6849.04
222.74	6891.06
222.814	6878.52
222.887	6859.67
222.96	6902.48
223.033	6933.62
223.106	6954.79
223.179	6979.21
223.252	6987.91
223.325	7008.85
223.398	7021.25
223.471	7035.37
223.544	7055.88
223.617	7071.45
223.69	7086.15
223.763	7061.06
223.837	7078.36
223.91	7104.79
223.983	7075.44
224.056	7046.62
224.129	7063.63
224.202	7104.34
224.275	7096.65
224.348	7072.87
224.42	7049.81
224.493	7006.48
224.566	6990.37
224.639	7004.55
224.712	6984.88
224.785	6978.49
224.858	6973.69
224.931	6954.37
225.004	6930.17
225.077	6930.12
225.15	6853.04
225.223	6855.2
225.296	6916.89
225.369	6867.95
225.442	6843.1
225.514	6852.04
225.587	6866.49
225.66	6870.72
225.733	6874.75
225.806	6875.57
225.879	6876.39
225.952	6854.3
226.025	6891.91
226.097	6931.96
226.17	6925.14
226.243	6879.75
226.316	6876
226.389	6877.06
226.461	6894.98
226.534	6905.36
226.607	6897.86
226.68	6960.62
226.753	6951.92
226.825	6891.29
226.898	6938.5
226.971	6936.01
227.044	6956.13
227.117	6961.94
227.189	6978.81
227.262	7005.92
227.335	7026.68
227.407	7024.52
227.48	7052.85
227.553	7056.55
227.626	7040.25
227.698	7042.08
227.771	7069.59
227.844	7055.71
227.916	7071.13
227.989	7045.04
228.062	7049.75
228.134	7114.59
228.207	7115.84
228.28	7106.38
228.352	7112
228.425	7121.42
228.498	7160.63
228.57	7147.23
228.643	7194.29
228.716	7200.4
228.788	7190.4
228.861	7182.32
228.934	7232.44
229.006	7237.49
229.079	7244.79
229.151	7235.51
229.224	7214.48
229.296	7235.62
229.369	7313.99
229.442	7354.86
229.514	7344.49
229.587	7381.16
229.659	7322.7
229.732	7338.61
229.804	7374.99
229.877	7435.67
229.949	7455.1
230.022	7498.87
230.094	7498
230.167	7492.71
230.239	7459.22
230.312	7451.43
230.384	7504.04
230.457	7496.88
230.529	7506.15
230.602	7506.15
230.674	7512.88
230.747	7544.15
230.819	7566.12
230.892	7472.96
230.964	7472.77
231.037	7495.87
231.109	7487.12
231.181	7520.04
231.254	7492.55
231.326	7479.67
231.399	7462.59
231.471	7446
231.544	7379.59
231.616	7412.55
231.688	7411.49
231.761	7401.12
231.833	7395.3
231.905	7334.09
231.978	7340.1
232.05	7323.28
232.122	7321.74
232.195	7301.36
232.267	7332.71
232.339	7314.24
232.412	7369.89
232.484	7348.39
232.556	7328.65
232.629	7379.44
232.701	7388.33
232.773	7395.92
232.846	7393.66
232.918	7398.09
232.99	7406.41
233.062	7439.14
233.135	7449.14
233.207	7425.2
233.279	7458.21
233.351	7477.82
233.424	7478.15
233.496	7449.22
233.568	7513.59
233.64	7489.66
233.713	7504.75
233.785	7502.35
233.857	7516.48
233.929	7477.17
234.001	7529.99
234.074	7581.5
234.146	7522.21
234.218	7523.75
234.29	7524.9
234.362	7518.85
234.434	7481.77
234.507	7456.63
234.579	7417.02
234.651	7401.4
234.723	7421.3
234.795	7433.8
234.867	7433.99
234.939	7480.48
235.012	7499.23
235.084	7503.85
235.156	7533.02
235.228	7517.11
235.3	7498.84
235.372	7501.05
235.444	7545.37
235.516	7480.14
235.588	7484.66
235.66	7500.52
235.732	7476.01
235.804	7624.86
235.876	7653.55
235.948	7705.4
236.02	7718.37
236.092	7733.17
236.164	7742.21
236.236	7746.4
236.308	7748.32
236.38	7770.1
236.452	7753.12
236.524	7771.06
236.596	7820.11
236.668	7843.62
236.74	7870.93
236.812	7898.48
236.884	7930.85
236.956	7943.45
237.028	7941
237.1	7927.73
237.172	7980.11
237.244	8042.78
237.316	7954.81
237.388	7938.03
237.46	7915.9
237.532	7960.05
237.604	7957.07
237.675	8017.64
237.747	8046.5
237.819	8033.13
237.891	8040.16
237.963	8034.24
238.035	8025.01
238.107	7940.08
238.178	7985.85
238.25	7986.85
238.322	8050.72
238.394	8020.65
238.466	8015.55
238.538	8043.92
238.609	8075.23
238.681	8040.01
238.753	8024.32
238.825	8039
238.897	8067.13
238.968	8131.81
239.04	8120.31
239.112	8199.68
239.184	8168.5
239.255	8168.93
239.327	8201.24
239.399	8212.36
239.471	8248.57
239.542	8279.79
239.614	8326.35
239.686	8266.93
239.758	8305.99
239.829	8278.88
239.901	8318.77
239.973	8337.24
240.044	8363.17
240.116	8370.72
240.188	8381.06
240.259	8390.3
240.331	8378.32
240.403	8408.72
240.474	8372.18
240.546	8365.26
240.618	8321.37
240.689	8317.28
240.761	8333.07
240.833	8376.23
240.904	8374.98
240.976	8372.77
241.048	8385.81
241.119	8415.61
241.191	8454
241.262	8505.17
241.334	8514.66
241.405	8518.84
241.477	8515.04
241.549	8523.03
241.62	8538.33
241.692	8574.52
241.763	8618.52
241.835	8637.19
241.906	8647.35
241.978	8626.32
242.049	8676.75
242.121	8726.27
242.192	8780.07
242.264	8752.93
242.335	8720.78
242.407	8756.49
242.478	8759.38
242.55	8775.7
242.621	8764.62
242.693	8757.89
242.764	8749.17
242.836	8745.8
242.907	8772.33
242.979	8800.14
243.05	8816.8
243.122	8839.66
243.193	8831.77
243.264	8782.38
243.336	8786.86
243.407	8811.6
243.479	8880.43
243.55	8888.33
243.622	8892.18
243.693	8893.72
243.764	8951.09
243.836	8935.07
243.907	8924.29
243.978	8931.51
244.05	8945.23
244.121	8912.26
244.192	8947.74
244.264	8909.27
244.335	8923.71
244.407	8889.2
244.478	8900.75
244.549	8895.17
244.62	8859.51
244.692	8860.9
244.763	8895.07
244.834	8884.15
244.906	8868.84
244.977	8873.99
245.048	8916.95
245.119	8906.74
245.191	8886.48
245.262	8836.27
245.333	8891.8
245.405	8905.81
245.476	8933.97
245.547	8951.84
245.618	8993.03
245.689	8996.79
245.761	9023.89
245.832	9023.12
245.903	9056.72
245.974	9075.4
246.045	9084.89
246.117	9156.91
246.188	9145.02
246.259	9128.8
246.33	9144.88
246.401	9152.92
246.473	9127.4
246.544	9125.47
246.615	9172.08
246.686	9178.48
246.757	9236.25
246.828	9220.07
246.899	9276.66
246.97	9252.16
247.042	9245.28
247.113	9277.35
247.184	9348.98
247.255	9352.4
247.326	9373.68
247.397	9375.41
247.468	9387.12
247.539	9398.62
247.61	9354.85
247.681	9387.44
247.752	9424.03
247.823	9404.68
247.894	9419.36
247.965	9399.67
248.037	9383.1
248.108	9336.83
248.179	9341.64
248.25	9334.66
248.321	9363.69
248.392	9329.11
248.463	9393.53
248.534	9389.53
248.605	9400.03
248.675	9383.75
248.746	9392.32
248.817	9409.03
248.888	9423.77
248.959	9379.66
249.03	9400.03
249.101	9410.62
249.172	9398.68
249.243	9351.36
249.314	9402.35
249.385	9412.13
249.456	9436.25
249.527	9431.43
249.598	9444.96
249.669	9439.57
249.739	9454.3
249.81	9459.46
249.881	9432.3
249.952	9415.3
250.023	9415.63
250.094	9379.46
250.165	9351.81
250.235	9350.51
250.306	9357.88
250.377	9341.32
250.448	9368.18
250.519	9316.28
250.59	9361.98
250.66	9365.3
250.731	9418.16
250.802	9416.67
250.873	9426.64
250.944	9443.11
251.014	9436.13
251.085	9512.71
251.156	9534.48
251.227	9562.8
251.297	9600.47
251.368	9631.04
251.439	9671.36
251.51	9710.42
251.58	9700.07
251.651	9693.33
251.722	9736.92
251.792	9697.38
251.863	9693.72
251.934	9731.82
252.005	9818.17
252.075	9821.39
252.146	9863.82
252.217	9898.5
252.287	9932.51
252.358	9936.31
252.429	9992.53
252.499	9988.25
252.57	9993.35
252.641	10031.93
252.711	10045.42
252.782	10014.69
252.852	10075.15
252.923	10067.3
252.994	10082.24
253.064	10123.46
253.135	10107.13
253.205	10088.97
253.276	10145.03
253.347	10198.64
253.417	10183.27
253.488	10168.87
253.558	10161.93
253.629	10159.67
253.699	10175.37
253.77	10196.09
253.841	10192.58
253.911	10197.78
253.982	10212.9
254.052	10232.08
254.123	10241.38
254.193	10243.31
254.264	10352.64
254.334	10323.63
254.405	10301.18
254.475	10272.62
254.546	10281.72
254.616	10330.32
254.687	10353.11
254.757	10363.42
254.827	10359.28
254.898	10382.3
254.968	10385.48
255.039	10373.68
255.109	10401.05
255.18	10378.59
255.25	10318.95
255.321	10348.72
255.391	10318.9
255.461	10385.58
255.532	10324.33
255.602	10322.5
255.673	10277.56
255.743	10245.84
255.813	10196.72
255.884	10236.22
255.954	10265.8
256.024	10309.69
256.095	10323.23
256.165	10296.69
256.235	10318.57
256.306	10312.4
256.376	10349.69
256.446	10388.39
256.517	10416.18
256.587	10451.41
256.657	10462.87
256.728	10483.34
256.798	10487.34
256.868	10480.12
256.938	10456.89
257.009	10501.07
257.079	10524.63
257.149	10599.26
257.219	10558.35
257.29	10587.68
257.36	10545.72
257.43	10577.24
257.5	10527.7
257.571	10509.59
257.641	10542.25
257.711	10512.04
257.781	10532.75
257.852	10540.27
257.922	10493.1
257.992	10490.12
258.062	10482.89
258.132	10515.27
258.202	10517.15
258.273	10529.96
258.343	10589.91
258.413	10575.93
258.483	10573.86
258.553	10554.01
258.623	10529.91
258.693	10548.56
258.764	10607.1
258.834	10661.49
258.904	10674.02
258.974	10666.89
259.044	10680.05
259.114	10703.32
259.184	10728.57
259.254	10736.14
259.324	10697.78
259.394	10727.51
259.464	10786.2
259.535	10793.09
259.605	10789.62
259.675	10786.44
259.745	10816.99
259.815	10804.95
259.885	10809.81
259.955	10898.35
260.025	10885.49
260.095	10908.86
260.165	10936.09
260.235	10974.12
260.305	10970.84
260.375	10945.68
260.445	11023.07
260.515	11075.31
260.585	11105
260.655	11113.62
260.725	11150.58
260.795	11179.59
260.865	11238.05
260.934	11220.89
261.004	11242.24
261.074	11247.74
261.144	11297.65
261.214	11316.26
261.284	11313.7
261.354	11349.36
261.424	11323.04
261.494	11382.46
261.564	11382.89
261.634	11397.16
261.703	11348.86
261.773	11364.81
261.843	11391.51
261.913	11378.31
261.983	11337.25
262.053	11358.45
262.123	11352.62
262.192	11312.53
262.262	11343.71
262.332	11308.91
262.402	11335.04
262.472	11341.59
262.541	11293.17
262.611	11331.72
262.681	11315.92
262.751	11351.92
262.821	11353.6
262.89	11329.55
262.96	11342.9
263.03	11405.03
263.1	11419.49
263.169	11437.71
263.239	11464.65
263.309	11520.9
263.379	11547.17
263.448	11564.03
263.518	11581.34
263.588	11600.42
263.657	11665.1
263.727	11695.95
263.797	11708.67
263.867	11708.67
263.936	11681.2
264.006	11732.13
264.076	11727.98
264.145	11726.39
264.215	11709.62
264.285	11738.59
