Data from 20250626_urea_1M_exp2_MAYP1162681_12-23-58-046.txt Node
Date: Fri Jun 27 12:23:58 BST 2025
User: adleo
Spectrometer: MAYP116268
Trigger mode: 0
Integration Time (sec): 3.000000E0
Scans to average: 1
Electric dark correction enabled: true
Nonlinearity correction enabled: true
Boxcar width: 10
XAxis mode: Wavelengths
Number of Pixels in Spectrum: 2068
>>>>>Begin Spectral Data<<<<<
179.565	3137.16
179.642	3296
179.718	3418.72
179.795	3536.69
179.871	3630.36
179.948	3686.87
180.024	3750.86
180.101	3815.67
180.177	3861.28
180.254	3928.38
180.33	3994.21
180.407	4213.47
180.483	4461.02
180.56	4706.53
180.636	4934.73
180.712	4905.79
180.789	4927.68
180.865	4961.42
180.942	4988.52
181.018	5014.62
181.095	5057.56
181.171	5068.33
181.248	5074.75
181.324	5120.28
181.4	5137.63
181.477	5167.91
181.553	5201.9
181.63	5256.82
181.706	5298.47
181.782	5320.69
181.859	5313.93
181.935	5327.11
182.011	5319.73
182.088	5364.17
182.164	5419.13
182.24	5453.38
182.317	5478.44
182.393	5474.99
182.469	5511.6
182.546	5551.34
182.622	5566.06
182.698	5556.23
182.775	5594.44
182.851	5631.98
182.927	5609.59
183.003	5601.25
183.08	5582.41
183.156	5608.73
183.232	5601.97
183.308	5577.61
183.385	5596.74
183.461	5645.44
183.537	5649.33
183.613	5685.29
183.69	5655.71
183.766	5624.52
183.842	5644.33
183.918	5659.67
183.995	5689.2
184.071	5704.55
184.147	5686.86
184.223	5657.58
184.299	5685.78
184.375	5652.75
184.452	5671.37
184.528	5781.89
184.604	5808.98
184.68	5847.19
184.756	5866.09
184.832	5879.04
184.908	5887.57
184.985	5888.87
185.061	5847.01
185.137	5866.63
185.213	5834.21
185.289	5840.68
185.365	5821.6
185.441	5817.57
185.517	5855.82
185.593	5849.92
185.669	5842.01
185.745	5871.03
185.822	5914.88
185.898	5894.54
185.974	5920.14
186.05	5897.16
186.126	5831.14
186.202	5808.27
186.278	5796.28
186.354	5769.61
186.43	5784.92
186.506	5781.23
186.582	5777.4
186.658	5798.87
186.734	5747.62
186.81	5749.59
186.886	5755.82
186.962	5786.65
187.038	5775.91
187.114	5752.72
187.19	5768.79
187.266	5739.16
187.341	5741.08
187.417	5720.7
187.493	5716.77
187.569	5724.11
187.645	5707.76
187.721	5673.84
187.797	5697.86
187.873	5710.57
187.949	5695.76
188.025	5678.1
188.101	5688.64
188.176	5704.66
188.252	5693.25
188.328	5717.59
188.404	5717.73
188.48	5707.67
188.556	5691.03
188.632	5692.42
188.707	5694.24
188.783	5691.84
188.859	5682.31
188.935	5649.64
189.011	5672.23
189.086	5660.72
189.162	5638.28
189.238	5632.91
189.314	5630.18
189.39	5618.24
189.465	5595.98
189.541	5642.7
189.617	5602.57
189.693	5585.7
189.768	5592.32
189.844	5650.66
189.92	5625.74
189.996	5653.27
190.071	5680.6
190.147	5680.75
190.223	5706.89
190.298	5684.25
190.374	5646.99
190.45	5679.87
190.526	5706.68
190.601	5695.36
190.677	5698.1
190.753	5780.71
190.828	5791.49
190.904	5829.63
190.98	5866.57
191.055	5894.63
191.131	5874.14
191.207	5928.43
191.282	5953.11
191.358	5926.16
191.433	5889.3
191.509	5925.06
191.585	5914.31
191.66	5921.12
191.736	5942.03
191.811	5914.74
191.887	5958.12
191.963	6024.22
192.038	6035.5
192.114	6036.98
192.189	6043.65
192.265	6036.84
192.34	5968.86
192.416	5962.34
192.491	5952.31
192.567	5959.6
192.642	5964.55
192.718	5963.4
192.793	5933.46
192.869	5928.09
192.944	5937.58
193.02	5960.9
193.095	5967.23
193.171	5986.18
193.246	5979.32
193.322	5966.85
193.397	5969.29
193.473	5934.59
193.548	5882.01
193.624	5899.19
193.699	5892.81
193.775	5937.59
193.85	5937.68
193.925	5960.71
194.001	5958.03
194.076	5935.48
194.152	5906.31
194.227	5888.5
194.302	5861.61
194.378	5868.28
194.453	5861.42
194.529	5893.03
194.604	5850.24
194.679	5840.13
194.755	5787.82
194.83	5830.49
194.905	5829.15
194.981	5852.7
195.056	5826.57
195.131	5848.63
195.207	5837.36
195.282	5810.36
195.357	5753.3
195.433	5796.23
195.508	5763.12
195.583	5790.7
195.659	5834.8
195.734	5852.55
195.809	5853.42
195.884	5874.89
195.96	5877.19
196.035	5918.21
196.11	5910.39
196.185	5945.93
196.261	5949.09
196.336	6036.36
196.411	5987.2
196.486	6002.55
196.561	5982.21
196.637	6011.89
196.712	6051.69
196.787	6068.3
196.862	6112.19
196.937	6139.48
197.013	6156.95
197.088	6187.46
197.163	6243.84
197.238	6283.47
197.313	6282.75
197.388	6318.22
197.464	6397.16
197.539	6430.46
197.614	6408.92
197.689	6441.76
197.764	6487.14
197.839	6549.35
197.914	6531.49
197.989	6598.13
198.065	6634.09
198.14	6774.69
198.215	6843.51
198.29	6874.79
198.365	6914.37
198.44	6944.58
198.515	7026.25
198.59	7067.14
198.665	7137.23
198.74	7159.4
198.815	7167.14
198.89	7232.42
198.965	7313.13
199.04	7304.15
199.115	7345.42
199.19	7464.2
199.265	7469.63
199.34	7498.23
199.415	7584.27
199.49	7638.38
199.565	7660.97
199.64	7730.25
199.715	7721.59
199.79	7741.97
199.865	7761.54
199.94	7747.7
200.015	7833.4
200.09	7851.34
200.165	7865.72
200.24	7884.19
200.315	7987.96
200.39	8027.11
200.464	8043.27
200.539	8051.16
200.614	8097.99
200.689	8162.16
200.764	8177.56
200.839	8221.83
200.914	8231.36
200.989	8200.89
201.063	8242.46
201.138	8193.68
201.213	8188.43
201.288	8133.17
201.363	8145.97
201.438	8146.11
201.512	8193.32
201.587	8144.34
201.662	8146.46
201.737	8182.97
201.812	8203.81
201.886	8118.31
201.961	8145.7
202.036	8112.19
202.111	8098.81
202.186	8017.3
202.26	7970
202.335	7912.71
202.41	7903.48
202.485	7863.09
202.559	7809.91
202.634	7730.77
202.709	7757.48
202.784	7700.65
202.858	7703.73
202.933	7649.16
203.008	7630.94
203.082	7574.89
203.157	7575.76
203.232	7464
203.306	7406.09
203.381	7315.32
203.456	7251.58
203.53	7187.11
203.605	7131.93
203.68	7068.91
203.754	7051.82
203.829	7011.2
203.904	6949.04
203.978	6919.39
204.053	6929.96
204.127	6897.54
204.202	6895.76
204.277	6848.5
204.351	6835.1
204.426	6817.08
204.5	6800.27
204.575	6701.99
204.65	6732.12
204.724	6705.25
204.799	6729.39
204.873	6713.29
204.948	6714.16
205.022	6677.39
205.097	6650.81
205.171	6690.61
205.246	6712.19
205.32	6709.16
205.395	6705.37
205.469	6686.08
205.544	6695.12
205.618	6641.99
205.693	6675.86
205.767	6643.59
205.842	6703.93
205.916	6690.96
205.991	6660.18
206.065	6675.79
206.14	6721.93
206.214	6702.42
206.289	6679.12
206.363	6708.85
206.438	6719.9
206.512	6737.82
206.586	6790.73
206.661	6812.84
206.735	6749.39
206.81	6754.96
206.884	6794.33
206.958	6757.84
207.033	6803.87
207.107	6823.53
207.181	6911.47
207.256	6892.35
207.33	6948.98
207.405	6979.95
207.479	7032.99
207.553	7056.28
207.628	7006.93
207.702	7039.25
207.776	7020.52
207.851	7036.08
207.925	7070.64
207.999	7056.85
208.073	7047.44
208.148	7058.63
208.222	7028.89
208.296	7115.36
208.371	7156.86
208.445	7184.69
208.519	7265.44
208.593	7299.12
208.668	7287.97
208.742	7295.04
208.816	7304.6
208.89	7334.75
208.965	7331.96
209.039	7350.38
209.113	7389.21
209.187	7453.84
209.261	7443.51
209.336	7508.98
209.41	7568.6
209.484	7577.06
209.558	7646.49
209.632	7686.86
209.707	7718.31
209.781	7777.44
209.855	7823.8
209.929	7868.9
210.003	7891.07
210.077	7886.16
210.151	8014.97
210.226	8115.68
210.3	8185.52
210.374	8250.67
210.448	8270.3
210.522	8299.75
210.596	8321.01
210.67	8348.38
210.744	8475.13
210.818	8563.95
210.892	8614.67
210.966	8590.38
211.041	8632.82
211.115	8617.96
211.189	8684.84
211.263	8725.59
211.337	8744.31
211.411	8784.12
211.485	8767.07
211.559	8794.35
211.633	8802.43
211.707	8723.65
211.781	8739.31
211.855	8645.31
211.929	8614.58
212.003	8560.43
212.077	8587.15
212.151	8623.25
212.225	8651.69
212.299	8616.68
212.373	8582.8
212.447	8566.87
212.52	8647.77
212.594	8652.82
212.668	8683.04
212.742	8638.57
212.816	8625.77
212.89	8607.34
212.964	8603.63
213.038	8611.38
213.112	8646.86
213.186	8681.93
213.26	8614.12
213.333	8484.59
213.407	8494.59
213.481	8514.55
213.555	8544.75
213.629	8501.47
213.703	8458.54
213.777	8454.88
213.85	8400.55
213.924	8487.63
213.998	8485.13
214.072	8465
214.146	8419.34
214.219	8411.83
214.293	8406.3
214.367	8400.23
214.441	8423.52
214.515	8379.05
214.588	8300.54
214.662	8201.39
214.736	8141.94
214.81	8160.39
214.883	8179.67
214.957	8145.1
215.031	8093.18
215.105	8020.77
215.178	7971.18
215.252	7937.18
215.326	7854.22
215.4	7782.7
215.473	7636.5
215.547	7569.74
215.621	7506.7
215.694	7511.9
215.768	7427.47
215.842	7367.77
215.915	7317.75
215.989	7221.45
216.063	7176.97
216.136	7165.87
216.21	7144.92
216.284	7147.85
216.357	7129.87
216.431	7095.08
216.504	7090.85
216.578	7134.31
216.652	7140.02
216.725	7125.85
216.799	7131.81
216.873	7115.04
216.946	7122.29
217.02	7092.96
217.093	7065.33
217.167	6990.05
217.24	6919.73
217.314	6890.98
217.387	6855.26
217.461	6812.36
217.535	6832.92
217.608	6778.94
217.682	6757.75
217.755	6766.83
217.829	6730.79
217.902	6710.09
217.976	6689.63
218.049	6653.76
218.123	6590.75
218.196	6590.56
218.27	6561.74
218.343	6505.24
218.417	6507.35
218.49	6490.45
218.563	6523.05
218.637	6531.46
218.71	6590.73
218.784	6609.03
218.857	6636.06
218.931	6651.27
219.004	6656.17
219.077	6674.14
219.151	6691.09
219.224	6689.26
219.298	6687.63
219.371	6720.59
219.444	6690.97
219.518	6702.97
219.591	6712.05
219.665	6797.75
219.738	6806.64
219.811	6790.27
219.885	6827.79
219.958	6853.97
220.031	6854.26
220.105	6865.69
220.178	6873.19
220.251	6848.59
220.325	6872.14
220.398	6885.3
220.471	6905.22
220.544	6940.39
220.618	6914.3
220.691	6935.48
220.764	6943.31
220.838	6963.97
220.911	6952.29
220.984	7018.28
221.057	7048.55
221.131	7066.9
221.204	6990.31
221.277	7050.92
221.35	7153.08
221.424	7143.66
221.497	7152.55
221.57	7175.17
221.643	7207.91
221.716	7240.45
221.79	7252.32
221.863	7257.8
221.936	7265.29
222.009	7276.29
222.082	7294.42
222.155	7308.83
222.229	7364.41
222.302	7391.8
222.375	7390.55
222.448	7422.76
222.521	7430.5
222.594	7428.38
222.667	7411.72
222.74	7459.3
222.814	7444.34
222.887	7428.46
222.96	7474.57
223.033	7503.85
223.106	7520.43
223.179	7542.41
223.252	7552.8
223.325	7572.65
223.398	7581.31
223.471	7600.39
223.544	7612.5
223.617	7631.01
223.69	7646.15
223.763	7614.37
223.837	7630.52
223.91	7662.88
223.983	7621.93
224.056	7591.46
224.129	7608.57
224.202	7651.09
224.275	7632.58
224.348	7612.78
224.42	7589.65
224.493	7545.27
224.566	7525.07
224.639	7542.52
224.712	7517.17
224.785	7504.24
224.858	7497.7
224.931	7484.81
225.004	7454.63
225.077	7457.71
225.15	7376.44
225.223	7381.01
225.296	7451.01
225.369	7403.23
225.442	7373.09
225.514	7381.93
225.587	7401.63
225.66	7411.97
225.733	7411.25
225.806	7421.15
225.879	7414.47
225.952	7390.92
226.025	7429.33
226.097	7470.7
226.17	7461.86
226.243	7407.8
226.316	7403.13
226.389	7403.13
226.461	7417.89
226.534	7433.61
226.607	7422.89
226.68	7493.86
226.753	7482.18
226.825	7409.54
226.898	7458.03
226.971	7457.84
227.044	7480.09
227.117	7487.93
227.189	7506.4
227.262	7534.48
227.335	7550.3
227.407	7548.38
227.48	7565.78
227.553	7575.2
227.626	7561.83
227.698	7574.33
227.771	7607.19
227.844	7591.23
227.916	7611.8
227.989	7583.49
228.062	7584.98
228.134	7660.24
228.207	7661.16
228.28	7656.06
228.352	7671.25
228.425	7678.03
228.498	7716.94
228.57	7702.23
228.643	7744.32
228.716	7740.23
228.788	7738.21
228.861	7729.17
228.934	7783.16
229.006	7794.31
229.079	7790.99
229.151	7779.35
229.224	7745.9
229.296	7767.29
229.369	7852.1
229.442	7895.16
229.514	7883.97
229.587	7923.06
229.659	7858.8
229.732	7870.01
229.804	7904.72
229.877	7965.88
229.949	7990.32
230.022	8032.47
230.094	8032.38
230.167	8019.92
230.239	7982.7
230.312	7964.95
230.384	8028.9
230.457	8023.42
230.529	8031.25
230.602	8028.37
230.674	8035.34
230.747	8073.75
230.819	8101.55
230.892	8006.16
230.964	7999.14
231.037	8022.88
231.109	8013.31
231.181	8046.29
231.254	8018.02
231.326	8005.99
231.399	7990.97
231.471	7970.62
231.544	7905.62
231.616	7942.69
231.688	7948.85
231.761	7939.24
231.833	7934.62
231.905	7863.08
231.978	7861.92
232.05	7849.62
232.122	7855.34
232.195	7838.12
232.267	7863.13
232.339	7840.23
232.412	7899.04
232.484	7875.8
232.556	7850.52
232.629	7906.1
232.701	7916.59
232.773	7920.72
232.846	7912.21
232.918	7905.81
232.99	7919.71
233.062	7952.42
233.135	7959.73
233.207	7932.94
233.279	7969.28
233.351	7990.64
233.424	7993.81
233.496	7975.77
233.568	8046.88
233.64	8019.23
233.713	8030.53
233.785	8034.18
233.857	8049.48
233.929	7997.16
234.001	8051.21
234.074	8106.93
234.146	8048.75
234.218	8050.97
234.29	8055.49
234.362	8050.15
234.434	8015.61
234.507	7984.87
234.579	7946.44
234.651	7925.86
234.723	7947.21
234.795	7961.55
234.867	7962.36
234.939	8005.71
235.012	8018.02
235.084	8013.49
235.156	8041.19
235.228	8029.07
235.3	8006.03
235.372	8013.44
235.444	8072.73
235.516	8008.34
235.588	8012.82
235.66	8025.37
235.732	8005.36
235.804	8158.9
235.876	8191.26
235.948	8246.6
236.02	8254.97
236.092	8265.07
236.164	8279.54
236.236	8282.96
236.308	8278.87
236.38	8301.87
236.452	8287.53
236.524	8306.05
236.596	8361.14
236.668	8395.93
236.74	8408.86
236.812	8438.83
236.884	8462.8
236.956	8468.48
237.028	8461.79
237.1	8446.11
237.172	8501.85
237.244	8564.21
237.316	8464.41
237.388	8450.17
237.46	8429.38
237.532	8483.75
237.604	8479.76
237.675	8544.5
237.747	8578.09
237.819	8571.64
237.891	8576.07
237.963	8574.48
238.035	8570.68
238.107	8481.91
238.178	8528.09
238.25	8537.56
238.322	8612.34
238.394	8580.05
238.466	8575.04
238.538	8616.03
238.609	8649.04
238.681	8604.27
238.753	8582.42
238.825	8603.12
238.897	8630.15
238.968	8692.84
239.04	8673.68
239.112	8761.9
239.184	8732.05
239.255	8730.31
239.327	8756.1
239.399	8770.64
239.471	8803.5
239.542	8834.25
239.614	8887.15
239.686	8820.23
239.758	8859.98
239.829	8826.9
239.901	8881.24
239.973	8899.38
240.044	8919.84
240.116	8930.57
240.188	8947.08
240.259	8958.44
240.331	8949
240.403	8979.18
240.474	8943.64
240.546	8934.35
240.618	8885.58
240.689	8877.69
240.761	8898.1
240.833	8955.01
240.904	8954.43
240.976	8955.78
241.048	8972.43
241.119	8999.02
241.191	9034.25
241.262	9095.08
241.334	9103.7
241.405	9103.55
241.477	9102.16
241.549	9108.95
241.62	9135.96
241.692	9168.98
241.763	9217.67
241.835	9236.98
241.906	9248.34
241.978	9221.24
242.049	9281.32
242.121	9326.14
242.192	9377.27
242.264	9351.17
242.335	9311.74
242.407	9348.52
242.478	9350.64
242.55	9361.96
242.621	9353.38
242.693	9351.8
242.764	9340.67
242.836	9337.54
242.907	9364.22
242.979	9397.39
243.05	9419.25
243.122	9435.72
243.193	9434.18
243.264	9378.28
243.336	9383.52
243.407	9410.97
243.479	9479.97
243.55	9490.76
243.622	9508.63
243.693	9509.21
243.764	9563.53
243.836	9547.59
243.907	9533.1
243.978	9538.59
244.05	9557.42
244.121	9518.37
244.192	9554.82
244.264	9511.53
244.335	9524
244.407	9488.8
244.478	9497.23
244.549	9487.6
244.62	9448.26
244.692	9446.38
244.763	9481.91
244.834	9464.77
244.906	9446.99
244.977	9458.65
245.048	9504.18
245.119	9483.33
245.191	9470.61
245.262	9414.66
245.333	9475.81
245.405	9495.5
245.476	9519.43
245.547	9537.16
245.618	9584.06
245.689	9595.33
245.761	9618.59
245.832	9620.28
245.903	9650.18
245.974	9675.32
246.045	9684.33
246.117	9757.63
246.188	9743.14
246.259	9731.25
246.33	9749.25
246.401	9760.96
246.473	9733.69
246.544	9717.74
246.615	9768.32
246.686	9776.27
246.757	9843.49
246.828	9821.77
246.899	9879.88
246.97	9854.84
247.042	9836.87
247.113	9867.8
247.184	9935.88
247.255	9936.17
247.326	9959.15
247.397	9967.53
247.468	9975.09
247.539	9994.46
247.61	9954.62
247.681	9997.24
247.752	10043.52
247.823	10019.69
247.894	10030.96
247.965	10009.43
248.037	9998.11
248.108	9951.72
248.179	9954.81
248.25	9942.76
248.321	9972.91
248.392	9935.43
248.463	10006.28
248.534	10010.76
248.605	10026.03
248.675	10000.97
248.746	10018.55
248.817	10035.99
248.888	10051.07
248.959	10002.85
249.03	10017.74
249.101	10019.23
249.172	10004.16
249.243	9940.83
249.314	10002.43
249.385	10014.57
249.456	10043.61
249.527	10041.78
249.598	10064.8
249.669	10065.86
249.739	10080.55
249.81	10080.89
249.881	10045.82
249.952	10032.77
250.023	10036.77
250.094	9993.21
250.165	9971
250.235	9968.98
250.306	9970.62
250.377	9948.84
250.448	9974.17
250.519	9920.62
250.59	9976.21
250.66	9973.66
250.731	10036.41
250.802	10036.31
250.873	10049.37
250.944	10060.45
251.014	10049.27
251.085	10121.12
251.156	10143.18
251.227	10177.44
251.297	10225.95
251.368	10267.62
251.439	10306.07
251.51	10340.23
251.58	10332.57
251.651	10329.25
251.722	10382.34
251.792	10334.8
251.863	10332.82
251.934	10375.94
252.005	10476.53
252.075	10478.84
252.146	10519.26
252.217	10555.97
252.287	10588.89
252.358	10589.42
252.429	10649.12
252.499	10647.29
252.57	10656.35
252.641	10693.64
252.711	10709.35
252.782	10671.67
252.852	10738.17
252.923	10735.14
252.994	10752.29
253.064	10787.22
253.135	10770.02
253.205	10739.9
253.276	10805.71
253.347	10859.96
253.417	10846.08
253.488	10825.21
253.558	10819.72
253.629	10826.66
253.699	10836.34
253.77	10860.3
253.841	10855.38
253.911	10870.28
253.982	10893.54
254.052	10916.15
254.123	10920.3
254.193	10916.44
254.264	11029.7
254.334	10992.63
254.405	10962.86
254.475	10933.51
254.546	10945.51
254.616	10994.46
254.687	11020.14
254.757	11031.81
254.827	11041.16
254.898	11051.9
254.968	11054.7
255.039	11039.28
255.109	11065.2
255.18	11044.53
255.25	10979.91
255.321	11012.14
255.391	10972.87
255.461	11036.96
255.532	10971.75
255.602	10962.35
255.673	10913.3
255.743	10881.25
255.813	10820.11
255.884	10865.7
255.954	10895.19
256.024	10948.3
256.095	10951.43
256.165	10927.96
256.235	10947.43
256.306	10934.32
256.376	10980.4
256.446	11016.01
256.517	11042.95
256.587	11073.94
256.657	11091.33
256.728	11118.36
256.798	11124.58
256.868	11125.55
256.938	11101.45
257.009	11142.75
257.079	11167.86
257.149	11249.49
257.219	11202.79
257.29	11240.36
257.36	11190.49
257.43	11223.7
257.5	11167.79
257.571	11163.65
257.641	11192.75
257.711	11161.76
257.781	11176.9
257.852	11194.54
257.922	11144.51
257.992	11141.77
258.062	11139.16
258.132	11166.49
258.202	11169.86
258.273	11176.85
258.343	11235.6
258.413	11216.71
258.483	11212.37
258.553	11188.33
258.623	11171.22
258.693	11198.01
258.764	11257.86
258.834	11324.17
258.904	11337.38
258.974	11325.57
259.044	11334.01
259.114	11365.38
259.184	11399.8
259.254	11413.43
259.324	11368.85
259.394	11405.33
259.464	11470.11
259.535	11476.33
259.605	11477.48
259.675	11470.21
259.745	11503.9
259.815	11481.77
259.885	11487.89
259.955	11584.93
260.025	11580.5
260.095	11585.89
260.165	11607.49
260.235	11652.8
260.305	11636.84
260.375	11613.85
260.445	11691.92
260.515	11738.97
260.585	11769.29
260.655	11769.67
260.725	11801.05
260.795	11825.24
260.865	11887.57
260.934	11860
261.004	11886.17
261.074	11885.59
261.144	11935.52
261.214	11955.96
261.284	11959.28
261.354	11989.69
261.424	11951.51
261.494	12010.17
261.564	12014.75
261.634	12037.88
261.703	11983.85
261.773	12004.24
261.843	12029.64
261.913	12020.19
261.983	11986.11
262.053	12001.59
262.123	11998.02
262.192	11965.15
262.262	12004.67
262.332	11960.33
262.402	11992.09
262.472	11999.23
262.541	11957.39
262.611	11995.43
262.681	11983.18
262.751	12012.15
262.821	12020.78
262.89	11994.89
262.96	12019.19
263.03	12086.87
263.1	12104.08
263.169	12120.41
263.239	12145
263.309	12205.16
263.379	12227.86
263.448	12242.32
263.518	12269.6
263.588	12286.19
263.657	12343.93
263.727	12369.24
263.797	12381.14
263.867	12380.85
263.936	12345.91
264.006	12392.17
