Data from 20250626_urea_1M_exp2_MAYP1162681_04-34-00-328.txt Node
Date: Fri Jun 27 04:34:00 BST 2025
User: adleo
Spectrometer: MAYP116268
Trigger mode: 0
Integration Time (sec): 3.000000E0
Scans to average: 1
Electric dark correction enabled: true
Nonlinearity correction enabled: true
Boxcar width: 10
XAxis mode: Wavelengths
Number of Pixels in Spectrum: 2068
>>>>>Begin Spectral Data<<<<<
179.565	2718.23
179.642	2860.01
179.718	2968.7
179.795	3075.5
179.871	3155.67
179.948	3204.11
180.024	3258.42
180.101	3318.69
180.177	3351.91
180.254	3408.46
180.33	3465.94
180.407	3651.09
180.483	3862.94
180.56	4075.9
180.636	4274.24
180.712	4246.15
180.789	4266.72
180.865	4298.93
180.942	4318.73
181.018	4348.91
181.095	4383.22
181.171	4397.38
181.248	4397.47
181.324	4436.62
181.4	4447.34
181.477	4473.23
181.553	4501.25
181.63	4549.78
181.706	4583.04
181.782	4614.17
181.859	4616.04
181.935	4629.54
182.011	4621.98
182.088	4663.67
182.164	4710.89
182.24	4741.22
182.317	4760.12
182.393	4756.39
182.469	4788.98
182.546	4822.68
182.622	4829.38
182.698	4822.15
182.775	4854.75
182.851	4891.62
182.927	4874.19
183.003	4863.42
183.08	4849.49
183.156	4875.78
183.232	4867.59
183.308	4845.61
183.385	4855.14
183.461	4892.63
183.537	4893.97
183.613	4926.48
183.69	4904.89
183.766	4882.22
183.842	4904.59
183.918	4920.34
183.995	4952.18
184.071	4958.65
184.147	4944.14
184.223	4918.45
184.299	4946.42
184.375	4918.98
184.452	4934.7
184.528	5031.23
184.604	5060.05
184.68	5092.08
184.756	5107.89
184.832	5119.06
184.908	5130.45
184.985	5130.02
185.061	5092.57
185.137	5113.36
185.213	5082.62
185.289	5087.02
185.365	5066.48
185.441	5057.57
185.517	5091.89
185.593	5082.26
185.669	5076.99
185.745	5103.77
185.822	5143.54
185.898	5118.67
185.974	5136.72
186.05	5113.58
186.126	5050.58
186.202	5030.04
186.278	5020.98
186.354	5000.53
186.43	5017.3
186.506	5008.59
186.582	5008.97
186.658	5030.27
186.734	4984.83
186.81	4991.01
186.886	4998.57
186.962	5027.64
187.038	5019.83
187.114	4998.79
187.19	5015.99
187.266	4996.45
187.341	4999.85
187.417	4980.22
187.493	4982.57
187.569	4994.26
187.645	4983.05
187.721	4959.58
187.797	4986.39
187.873	4996.16
187.949	4980.46
188.025	4966.08
188.101	4974.84
188.176	4983.8
188.252	4967.47
188.328	4986.18
188.404	4989.06
188.48	4973.11
188.556	4951.52
188.632	4945.77
188.707	4949.65
188.783	4943.71
188.859	4934.19
188.935	4904.35
189.011	4930.06
189.086	4913.55
189.162	4890.08
189.238	4887.4
189.314	4880.02
189.39	4861.92
189.465	4841.18
189.541	4877.54
189.617	4840.09
189.693	4830.62
189.768	4840.15
189.844	4898.51
189.92	4878.69
189.996	4899.72
190.071	4929.84
190.147	4933.67
190.223	4957.76
190.298	4936.3
190.374	4905.13
190.45	4930.26
190.526	4954.54
190.601	4938.16
190.677	4940.55
190.753	5011.45
190.828	5017.82
190.904	5056.91
190.98	5097.21
191.055	5123.55
191.131	5106.88
191.207	5157.78
191.282	5178.61
191.358	5153.9
191.433	5121.5
191.509	5149.88
191.585	5139.87
191.66	5142.89
191.736	5162.76
191.811	5140.87
191.887	5183.24
191.963	5241.4
192.038	5252.46
192.114	5253.76
192.189	5264.2
192.265	5260.94
192.34	5205.95
192.416	5201.4
192.491	5190.56
192.567	5191.96
192.642	5199.05
192.718	5199
192.793	5167.43
192.869	5156.75
192.944	5165.65
193.02	5183.14
193.095	5191.86
193.171	5207.67
193.246	5204.99
193.322	5199.96
193.397	5202.98
193.473	5168.42
193.548	5127.92
193.624	5143.45
193.699	5137.27
193.775	5175.14
193.85	5176.48
193.925	5197.8
194.001	5198.57
194.076	5174.28
194.152	5148.68
194.227	5130.38
194.302	5103.95
194.378	5112.14
194.453	5105.2
194.529	5133.28
194.604	5095.96
194.679	5086.66
194.755	5037.73
194.83	5068.99
194.905	5061.62
194.981	5085.62
195.056	5066.75
195.131	5077.62
195.207	5068.47
195.282	5044.67
195.357	4994.11
195.433	5031.8
195.508	5002.82
195.583	5017.76
195.659	5057.24
195.734	5075.45
195.809	5073.2
195.884	5098.76
195.96	5102.21
196.035	5144.56
196.11	5133.87
196.185	5166.54
196.261	5169.99
196.336	5248.12
196.411	5207.47
196.486	5224.72
196.561	5203.31
196.637	5227.87
196.712	5270.06
196.787	5280.71
196.862	5322.67
196.937	5348.92
197.013	5367.9
197.088	5390.8
197.163	5444.65
197.238	5484.43
197.313	5486.35
197.388	5521.87
197.464	5595.48
197.539	5623.19
197.614	5601.67
197.689	5635.52
197.764	5675.33
197.839	5730.7
197.914	5718.04
197.989	5777.36
198.065	5807.04
198.14	5934.99
198.215	5994.17
198.29	6020.48
198.365	6056.26
198.44	6079.62
198.515	6147.52
198.59	6180.92
198.665	6248.67
198.74	6272.19
198.815	6279.35
198.89	6330.21
198.965	6403.73
199.04	6394.65
199.115	6434.33
199.19	6537.7
199.265	6544.95
199.34	6566.65
199.415	6640.3
199.49	6689.25
199.565	6710.81
199.64	6775.59
199.715	6766.07
199.79	6782.69
199.865	6796.52
199.94	6792.78
200.015	6874.97
200.09	6891.54
200.165	6906.19
200.24	6918.73
200.315	7008.31
200.39	7041.41
200.464	7053.08
200.539	7053.47
200.614	7092.81
200.689	7147.01
200.764	7165.13
200.839	7208.92
200.914	7215.6
200.989	7191.95
201.063	7226.59
201.138	7184.59
201.213	7176.61
201.288	7129.53
201.363	7145.24
201.438	7145.96
201.512	7180.83
201.587	7131.8
201.662	7147.23
201.737	7177.17
201.812	7198.17
201.886	7126.71
201.961	7152.05
202.036	7128.52
202.111	7120.15
202.186	7044.98
202.26	7005.9
202.335	6949.54
202.41	6934.65
202.485	6899.79
202.559	6852.77
202.634	6785.53
202.709	6805.59
202.784	6757.18
202.858	6759.97
202.933	6713.38
203.008	6698.78
203.082	6651.69
203.157	6656.34
203.232	6543.13
203.306	6490.67
203.381	6412.34
203.456	6351.32
203.53	6290.72
203.605	6241.36
203.68	6185.32
203.754	6168.74
203.829	6127.07
203.904	6079.72
203.978	6043.72
204.053	6057.73
204.127	6027.03
204.202	6022.23
204.277	5979.4
204.351	5966.16
204.426	5943.55
204.5	5929.78
204.575	5836.1
204.65	5862.93
204.724	5833.88
204.799	5857.79
204.873	5844.93
204.948	5841.05
205.022	5812.19
205.097	5791.45
205.171	5827.37
205.246	5845.65
205.32	5851.07
205.395	5850.68
205.469	5831.23
205.544	5852.77
205.618	5803.89
205.693	5832.72
205.767	5797.77
205.842	5853.61
205.916	5837.6
205.991	5814.82
206.065	5821.34
206.14	5865.08
206.214	5849.38
206.289	5829.99
206.363	5852.78
206.438	5863.86
206.512	5882.43
206.586	5926.11
206.661	5945.75
206.735	5886.21
206.81	5894.47
206.884	5925.83
206.958	5894.57
207.033	5934.5
207.107	5943.96
207.181	6027.09
207.256	6008.52
207.33	6063.44
207.405	6092.64
207.479	6144.18
207.553	6161.92
207.628	6120.07
207.702	6146.35
207.776	6133.97
207.851	6146.4
207.925	6187.97
207.999	6177.94
208.073	6168.06
208.148	6177.66
208.222	6149.15
208.296	6232.2
208.371	6268.71
208.445	6293.43
208.519	6365.98
208.593	6396.6
208.668	6392.23
208.742	6395.69
208.816	6406.44
208.89	6438.95
208.965	6437.75
209.039	6452.59
209.113	6493.25
209.187	6551.71
209.261	6549.84
209.336	6596.31
209.41	6647.55
209.484	6649.32
209.558	6709.6
209.632	6744.26
209.707	6772.49
209.781	6824.93
209.855	6865.96
209.929	6910.01
210.003	6925.47
210.077	6918.8
210.151	7036.08
210.226	7120.58
210.3	7182.28
210.374	7237.89
210.448	7248.37
210.522	7269.33
210.596	7295.37
210.67	7324.59
210.744	7441.99
210.818	7517.45
210.892	7576.25
210.966	7557.75
211.041	7590.92
211.115	7576.4
211.189	7641.39
211.263	7680.32
211.337	7699.02
211.411	7729.7
211.485	7711.28
211.559	7745.35
211.633	7754.57
211.707	7674.38
211.781	7695.22
211.855	7607.38
211.929	7588.64
212.003	7543.11
212.077	7571.67
212.151	7604.33
212.225	7627.94
212.299	7596.08
212.373	7567.53
212.447	7546.51
212.52	7622.9
212.594	7630.31
212.668	7660.93
212.742	7619.96
212.816	7608.81
212.89	7594.77
212.964	7585.63
213.038	7594.1
213.112	7618.92
213.186	7651.5
213.26	7599.19
213.333	7477.34
213.407	7486.85
213.481	7491.51
213.555	7522.73
213.629	7488.44
213.703	7443.24
213.777	7437.13
213.85	7380.4
213.924	7458.99
213.998	7456.05
214.072	7437.72
214.146	7403.59
214.219	7396.62
214.293	7386.24
214.367	7384.03
214.441	7400.23
214.515	7370.03
214.588	7304.04
214.662	7216.1
214.736	7164.59
214.81	7181.92
214.883	7199.01
214.957	7167.95
215.031	7127.61
215.105	7058.89
215.178	7008.92
215.252	6976.11
215.326	6901.36
215.4	6846.11
215.473	6715.05
215.547	6652.64
215.621	6595.48
215.694	6595.29
215.768	6518.78
215.842	6468.71
215.915	6416.78
215.989	6334.75
216.063	6295.84
216.136	6277.93
216.21	6261.52
216.284	6266.95
216.357	6246.83
216.431	6222.79
216.504	6223.94
216.578	6262.49
216.652	6269.11
216.725	6255.48
216.799	6264.51
216.873	6250.16
216.946	6255.72
217.02	6229.21
217.093	6209.25
217.167	6144.42
217.24	6082.68
217.314	6055.49
217.387	6019.53
217.461	5993.29
217.535	6012.57
217.608	5963.83
217.682	5948.48
217.755	5950.4
217.829	5913.49
217.902	5905.91
217.976	5893.97
218.049	5862.35
218.123	5806.92
218.196	5807.54
218.27	5780.15
218.343	5732.88
218.417	5733.12
218.49	5715.86
218.563	5750.24
218.637	5757.53
218.71	5810.02
218.784	5832.66
218.857	5859.52
218.931	5880.51
219.004	5881.28
219.077	5897.17
219.151	5910.49
219.224	5904.4
219.298	5905.31
219.371	5932.23
219.444	5897.71
219.518	5900.87
219.591	5910.99
219.665	5985.89
219.738	5992.22
219.811	5981.77
219.885	6011.04
219.958	6033.64
220.031	6038.48
220.105	6052.55
220.178	6060.42
220.251	6044.58
220.325	6060.13
220.398	6070.16
220.471	6082.77
220.544	6111.71
220.618	6093.8
220.691	6114.48
220.764	6124.12
220.838	6146.68
220.911	6136.55
220.984	6201.6
221.057	6224.97
221.131	6242.58
221.204	6172.76
221.277	6232.92
221.35	6329.45
221.424	6323.26
221.497	6333
221.57	6350.75
221.643	6375.15
221.716	6402.9
221.79	6406.69
221.863	6412.89
221.936	6419.27
222.009	6433.04
222.082	6456.14
222.155	6462.71
222.229	6507.18
222.302	6532.86
222.375	6533.97
222.448	6563.44
222.521	6565.7
222.594	6573.57
222.667	6554.58
222.74	6602.77
222.814	6592.63
222.887	6575.96
222.96	6618.74
223.033	6645.5
223.106	6662.2
223.179	6683.44
223.252	6696.61
223.325	6717.49
223.398	6734.74
223.471	6755.29
223.544	6766.28
223.617	6774.88
223.69	6790.68
223.763	6766.13
223.837	6787.46
223.91	6808.92
223.983	6773.83
224.056	6753.95
224.129	6767.01
224.202	6809.87
224.275	6796.38
224.348	6775.87
224.42	6750.37
224.493	6708.15
224.566	6696.77
224.639	6712.95
224.712	6692.43
224.785	6683.78
224.858	6678.64
224.931	6657.89
225.004	6630.24
225.077	6634.32
225.15	6564.42
225.223	6561.25
225.296	6623.63
225.369	6578.6
225.442	6557.42
225.514	6573.93
225.587	6583.43
225.66	6592.51
225.733	6586.99
225.806	6595.63
225.879	6585.65
225.952	6566.06
226.025	6603.76
226.097	6641.97
226.17	6640.48
226.243	6589.59
226.316	6584.02
226.389	6588.15
226.461	6604.92
226.534	6625.89
226.607	6625.51
226.68	6689.11
226.753	6686.85
226.825	6632.4
226.898	6676.47
226.971	6680.03
227.044	6689.24
227.117	6699.62
227.189	6707.64
227.262	6741.03
227.335	6754.67
227.407	6758.46
227.48	6780.64
227.553	6786.93
227.626	6766.89
227.698	6771.5
227.771	6803.56
227.844	6788.96
227.916	6803.22
227.989	6778.68
228.062	6768.17
228.134	6827.03
228.207	6827.99
228.28	6822.85
228.352	6826.93
228.425	6832.99
228.498	6868.06
228.57	6860.14
228.643	6901.32
228.716	6903.91
228.788	6893.92
228.861	6885.8
228.934	6934.07
229.006	6947.47
229.079	6950.6
229.151	6940.12
229.224	6913.62
229.296	6927.02
229.369	7004.64
229.442	7046.6
229.514	7033.21
229.587	7071.59
229.659	7016.13
229.732	7024.3
229.804	7056.1
229.877	7113.54
229.949	7135.46
230.022	7172.92
230.094	7171.05
230.167	7158.31
230.239	7129.58
230.312	7116.42
230.384	7179.11
230.457	7175.31
230.529	7179.01
230.602	7180.21
230.674	7195.01
230.747	7223.73
230.819	7253.86
230.892	7169.18
230.964	7160.62
231.037	7179.82
231.109	7173.57
231.181	7204.22
231.254	7181.74
231.326	7172.42
231.399	7159.29
231.471	7137.56
231.544	7073.72
231.616	7113.5
231.688	7118.59
231.761	7106.88
231.833	7110.14
231.905	7043.52
231.978	7042.41
232.05	7025.12
232.122	7026.95
232.195	7007.29
232.267	7034.49
232.339	7012.77
232.412	7055.52
232.484	7035.37
232.556	7015.02
232.629	7069.97
232.701	7080.79
232.773	7082.71
232.846	7075.98
232.918	7078.77
232.99	7095.4
233.062	7132.36
233.135	7138.51
233.207	7114.43
233.279	7154.49
233.351	7171.98
233.424	7171.35
233.496	7154.2
233.568	7220.62
233.64	7195.83
233.713	7209.38
233.785	7210.19
233.857	7223.22
233.929	7188.53
234.001	7238.11
234.074	7288.54
234.146	7232.82
234.218	7228.44
234.29	7232.77
234.362	7222.39
234.434	7184.08
234.507	7152.32
234.579	7111.43
234.651	7097.01
234.723	7122.82
234.795	7130.94
234.867	7125.32
234.939	7173.76
235.012	7184.47
235.084	7184.19
235.156	7209.22
235.228	7191.68
235.3	7176.16
235.372	7185.96
235.444	7231.41
235.516	7173.18
235.588	7176.84
235.66	7191.2
235.732	7174.43
235.804	7321.75
235.876	7354.47
235.948	7400.71
236.02	7411.76
236.092	7422.86
236.164	7432.42
236.236	7430.74
236.308	7430.5
236.38	7457.85
236.452	7440.93
236.524	7457.94
236.596	7506.78
236.668	7529.28
236.74	7551.34
236.812	7571.19
236.884	7598.26
236.956	7606.67
237.028	7601.34
237.1	7588.56
237.172	7637.75
237.244	7696.94
237.316	7604.51
237.388	7599.23
237.46	7579.8
237.532	7627.35
237.604	7622.4
237.675	7676.55
237.747	7707.47
237.819	7698.43
237.891	7700.93
237.963	7690.12
238.035	7685.03
238.107	7602.43
238.178	7652.37
238.25	7653.53
238.322	7727.18
238.394	7693.52
238.466	7696.07
238.538	7729.62
238.609	7768.37
238.681	7728.26
238.753	7710.75
238.825	7725.81
238.897	7744.26
238.968	7809.64
239.04	7793.87
239.112	7879.03
239.184	7850.89
239.255	7850.5
239.327	7881.7
239.399	7893.58
239.471	7932.43
239.542	7958.97
239.614	8009.84
239.686	7949.61
239.758	7993.47
239.829	7962
239.901	8011.48
239.973	8017.21
240.044	8041.93
240.116	8049.58
240.188	8061.16
240.259	8070.88
240.331	8059.86
240.403	8082.7
240.474	8049.11
240.546	8043.49
240.618	7996.63
240.689	7997.98
240.761	8013.81
240.833	8060.24
240.904	8064.37
240.976	8060.14
241.048	8074.23
241.119	8102.48
241.191	8136.2
241.262	8182.5
241.334	8189.52
241.405	8193.62
241.477	8200.4
241.549	8204.97
241.62	8219.98
241.692	8253.07
241.763	8297.25
241.835	8317.6
241.906	8339.25
241.978	8316.07
242.049	8365.95
242.121	8407.99
242.192	8454.42
242.264	8427.73
242.335	8387.89
242.407	8411.8
242.478	8420.6
242.55	8434.6
242.621	8417.56
242.693	8414.58
242.764	8403.36
242.836	8408.03
242.907	8430.17
242.979	8455.48
243.05	8471.84
243.122	8487.09
243.193	8483.1
243.264	8428.15
243.336	8430.22
243.407	8453.08
243.479	8508.12
243.55	8526.37
243.622	8544.41
243.693	8541.72
243.764	8597.01
243.836	8580.85
243.907	8570.55
243.978	8574.11
244.05	8591.2
244.121	8560.79
244.192	8590.63
244.264	8564.88
244.335	8566.85
244.407	8523.88
244.478	8530.13
244.549	8523.88
244.62	8494.96
244.692	8499.1
244.763	8531.67
244.834	8519.35
244.906	8498.17
244.977	8515.84
245.048	8547.04
245.119	8526.68
245.191	8513.21
245.262	8462.92
245.333	8520.51
245.405	8540.53
245.476	8560.98
245.547	8581.34
245.618	8624.31
245.689	8634.18
245.761	8651.36
245.832	8653.57
245.903	8691.68
245.974	8716.52
246.045	8721.72
246.117	8789.54
246.188	8778.52
246.259	8768.61
246.33	8786.12
246.401	8796.38
246.473	8764.89
246.544	8761.14
246.615	8802.05
246.686	8807.63
246.757	8865.62
246.828	8851.76
246.899	8907.43
246.97	8883.42
247.042	8869.69
247.113	8895.88
247.184	8961
247.255	8959.84
247.326	8985.02
247.397	8985.45
247.468	8992.72
247.539	9009.96
247.61	8976.45
247.681	9007.82
247.752	9048.3
247.823	9028.09
247.894	9040.99
247.965	9027.66
248.037	9008.11
248.108	8971.72
248.179	8968.88
248.25	8959.44
248.321	8979.03
248.392	8941.37
248.463	9009.92
248.534	9009.72
248.605	9028.22
248.675	9011.6
248.746	9030.23
248.817	9042.02
248.888	9055.79
248.959	9014.83
249.03	9035
249.101	9036.16
249.172	9022.25
249.243	8969.6
249.314	9025.24
249.385	9033.43
249.456	9055.18
249.527	9060.76
249.598	9078.67
249.669	9076.6
249.739	9086.9
249.81	9099.56
249.881	9069.38
249.952	9054.74
250.023	9052.82
250.094	9012.95
250.165	8985.98
250.235	8980.39
250.306	8988.72
250.377	8973.37
250.448	8994.64
250.519	8948.09
250.59	8990.7
250.66	8990.75
250.731	9043.16
250.802	9037
250.873	9051.68
250.944	9069.3
251.014	9054.52
251.085	9120.26
251.156	9147.84
251.227	9187.14
251.297	9223.02
251.368	9255.6
251.439	9286.96
251.51	9324.8
251.58	9311.81
251.651	9309.35
251.722	9347.64
251.792	9309.65
251.863	9305.84
251.934	9348.22
252.005	9426.6
252.075	9434.36
252.146	9474.22
252.217	9507.01
252.287	9542.12
252.358	9542.61
252.429	9599.87
252.499	9601.12
252.57	9609.12
252.641	9639.22
252.711	9646.54
252.782	9613.17
252.852	9676.84
252.923	9681.95
252.994	9692.5
253.064	9735.59
253.135	9725.38
253.205	9711.94
253.276	9765.01
253.347	9817.73
253.417	9799.81
253.488	9784.35
253.558	9773.47
253.629	9771.69
253.699	9786.43
253.77	9805.07
253.841	9795.1
253.911	9795.01
253.982	9806.66
254.052	9827.28
254.123	9839.13
254.193	9832.1
254.264	9932.16
254.334	9904.65
254.405	9877.77
254.475	9852.25
254.546	9859.71
254.616	9901.71
254.687	9922.76
254.757	9934.37
254.827	9934.9
254.898	9953.24
254.968	9962.2
255.039	9953.1
255.109	9984.02
255.18	9964.13
255.25	9908.54
255.321	9941.2
255.391	9913.55
255.461	9980.02
255.532	9920.57
255.602	9912.96
255.673	9877.66
255.743	9851.68
255.813	9799.24
255.884	9832.62
255.954	9860.51
256.024	9900.88
256.095	9903.38
256.165	9876.8
256.235	9899.05
256.306	9888.12
256.376	9923.53
256.446	9951.76
256.517	9973.43
256.587	10003.11
256.657	10023.83
256.728	10044.39
256.798	10048.72
256.868	10053.78
256.938	10030.7
257.009	10067.94
257.079	10091.69
257.149	10163.22
257.219	10120.05
257.29	10148.07
257.36	10113.01
257.43	10141
257.5	10096.83
257.571	10091.05
257.641	10119.37
257.711	10093.93
257.781	10115.56
257.852	10127.75
257.922	10086.17
257.992	10089.45
258.062	10078.56
258.132	10104.05
258.202	10108.57
258.273	10116.47
258.343	10162.92
258.413	10150.06
258.483	10149.82
258.553	10129.25
258.623	10113.2
258.693	10130.98
258.764	10184.59
258.834	10232.86
258.904	10246.4
258.974	10234.98
259.044	10240.71
259.114	10266.54
259.184	10282.05
259.254	10296.07
259.324	10255.12
259.394	10285.71
259.464	10344.49
259.535	10359.67
259.605	10356.05
259.675	10349.55
259.745	10381.11
259.815	10365.45
259.885	10370.27
259.955	10456.49
260.025	10454.99
260.095	10465.21
260.165	10493.44
260.235	10535.32
260.305	10521.83
260.375	10505.21
260.445	10581.61
260.515	10636.59
260.585	10664.64
260.655	10678.9
260.725	10706.99
260.795	10742.3
260.865	10799.45
260.934	10779.41
261.004	10801.29
261.074	10801.29
261.144	10853.7
261.214	10874.81
261.284	10873.41
261.354	10901.26
261.424	10871.81
261.494	10918.73
261.564	10921.19
261.634	10940.61
261.703	10897.58
261.773	10917.43
261.843	10938.92
261.913	10936.36
261.983	10894.97
262.053	10920.22
262.123	10915.41
262.192	10881.44
262.262	10907.6
262.332	10873.39
262.402	10897.48
262.472	10904.81
262.541	10865.21
262.611	10897.69
262.681	10883.86
262.751	10924.77
262.821	10930.36
262.89	10907.23
262.96	10930.98
263.03	10989.73
263.1	11007.47
263.169	11020.14
263.239	11047.66
263.309	11100.14
263.379	11123.03
263.448	11136.67
263.518	11156.29
263.588	11170.98
263.657	11230.74
263.727	11264.14
263.797	11269.73
263.867	11266.45
263.936	11228.53
264.006	11274.15
264.076	11265.19
264.145	11268.85
264.215	11250
264.285	11278.15
264.354	11246.83
