Data from 20250626_urea_1M_exp2_MAYP1162681_09-33-58-851.txt Node
Date: Fri Jun 27 09:33:58 BST 2025
User: adleo
Spectrometer: MAYP116268
Trigger mode: 0
Integration Time (sec): 3.000000E0
Scans to average: 1
Electric dark correction enabled: true
Nonlinearity correction enabled: true
Boxcar width: 10
XAxis mode: Wavelengths
Number of Pixels in Spectrum: 2068
>>>>>Begin Spectral Data<<<<<
179.565	3072.71
179.642	3235.41
179.718	3357.07
179.795	3477.94
179.871	3573.64
179.948	3627.48
180.024	3686.69
180.101	3753.33
180.177	3789.74
180.254	3852.97
180.33	3916.54
180.407	4131.02
180.483	4370.23
180.56	4611.68
180.636	4834.42
180.712	4804.2
180.789	4827.85
180.865	4862.26
180.942	4889.31
181.018	4917.84
181.095	4954.64
181.171	4962.97
181.248	4965.94
181.324	5012.13
181.4	5021.76
181.477	5047.15
181.553	5079.61
181.63	5138.35
181.706	5180.38
181.782	5205.99
181.859	5210.63
181.935	5225.92
182.011	5217.15
182.088	5263.64
182.164	5320.85
182.24	5355.38
182.317	5381.96
182.393	5375.06
182.469	5409.14
182.546	5443.26
182.622	5458.3
182.698	5445.07
182.775	5482.89
182.851	5518.22
182.927	5492.71
183.003	5486.87
183.08	5473.79
183.156	5502.93
183.232	5492.66
183.308	5463.76
183.385	5490.31
183.461	5529.66
183.537	5533.93
183.613	5565.28
183.69	5536.47
183.766	5502.32
183.842	5529.79
183.918	5545.47
183.995	5582.85
184.071	5591.73
184.147	5578.59
184.223	5547.69
184.299	5585.91
184.375	5555.09
184.452	5569.82
184.528	5679.02
184.604	5708.55
184.68	5741.96
184.756	5755.54
184.832	5763.45
184.908	5775.14
184.985	5771.59
185.061	5732.04
185.137	5753.34
185.213	5724.48
185.289	5728.93
185.365	5711.2
185.441	5703.91
185.517	5742.68
185.593	5730.12
185.669	5722.92
185.745	5748.82
185.822	5798.85
185.898	5773.04
185.974	5797.1
186.05	5781.13
186.126	5716.04
186.202	5695.95
186.278	5681.23
186.354	5658.07
186.43	5674.95
186.506	5667
186.582	5666.47
186.658	5682.05
186.734	5630.71
186.81	5634.16
186.886	5648.68
186.962	5678.88
187.038	5666.17
187.114	5641.03
187.19	5661.12
187.266	5634.38
187.341	5638.89
187.417	5612.37
187.493	5613.19
187.569	5625.71
187.645	5610.51
187.721	5578.99
187.797	5601.77
187.873	5617.54
187.949	5602.21
188.025	5591.6
188.101	5602.82
188.176	5613.65
188.252	5601.96
188.328	5623.57
188.404	5625.53
188.48	5603.34
188.556	5586.56
188.632	5587.23
188.707	5590.54
188.783	5585.5
188.859	5575.92
188.935	5545.66
189.011	5571.21
189.086	5556.26
189.162	5527.59
189.238	5521.79
189.314	5516.13
189.39	5492.98
189.465	5472.6
189.541	5519.11
189.617	5473.1
189.693	5459.72
189.768	5470.52
189.844	5536.76
189.92	5509.22
189.996	5535.44
190.071	5569.86
190.147	5567.27
190.223	5591.69
190.298	5566.51
190.374	5533.34
190.45	5565.78
190.526	5583.66
190.601	5568.32
190.677	5566.5
190.753	5647.4
190.828	5655.31
190.904	5694.11
190.98	5741.98
191.055	5769.69
191.131	5748.35
191.207	5806.74
191.282	5837.71
191.358	5807.79
191.433	5768.2
191.509	5810.75
191.585	5794.88
191.66	5802.31
191.736	5825.86
191.811	5797.8
191.887	5843.95
191.963	5904.63
192.038	5917.14
192.114	5924.43
192.189	5938.44
192.265	5933.5
192.34	5871.24
192.416	5868.46
192.491	5858.48
192.567	5865.2
192.642	5868.75
192.718	5871.97
192.793	5842.37
192.869	5825.59
192.944	5837.67
193.02	5859.45
193.095	5863.72
193.171	5887.22
193.246	5878.49
193.322	5870.48
193.397	5876.28
193.473	5837.65
193.548	5789.82
193.624	5809.16
193.699	5802.73
193.775	5838.68
193.85	5842.08
193.925	5865.73
194.001	5861.27
194.076	5839.4
194.152	5807.35
194.227	5790.99
194.302	5762.9
194.378	5771.91
194.453	5762.71
194.529	5796.43
194.604	5761.94
194.679	5749.67
194.755	5696.55
194.83	5735.48
194.905	5725.22
194.981	5747.28
195.056	5734.48
195.131	5753.23
195.207	5741.95
195.282	5714.19
195.357	5662.19
195.433	5704.43
195.508	5667.41
195.583	5690.66
195.659	5732.83
195.734	5753.46
195.809	5752.02
195.884	5773.78
195.96	5771.29
196.035	5816.46
196.11	5805
196.185	5835.26
196.261	5837.95
196.336	5920.77
196.411	5874.22
196.486	5888.66
196.561	5867.65
196.637	5889.66
196.712	5930.12
196.787	5940.34
196.862	5985.61
196.937	6011.31
197.013	6028.07
197.088	6061.88
197.163	6121.75
197.238	6163.39
197.313	6164.4
197.388	6203.42
197.464	6282.15
197.539	6319.53
197.614	6293.39
197.689	6324.64
197.764	6368.24
197.839	6427.85
197.914	6409.75
197.989	6475.56
198.065	6512.95
198.14	6651.9
198.215	6720.08
198.29	6755.06
198.365	6799.25
198.44	6830.74
198.515	6909.95
198.59	6949.78
198.665	7020.73
198.74	7041.39
198.815	7042.84
198.89	7101.73
198.965	7176.66
199.04	7161.38
199.115	7202.12
199.19	7318.08
199.265	7334.55
199.34	7355.56
199.415	7446.78
199.49	7507.22
199.565	7527.21
199.64	7597.58
199.715	7584.06
199.79	7604.4
199.865	7619.35
199.94	7605.56
200.015	7689.08
200.09	7702.5
200.165	7720.48
200.24	7733.8
200.315	7830.67
200.39	7877.37
200.464	7892.9
200.539	7895.59
200.614	7949.34
200.689	8008.94
200.764	8030.59
200.839	8067.51
200.914	8080.3
200.989	8052.63
201.063	8093.8
201.138	8052.81
201.213	8048.87
201.288	8001.6
201.363	8015.93
201.438	8013.57
201.512	8059.24
201.587	8009.45
201.662	8023.98
201.737	8056.11
201.812	8084.69
201.886	8008.93
201.961	8031.4
202.036	8000.68
202.111	7994.57
202.186	7908.45
202.26	7857.66
202.335	7799.03
202.41	7782.58
202.485	7741.78
202.559	7682.25
202.634	7608.83
202.709	7634.1
202.784	7583.1
202.858	7583.77
202.933	7532.67
203.008	7515.79
203.082	7462.92
203.157	7459.46
203.232	7338.06
203.306	7275.65
203.381	7186.28
203.456	7116.97
203.53	7051.7
203.605	6996.19
203.68	6933.36
203.754	6916.57
203.829	6880.72
203.904	6823.37
203.978	6793.96
204.053	6805.59
204.127	6775.53
204.202	6765.39
204.277	6716.41
204.351	6695.28
204.426	6674.09
204.5	6654.59
204.575	6558.78
204.65	6587.13
204.724	6563.34
204.799	6585.31
204.873	6577.43
204.948	6569.7
205.022	6538.55
205.097	6515.39
205.171	6553.41
205.246	6579.5
205.32	6580.99
205.395	6580.03
205.469	6558.2
205.544	6571.17
205.618	6521.28
205.693	6550.04
205.767	6517.5
205.842	6574.07
205.916	6561.69
205.991	6535.38
206.065	6547.29
206.14	6589.68
206.214	6570.56
206.289	6552.45
206.363	6586.54
206.438	6596.19
206.512	6614.3
206.586	6668.36
206.661	6693.49
206.735	6632.5
206.81	6628.99
206.884	6666.68
206.958	6628.85
207.033	6670.69
207.107	6687.99
207.181	6777.17
207.256	6760.65
207.33	6816.64
207.405	6851.02
207.479	6902.46
207.553	6922.38
207.628	6875.25
207.702	6910.64
207.776	6893.4
207.851	6908.62
207.925	6954.24
207.999	6941.12
208.073	6938.29
208.148	6948.09
208.222	6917.29
208.296	7006.44
208.371	7051.83
208.445	7078.59
208.519	7156.88
208.593	7193.88
208.668	7185.8
208.742	7190.66
208.816	7195.94
208.89	7232.29
208.965	7226.66
209.039	7249.74
209.113	7292.08
209.187	7351.32
209.261	7338.39
209.336	7390.1
209.41	7437.59
209.484	7435.96
209.558	7498.45
209.632	7535.69
209.707	7559.06
209.781	7616.55
209.855	7663.97
209.929	7712.87
210.003	7731.95
210.077	7723.73
210.151	7857.1
210.226	7951.15
210.3	8022.87
210.374	8088.24
210.448	8098.92
210.522	8125.96
210.596	8150.2
210.67	8175.98
210.744	8303.05
210.818	8393.63
210.892	8454.54
210.966	8438.87
211.041	8477.88
211.115	8466.44
211.189	8529.75
211.263	8575.98
211.337	8592.48
211.411	8626.51
211.485	8604.46
211.559	8638.23
211.633	8655.45
211.707	8563.29
211.781	8584.68
211.855	8484.87
211.929	8463.37
212.003	8417.74
212.077	8445.13
212.151	8476.32
212.225	8508.7
212.299	8479.28
212.373	8438.15
212.447	8428.52
212.52	8505.99
212.594	8518.7
212.668	8552.23
212.742	8508.49
212.816	8492.42
212.89	8478.32
212.964	8473.07
213.038	8481.59
213.112	8513.99
213.186	8544.92
213.26	8487.95
213.333	8355.55
213.407	8365.16
213.481	8373.05
213.555	8396.75
213.629	8362.19
213.703	8312.82
213.777	8302.23
213.85	8237.9
213.924	8328.76
213.998	8318.85
214.072	8295.55
214.146	8252.48
214.219	8240.31
214.293	8231.27
214.367	8229.82
214.441	8249.79
214.515	8207.54
214.588	8135.42
214.662	8032.39
214.736	7973.72
214.81	7990.49
214.883	8009.86
214.957	7979.58
215.031	7933.63
215.105	7862.38
215.178	7815.35
215.252	7788.76
215.326	7709.85
215.4	7649.74
215.473	7506.1
215.547	7437.48
215.621	7386.58
215.694	7387.54
215.768	7307.4
215.842	7253.24
215.915	7199.34
215.989	7104.25
216.063	7060.26
216.136	7046.47
216.21	7024.85
216.284	7031
216.357	7005.97
216.431	6971.14
216.504	6969.46
216.578	7015.64
216.652	7024.43
216.725	7006.22
216.799	7012.61
216.873	6995.17
216.946	7000.26
217.02	6975.73
217.093	6955.56
217.167	6879.37
217.24	6806.23
217.314	6778
217.387	6742.05
217.461	6708.86
217.535	6734.07
217.608	6688.93
217.682	6669.14
217.755	6680.18
217.829	6637.72
217.902	6629.17
217.976	6616.49
218.049	6578.27
218.123	6513.25
218.196	6515.41
218.27	6480.55
218.343	6424.25
218.417	6421.99
218.49	6405.96
218.563	6434.62
218.637	6439.56
218.71	6493.4
218.784	6516.35
218.857	6539.78
218.931	6558.92
219.004	6559.93
219.077	6574.2
219.151	6584.91
219.224	6570.6
219.298	6572.86
219.371	6603.55
219.444	6570.77
219.518	6577.34
219.591	6587.76
219.665	6673.12
219.738	6676.53
219.811	6664.63
219.885	6699.3
219.958	6724.09
220.031	6728.36
220.105	6744.35
220.178	6752.95
220.251	6731.24
220.325	6749.59
220.398	6763.09
220.471	6776.82
220.544	6808.76
220.618	6787.81
220.691	6808.99
220.764	6828.3
220.838	6847.23
220.911	6836.94
220.984	6904.37
221.057	6933.48
221.131	6956.29
221.204	6875.15
221.277	6935.61
221.35	7039.92
221.424	7034.59
221.497	7048.67
221.57	7065.81
221.643	7093.97
221.716	7125.21
221.79	7134.34
221.863	7139.05
221.936	7148.47
222.009	7162.54
222.082	7186.29
222.155	7198.97
222.229	7250.6
222.302	7276.4
222.375	7282.02
222.448	7319.9
222.521	7323.41
222.594	7325.23
222.667	7298.77
222.74	7346.1
222.814	7340.47
222.887	7321.9
222.96	7363.96
223.033	7391.76
223.106	7414.09
223.179	7440.07
223.252	7450.6
223.325	7474.91
223.398	7490.78
223.471	7510.97
223.544	7525.04
223.617	7537.02
223.69	7551.25
223.763	7519.56
223.837	7533.89
223.91	7555.33
223.983	7514.62
224.056	7491.65
224.129	7508.57
224.202	7551.56
224.275	7544.54
224.348	7519.25
224.42	7492.72
224.493	7448.98
224.566	7434.4
224.639	7451.23
224.712	7424.77
224.785	7414
224.858	7407.9
224.931	7391.7
225.004	7360.32
225.077	7360.61
225.15	7282.76
225.223	7276.75
225.296	7346.21
225.369	7299.17
225.442	7274.17
225.514	7282.05
225.587	7296.94
225.66	7305.02
225.733	7309.15
225.806	7314.97
225.879	7305.46
225.952	7279.47
226.025	7319.46
226.097	7359.52
226.17	7347.75
226.243	7297.82
226.316	7291.28
226.389	7290.51
226.461	7306
226.534	7320.36
226.607	7315.08
226.68	7380.75
226.753	7375.66
226.825	7309.27
226.898	7352.76
226.971	7355.84
227.044	7378.76
227.117	7378.95
227.189	7392.42
227.262	7422.95
227.335	7438.58
227.407	7440.89
227.48	7469.14
227.553	7478.47
227.626	7463.7
227.698	7471
227.771	7500.64
227.844	7487.57
227.916	7506.17
227.989	7477.62
228.062	7478.77
228.134	7549.41
228.207	7553.12
228.28	7547.21
228.352	7555.09
228.425	7566.73
228.498	7602.02
228.57	7580.06
228.643	7631.51
228.716	7629.78
228.788	7621.61
228.861	7616.6
228.934	7673.29
229.006	7679.63
229.079	7677.57
229.151	7664.19
229.224	7634.26
229.296	7654.11
229.369	7740.89
229.442	7779.85
229.514	7767.89
229.587	7808.95
229.659	7743.49
229.732	7753.07
229.804	7788.4
229.877	7851.32
229.949	7875.23
230.022	7916.86
230.094	7920.46
230.167	7911.94
230.239	7879.25
230.312	7864.92
230.384	7921.79
230.457	7910.01
230.529	7917.79
230.602	7918.03
230.674	7928.95
230.747	7965.24
230.819	7993.08
230.892	7893.14
230.964	7891.5
231.037	7912.41
231.109	7904.57
231.181	7940.58
231.254	7907.83
231.326	7895.91
231.399	7876.99
231.471	7853.47
231.544	7789.96
231.616	7831.79
231.688	7837.23
231.761	7826.32
231.833	7822.09
231.905	7752
231.978	7756.47
232.05	7741.62
232.122	7746.86
232.195	7724.79
232.267	7752.2
232.339	7729.78
232.412	7784.4
232.484	7762.79
232.556	7740.64
232.629	7795.59
232.701	7813.54
232.773	7827.28
232.846	7818.58
232.918	7820.17
232.99	7836.72
233.062	7869.85
233.135	7874.57
233.207	7844.94
233.279	7881.28
233.351	7902.15
233.424	7907.05
233.496	7886.95
233.568	7953.95
233.64	7923.41
233.713	7935.92
233.785	7931.92
233.857	7944.67
233.929	7903.99
234.001	7959.38
234.074	8017.26
234.146	7954.91
234.218	7945.48
234.29	7949.13
234.362	7942.88
234.434	7905.75
234.507	7881.07
234.579	7837.6
234.651	7821.73
234.723	7847.65
234.795	7865.98
234.867	7867.57
234.939	7912.64
235.012	7921.48
235.084	7924.66
235.156	7955.24
235.228	7940.33
235.3	7931.29
235.372	7942.12
235.444	7991.21
235.516	7922.06
235.588	7922.02
235.66	7937.65
235.732	7917.45
235.804	8073.53
235.876	8111.52
235.948	8164.3
236.02	8171.56
236.092	8189.64
236.164	8199.98
236.236	8200.02
236.308	8197.81
236.38	8215.42
236.452	8206.61
236.524	8227.87
236.596	8280.6
236.668	8305.47
236.74	8327.5
236.812	8344.04
236.884	8370.7
236.956	8377.01
237.028	8371
237.1	8356.42
237.172	8413.55
237.244	8478.74
237.316	8381.54
237.388	8365.87
237.46	8352.77
237.532	8404.02
237.604	8393.34
237.675	8452.97
237.747	8481.75
237.819	8471.98
237.891	8475.26
237.963	8462.65
238.035	8456.49
238.107	8364.03
238.178	8413.85
238.25	8412.17
238.322	8489.05
238.394	8453.01
238.466	8451.42
238.538	8487.64
238.609	8526.85
238.681	8485.79
238.753	8469.52
238.825	8484.11
238.897	8512.06
238.968	8570.55
239.04	8549.09
239.112	8638.88
239.184	8609.71
239.255	8605.14
239.327	8632.8
239.399	8653.78
239.471	8691.89
239.542	8720.33
239.614	8780.67
239.686	8718.33
239.758	8762.12
239.829	8733.18
239.901	8784.39
239.973	8800.75
240.044	8829.63
240.116	8836.51
240.188	8846.28
240.259	8853.45
240.331	8842.66
240.403	8870.77
240.474	8835.42
240.546	8832.78
240.618	8783.39
240.689	8782.23
240.761	8806.55
240.833	8855.26
240.904	8852.13
240.976	8847.75
241.048	8862.53
241.119	8890.61
241.191	8921.65
241.262	8982.71
241.334	8987.58
241.405	8987
241.477	8985.56
241.549	8991.72
241.62	9010.59
241.692	9048.33
241.763	9092.77
241.835	9106.11
241.906	9114.58
241.978	9094.13
242.049	9148.28
242.121	9196.75
242.192	9250.39
242.264	9215.15
242.335	9179
242.407	9218.43
242.478	9225.41
242.55	9240.33
242.621	9228.15
242.693	9226.61
242.764	9217.12
242.836	9215.05
242.907	9243.7
242.979	9277.3
243.05	9299.02
243.122	9323.96
243.193	9317.7
243.264	9262.96
243.336	9273.55
243.407	9309.14
243.479	9374.91
243.55	9384.59
243.622	9400.39
243.693	9397.98
243.764	9463.56
243.836	9447.63
243.907	9438.77
243.978	9437.76
244.05	9462.56
244.121	9423.22
244.192	9463.34
244.264	9422.26
244.335	9441.66
244.407	9398.67
244.478	9406.9
244.549	9394.19
244.62	9356.53
244.692	9364.96
244.763	9405.93
244.834	9392.4
244.906	9373.76
244.977	9383.01
245.048	9428.29
245.119	9411.73
245.191	9393.77
245.262	9339.84
245.333	9400.11
245.405	9414.22
245.476	9447.25
245.547	9456.74
245.618	9499.68
245.689	9508.21
245.761	9542.45
245.832	9539.13
245.903	9579.28
245.974	9603.8
246.045	9615.02
246.117	9684.18
246.188	9663.14
246.259	9649.03
246.33	9669.11
246.401	9671.66
246.473	9643.05
246.544	9631.87
246.615	9675.65
246.686	9681.05
246.757	9745.28
246.828	9729.73
246.899	9786.67
246.97	9756.44
247.042	9750.41
247.113	9783.51
247.184	9857.9
247.255	9851.3
247.326	9877.03
247.397	9883.77
247.468	9886.23
247.539	9903.13
247.61	9865.99
247.681	9905.77
247.752	9948.39
247.823	9931.34
247.894	9956.05
247.965	9936.93
248.037	9927.59
248.108	9888.19
248.179	9893.87
248.25	9883.66
248.321	9901.09
248.392	9856.96
248.463	9930.12
248.534	9927.76
248.605	9947.65
248.675	9918.69
248.746	9940.99
248.817	9952.65
248.888	9961.8
248.959	9921.11
249.03	9938.59
249.101	9948.27
249.172	9930.94
249.243	9873.2
249.314	9919.87
249.385	9923
249.456	9948.04
249.527	9941.68
249.598	9962.73
249.669	9959.84
249.739	9970.29
249.81	9984.26
249.881	9958.73
249.952	9944.33
250.023	9943.36
250.094	9900.58
250.165	9877.12
250.235	9860.35
250.306	9859.1
250.377	9839.69
250.448	9860.35
250.519	9807.23
250.59	9849.33
250.66	9847.98
250.731	9901.39
250.802	9904.13
250.873	9915.17
250.944	9928.85
251.014	9918.2
251.085	9985.9
251.156	10013.16
251.227	10051.66
251.297	10091.5
251.368	10130.47
251.439	10170.89
251.51	10213.91
251.58	10200.72
251.651	10198.6
251.722	10246.68
251.792	10213.78
251.863	10224.04
251.934	10277.03
252.005	10377.28
252.075	10387.35
252.146	10430.36
252.217	10468.43
252.287	10499.12
252.358	10503.07
252.429	10566.05
252.499	10561.85
252.57	10571.01
252.641	10604.54
252.711	10617.75
252.782	10588.5
252.852	10649.85
252.923	10647.48
252.994	10659.92
253.064	10697.49
253.135	10686.84
253.205	10667.47
253.276	10724.56
253.347	10775.15
253.417	10755.54
253.488	10729.42
253.558	10721.27
253.629	10722.72
253.699	10734.72
253.77	10762.19
253.841	10755.92
253.911	10765.42
253.982	10782.71
254.052	10801.37
254.123	10810.23
254.193	10804.64
254.264	10915.97
254.334	10893.03
254.405	10863.15
254.475	10835.01
254.546	10846.1
254.616	10888.74
254.687	10920.59
254.757	10942.18
254.827	10943.24
254.898	10965.4
254.968	10977.26
255.039	10964.25
255.109	10997.25
255.18	10982.94
255.25	10922.23
255.321	10954.36
255.391	10913.59
255.461	10991.08
255.532	10932.04
255.602	10920.72
255.673	10880.97
255.743	10850.17
255.813	10779.49
255.884	10819.92
255.954	10851.39
256.024	10900.64
256.095	10903.24
256.165	10874.33
256.235	10891.73
256.306	10873.75
256.376	10907.73
256.446	10934.86
256.517	10957.41
256.587	10993.9
256.657	11003.92
256.728	11027.96
256.798	11030.85
256.868	11036.54
256.938	11005.69
257.009	11042.61
257.079	11074.65
257.149	11151.95
257.219	11101.54
257.29	11140.08
257.36	11096.47
257.43	11126.59
257.5	11070.35
257.571	11061.39
257.641	11085
257.711	11054.3
257.781	11077.24
257.852	11089.53
257.922	11048.08
257.992	11049.14
258.062	11033.24
258.132	11065.72
258.202	11063.74
258.273	11073.62
258.343	11129.43
258.413	11112.95
258.483	11116.09
258.553	11092.95
258.623	11068.81
258.693	11091.84
258.764	11153.04
258.834	11209.08
258.904	11217.91
258.974	11214.34
259.044	11225.76
259.114	11254.29
259.184	11280.41
259.254	11290.39
259.324	11250.87
259.394	11284.26
259.464	11352.13
259.535	11365.14
259.605	11362.06
259.675	11354.54
259.745	11382.06
259.815	11362.92
259.885	11368.22
259.955	11455.18
260.025	11445.11
260.095	11455.19
260.165	11477.65
260.235	11524.26
260.305	11518.09
260.375	11495.43
260.445	11575.1
260.515	11631.49
260.585	11668.46
260.655	11668.51
260.725	11708.51
260.795	11738.92
260.865	11793.44
260.934	11764.66
261.004	11780.18
261.074	11781.19
261.144	11833.67
261.214	11866.79
261.284	11870.93
261.354	11906.02
261.424	11874.11
261.494	11933.72
261.564	11938.25
261.634	11964.38
261.703	11908.46
261.773	11922.2
261.843	11954.97
261.913	11948.52
261.983	11900.85
262.053	11917.67
262.123	11918.2
262.192	11880.94
262.262	11914.73
262.332	11872.12
262.402	11891.64
262.472	11901.14
262.541	11851.89
262.611	11890.26
262.681	11869.43
262.751	11901.68
262.821	11905.39
262.89	11876.81
262.96	11901.44
263.03	11967.48
263.1	11984.97
263.169	12003.14
263.239	12026.23
263.309	12080.03
263.379	12103.26
263.448	12118.54
263.518	12137.73
263.588	12158.74
263.657	12221.11
263.727	12246.42
263.797	12261.07
263.867	12266.71
263.936	12243.62
264.006	12298.18
264.076	12294.56
