Data from 20250626_urea_1M_exp2_MAYP1162681_07-53-59-350.txt Node
Date: Fri Jun 27 07:53:59 BST 2025
User: adleo
Spectrometer: MAYP116268
Trigger mode: 0
Integration Time (sec): 3.000000E0
Scans to average: 1
Electric dark correction enabled: true
Nonlinearity correction enabled: true
Boxcar width: 10
XAxis mode: Wavelengths
Number of Pixels in Spectrum: 2068
>>>>>Begin Spectral Data<<<<<
179.565	2920.09
179.642	3075.27
179.718	3187.79
179.795	3307.57
179.871	3395.03
179.948	3449.2
180.024	3505.27
180.101	3566.39
180.177	3601.72
180.254	3662.16
180.33	3722.63
180.407	3924.6
180.483	4149.07
180.56	4377.73
180.636	4589.85
180.712	4566.01
180.789	4584.58
180.865	4619.16
180.942	4640.3
181.018	4666.19
181.095	4705.51
181.171	4719.92
181.248	4723.51
181.324	4767.14
181.4	4777.96
181.477	4806.89
181.553	4833.92
181.63	4889.47
181.706	4927.36
181.782	4955.01
181.859	4956.21
181.935	4972.3
182.011	4965.89
182.088	5013.25
182.164	5066.79
182.24	5102.36
182.317	5124.43
182.393	5120.27
182.469	5156.81
182.546	5195.37
182.622	5203.76
182.698	5194.46
182.775	5230.54
182.851	5259.81
182.927	5240.31
183.003	5228.05
183.08	5212.38
183.156	5245.92
183.232	5241.22
183.308	5215.55
183.385	5233.51
183.461	5277.73
183.537	5276.82
183.613	5307.06
183.69	5283.77
183.766	5252.51
183.842	5271.3
183.918	5283.71
183.995	5314.18
184.071	5327.84
184.147	5309.96
184.223	5287.37
184.299	5319.06
184.375	5291.02
184.452	5312.46
184.528	5416.92
184.604	5446.24
184.68	5479.82
184.756	5492.53
184.832	5498.71
184.908	5516.58
184.985	5515.86
185.061	5472.49
185.137	5498.52
185.213	5468.58
185.289	5471.98
185.365	5456.12
185.441	5450.42
185.517	5492.43
185.593	5486.87
185.669	5474.5
185.745	5498.32
185.822	5545.4
185.898	5518.22
185.974	5537.72
186.05	5517.24
186.126	5451.61
186.202	5428.03
186.278	5415.28
186.354	5389.59
186.43	5405.75
186.506	5397.56
186.582	5394.4
186.658	5412.41
186.734	5358.46
186.81	5361
186.886	5366.07
186.962	5397.08
187.038	5388.16
187.114	5362.69
187.19	5381.05
187.266	5357.81
187.341	5364.96
187.417	5342.48
187.493	5338.94
187.569	5348.62
187.645	5329.74
187.721	5303.37
187.797	5330.88
187.873	5340.61
187.949	5323.6
188.025	5310.17
188.101	5318.17
188.176	5334.94
188.252	5321.44
188.328	5345.19
188.404	5350.46
188.48	5337.19
188.556	5320.7
188.632	5319.4
188.707	5324.68
188.783	5320.94
188.859	5311.55
188.935	5280.88
189.011	5301.53
189.086	5287.78
189.162	5263.58
189.238	5258.26
189.314	5252.18
189.39	5234.49
189.465	5217.96
189.541	5265.17
189.617	5223.49
189.693	5205.33
189.768	5214.3
189.844	5281.42
189.92	5255.47
189.996	5275.55
190.071	5309.82
190.147	5304.26
190.223	5332.3
190.298	5307.52
190.374	5271.68
190.45	5302.67
190.526	5324.19
190.601	5312.3
190.677	5319.15
190.753	5395.18
190.828	5408.74
190.904	5444.26
190.98	5484.15
191.055	5509.36
191.131	5489.17
191.207	5544.91
191.282	5572.02
191.358	5546.48
191.433	5503.83
191.509	5540.42
191.585	5534.96
191.66	5536.73
191.736	5560.07
191.811	5533.71
191.887	5578.21
191.963	5636.21
192.038	5650.02
192.114	5654.91
192.189	5662.2
192.265	5653.29
192.34	5594.13
192.416	5595.9
192.491	5584.24
192.567	5591.78
192.642	5595.81
192.718	5592.59
192.793	5561.57
192.869	5551.85
192.944	5552.37
193.02	5576.83
193.095	5585.65
193.171	5603.25
193.246	5596.53
193.322	5588.72
193.397	5589.96
193.473	5554.14
193.548	5512.32
193.624	5524.02
193.699	5517.41
193.775	5557.75
193.85	5560.91
193.925	5584.79
194.001	5576.55
194.076	5558.33
194.152	5531.33
194.227	5513.49
194.302	5491.45
194.378	5496.15
194.453	5487.24
194.529	5527.85
194.604	5487.43
194.679	5476.6
194.755	5423.32
194.83	5458.82
194.905	5451.53
194.981	5471.47
195.056	5449.91
195.131	5464.92
195.207	5455.37
195.282	5430.74
195.357	5380.34
195.433	5422.23
195.508	5388.57
195.583	5412.2
195.659	5453.92
195.734	5468.73
195.809	5473.24
195.884	5495.04
195.96	5497.82
196.035	5538.56
196.11	5526.52
196.185	5555.9
196.261	5562.85
196.336	5645.16
196.411	5599.12
196.486	5614.65
196.561	5594.37
196.637	5621.93
196.712	5662.42
196.787	5676.76
196.862	5720.67
196.937	5748.38
197.013	5762.77
197.088	5789.67
197.163	5839.96
197.238	5874.87
197.313	5874.53
197.388	5909.74
197.464	5987.34
197.539	6020.48
197.614	6003.07
197.689	6033.83
197.764	6078.85
197.839	6125.67
197.914	6106.66
197.989	6171.58
198.065	6206.51
198.14	6345.88
198.215	6416.82
198.29	6445.97
198.365	6479.91
198.44	6503.48
198.515	6572.62
198.59	6611.32
198.665	6679.74
198.74	6701.94
198.815	6706.12
198.89	6766.61
198.965	6840.7
199.04	6833.11
199.115	6874.55
199.19	6991.15
199.265	7003.16
199.34	7021.36
199.415	7112.98
199.49	7168.97
199.565	7193
199.64	7257.57
199.715	7247.61
199.79	7259.73
199.865	7272.94
199.94	7269.58
200.015	7351.91
200.09	7369.65
200.165	7384.98
200.24	7399.06
200.315	7501.39
200.39	7544.6
200.464	7559.94
200.539	7566
200.614	7608.1
200.689	7666.28
200.764	7673.69
200.839	7714.14
200.914	7735.53
200.989	7702.53
201.063	7740.56
201.138	7693.3
201.213	7687.39
201.288	7636.96
201.363	7647.87
201.438	7647.1
201.512	7688.53
201.587	7640.92
201.662	7649.43
201.737	7677.22
201.812	7704.25
201.886	7620.53
201.961	7648.43
202.036	7614.65
202.111	7599.26
202.186	7516.06
202.26	7467.01
202.335	7415.62
202.41	7403.07
202.485	7357.91
202.559	7308.17
202.634	7239.49
202.709	7266.04
202.784	7220.59
202.858	7222.8
202.933	7177.24
203.008	7165.52
203.082	7110.51
203.157	7112.33
203.232	6997.48
203.306	6943.94
203.381	6852.35
203.456	6791.77
203.53	6727.52
203.605	6672.43
203.68	6618.23
203.754	6605.23
203.829	6566.13
203.904	6521.38
203.978	6482.09
204.053	6497.12
204.127	6467.89
204.202	6456.9
204.277	6413.94
204.351	6398.48
204.426	6377.2
204.5	6356.46
204.575	6265.82
204.65	6294.11
204.724	6271.96
204.799	6298.43
204.873	6290.02
204.948	6286.67
205.022	6253.71
205.097	6234.54
205.171	6276.38
205.246	6295.97
205.32	6294.1
205.395	6295.78
205.469	6262.6
205.544	6284.93
205.618	6236.59
205.693	6258.14
205.767	6225.66
205.842	6278.28
205.916	6263.93
205.991	6234.51
206.065	6249.53
206.14	6288.75
206.214	6269.58
206.289	6249.08
206.363	6282.44
206.438	6285.89
206.512	6307.98
206.586	6358.94
206.661	6378.68
206.735	6320.74
206.81	6322.56
206.884	6359.89
206.958	6324.67
207.033	6366.4
207.107	6376.92
207.181	6455.88
207.256	6450.45
207.33	6512.03
207.405	6546.69
207.479	6593.98
207.553	6614.62
207.628	6571.68
207.702	6606.33
207.776	6589.77
207.851	6601.29
207.925	6634.78
207.999	6626.81
208.073	6619.46
208.148	6627.92
208.222	6593.38
208.296	6678.7
208.371	6723.17
208.445	6750.59
208.519	6832.65
208.593	6867.42
208.668	6862.76
208.742	6870.26
208.816	6873.81
208.89	6900.24
208.965	6897.74
209.039	6914.9
209.113	6961.83
209.187	7018.89
209.261	7009.05
209.336	7066.93
209.41	7122.87
209.484	7123.92
209.558	7184.23
209.632	7219.72
209.707	7242.79
209.781	7304.68
209.855	7347.51
209.929	7388.69
210.003	7407.68
210.077	7395.71
210.151	7521.04
210.226	7612.32
210.3	7688.16
210.374	7746.93
210.448	7757.6
210.522	7783.52
210.596	7811.36
210.67	7834.54
210.744	7958.2
210.818	8037.6
210.892	8087.48
210.966	8062.53
211.041	8102.64
211.115	8095.23
211.189	8160.11
211.263	8208.44
211.337	8224.6
211.411	8255.88
211.485	8238.79
211.559	8268.32
211.633	8282.83
211.707	8199.37
211.781	8211.51
211.855	8110.96
211.929	8096.1
212.003	8048.48
212.077	8071.48
212.151	8099.53
212.225	8129.31
212.299	8095.08
212.373	8065.21
212.447	8050.11
212.52	8129.19
212.594	8145.69
212.668	8174.45
212.742	8127.41
212.816	8110.57
212.89	8094.17
212.964	8088.11
213.038	8097.39
213.112	8132.28
213.186	8164.4
213.26	8109.23
213.333	7984.97
213.407	8001.93
213.481	7999.39
213.555	8029.46
213.629	7993.91
213.703	7950.61
213.777	7937
213.85	7883.89
213.924	7961.02
213.998	7958.95
214.072	7939.26
214.146	7889.38
214.219	7876.83
214.293	7871.49
214.367	7872.55
214.441	7890.15
214.515	7852.92
214.588	7781.5
214.662	7682.26
214.736	7621.68
214.81	7637.34
214.883	7660.01
214.957	7622.15
215.031	7584.73
215.105	7514.47
215.178	7468.57
215.252	7440.49
215.326	7371.37
215.4	7308.87
215.473	7172.61
215.547	7106.8
215.621	7052.26
215.694	7050.91
215.768	6973.55
215.842	6921.28
215.915	6866.82
215.989	6779.7
216.063	6734.33
216.136	6719.58
216.21	6697.69
216.284	6703.17
216.357	6676.51
216.431	6643.37
216.504	6638.04
216.578	6680.46
216.652	6690.3
216.725	6676.8
216.799	6681.99
216.873	6659.28
216.946	6667.49
217.02	6639.95
217.093	6620.89
217.167	6547.9
217.24	6482.82
217.314	6459.02
217.387	6423.56
217.461	6391.44
217.535	6402.63
217.608	6358.85
217.682	6344.54
217.755	6353.81
217.829	6311.12
217.902	6302.05
217.976	6288.47
218.049	6252.33
218.123	6191.04
218.196	6190.99
218.27	6156.24
218.343	6098.09
218.417	6097.33
218.49	6071.27
218.563	6107.06
218.637	6114.41
218.71	6170.53
218.784	6189.54
218.857	6212.81
218.931	6233.48
219.004	6237.7
219.077	6257.06
219.151	6273.03
219.224	6261.51
219.298	6260.03
219.371	6297.33
219.444	6266.1
219.518	6274.98
219.591	6289.8
219.665	6373.35
219.738	6378.92
219.811	6369.08
219.885	6402.15
219.958	6424.77
220.031	6435.61
220.105	6451.65
220.178	6454.63
220.251	6436.57
220.325	6462.02
220.398	6473.93
220.471	6481.46
220.544	6509.17
220.618	6491.4
220.691	6511.85
220.764	6528.65
220.838	6550.69
220.911	6542.91
220.984	6615.02
221.057	6642.62
221.131	6662.02
221.204	6584.42
221.277	6642.49
221.35	6738.79
221.424	6739.65
221.497	6755.12
221.57	6772.06
221.643	6795.94
221.716	6828.61
221.79	6830.92
221.863	6833.61
221.936	6842.63
222.009	6857.66
222.082	6881.54
222.155	6890.9
222.229	6939.39
222.302	6961.15
222.375	6961.34
222.448	6984.98
222.521	6984.59
222.594	6987.14
222.667	6968.27
222.74	7019.14
222.814	7013.42
222.887	6993.9
222.96	7034.17
223.033	7065.12
223.106	7081.54
223.179	7105.63
223.252	7119.62
223.325	7136.77
223.398	7153.4
223.471	7181.26
223.544	7198.6
223.617	7207.01
223.69	7223.59
223.763	7194.65
223.837	7214.45
223.91	7240.88
223.983	7209.71
224.056	7186.89
224.129	7195.63
224.202	7240.29
224.275	7226.84
224.348	7205.41
224.42	7185.56
224.493	7143.61
224.566	7123.61
224.639	7137.5
224.712	7116.82
224.785	7099.52
224.858	7100.48
224.931	7086.45
225.004	7045.47
225.077	7045.95
225.15	6974.58
225.223	6971.45
225.296	7033.67
225.369	6985.25
225.442	6957.81
225.514	6970.73
225.587	6979.18
225.66	6990.57
225.733	6987.69
225.806	6990.86
225.879	6985.43
225.952	6961.37
226.025	6999.28
226.097	7039
226.17	7034.29
226.243	6983.04
226.316	6979.91
226.389	6978.76
226.461	6992.74
226.534	7012
226.607	7003.93
226.68	7072.08
226.753	7070.21
226.825	7014.24
226.898	7058.1
226.971	7061.84
227.044	7084.23
227.117	7096.53
227.189	7110.81
227.262	7139.51
227.335	7157.48
227.407	7153.16
227.48	7180.1
227.553	7183.85
227.626	7161.78
227.698	7170.91
227.771	7201.35
227.844	7192.42
227.916	7210.29
227.989	7179.2
228.062	7183.53
228.134	7253.95
228.207	7251.55
228.28	7242.32
228.352	7246.55
228.425	7252.47
228.498	7290.97
228.57	7267.9
228.643	7307.61
228.716	7312.81
228.788	7298.38
228.861	7293.53
228.934	7349.32
229.006	7358.6
229.079	7362.25
229.151	7354.99
229.224	7326.65
229.296	7342.27
229.369	7422.05
229.442	7460.32
229.514	7454.23
229.587	7488.35
229.659	7428.35
229.732	7437.44
229.804	7477.27
229.877	7542.3
229.949	7566.29
230.022	7609.64
230.094	7612.47
230.167	7603.77
230.239	7567.77
230.312	7560.56
230.384	7614.91
230.457	7610.87
230.529	7616.88
230.602	7616.01
230.674	7625.63
230.747	7655.03
230.819	7683.35
230.892	7586.47
230.964	7583.73
231.037	7599.72
231.109	7589.34
231.181	7623.27
231.254	7598.9
231.326	7585.3
231.399	7565.71
231.471	7542.92
231.544	7472.99
231.616	7512.83
231.688	7520.77
231.761	7511.69
231.833	7512.46
231.905	7449.36
231.978	7441.04
232.05	7426.48
232.122	7434.61
232.195	7417.49
232.267	7448.55
232.339	7425.28
232.412	7480.93
232.484	7461.01
232.556	7442.57
232.629	7494.37
232.701	7502.93
232.773	7510.67
232.846	7502.07
232.918	7501.63
232.99	7522.55
233.062	7559.09
233.135	7566.16
233.207	7536.73
233.279	7572.58
233.351	7595.27
233.424	7593.78
233.496	7573.5
233.568	7641.01
233.64	7611.16
233.713	7623.61
233.785	7623.22
233.857	7640.29
233.929	7598.28
234.001	7651.93
234.074	7704.41
234.146	7646.07
234.218	7643.47
234.29	7642.31
234.362	7638.52
234.434	7603.12
234.507	7571.82
234.579	7530.48
234.651	7512.54
234.723	7540.24
234.795	7555.43
234.867	7551.59
234.939	7594.23
235.012	7608.7
235.084	7604.37
235.156	7631.29
235.228	7613.07
235.3	7595.28
235.372	7597.01
235.444	7646.09
235.516	7583.02
235.588	7584.8
235.66	7605.09
235.732	7589.32
235.804	7747.91
235.876	7780.02
235.948	7829.27
236.02	7843.36
236.092	7854.7
236.164	7860.51
236.236	7861.96
236.308	7857.73
236.38	7874.46
236.452	7864.22
236.524	7886.24
236.596	7937.84
236.668	7969.11
236.74	7991.41
236.812	8015.5
236.884	8049.7
236.956	8059.32
237.028	8055.05
237.1	8045.05
237.172	8098.5
237.244	8155.55
237.316	8058.9
237.388	8042.89
237.46	8019.51
237.532	8065.92
237.604	8062.03
237.675	8123.03
237.747	8154.84
237.819	8146.76
237.891	8148.2
237.963	8137.19
238.035	8133.87
238.107	8052.11
238.178	8099.23
238.25	8104.52
238.322	8177.15
238.394	8149.1
238.466	8148.29
238.538	8180.36
238.609	8212.82
238.681	8170.38
238.753	8153.83
238.825	8168.27
238.897	8196.69
238.968	8267.92
239.04	8245.79
239.112	8333.53
239.184	8298.98
239.255	8294.17
239.327	8323.17
239.399	8342.17
239.471	8383.35
239.542	8411.68
239.614	8462.39
239.686	8397.37
239.758	8438.6
239.829	8409.33
239.901	8449.21
239.973	8465.91
240.044	8493
240.116	8505.7
240.188	8514.84
240.259	8527.59
240.331	8515.75
240.403	8546.11
240.474	8507.69
240.546	8507.17
240.618	8454.9
240.689	8460.48
240.761	8481.23
240.833	8524.59
240.904	8526.95
240.976	8522.52
241.048	8534.89
241.119	8558.91
241.191	8595.58
241.262	8644.01
241.334	8649.6
241.405	8655.47
241.477	8658.02
241.549	8668.22
241.62	8685.07
241.692	8719.24
241.763	8761.94
241.835	8783.26
241.906	8795.05
241.978	8770.13
242.049	8823.93
242.121	8877.25
242.192	8926.93
242.264	8892.57
242.335	8858.2
242.407	8892.67
242.478	8897.57
242.55	8911.39
242.621	8903.88
242.693	8903.06
242.764	8899.25
242.836	8897.14
242.907	8923.57
242.979	8947.59
243.05	8960.58
243.122	8981.33
243.193	8987.16
243.264	8935.8
243.336	8941.57
243.407	8965.31
243.479	9034.53
243.55	9045.99
243.622	9056
243.693	9052.3
243.764	9108.47
243.836	9092.74
243.907	9084.26
243.978	9091.1
244.05	9112.43
244.121	9076.62
244.192	9109.11
244.264	9072.04
244.335	9082.77
244.407	9037.48
244.478	9047.68
244.549	9041.09
244.62	9004.79
244.692	8994.25
244.763	9031.65
244.834	9015.66
244.906	9000.02
244.977	9005.99
245.048	9047.99
245.119	9031.86
245.191	9010.34
245.262	8967.26
245.333	9033.87
245.405	9044.03
245.476	9074.41
245.547	9087.5
245.618	9130.59
245.689	9133.96
245.761	9162.6
245.832	9168.96
245.903	9212.09
245.974	9235.06
246.045	9249.6
246.117	9323.37
246.188	9313.36
246.259	9296.03
246.33	9317.59
246.401	9329.49
246.473	9312.39
246.544	9302.71
246.615	9345.8
246.686	9361.59
246.757	9414.98
246.828	9391.63
246.899	9450.92
246.97	9420.26
247.042	9413.57
247.113	9443.76
247.184	9519.78
247.255	9515.35
247.326	9537.99
247.397	9540.83
247.468	9543.29
247.539	9553.3
247.61	9510.29
247.681	9551.26
247.752	9597.78
247.823	9574.09
247.894	9586.27
247.965	9557.92
248.037	9541.06
248.108	9505.08
248.179	9505.95
248.25	9500.17
248.321	9526.56
248.392	9494.52
248.463	9558.51
248.534	9557.31
248.605	9571.67
248.675	9548.1
248.746	9562.5
248.817	9575.41
248.888	9595.59
248.959	9556.01
249.03	9576.38
249.101	9584.86
249.172	9570.22
249.243	9512.88
249.314	9565.31
249.385	9574.99
249.456	9603.93
249.527	9602.24
249.598	9621.89
249.669	9621.89
249.739	9632.92
249.81	9640.86
249.881	9604.22
249.952	9598.82
250.023	9594.01
250.094	9557.74
250.165	9533.36
250.235	9525.27
250.306	9531.96
250.377	9507.55
250.448	9536.15
250.519	9488.67
250.59	9527.49
250.66	9526.28
250.731	9584.16
250.802	9584.25
250.873	9596.68
250.944	9606.36
251.014	9597.45
251.085	9664.41
251.156	9684.4
251.227	9723.75
251.297	9767.74
251.368	9808.91
251.439	9845.62
251.51	9889.26
251.58	9876.74
251.651	9875.87
251.722	9927.51
251.792	9891.72
251.863	9885.9
251.934	9929.44
252.005	10013.35
252.075	10026.79
252.146	10069.46
252.217	10100.05
252.287	10135.51
252.358	10138.06
252.429	10203.19
252.499	10202.37
252.57	10211.82
252.641	10251.66
252.711	10259.08
252.782	10220.39
252.852	10278.26
252.923	10273.87
252.994	10289.05
253.064	10335.14
253.135	10312.31
253.205	10287.69
253.276	10339.96
253.347	10397.32
253.417	10375.02
253.488	10359.31
253.558	10349.58
253.629	10349.29
253.699	10357.14
253.77	10380.03
253.841	10371.46
253.911	10378.54
253.982	10388.03
254.052	10415.65
254.123	10420.37
254.193	10422.39
254.264	10532.21
254.334	10508.93
254.405	10481.81
254.475	10450.16
254.546	10451.99
254.616	10506.09
254.687	10538.56
254.757	10553.5
254.827	10553.69
254.898	10571.08
254.968	10580.52
255.039	10567.52
255.109	10593.48
255.18	10578.69
255.25	10514.37
255.321	10544.58
255.391	10514.08
255.461	10588.28
255.532	10518.84
255.602	10518.93
255.673	10476.92
255.743	10453.25
255.813	10395.5
255.884	10434.09
255.954	10464.06
256.024	10514.27
256.095	10518.84
256.165	10489.98
256.235	10512.97
256.306	10502.81
256.376	10540.2
256.446	10571.76
256.517	10596.24
256.587	10636.62
256.657	10652.23
256.728	10679.16
256.798	10690.53
256.868	10686.43
256.938	10658.39
257.009	10703.34
257.079	10721.17
257.149	10798.46
257.219	10751.86
257.29	10782.44
257.36	10736.77
257.43	10766.6
257.5	10710.51
257.571	10703.72
257.641	10732.14
257.711	10700.05
257.781	10723.95
257.852	10745.78
257.922	10701.4
257.992	10704.72
258.062	10698.84
258.132	10736.29
258.202	10740.72
258.273	10747.61
258.343	10806.84
258.413	10800.28
258.483	10795.66
258.553	10777.11
258.623	10752.77
258.693	10767.32
258.764	10820.08
258.834	10881.32
258.904	10895.58
258.974	10893.8
259.044	10900.74
259.114	10929.85
259.184	10951.24
259.254	10954.91
259.324	10908.74
259.394	10942.52
259.464	11001.65
259.535	11001.31
259.605	10991.77
259.675	10982.37
259.745	11011.43
259.815	10989.22
259.885	10988.06
259.955	11073.13
260.025	11069.28
260.095	11084.56
260.165	11111.3
260.235	11162.68
260.305	11151.5
260.375	11131.93
260.445	11205.8
260.515	11256.12
260.585	11290.87
260.655	11301.86
260.725	11345.23
260.795	11377.13
260.865	11423.31
260.934	11395.21
261.004	11423.11
261.074	11422.92
261.144	11471.44
261.214	11496.27
261.284	11503.54
261.354	11539.16
261.424	11504.69
261.494	11555.91
261.564	11560.69
261.634	11584.59
261.703	11524.54
261.773	11539.96
261.843	11561.6
261.913	11549.26
261.983	11508.97
262.053	11517.21
262.123	11516.01
262.192	11475.38
262.262	11503.96
262.332	11473.79
262.402	11502.56
262.472	11508.39
262.541	11468.93
262.611	11510.38
262.681	11486.47
262.751	11514.96
262.821	11513.85
262.89	11490.13
262.96	11512.88
263.03	11574.68
263.1	11597
263.169	11620.61
263.239	11648.47
263.309	11705.54
263.379	11729.01
263.448	11741.83
263.518	11767.48
263.588	11780.63
263.657	11848.35
263.727	11883.83
263.797	11892.5
263.867	11895.54
263.936	11867.87
264.006	11916.25
264.076	11908.06
264.145	11917.27
