Data from 20250626_urea_1M_exp2_MAYP1162681_11-43-58-241.txt Node
Date: Fri Jun 27 11:43:58 BST 2025
User: adleo
Spectrometer: MAYP116268
Trigger mode: 0
Integration Time (sec): 3.000000E0
Scans to average: 1
Electric dark correction enabled: true
Nonlinearity correction enabled: true
Boxcar width: 10
XAxis mode: Wavelengths
Number of Pixels in Spectrum: 2068
>>>>>Begin Spectral Data<<<<<
179.565	3146.7
179.642	3308.14
179.718	3424.32
179.795	3548.11
179.871	3645.6
179.948	3705.71
180.024	3768.39
180.101	3832.76
180.177	3872.63
180.254	3935.71
180.33	3994.32
180.407	4212.39
180.483	4452.6
180.56	4701.66
180.636	4929.87
180.712	4897.91
180.789	4919.27
180.865	4951.91
180.942	4980.45
181.018	5006.31
181.095	5049.97
181.171	5064.58
181.248	5067.55
181.324	5116.52
181.4	5131.67
181.477	5162.67
181.553	5190.73
181.63	5242.72
181.706	5286.29
181.782	5314.35
181.859	5315.93
181.935	5335.96
182.011	5327.81
182.088	5376.46
182.164	5430.7
182.24	5466.87
182.317	5491.98
182.393	5491.69
182.469	5529.41
182.546	5564.07
182.622	5579.07
182.698	5567.81
182.775	5602.47
182.851	5638.66
182.927	5619.1
183.003	5603.38
183.08	5585.31
183.156	5615.12
183.232	5609.22
183.308	5576.72
183.385	5599.25
183.461	5647.63
183.537	5652.38
183.613	5690.07
183.69	5667.68
183.766	5635.29
183.842	5655
183.918	5669.77
183.995	5707.6
184.071	5713.64
184.147	5699.35
184.223	5667.49
184.299	5697.42
184.375	5665.97
184.452	5686.36
184.528	5792.18
184.604	5825.64
184.68	5861.08
184.756	5880.8
184.832	5894.47
184.908	5914.26
184.985	5914.36
185.061	5869.71
185.137	5889.71
185.213	5858.83
185.289	5859.12
185.365	5841.48
185.441	5839.61
185.517	5878.33
185.593	5863.85
185.669	5857.04
185.745	5885.91
185.822	5936.72
185.898	5912.59
185.974	5939.15
186.05	5914.15
186.126	5848.62
186.202	5826.47
186.278	5807.76
186.354	5785.26
186.43	5800.33
186.506	5789.69
186.582	5782.45
186.658	5803.01
186.734	5751.38
186.81	5750.37
186.886	5762.84
186.962	5798.13
187.038	5786.05
187.114	5763.29
187.19	5783.63
187.266	5761.05
187.341	5766.19
187.417	5741.11
187.493	5743.41
187.569	5751.13
187.645	5734.68
187.721	5701.54
187.797	5727.72
187.873	5744.69
187.949	5723.89
188.025	5706.76
188.101	5716.1
188.176	5733.03
188.252	5718.74
188.328	5744
188.404	5747.16
188.48	5728.27
188.556	5700.12
188.632	5702.18
188.707	5703.62
188.783	5699.45
188.859	5683.11
188.935	5646.46
189.011	5666.12
189.086	5649.34
189.162	5625.17
189.238	5625.99
189.314	5620.91
189.39	5600.58
189.465	5579.04
189.541	5626.96
189.617	5586.49
189.693	5574.94
189.768	5583.87
189.844	5648.06
189.92	5618.55
189.996	5643.77
190.071	5684.05
190.147	5685.49
190.223	5706.79
190.298	5683.53
190.374	5646.51
190.45	5679.67
190.526	5703.03
190.601	5691.04
190.677	5692.81
190.753	5778.68
190.828	5779.4
190.904	5820.7
190.98	5861.96
191.055	5894.72
191.131	5873.61
191.207	5925.39
191.282	5949.12
191.358	5920.59
191.433	5884.64
191.509	5928.35
191.585	5917.41
191.66	5915.54
191.736	5941.82
191.811	5917.07
191.887	5965.92
191.963	6030.11
192.038	6041.77
192.114	6045.03
192.189	6050.54
192.265	6042.2
192.34	5972.54
192.416	5979.2
192.491	5966.34
192.567	5976.04
192.642	5978.58
192.718	5972.06
192.793	5949.13
192.869	5940.69
192.944	5951.19
193.02	5972.64
193.095	5976.43
193.171	6000.94
193.246	5991.59
193.322	5979.11
193.397	5980.46
193.473	5940
193.548	5890.04
193.624	5911.83
193.699	5907.32
193.775	5956.95
193.85	5961.65
193.925	5985.16
194.001	5978.21
194.076	5960.98
194.152	5929.84
194.227	5911.12
194.302	5888.21
194.378	5890.56
194.453	5884.09
194.529	5919.74
194.604	5877.04
194.679	5866.1
194.755	5808.99
194.83	5849.8
194.905	5843.75
194.981	5869.51
195.056	5851.25
195.131	5866.11
195.207	5857.23
195.282	5830
195.357	5776.63
195.433	5818.79
195.508	5785.4
195.583	5809.95
195.659	5847.57
195.734	5864.41
195.809	5859.52
195.884	5882.48
195.96	5884.74
196.035	5926.81
196.11	5916.44
196.185	5945.99
196.261	5950.25
196.336	6037.13
196.411	5992.98
196.486	6006.84
196.561	5986.4
196.637	6015.22
196.712	6062.84
196.787	6068.99
196.862	6113.98
196.937	6136.91
197.013	6157.89
197.088	6189.6
197.163	6244.77
197.238	6293.58
197.313	6294.54
197.388	6336.44
197.464	6421.68
197.539	6457.96
197.614	6440.06
197.689	6461.66
197.764	6509.4
197.839	6570.75
197.914	6551.92
197.989	6628.37
198.065	6668.55
198.14	6809.4
198.215	6875.83
198.29	6909.47
198.365	6948.62
198.44	6980.98
198.515	7062.61
198.59	7099.42
198.665	7173.84
198.74	7198.16
198.815	7194.08
198.89	7254.94
198.965	7333.16
199.04	7316.57
199.115	7359.53
199.19	7477.84
199.265	7496.19
199.34	7523.5
199.415	7613.68
199.49	7676.2
199.565	7689.28
199.64	7759.76
199.715	7745.03
199.79	7760.7
199.865	7776.67
199.94	7770.62
200.015	7854.68
200.09	7866.32
200.165	7883.58
200.24	7895.13
200.315	8002.32
200.39	8046.27
200.464	8062.96
200.539	8066.23
200.614	8116.29
200.689	8178.44
200.764	8191.48
200.839	8236.05
200.914	8250.72
200.989	8219.24
201.063	8259.22
201.138	8212.51
201.213	8205.82
201.288	8159.07
201.363	8171.58
201.438	8168.45
201.512	8211.82
201.587	8160.24
201.662	8167.94
201.737	8203.3
201.812	8230.44
201.886	8139.98
201.961	8168.81
202.036	8135.83
202.111	8126.69
202.186	8043.68
202.26	7993.79
202.335	7933.71
202.41	7917.93
202.485	7870.34
202.559	7812.44
202.634	7731.65
202.709	7757.07
202.784	7706.63
202.858	7710.91
202.933	7660.53
203.008	7641.83
203.082	7589.81
203.157	7587.27
203.232	7471.29
203.306	7401.89
203.381	7312.17
203.456	7250.79
203.53	7186.56
203.605	7137.38
203.68	7077.38
203.754	7060.19
203.829	7017.85
203.904	6962.51
203.978	6929.59
204.053	6944.48
204.127	6913.75
204.202	6907.6
204.277	6855.97
204.351	6833.1
204.426	6805.8
204.5	6783.47
204.575	6685.34
204.65	6711.58
204.724	6688.65
204.799	6718.21
204.873	6709.03
204.948	6702.17
205.022	6669.14
205.097	6642.08
205.171	6680.93
205.246	6700.63
205.32	6700.29
205.395	6702.69
205.469	6677.31
205.544	6692.11
205.618	6640.24
205.693	6672.56
205.767	6642.03
205.842	6705.82
205.916	6689.64
205.991	6661.26
206.065	6679.07
206.14	6723.01
206.214	6709.41
206.289	6686.59
206.363	6710.56
206.438	6724.59
206.512	6745.77
206.586	6795.37
206.661	6826.85
206.735	6758.03
206.81	6756.11
206.884	6796.2
206.958	6757.55
207.033	6803.91
207.107	6818.48
207.181	6905.74
207.256	6889.31
207.33	6943.15
207.405	6977.88
207.479	7033.94
207.553	7057.66
207.628	7010.23
207.702	7042.22
207.776	7023.81
207.851	7038.9
207.925	7081.92
207.999	7071.83
208.073	7067.5
208.148	7072.21
208.222	7037.03
208.296	7127.96
208.371	7176.73
208.445	7204.22
208.519	7281.13
208.593	7318.13
208.668	7308.76
208.742	7314.05
208.816	7316.35
208.89	7352.66
208.965	7344.19
209.039	7367.37
209.113	7414.33
209.187	7478.24
209.261	7471.17
209.336	7527.8
209.41	7585.3
209.484	7590.06
209.558	7654.25
209.632	7687.75
209.707	7721.21
209.781	7779.82
209.855	7822.67
209.929	7866.62
210.003	7877.77
210.077	7878.25
210.151	8012.46
210.226	8110.8
210.3	8189.03
210.374	8256.82
210.448	8269.14
210.522	8297.38
210.596	8325.28
210.67	8351.79
210.744	8479.26
210.818	8569.24
210.892	8625.25
210.966	8608.27
211.041	8644.41
211.115	8632.53
211.189	8700.18
211.263	8750.65
211.337	8762.87
211.411	8803.06
211.485	8789.15
211.559	8825.66
211.633	8829.56
211.707	8740.81
211.781	8758.78
211.855	8660.54
211.929	8631.54
212.003	8580.03
212.077	8611.13
212.151	8646.42
212.225	8670.62
212.299	8638.84
212.373	8600.88
212.447	8585.76
212.52	8664.3
212.594	8678.79
212.668	8704.58
212.742	8659.44
212.816	8638.17
212.89	8626.19
212.964	8623.25
213.038	8632.01
213.112	8670.72
213.186	8714.59
213.26	8652.27
213.333	8521.2
213.407	8528.13
213.481	8539.09
213.555	8565.44
213.629	8523.32
213.703	8466.86
213.777	8460.46
213.85	8403.04
213.924	8488.97
213.998	8486.27
214.072	8462.92
214.146	8416.53
214.219	8403.73
214.293	8395.21
214.367	8394.3
214.441	8410.9
214.515	8369.12
214.588	8295.07
214.662	8185.29
214.736	8115.89
214.81	8128.09
214.883	8153.28
214.957	8116.45
215.031	8071.51
215.105	8001.89
215.178	7956.19
215.252	7922.2
215.326	7838.61
215.4	7771.8
215.473	7628.39
215.547	7560.91
215.621	7508.41
215.694	7502.83
215.768	7426.53
215.842	7373.56
215.915	7320.46
215.989	7227.24
216.063	7185.26
216.136	7166.03
216.21	7149.65
216.284	7160.08
216.357	7138.26
216.431	7099.87
216.504	7098.38
216.578	7141.4
216.652	7149.46
216.725	7127.16
216.799	7141.39
216.873	7126.88
216.946	7130.15
217.02	7102.88
217.093	7080.92
217.167	6999.19
217.24	6932.78
217.314	6904.83
217.387	6863.31
217.461	6822.67
217.535	6845.63
217.608	6791.3
217.682	6772.08
217.755	6782.8
217.829	6737.44
217.902	6724.47
217.976	6706.7
218.049	6666.79
218.123	6606.53
218.196	6608.31
218.27	6578.1
218.343	6517.27
218.417	6518.33
218.49	6504.88
218.563	6540.08
218.637	6540.13
218.71	6599.02
218.784	6625.44
218.857	6653.86
218.931	6673.39
219.004	6678.34
219.077	6696.41
219.151	6709.51
219.224	6702.88
219.298	6695.73
219.371	6728.2
219.444	6699.83
219.518	6710.06
219.591	6722.54
219.665	6812.14
219.738	6815.36
219.811	6802.16
219.885	6838.67
219.958	6861.58
220.031	6863.26
220.105	6879.89
220.178	6884.98
220.251	6864.46
220.325	6887.44
220.398	6896.52
220.471	6912.41
220.544	6944.07
220.618	6921.67
220.691	6948.19
220.764	6959.33
220.838	6981.19
220.911	6974.94
220.984	7042.38
221.057	7073.32
221.131	7096.38
221.204	7015.32
221.277	7075.06
221.35	7180.01
221.424	7174.43
221.497	7181.84
221.57	7201.77
221.643	7227.82
221.716	7267.1
221.79	7274.98
221.863	7278.15
221.936	7288.67
222.009	7300.01
222.082	7329.19
222.155	7337.46
222.229	7383.85
222.302	7409.85
222.375	7411.05
222.448	7442.97
222.521	7450.42
222.594	7446.38
222.667	7426.98
222.74	7471.34
222.814	7467.15
222.887	7450.27
222.96	7497.86
223.033	7532.24
223.106	7547.52
223.179	7571.67
223.252	7576.34
223.325	7594.89
223.398	7604.75
223.471	7629.7
223.544	7647.38
223.617	7657.39
223.69	7675.84
223.763	7647.38
223.837	7669.3
223.91	7697.52
223.983	7657.29
224.056	7625.66
224.129	7645.18
224.202	7685.97
224.275	7674
224.348	7649.58
224.42	7623.9
224.493	7576.31
224.566	7556.06
224.639	7577.88
224.712	7553.49
224.785	7550.13
224.858	7541.91
224.931	7529.98
225.004	7493.4
225.077	7493.74
225.15	7410.12
225.223	7405.46
225.296	7474.2
225.369	7421.57
225.442	7397.63
225.514	7407.86
225.587	7425.98
225.66	7436.32
225.733	7438
225.806	7447.47
225.879	7436.71
225.952	7410.66
226.025	7449.89
226.097	7496.07
226.17	7482.13
226.243	7426.29
226.316	7423.26
226.389	7429.55
226.461	7443.16
226.534	7458.06
226.607	7448.98
226.68	7515.95
226.753	7516.92
226.825	7449.66
226.898	7497.48
226.971	7500.61
227.044	7523.39
227.117	7523.68
227.189	7531.08
227.262	7560.56
227.335	7575.9
227.407	7579.56
227.48	7603.29
227.553	7608.34
227.626	7588.23
227.698	7600.58
227.771	7636.76
227.844	7614.65
227.916	7626.19
227.989	7598.21
228.062	7602.58
228.134	7673.13
228.207	7680.54
228.28	7669.82
228.352	7676.89
228.425	7682.85
228.498	7718.58
228.57	7701.23
228.643	7750.91
228.716	7754.71
228.788	7744.95
228.861	7737.49
228.934	7786.73
229.006	7792.4
229.079	7790.04
229.151	7782.54
229.224	7748.66
229.296	7765.24
229.369	7853.57
229.442	7900.43
229.514	7886.98
229.587	7920.64
229.659	7860.47
229.732	7866.91
229.804	7899.41
229.877	7963.98
229.949	7986.54
230.022	8031.21
230.094	8024.62
230.167	8017.21
230.239	7982.49
230.312	7969.08
230.384	8026.63
230.457	8018.54
230.529	8025.23
230.602	8036.39
230.674	8041.49
230.747	8078.06
230.819	8100.96
230.892	7999.27
230.964	7990.46
231.037	8014.16
231.109	8006.89
231.181	8041.9
231.254	8015.98
231.326	8007.85
231.399	7990.81
231.471	7969.12
231.544	7903.39
231.616	7943.96
231.688	7947.81
231.761	7934.64
231.833	7932.53
231.905	7865.32
231.978	7869.26
232.05	7862.1
232.122	7856.61
232.195	7836.75
232.267	7868.93
232.339	7848.68
232.412	7902.33
232.484	7880.34
232.556	7858.86
232.629	7914.06
232.701	7922.09
232.773	7927.76
232.846	7915.74
232.918	7918.15
232.99	7933.4
233.062	7964.09
233.135	7978.18
233.207	7946.48
233.279	7983.02
233.351	8006
233.424	8007.93
233.496	7985.71
233.568	8054.98
233.64	8029.11
233.713	8041.04
233.785	8038.39
233.857	8051.76
233.929	8012.81
234.001	8068.35
234.074	8121.1
234.146	8060.18
234.218	8058.01
234.29	8063.35
234.362	8061.14
234.434	8025.78
234.507	8002.88
234.579	7962.05
234.651	7941.12
234.723	7972
234.795	7991
234.867	7988.07
234.939	8034.06
235.012	8048.39
235.084	8043.48
235.156	8072.96
235.228	8058
235.3	8041.6
235.372	8053.67
235.444	8102.77
235.516	8037.13
235.588	8038.48
235.66	8050.55
235.732	8030.11
235.804	8188.13
235.876	8217.28
235.948	8267.61
236.02	8270.93
236.092	8288
236.164	8299.3
236.236	8291.99
236.308	8288.76
236.38	8307.91
236.452	8293.38
236.524	8314.74
236.596	8370.79
236.668	8396.92
236.74	8417.31
236.812	8434.63
236.884	8462.16
236.956	8471.25
237.028	8467.55
237.1	8452.59
237.172	8515.3
237.244	8581.28
237.316	8486.38
237.388	8472.53
237.46	8451.88
237.532	8505.19
237.604	8493.84
237.675	8553.04
237.747	8594.58
237.819	8587.41
237.891	8589.38
237.963	8581.39
238.035	8577.26
238.107	8483.24
238.178	8532.11
238.25	8538.6
238.322	8620.88
238.394	8589.27
238.466	8589.36
238.538	8624.48
238.609	8661.96
238.681	8616.47
238.753	8592.26
238.825	8604.87
238.897	8631.18
238.968	8699.12
239.04	8683.43
239.112	8776.03
239.184	8746.37
239.255	8744.16
239.327	8766.05
239.399	8787.7
239.471	8821.29
239.542	8848.15
239.614	8904.84
239.686	8842.69
239.758	8886.05
239.829	8856.24
239.901	8905.05
239.973	8910.05
240.044	8933.25
240.116	8948.46
240.188	8960.01
240.259	8976.33
240.331	8967.42
240.403	9001.83
240.474	8957.63
240.546	8949.54
240.618	8894.76
240.689	8896.44
240.761	8909.1
240.833	8970.63
240.904	8966.92
240.976	8967.26
241.048	8976.5
241.119	9006.12
241.191	9046.7
241.262	9104.45
241.334	9104.83
241.405	9101.8
241.477	9107.96
241.549	9119.42
241.62	9140.27
241.692	9181.57
241.763	9228.96
241.835	9242.25
241.906	9255.39
241.978	9236.09
242.049	9300.51
242.121	9360.54
242.192	9412.3
242.264	9381.88
242.335	9340.81
242.407	9382.07
242.478	9387.8
242.55	9409.27
242.621	9399.98
242.693	9394.54
242.764	9383.02
242.836	9388.66
242.907	9418.95
242.979	9448.9
243.05	9473.07
243.122	9482.85
243.193	9474.56
243.264	9415.72
243.336	9425.02
243.407	9451.7
243.479	9517.09
243.55	9519.06
243.622	9525.23
243.693	9521.66
243.764	9586.33
243.836	9564
243.907	9549.7
243.978	9549.89
244.05	9571.66
244.121	9533.52
244.192	9564.25
244.264	9517.44
244.335	9526.87
244.407	9486.23
244.478	9500.34
244.549	9490.08
244.62	9459.03
244.692	9460.95
244.763	9502.22
244.834	9493.93
244.906	9475.24
244.977	9491.19
245.048	9538.02
245.119	9529.16
245.191	9505.08
245.262	9447.87
245.333	9510.22
245.405	9527.36
245.476	9560.25
245.547	9572.68
245.618	9615.82
245.689	9627.14
245.761	9658.92
245.832	9660.75
245.903	9698.8
245.974	9718.26
246.045	9729.62
246.117	9806.15
246.188	9788.58
246.259	9777.07
246.33	9785.06
246.401	9793.11
246.473	9759.68
246.544	9747.97
246.615	9786.17
246.686	9804.85
246.757	9872.46
246.828	9855.9
246.899	9915.78
246.97	9888.63
247.042	9879.71
247.113	9914.4
247.184	9989.04
247.255	9991.11
247.326	10010.28
247.397	10011.53
247.468	10018.57
247.539	10022.37
247.61	9976.08
247.681	10015.28
247.752	10056.89
247.823	10034.5
247.894	10050.59
247.965	10029.93
248.037	10016.87
248.108	9974.44
248.179	9973.42
248.25	9962.92
248.321	9986.57
248.392	9939.83
248.463	10006.68
248.534	10008.71
248.605	10025.81
248.675	9998.39
248.746	10008.17
248.817	10020.98
248.888	10037.8
248.959	9995.75
249.03	10017.28
249.101	10028.5
249.172	10013.67
249.243	9949.76
249.314	10015.84
249.385	10020.52
249.456	10043.97
249.527	10039.87
249.598	10054.32
249.669	10055.09
249.739	10060.92
249.81	10071.42
249.881	10039.78
249.952	10036.84
250.023	10033.81
250.094	9985.87
250.165	9962.45
250.235	9957.78
250.306	9965.44
250.377	9940.73
250.448	9966.83
250.519	9918.43
250.59	9965.01
250.66	9960.25
250.731	10025.12
250.802	10019.1
250.873	10039.43
250.944	10057.01
251.014	10045.01
251.085	10123.26
251.156	10144.84
251.227	10189.36
251.297	10239.19
251.368	10278.92
251.439	10314.1
251.51	10355.15
251.58	10345.32
251.651	10339.83
251.722	10383.43
251.792	10340.27
251.863	10339.35
251.934	10383.39
252.005	10477.86
252.075	10478.39
252.146	10528.06
252.217	10559.81
252.287	10596.09
252.358	10593.2
252.429	10657.63
252.499	10654.78
252.57	10660.76
252.641	10700.32
252.711	10704.51
252.782	10660.81
252.852	10728.51
252.923	10728.56
252.994	10745.04
253.064	10792.97
253.135	10777.61
253.205	10762.67
253.276	10830.31
253.347	10891.69
253.417	10875.06
253.488	10850.49
253.558	10847.79
253.629	10845.81
253.699	10855.4
253.77	10872.61
253.841	10866.59
253.911	10877.05
253.982	10893.66
254.052	10916.61
254.123	10925.33
254.193	10924.94
254.264	11036.56
254.334	11008.75
254.405	10974.2
254.475	10938.93
254.546	10939.94
254.616	10995.93
254.687	11021.81
254.757	11028.07
254.827	11022.44
254.898	11039.93
254.968	11049.28
255.039	11032.75
255.109	11065.9
255.18	11045.13
255.25	10984.56
255.321	11014.58
255.391	10980.79
255.461	11051.63
255.532	10984.3
255.602	10974.96
255.673	10931.78
255.743	10902.62
255.813	10841.05
255.884	10883.98
255.954	10910.87
256.024	10961.62
256.095	10963.83
256.165	10940.08
256.235	10963.98
256.306	10953.62
256.376	10993.24
256.446	11027.55
256.517	11056.22
256.587	11088.08
256.657	11112.03
256.728	11133.33
256.798	11139.49
256.868	11132.84
256.938	11111.64
257.009	11157.52
257.079	11182.48
257.149	11263.01
257.219	11219.2
257.29	11258.17
257.36	11210.75
257.43	11250.37
257.5	11193.94
257.571	11183.67
257.641	11211.33
257.711	11179.19
257.781	11210.8
257.852	11220.01
257.922	11167.38
257.992	11167.09
258.062	11157.21
258.132	11184.63
258.202	11194.13
258.273	11205.5
258.343	11266.81
258.413	11246.71
258.483	11238.52
258.553	11220.97
258.623	11197.5
258.693	11217.45
258.764	11271.96
258.834	11333.26
258.904	11342.51
258.974	11339.47
259.044	11345.21
259.114	11368.34
259.184	11401.12
259.254	11403.48
259.324	11359.48
259.394	11396.15
259.464	11464.69
259.535	11476.83
259.605	11472.74
259.675	11463.72
259.745	11495.05
259.815	11479
259.885	11487.19
259.955	11593.73
260.025	11583.7
260.095	11597.15
260.165	11615.27
260.235	11660.29
260.305	11648.53
260.375	11629.35
260.445	11702.65
260.515	11757.55
260.585	11796.06
260.655	11803.92
260.725	11840.55
260.795	11878.67
260.865	11936.85
260.934	11909.09
261.004	11924.99
261.074	11923.31
261.144	11970.1
261.214	12002.74
261.284	12003.17
261.354	12029.1
261.424	11987.88
261.494	12045.09
261.564	12052.66
261.634	12081.96
261.703	12030.24
261.773	12043.5
261.843	12067.26
261.913	12060.03
261.983	12017.08
262.053	12028.8
262.123	12017.28
262.192	11981.56
262.262	12020.46
262.332	11986.24
262.402	12010.19
262.472	12020.85
262.541	11978.1
262.611	12020.18
262.681	11998.01
262.751	12027.55
262.821	12035.94
262.89	12002.05
262.96	12026.97
263.03	12086.84
263.1	12098.99
263.169	12115.28
263.239	12150.18
263.309	12207.5
263.379	12236.37
263.448	12253.58
263.518	12276.62
263.588	12296.77
263.657	12360.63
263.727	12387.1
263.797	12397.27
263.867	12395.77
263.936	12364.35
