Data from 20250626_urea_1M_exp2_MAYP1162681_19-24-00-006.txt Node
Date: Thu Jun 26 19:24:00 BST 2025
User: adleo
Spectrometer: MAYP116268
Trigger mode: 0
Integration Time (sec): 3.000000E0
Scans to average: 1
Electric dark correction enabled: true
Nonlinearity correction enabled: true
Boxcar width: 10
XAxis mode: Wavelengths
Number of Pixels in Spectrum: 2068
>>>>>Begin Spectral Data<<<<<
179.565	3055.97
179.642	3221.51
179.718	3341.08
179.795	3456.13
179.871	3544.18
179.948	3601.13
180.024	3662.61
180.101	3730.43
180.177	3767.95
180.254	3828.55
180.33	3890.38
180.407	4104.37
180.483	4342.87
180.56	4583.74
180.636	4809.31
180.712	4777.46
180.789	4802.07
180.865	4837.24
180.942	4870.99
181.018	4901.73
181.095	4942.45
181.171	4955.86
181.248	4953.9
181.324	5000.52
181.4	5017
181.477	5053.7
181.553	5085.29
181.63	5140.77
181.706	5178.63
181.782	5206.77
181.859	5215.63
181.935	5233.41
182.011	5230.25
182.088	5275.2
182.164	5328.95
182.24	5361.04
182.317	5392.13
182.393	5387.05
182.469	5424.72
182.546	5453.38
182.622	5462.29
182.698	5449.16
182.775	5487.55
182.851	5527.91
182.927	5503.17
183.003	5494.12
183.08	5474.85
183.156	5501.93
183.232	5493.83
183.308	5463.2
183.385	5487.12
183.461	5528.11
183.537	5528.11
183.613	5555.58
183.69	5530.27
183.766	5505.75
183.842	5525.41
183.918	5536.34
183.995	5572.67
184.071	5579.29
184.147	5565.05
184.223	5537.41
184.299	5570.21
184.375	5535.27
184.452	5554.22
184.528	5668.23
184.604	5699.82
184.68	5733.37
184.756	5751.93
184.832	5762.29
184.908	5784
184.985	5779.78
185.061	5737.25
185.137	5762.43
185.213	5732.71
185.289	5739.18
185.365	5712.87
185.441	5711.71
185.517	5742.23
185.593	5730.09
185.669	5723.76
185.745	5752.44
185.822	5796.43
185.898	5774.27
185.974	5802.12
186.05	5777.12
186.126	5706.36
186.202	5681.82
186.278	5668.25
186.354	5641.15
186.43	5654.25
186.506	5644.09
186.582	5643.04
186.658	5657.89
186.734	5604.49
186.81	5610.15
186.886	5616.33
186.962	5650.85
187.038	5634.02
187.114	5616.89
187.19	5637.03
187.266	5611.67
187.341	5614.02
187.417	5590.05
187.493	5589.81
187.569	5596.96
187.645	5585.21
187.721	5554.18
187.797	5577
187.873	5587.55
187.949	5569.63
188.025	5558.21
188.101	5569.42
188.176	5580.35
188.252	5573.98
188.328	5598.7
188.404	5593.19
188.48	5583.94
188.556	5558.29
188.632	5562.79
188.707	5563.42
188.783	5556.27
188.859	5547.31
188.935	5516.81
189.011	5542.84
189.086	5526.55
189.162	5504.3
189.238	5498.84
189.314	5494.52
189.39	5479.28
189.465	5464.03
189.541	5511.74
189.617	5470.18
189.693	5454.46
189.768	5467.84
189.844	5528.48
189.92	5503.09
189.996	5530.84
190.071	5554.43
190.147	5557.21
190.223	5582.92
190.298	5566.47
190.374	5533.3
190.45	5565.88
190.526	5586.74
190.601	5571.83
190.677	5570.68
190.753	5648.13
190.828	5656
190.904	5691.63
190.98	5732.49
191.055	5760.36
191.131	5737.24
191.207	5791.75
191.282	5815.18
191.358	5785.7
191.433	5747.83
191.509	5778.35
191.585	5772.26
191.66	5774.61
191.736	5801.47
191.811	5771.44
191.887	5814.1
191.963	5875.25
192.038	5887.43
192.114	5892.66
192.189	5906.23
192.265	5896.6
192.34	5830.74
192.416	5828.92
192.491	5819.85
192.567	5826.19
192.642	5834.35
192.718	5833.87
192.793	5803.41
192.869	5798.09
192.944	5801.4
193.02	5828.65
193.095	5843.95
193.171	5857.76
193.246	5861.88
193.322	5851.28
193.397	5851.72
193.473	5814
193.548	5767.42
193.624	5781.19
193.699	5778.31
193.775	5817.86
193.85	5830.89
193.925	5858.18
194.001	5853.77
194.076	5830.33
194.152	5797.31
194.227	5771.7
194.302	5752.29
194.378	5762.79
194.453	5752.38
194.529	5790.56
194.604	5744.94
194.679	5730.99
194.755	5679.46
194.83	5710.57
194.905	5702.99
194.981	5728.79
195.056	5702.91
195.131	5720.17
195.207	5715.18
195.282	5685.45
195.357	5633.68
195.433	5669.26
195.508	5632.9
195.583	5657.6
195.659	5701.01
195.734	5720.73
195.809	5723.84
195.884	5745.99
195.96	5745.46
196.035	5785.46
196.11	5774.71
196.185	5807.46
196.261	5813.22
196.336	5901.18
196.411	5856.55
196.486	5868.73
196.561	5853.24
196.637	5890.01
196.712	5930.85
196.787	5936.42
196.862	5980.92
196.937	6003.84
197.013	6022.52
197.088	6052.78
197.163	6106.64
197.238	6149.15
197.313	6151.79
197.388	6186.15
197.464	6262.73
197.539	6295.83
197.614	6276.84
197.689	6312.69
197.764	6355.52
197.839	6411.97
197.914	6396.02
197.989	6462.03
198.065	6500.52
198.14	6636.39
198.215	6701.61
198.29	6735.48
198.365	6774.18
198.44	6798.53
198.515	6876.63
198.59	6923.28
198.665	6994.12
198.74	7012.05
198.815	7016.38
198.89	7076.7
198.965	7158.65
199.04	7153.13
199.115	7194.77
199.19	7310.94
199.265	7314.35
199.34	7342.22
199.415	7426.04
199.49	7479.22
199.565	7502.34
199.64	7568.91
199.715	7558.27
199.79	7575.2
199.865	7593.66
199.94	7587.65
200.015	7674.01
200.09	7686.75
200.165	7698.14
200.24	7715.74
200.315	7818.19
200.39	7861.61
200.464	7878.92
200.539	7876.71
200.614	7917.15
200.689	7977.55
200.764	7994.54
200.839	8039.38
200.914	8049.72
200.989	8026.67
201.063	8067.17
201.138	8021.28
201.213	8021.09
201.288	7973.62
201.363	7983.53
201.438	7984.4
201.512	8029.24
201.587	7983.69
201.662	7999.32
201.737	8030.44
201.812	8052.86
201.886	7970.13
201.961	7995.54
202.036	7959.82
202.111	7956.02
202.186	7874.09
202.26	7826.9
202.335	7772.45
202.41	7760.24
202.485	7717.17
202.559	7663.62
202.634	7590.92
202.709	7615.85
202.784	7564.41
202.858	7567.34
202.933	7518.94
203.008	7492.5
203.082	7439.92
203.157	7438.38
203.232	7319.52
203.306	7260.04
203.381	7170.39
203.456	7107.49
203.53	7044.33
203.605	6993.91
203.68	6926.43
203.754	6908.39
203.829	6870.13
203.904	6811.15
203.978	6777.56
204.053	6790.1
204.127	6759.41
204.202	6754.27
204.277	6710.09
204.351	6689.49
204.426	6665.7
204.5	6646.83
204.575	6554.73
204.65	6582.31
204.724	6559.53
204.799	6582.46
204.873	6568.05
204.948	6564.83
205.022	6533.68
205.097	6503.36
205.171	6541.19
205.246	6567.8
205.32	6567.66
205.395	6565.88
205.469	6535.04
205.544	6552.67
205.618	6500.04
205.693	6531.84
205.767	6502.84
205.842	6559.08
205.916	6544.25
205.991	6517.03
206.065	6524.42
206.14	6571.52
206.214	6553.4
206.289	6534.42
206.363	6561.46
206.438	6575.87
206.512	6596.38
206.586	6648.8
206.661	6676.04
206.735	6615.82
206.81	6613.37
206.884	6656.86
206.958	6620.14
207.033	6667.54
207.107	6680.61
207.181	6763.82
207.256	6740.04
207.33	6786.96
207.405	6821.29
207.479	6872.11
207.553	6895.25
207.628	6857.72
207.702	6887.87
207.776	6869.24
207.851	6875.15
207.925	6921.19
207.999	6908.36
208.073	6899.33
208.148	6905.05
208.222	6873.1
208.296	6953.31
208.371	7000.62
208.445	7023.16
208.519	7099.28
208.593	7141.61
208.668	7132.81
208.742	7140.94
208.816	7153.81
208.89	7191.79
208.965	7180.25
209.039	7202.51
209.113	7240.47
209.187	7297.41
209.261	7287.27
209.336	7346.38
209.41	7399.73
209.484	7398.05
209.558	7466.12
209.632	7505.53
209.707	7534.7
209.781	7593.01
209.855	7637.15
209.929	7689.42
210.003	7710.28
210.077	7710.38
210.151	7834.07
210.226	7929.42
210.3	8005.9
210.374	8067.09
210.448	8075.89
210.522	8107.74
210.596	8136.51
210.67	8169.07
210.744	8299.94
210.818	8387.3
210.892	8441.62
210.966	8425.8
211.041	8465.39
211.115	8451.34
211.189	8515.52
211.263	8564.3
211.337	8580.37
211.411	8623.06
211.485	8597.83
211.559	8627.03
211.633	8632.65
211.707	8550.61
211.781	8565.69
211.855	8472.52
211.929	8446.17
212.003	8393.04
212.077	8416.29
212.151	8446.61
212.225	8468.94
212.299	8433.21
212.373	8403.76
212.447	8389.66
212.52	8468.04
212.594	8483.93
212.668	8511.59
212.742	8469.2
212.816	8458.32
212.89	8443.89
212.964	8436.19
213.038	8447.16
213.112	8482.35
213.186	8516.74
213.26	8451.59
213.333	8328
213.407	8342.24
213.481	8355.46
213.555	8386.89
213.629	8351.86
213.703	8298.49
213.777	8286.99
213.85	8232.57
213.924	8313.86
213.998	8309.96
214.072	8287.53
214.146	8239.61
214.219	8229.79
214.293	8219.35
214.367	8215.5
214.441	8241.29
214.515	8202.65
214.588	8126.79
214.662	8021.5
214.736	7966.15
214.81	7984.32
214.883	8004.07
214.957	7963.88
215.031	7916.25
215.105	7846.54
215.178	7798.02
215.252	7774.17
215.326	7702.28
215.4	7637.65
215.473	7498.15
215.547	7431.93
215.621	7381.41
215.694	7380.21
215.768	7300.36
215.842	7244.43
215.915	7183.21
215.989	7086.15
216.063	7039.85
216.136	7026.64
216.21	7012.28
216.284	7015.98
216.357	6998.39
216.431	6962.5
216.504	6954.33
216.578	6999.94
216.652	7006.47
216.725	6993.11
216.799	7004.7
216.873	6983.61
216.946	6990.58
217.02	6964.36
217.093	6944.43
217.167	6868.77
217.24	6796.74
217.314	6770.86
217.387	6735.93
217.461	6703.12
217.535	6721.27
217.608	6672.63
217.682	6654.86
217.755	6661.25
217.829	6624.3
217.902	6607.83
217.976	6596.16
218.049	6563.08
218.123	6495.76
218.196	6497.25
218.27	6466.18
218.343	6402.76
218.417	6402.62
218.49	6378.86
218.563	6408
218.637	6410.88
218.71	6464.33
218.784	6489.49
218.857	6513.64
218.931	6536.58
219.004	6541.95
219.077	6562.9
219.151	6581.67
219.224	6570.05
219.298	6572.98
219.371	6601.32
219.444	6568.54
219.518	6571.66
219.591	6586.44
219.665	6675.21
219.738	6687.5
219.811	6673.44
219.885	6714.22
219.958	6742.03
220.031	6751.48
220.105	6765.32
220.178	6769.64
220.251	6748.93
220.325	6773.83
220.398	6786.41
220.471	6797.84
220.544	6825.75
220.618	6801.77
220.691	6827.08
220.764	6845.14
220.838	6865.36
220.911	6853.88
220.984	6925.1
221.057	6960.4
221.131	6979.47
221.204	6898.09
221.277	6956.68
221.35	7056.08
221.424	7046.48
221.497	7057.96
221.57	7078.95
221.643	7107.16
221.716	7145.18
221.79	7151.81
221.863	7163.78
221.936	7169.88
222.009	7182.51
222.082	7204.19
222.155	7215.67
222.229	7265.81
222.302	7284.84
222.375	7288.16
222.448	7315.93
222.521	7318.96
222.594	7321.12
222.667	7298.41
222.74	7347.46
222.814	7340.39
222.887	7327.65
222.96	7368.12
223.033	7401.59
223.106	7417.78
223.179	7442.88
223.252	7445.82
223.325	7467.15
223.398	7471
223.471	7498.44
223.544	7514.97
223.617	7528.87
223.69	7545.06
223.763	7517.94
223.837	7543.23
223.91	7566.26
223.983	7530.27
224.056	7502.78
224.129	7515.52
224.202	7562.93
224.275	7556.49
224.348	7535.58
224.42	7507.84
224.493	7469.48
224.566	7444.47
224.639	7463.65
224.712	7442.63
224.785	7440.13
224.858	7440.66
224.931	7424.65
225.004	7390.05
225.077	7394.33
225.15	7321.15
225.223	7318.98
225.296	7380.17
225.369	7329.47
225.442	7309.62
225.514	7326.77
225.587	7346.85
225.66	7354.4
225.733	7353.63
225.806	7355.02
225.879	7341.76
225.952	7318.56
226.025	7356.14
226.097	7407.95
226.17	7391.8
226.243	7337.64
226.316	7329.76
226.389	7327.74
226.461	7348.85
226.534	7363.64
226.607	7352.83
226.68	7415.29
226.753	7415.63
226.825	7354.48
226.898	7401.24
226.971	7398.65
227.044	7414.12
227.117	7414.22
227.189	7427.3
227.262	7458.7
227.335	7474.9
227.407	7478.22
227.48	7506.71
227.553	7511.33
227.626	7490.06
227.698	7505.39
227.771	7541.47
227.844	7528.83
227.916	7545.08
227.989	7517.44
228.062	7516.72
228.134	7584.71
228.207	7588.37
228.28	7576.59
228.352	7586.4
228.425	7602.22
228.498	7642.52
228.57	7628.44
228.643	7678.16
228.716	7681
228.788	7670.23
228.861	7667.05
228.934	7721.19
229.006	7730.85
229.079	7736.77
229.151	7723.16
229.224	7690.57
229.296	7706.05
229.369	7792.07
229.442	7833.06
229.514	7818.35
229.587	7855.75
229.659	7793.91
229.732	7804.92
229.804	7840.98
229.877	7897.22
229.949	7914.83
230.022	7949.48
230.094	7953.37
230.167	7941.97
230.239	7906
230.312	7892.4
230.384	7946.71
230.457	7939.45
230.529	7946.28
230.602	7947.91
230.674	7959.46
230.747	7996.13
230.819	8023.25
230.892	7926.86
230.964	7925.32
231.037	7945.74
231.109	7944.88
231.181	7979.59
231.254	7958.29
231.326	7947.32
231.399	7931.2
231.471	7906.86
231.544	7843.5
231.616	7883.12
231.688	7890.38
231.761	7884.09
231.833	7878.7
231.905	7812.27
231.978	7807.36
232.05	7785.63
232.122	7788.76
232.195	7769.18
232.267	7800.73
232.339	7781.59
232.412	7836.74
232.484	7814.08
232.556	7794.71
232.629	7846.15
232.701	7864.19
232.773	7869.86
232.846	7864
232.918	7867.32
232.99	7880.69
233.062	7916.38
233.135	7921.62
233.207	7892.28
233.279	7931.56
233.351	7955.31
233.424	7957.86
233.496	7941.12
233.568	8014.62
233.64	7978.41
233.713	7986.2
233.785	7985.53
233.857	7998.66
233.929	7954.66
234.001	8006.3
234.074	8058.32
234.146	7999.71
234.218	7996.63
234.29	7991.63
234.362	7984.61
234.434	7944.2
234.507	7916.12
234.579	7879.52
234.651	7864.03
234.723	7891.49
234.795	7900.01
234.867	7898.9
234.939	7947.19
235.012	7961.57
235.084	7960.61
235.156	7997.06
235.228	7987.2
235.3	7972.81
235.372	7978.49
235.444	8030.48
235.516	7967.39
235.588	7971.96
235.66	7988.56
235.732	7963.02
235.804	8126.03
235.876	8162.05
235.948	8218.44
236.02	8238.06
236.092	8248.44
236.164	8255.61
236.236	8255.76
236.308	8255.03
236.38	8274.9
236.452	8257.29
236.524	8276.24
236.596	8329.12
236.668	8354.14
236.74	8372.99
236.812	8387.8
236.884	8414.66
236.956	8419.66
237.028	8417.64
237.1	8405.18
237.172	8457.5
237.244	8520.48
237.316	8423.18
237.388	8405.1
237.46	8383.1
237.532	8429.59
237.604	8423.72
237.675	8487.78
237.747	8526.33
237.819	8519.26
237.891	8532.3
237.963	8529.22
238.035	8524.07
238.107	8436.89
238.178	8490.62
238.25	8499.86
238.322	8575.11
238.394	8542.82
238.466	8539.98
238.538	8574.9
238.609	8608.05
238.681	8566.66
238.753	8548.27
238.825	8570.37
238.897	8602.07
238.968	8671.79
239.04	8652.92
239.112	8744.59
239.184	8711.72
239.255	8703.44
239.327	8729.22
239.399	8736.1
239.471	8768.92
239.542	8799.77
239.614	8856.37
239.686	8788.39
239.758	8830.12
239.829	8799.59
239.901	8850.17
239.973	8870.72
240.044	8895.75
240.116	8907.83
240.188	8918.13
240.259	8933.05
240.331	8920.48
240.403	8949.89
240.474	8910.26
240.546	8906.45
240.618	8856.82
240.689	8853.84
240.761	8877.43
240.833	8931.35
240.904	8937.12
240.976	8938.13
241.048	8949.06
241.119	8976.08
241.191	9016.03
241.262	9070.69
241.334	9073.2
241.405	9078.64
241.477	9077.67
241.549	9087.78
241.62	9104.44
241.692	9147.38
241.763	9204.31
241.835	9222.6
241.906	9233.68
241.978	9207.15
242.049	9262.18
242.121	9313.45
242.192	9369.69
242.264	9337.72
242.335	9296.31
242.407	9329.2
242.478	9336.32
242.55	9353.95
242.621	9344.02
242.693	9342.72
242.764	9334.15
242.836	9339.78
242.907	9366.99
242.979	9392.41
243.05	9411
243.122	9431.28
243.193	9430.41
243.264	9368.62
243.336	9366.31
243.407	9398.15
243.479	9469.6
243.55	9484.34
243.622	9497.49
243.693	9495.61
243.764	9560.18
243.836	9547.67
243.907	9538.09
243.978	9546.75
244.05	9568.04
244.121	9526.68
244.192	9562.46
244.264	9522.83
244.335	9535.2
244.407	9496.15
244.478	9510.16
244.549	9501.44
244.62	9468.89
244.692	9464.61
244.763	9507.8
244.834	9504.14
244.906	9481.74
244.977	9493.21
245.048	9534.69
245.119	9519.28
245.191	9504.3
245.262	9446.85
245.333	9509.34
245.405	9525.67
245.476	9551.91
245.547	9569.4
245.618	9621.6
245.689	9625.35
245.761	9653.86
245.832	9657.43
245.903	9694.41
245.974	9716.66
246.045	9729.96
246.117	9800.9
246.188	9790.16
246.259	9769.02
246.33	9782.84
246.401	9791.9
246.473	9768.58
246.544	9756.2
246.615	9802.25
246.686	9815.11
246.757	9877.18
246.828	9857.29
246.899	9916.21
246.97	9889.92
247.042	9879.51
247.113	9901.58
247.184	9974.29
247.255	9971.98
247.326	9994.86
247.397	9999.43
247.468	10007.72
247.539	10023.9
247.61	9986.04
247.681	10023.32
247.752	10069.46
247.823	10048.41
247.894	10062.24
247.965	10034.06
248.037	10020.04
248.108	9976.16
248.179	9976.5
248.25	9971.82
248.321	9995.66
248.392	9959.82
248.463	10025.37
248.534	10024.65
248.605	10045.27
248.675	10021.7
248.746	10037.74
248.817	10052.1
248.888	10064.09
248.959	10017.33
249.03	10025.27
249.101	10036.35
249.172	10021.42
249.243	9960.74
249.314	10014.78
249.385	10023.88
249.456	10055.62
249.527	10053.89
249.598	10075.32
249.669	10069.25
249.739	10076.62
249.81	10089.63
249.881	10054.03
249.952	10047.05
250.023	10042.95
250.094	9999.5
250.165	9978.01
250.235	9974.06
250.306	9979.65
250.377	9965.82
250.448	9992.36
250.519	9951.46
250.59	9993.43
250.66	9995.4
250.731	10054.06
250.802	10052.9
250.873	10070.3
250.944	10083.74
251.014	10073.96
251.085	10145.75
251.156	10176.63
251.227	10216.24
251.297	10260.56
251.368	10301.8
251.439	10339.91
251.51	10383.56
251.58	10376.53
251.651	10370.94
251.722	10414.06
251.792	10375.14
251.863	10372.83
251.934	10423.41
252.005	10516.25
252.075	10525.74
252.146	10568.14
252.217	10607.36
252.287	10645.42
252.358	10645.33
252.429	10705.03
252.499	10696.41
252.57	10703.11
252.641	10733.27
252.711	10736.31
252.782	10701.56
252.852	10760.5
252.923	10754.43
252.994	10771.92
253.064	10809.74
253.135	10798.65
253.205	10786.32
253.276	10846.98
253.347	10896.31
253.417	10877.57
253.488	10862.05
253.558	10857.66
253.629	10857.52
253.699	10866.39
253.77	10888.65
253.841	10888.75
253.911	10900.94
253.982	10925.94
254.052	10954.38
254.123	10970.77
254.193	10971.54
254.264	11074.39
254.334	11050.1
254.405	11020.27
254.475	10988.56
254.546	11001.28
254.616	11049.85
254.687	11074.43
254.757	11089.51
254.827	11090.09
254.898	11109.03
254.968	11111.82
255.039	11094.96
255.109	11118.52
255.18	11096.69
255.25	11040.94
255.321	11063.2
255.391	11029.94
255.461	11097.89
255.532	11028.49
255.602	11014.71
255.673	10976.45
255.743	10957.84
255.813	10902.92
255.884	10945.85
255.954	10974.76
256.024	11021.8
256.095	11021.22
256.165	10989.37
256.235	11009.03
256.306	10998.34
256.376	11035.45
256.446	11069.62
256.517	11091.11
256.587	11139.35
256.657	11157.86
256.728	11182.14
256.798	11192.89
256.868	11186.82
256.938	11154.77
257.009	11193.18
257.079	11218.96
257.149	11304.74
257.219	11248.59
257.29	11279.57
257.36	11236.88
257.43	11269.99
257.5	11217.31
257.571	11218.18
257.641	11256.49
257.711	11226.13
257.781	11251.33
257.852	11267.62
257.922	11218.18
257.992	11226.66
258.062	11210.56
258.132	11246.37
258.202	11246.08
258.273	11254.8
258.343	11316.49
258.413	11311.58
258.483	11314.86
258.553	11301.41
258.623	11276.78
258.693	11304.39
258.764	11359.38
258.834	11416.78
258.904	11425.89
258.974	11417.41
259.044	11420.01
259.114	11436.39
259.184	11462.37
259.254	11464.3
259.324	11422.75
259.394	11456.34
259.464	11520.54
259.535	11534.23
259.605	11528.83
259.675	11517.85
259.745	11555.01
259.815	11538.09
259.885	11543.34
259.955	11635.56
260.025	11625.63
260.095	11637.97
260.165	11660.77
260.235	11707.86
260.305	11695.91
260.375	11674.75
260.445	11756.44
260.515	11811.87
260.585	11849.76
260.655	11860.6
260.725	11908.12
260.795	11940.22
260.865	12007.51
260.934	11983.56
261.004	12005.44
261.074	12012.72
261.144	12068.86
261.214	12091.86
261.284	12092.29
261.354	12124.63
261.424	12088.09
261.494	12143.28
261.564	12143.28
261.634	12165.98
261.703	12118.02
261.773	12134.5
261.843	12162.79
261.913	12155.23
261.983	12115.8
262.053	12137.88
262.123	12127.22
262.192	12096.28
262.262	12130.55
262.332	12084.76
262.402	12112.67
262.472	12118.21
262.541	12066.69
262.611	12098.5
262.681	12078.11
262.751	12110.94
262.821	12114.84
262.89	12084.72
262.96	12105.4
263.03	12175.92
263.1	12196.98
263.169	12212.07
263.239	12246.92
263.309	12303.61
263.379	12327.66
263.448	12341.26
263.518	12354.85
263.588	12373.31
263.657	12434.63
263.727	12457.47
263.797	12468.99
263.867	12459.55
263.936	12429.23
