Data from 20250626_urea_1M_exp2_MAYP1162681_11-13-58-367.txt Node
Date: Fri Jun 27 11:13:58 BST 2025
User: adleo
Spectrometer: MAYP116268
Trigger mode: 0
Integration Time (sec): 3.000000E0
Scans to average: 1
Electric dark correction enabled: true
Nonlinearity correction enabled: true
Boxcar width: 10
XAxis mode: Wavelengths
Number of Pixels in Spectrum: 2068
>>>>>Begin Spectral Data<<<<<
179.565	3173.89
179.642	3336.79
179.718	3462.72
179.795	3580.14
179.871	3677.68
179.948	3738.96
180.024	3802.37
180.101	3868.9
180.177	3909.7
180.254	3973.82
180.33	4040.12
180.407	4263.61
180.483	4509.05
180.56	4761.47
180.636	4993.4
180.712	4963.16
180.789	4983.42
180.865	5017.12
180.942	5037.9
181.018	5068.22
181.095	5109.1
181.171	5120.45
181.248	5122.37
181.324	5169.05
181.4	5184.82
181.477	5214.67
181.553	5244.94
181.63	5305.14
181.706	5346.79
181.782	5375.62
181.859	5374.81
181.935	5382.72
182.011	5374.28
182.088	5422.65
182.164	5475.94
182.24	5507.46
182.317	5528.5
182.393	5525.38
182.469	5562.43
182.546	5604.62
182.622	5620.44
182.698	5607.92
182.775	5650.88
182.851	5689.91
182.927	5666.98
183.003	5657.88
183.08	5642.44
183.156	5669.15
183.232	5658.5
183.308	5631.89
183.385	5650.87
183.461	5700.88
183.537	5708.6
183.613	5740.59
183.69	5713.73
183.766	5681.39
183.842	5706.09
183.918	5725.99
183.995	5762.38
184.071	5778.02
184.147	5762.48
184.223	5726.93
184.299	5758.83
184.375	5723.39
184.452	5744.84
184.528	5852.35
184.604	5882.6
184.68	5917.61
184.756	5938.82
184.832	5948.12
184.908	5958.71
184.985	5958.57
185.061	5910.38
185.137	5933.45
185.213	5902.28
185.289	5910
185.365	5889.91
185.441	5885.83
185.517	5921.16
185.593	5906.96
185.669	5896.79
185.745	5922.16
185.822	5975.13
185.898	5951.86
185.974	5972.91
186.05	5945.99
186.126	5883.28
186.202	5860.41
186.278	5843.43
186.354	5818.82
186.43	5834.89
186.506	5830.44
186.582	5828.04
186.658	5848.27
186.734	5794.14
186.81	5800.03
186.886	5803.34
186.962	5836.86
187.038	5824.39
187.114	5804.18
187.19	5827.64
187.266	5802.56
187.341	5804.82
187.417	5777.05
187.493	5776.52
187.569	5791.2
187.645	5772.02
187.721	5736.23
187.797	5763.75
187.873	5774.98
187.949	5756.9
188.025	5741.06
188.101	5752.86
188.176	5762.83
188.252	5752
188.328	5779.89
188.404	5776.82
188.48	5765.6
188.556	5744.02
188.632	5746.03
188.707	5744.69
188.783	5737.01
188.859	5721.1
188.935	5688.68
189.011	5715.49
189.086	5700.81
189.162	5675.15
189.238	5679.23
189.314	5670.12
189.39	5651.08
189.465	5634.34
189.541	5681.02
189.617	5641.08
189.693	5617.45
189.768	5632.56
189.844	5701.17
189.92	5673
189.996	5702.16
190.071	5734.91
190.147	5737.88
190.223	5762.35
190.298	5742.35
190.374	5705.81
190.45	5742.29
190.526	5769.67
190.601	5752.02
190.677	5753.8
190.753	5834.44
190.828	5839.24
190.904	5882.46
190.98	5922.28
191.055	5947.51
191.131	5926.82
191.207	5980.01
191.282	6011.31
191.358	5983.88
191.433	5943.79
191.509	5978.25
191.585	5970.72
191.66	5975.85
191.736	5994.9
191.811	5969.47
191.887	6014.25
191.963	6082.9
192.038	6093.07
192.114	6092.64
192.189	6104.68
192.265	6098.11
192.34	6037.27
192.416	6037.13
192.491	6028.44
192.567	6039.63
192.642	6051.1
192.718	6046.97
192.793	6020.25
192.869	6012.24
192.944	6017.08
193.02	6040.79
193.095	6054.46
193.171	6069.38
193.246	6059.83
193.322	6049.42
193.397	6051.15
193.473	6016.01
193.548	5961.07
193.624	5978.3
193.699	5973.88
193.775	6017.52
193.85	6023.8
193.925	6045.78
194.001	6039.11
194.076	6015.56
194.152	5981.96
194.227	5959.31
194.302	5934.24
194.378	5941.43
194.453	5933.42
194.529	5971.47
194.604	5921.39
194.679	5903.06
194.755	5847.54
194.83	5887.68
194.905	5885.13
194.981	5909.41
195.056	5883.8
195.131	5906.39
195.207	5898.04
195.282	5872
195.357	5818.15
195.433	5859.89
195.508	5826.3
195.583	5855.36
195.659	5899.42
195.734	5919
195.809	5917.75
195.884	5936.78
195.96	5937.21
196.035	5979.24
196.11	5968.96
196.185	6011.32
196.261	6018.85
196.336	6108.08
196.411	6059.89
196.486	6074.95
196.561	6058.78
196.637	6087.31
196.712	6129.32
196.787	6140.55
196.862	6182.48
196.937	6206.51
197.013	6220.48
197.088	6249.8
197.163	6303.59
197.238	6346.21
197.313	6344.05
197.388	6380.91
197.464	6471.57
197.539	6502.19
197.614	6479.59
197.689	6507.49
197.764	6546.3
197.839	6605.1
197.914	6587.38
197.989	6653.79
198.065	6689.94
198.14	6826.72
198.215	6900.02
198.29	6934.96
198.365	6976.23
198.44	7006.72
198.515	7089.84
198.59	7136.21
198.665	7203.38
198.74	7223.24
198.815	7224.39
198.89	7287.47
198.965	7373.28
199.04	7359.1
199.115	7406.04
199.19	7528.1
199.265	7543.81
199.34	7573.81
199.415	7669.72
199.49	7733.01
199.565	7759.26
199.64	7820.03
199.715	7810.26
199.79	7820.02
199.865	7835.41
199.94	7826.18
200.015	7915.78
200.09	7923.81
200.165	7936.46
200.24	7955.99
200.315	8061.78
200.39	8110.94
200.464	8128.54
200.539	8127.43
200.614	8173.79
200.689	8233.5
200.764	8246.59
200.839	8287.6
200.914	8301.21
200.989	8271.51
201.063	8312.41
201.138	8264.3
201.213	8270.89
201.288	8217.01
201.363	8240.63
201.438	8243.42
201.512	8286.65
201.587	8234.01
201.662	8250.03
201.737	8282.89
201.812	8305.94
201.886	8220.78
201.961	8245.09
202.036	8214.07
202.111	8208.97
202.186	8124.95
202.26	8074.96
202.335	8013.15
202.41	7997.18
202.485	7951.07
202.559	7892.45
202.634	7811.99
202.709	7836.06
202.784	7780.96
202.858	7783.41
202.933	7728.45
203.008	7709.6
203.082	7653.79
203.157	7654.22
203.232	7538.89
203.306	7481.7
203.381	7392.84
203.456	7329.63
203.53	7259.28
203.605	7202.32
203.68	7139.62
203.754	7119.41
203.829	7079.18
203.904	7025.67
203.978	6996.64
204.053	7006.97
204.127	6972.14
204.202	6964.41
204.277	6916.52
204.351	6900.14
204.426	6875.92
204.5	6855.55
204.575	6751.5
204.65	6782.88
204.724	6761.3
204.799	6778.19
204.873	6763.72
204.948	6758.68
205.022	6726.85
205.097	6706.09
205.171	6742.96
205.246	6764.88
205.32	6766.94
205.395	6763.96
205.469	6749.71
205.544	6761.29
205.618	6713.59
205.693	6747.02
205.767	6713.41
205.842	6773.46
205.916	6757.66
205.991	6733.22
206.065	6748.11
206.14	6793.54
206.214	6775.66
206.289	6751.49
206.363	6787.32
206.438	6797.55
206.512	6817.59
206.586	6864.88
206.661	6885.17
206.735	6824.55
206.81	6822.53
206.884	6862.53
206.958	6829.16
207.033	6867.61
207.107	6890.98
207.181	6980.51
207.256	6963.22
207.33	7021.62
207.405	7059.53
207.479	7108.1
207.553	7133.65
207.628	7088.18
207.702	7122.76
207.776	7108.06
207.851	7121.9
207.925	7160.93
207.999	7149.93
208.073	7142.96
208.148	7150.41
208.222	7120.42
208.296	7210.98
208.371	7262.21
208.445	7288.35
208.519	7368.34
208.593	7404.82
208.668	7385.49
208.742	7389.15
208.816	7397.94
208.89	7435.4
208.965	7425.4
209.039	7450.35
209.113	7491.89
209.187	7552.54
209.261	7542.74
209.336	7602.64
209.41	7656.49
209.484	7658.56
209.558	7721.69
209.632	7759.86
209.707	7795.34
209.781	7858.85
209.855	7905.37
209.929	7946.77
210.003	7971.77
210.077	7969.71
210.151	8095.15
210.226	8197.64
210.3	8268.55
210.374	8329.95
210.448	8335.87
210.522	8361.8
210.596	8386.39
210.67	8414.44
210.744	8544.37
210.818	8633.54
210.892	8682.87
210.966	8665.02
211.041	8703.08
211.115	8693.51
211.189	8762.8
211.263	8805.34
211.337	8819.24
211.411	8856.07
211.485	8838.3
211.559	8865.39
211.633	8871.64
211.707	8788.68
211.781	8802.12
211.855	8702.44
211.929	8678.68
212.003	8630.35
212.077	8662.8
212.151	8700.01
212.225	8725.42
212.299	8693.78
212.373	8662.83
212.447	8647.43
212.52	8729.35
212.594	8738.73
212.668	8769.05
212.742	8728.47
212.816	8707.58
212.89	8690.41
212.964	8685.78
213.038	8694.26
213.112	8732.24
213.186	8769.19
213.26	8710.04
213.333	8580.32
213.407	8599.46
213.481	8604.46
213.555	8632.83
213.629	8598.65
213.703	8552.05
213.777	8541.03
213.85	8478.8
213.924	8568.63
213.998	8572.29
214.072	8548.84
214.146	8510.2
214.219	8496.14
214.293	8478.63
214.367	8484.99
214.441	8508.9
214.515	8466.98
214.588	8392.98
214.662	8279.78
214.736	8217.05
214.81	8228.25
214.883	8251.37
214.957	8211.99
215.031	8169.3
215.105	8095.69
215.178	8039.46
215.252	8006.22
215.326	7926.72
215.4	7861.16
215.473	7707.53
215.547	7636.33
215.621	7580.65
215.694	7580.08
215.768	7500.79
215.842	7448.01
215.915	7393.08
215.989	7296.29
216.063	7251.27
216.136	7233.34
216.21	7220.42
216.284	7229.98
216.357	7211.1
216.431	7171.5
216.504	7168.09
216.578	7219.43
216.652	7228.12
216.725	7211.2
216.799	7221.25
216.873	7201.46
216.946	7208.38
217.02	7178.46
217.093	7153.09
217.167	7072.18
217.24	6999.74
217.314	6966.57
217.387	6925.76
217.461	6887.71
217.535	6907.35
217.608	6856.34
217.682	6839.09
217.755	6843.32
217.829	6798.29
217.902	6778.98
217.976	6764.91
218.049	6725.34
218.123	6649.74
218.196	6645.65
218.27	6611.98
218.343	6549.51
218.417	6550.47
218.49	6535.11
218.563	6566.51
218.637	6569.05
218.71	6633.43
218.784	6652.49
218.857	6684.37
218.931	6706.36
219.004	6707.41
219.077	6724.04
219.151	6738.45
219.224	6725.38
219.298	6725.29
219.371	6764.25
219.444	6732.67
219.518	6740.25
219.591	6752.26
219.665	6842.58
219.738	6855.93
219.811	6844.36
219.885	6878.61
219.958	6902.25
220.031	6897.64
220.105	6915.03
220.178	6921.47
220.251	6891.91
220.325	6916.86
220.398	6925.79
220.471	6933.43
220.544	6968.65
220.618	6947.59
220.691	6972
220.764	6991.26
220.838	7014.61
220.911	6997.26
220.984	7066.04
221.057	7098.18
221.131	7116.24
221.204	7036.63
221.277	7096.42
221.35	7201.72
221.424	7196.96
221.497	7210.18
221.57	7233.33
221.643	7264.86
221.716	7306.21
221.79	7317.21
221.863	7325.96
221.936	7336.1
222.009	7354.45
222.082	7374.88
222.155	7384.16
222.229	7436.18
222.302	7459.54
222.375	7464.59
222.448	7498.34
222.521	7506.6
222.594	7506.99
222.667	7487.87
222.74	7534.73
222.814	7525.78
222.887	7506.2
222.96	7549.09
223.033	7580.59
223.106	7601.68
223.179	7631.22
223.252	7634.93
223.325	7660.21
223.398	7670.89
223.471	7692.86
223.544	7709.82
223.617	7721.7
223.69	7744.15
223.763	7710.1
223.837	7729.09
223.91	7754.24
223.983	7712.62
224.056	7683.97
224.129	7698.92
224.202	7747.16
224.275	7740.48
224.348	7715.43
224.42	7689.95
224.493	7647.11
224.566	7626.72
224.639	7643.35
224.712	7612.22
224.785	7602.46
224.858	7591.4
224.931	7575.44
225.004	7538.67
225.077	7537.71
225.15	7459.13
225.223	7452.54
225.296	7525.53
225.369	7477.6
225.442	7450.96
225.514	7462.02
225.587	7479.85
225.66	7490.28
225.733	7485.95
225.806	7490.52
225.879	7482.11
225.952	7455.34
226.025	7490.34
226.097	7534.36
226.17	7527.25
226.243	7472.55
226.316	7470.1
226.389	7475.92
226.461	7488.66
226.534	7506.92
226.607	7500.62
226.68	7573.72
226.753	7567.42
226.825	7494.48
226.898	7536.63
226.971	7539.86
227.044	7561.34
227.117	7569.13
227.189	7583.8
227.262	7612.85
227.335	7628.04
227.407	7632.99
227.48	7662.12
227.553	7669.19
227.626	7654.08
227.698	7659.08
227.771	7697.18
227.844	7680.55
227.916	7697.18
227.989	7668
228.062	7666.99
228.134	7738.7
228.207	7735.91
228.28	7729.04
228.352	7741.45
228.425	7754.67
228.498	7792.81
228.57	7777.57
228.643	7824.67
228.716	7823.9
228.788	7816.49
228.861	7812.55
228.934	7865.2
229.006	7871.45
229.079	7878.09
229.151	7863.75
229.224	7831.84
229.296	7843.28
229.369	7926.37
229.442	7966.5
229.514	7962.51
229.587	8002.37
229.659	7940.13
229.732	7951.72
229.804	7990.19
229.877	8049.56
229.949	8067.8
230.022	8108.66
230.094	8113.42
230.167	8102.11
230.239	8066.29
230.312	8058.35
230.384	8115.04
230.457	8108.88
230.529	8115.8
230.602	8110.75
230.674	8124.32
230.747	8157.67
230.819	8183.41
230.892	8086.82
230.964	8078.83
231.037	8093.82
231.109	8091.27
231.181	8127.92
231.254	8095.22
231.326	8084.2
231.399	8067.5
231.471	8049.46
231.544	7981.9
231.616	8015.32
231.688	8022.34
231.761	8008.93
231.833	7999.75
231.905	7926.62
231.978	7927.29
232.05	7912.82
232.122	7918.54
232.195	7896.56
232.267	7926.09
232.339	7913.35
232.412	7969.94
232.484	7947.09
232.556	7922.33
232.629	7975.61
232.701	7979.8
232.773	7997.97
232.846	7984.41
232.918	7984.84
232.99	8002.26
233.062	8038.44
233.135	8042.04
233.207	8010.05
233.279	8052.74
233.351	8078.57
233.424	8083.14
233.496	8057.26
233.568	8126.97
233.64	8090.95
233.713	8102.88
233.785	8101.48
233.857	8108.99
233.929	8062.77
234.001	8120.05
234.074	8180.1
234.146	8114.32
234.218	8117.35
234.29	8113.12
234.362	8107.11
234.434	8073.05
234.507	8038.46
234.579	7993.05
234.651	7984.97
234.723	8006.47
234.795	8016.29
234.867	8007.87
234.939	8056.94
235.012	8073.43
235.084	8073.34
235.156	8107.05
235.228	8091.46
235.3	8080.16
235.372	8088.58
235.444	8140.71
235.516	8076.89
235.588	8076.89
235.66	8088.48
235.732	8068.86
235.804	8231.17
235.876	8265.56
235.948	8316.95
236.02	8330.08
236.092	8342.68
236.164	8345.42
236.236	8348.26
236.308	8347.15
236.38	8376.4
236.452	8356.58
236.524	8375.1
236.596	8434.62
236.668	8464.17
236.74	8486.73
236.812	8505.97
236.884	8532.63
236.956	8543.99
237.028	8536.1
237.1	8525.62
237.172	8591.36
237.244	8647.71
237.316	8549.15
237.388	8533.14
237.46	8509.5
237.532	8558.11
237.604	8547.72
237.675	8609.13
237.747	8641.14
237.819	8629.88
237.891	8631.23
237.963	8622.86
238.035	8616.27
238.107	8520.17
238.178	8575.35
238.25	8574.82
238.322	8656.48
238.394	8624.82
238.466	8620.58
238.538	8655.41
238.609	8690.15
238.681	8641.1
238.753	8626.37
238.825	8640.53
238.897	8668.76
238.968	8738.44
239.04	8717.84
239.112	8815.67
239.184	8790.59
239.255	8788.95
239.327	8816.14
239.399	8827.16
239.471	8867.48
239.542	8903.05
239.614	8954.36
239.686	8881.37
239.758	8928.2
239.829	8890.25
239.901	8939.15
239.973	8953.44
240.044	8985.31
240.116	8996.33
240.188	9010.68
240.259	9020.59
240.331	9009.76
240.403	9043.6
240.474	9007.67
240.546	9002.61
240.618	8952.5
240.689	8945.9
240.761	8966.36
240.833	9020.86
240.904	9023.56
240.976	9023.89
241.048	9031.26
241.119	9062.85
241.191	9101.26
241.262	9158.15
241.334	9166.81
241.405	9173.27
241.477	9173.84
241.549	9175.63
241.62	9196.72
241.692	9230.56
241.763	9278.76
241.835	9295.62
241.906	9311.12
241.978	9281.52
242.049	9339.67
242.121	9384.4
242.192	9444.49
242.264	9409.97
242.335	9370.44
242.407	9409.25
242.478	9413.83
242.55	9435.26
242.621	9422.11
242.693	9419.02
242.764	9403.85
242.836	9401.97
242.907	9430.53
242.979	9461.39
243.05	9479.79
243.122	9495.92
243.193	9504.11
243.264	9447.29
243.336	9452.35
243.407	9473.73
243.479	9546.92
243.55	9560.17
243.622	9575.24
243.693	9570.81
243.764	9636.59
243.836	9619.89
243.907	9606.98
243.978	9611.22
244.05	9631.69
244.121	9592.88
244.192	9634.01
244.264	9596.58
244.335	9609.59
244.407	9562.83
244.478	9570.34
244.549	9559.94
244.62	9526.13
244.692	9515.83
244.763	9557.67
244.834	9545.92
244.906	9524.82
244.977	9534.8
245.048	9575.41
245.119	9556.53
245.191	9535.53
245.262	9475.63
245.333	9537.5
245.405	9557.29
245.476	9589.8
245.547	9602.08
245.618	9648.69
245.689	9655.19
245.761	9684.28
245.832	9686.4
245.903	9729.02
245.974	9752.43
246.045	9765.63
246.117	9838.93
246.188	9824.01
246.259	9802.53
246.33	9826.47
246.401	9838.94
246.473	9808.88
246.544	9804.21
246.615	9847.22
246.686	9855.6
246.757	9918.97
246.828	9901.39
246.899	9960.7
246.97	9925.36
247.042	9912.69
247.113	9948.96
247.184	10018.02
247.255	10014.5
247.326	10044.32
247.397	10047.31
247.468	10055.25
247.539	10064.36
247.61	10019.51
247.681	10059.29
247.752	10104.37
247.823	10076.96
247.894	10094.26
247.965	10076.77
248.037	10055.82
248.108	10019.01
248.179	10024.99
248.25	10020.6
248.321	10048.05
248.392	10003.73
248.463	10076.84
248.534	10076.31
248.605	10091.92
248.675	10072.31
248.746	10090.9
248.817	10097.69
248.888	10110.22
248.959	10062.44
249.03	10084.6
249.101	10089.66
249.172	10081.52
249.243	10027.29
249.314	10082.25
249.385	10093.9
249.456	10117.94
249.527	10112.93
249.598	10129.49
249.669	10125.5
249.739	10135.52
249.81	10145.01
249.881	10111.39
249.952	10098.62
250.023	10098.38
250.094	10053.38
250.165	10022.68
250.235	10017.77
250.306	10022.88
250.377	10001.06
250.448	10025.76
250.519	9978.08
250.59	10025.1
250.66	10018.74
250.731	10072.78
250.802	10073.21
250.873	10081.69
250.944	10101.63
251.014	10093.2
251.085	10163.7
251.156	10191.68
251.227	10239.68
251.297	10282.61
251.368	10324.27
251.439	10365.76
251.51	10409.41
251.58	10398.53
251.651	10397.08
251.722	10436.49
251.792	10396.56
251.863	10391.84
251.934	10442.14
252.005	10534.2
252.075	10547.89
252.146	10591.29
252.217	10632.39
252.287	10662.12
252.358	10665.98
252.429	10728.38
252.499	10732.33
252.57	10743.8
252.641	10774.93
252.711	10772.33
252.782	10733.87
252.852	10803.9
252.923	10796.67
252.994	10806.35
253.064	10851.73
253.135	10834.49
253.205	10817.38
253.276	10876.06
253.347	10938.16
253.417	10914.51
253.488	10895.47
253.558	10886.07
253.629	10886.36
253.699	10895.9
253.77	10921.69
253.841	10912.58
253.911	10919.52
253.982	10927.95
254.052	10947.47
254.123	10954.61
254.193	10962.9
254.264	11076.01
254.334	11040.73
254.405	11015.43
254.475	10981.94
254.546	10981.75
254.616	11040.78
254.687	11069.3
254.757	11087.91
254.827	11087.38
254.898	11106.94
254.968	11116.38
255.039	11099.28
255.109	11131.47
255.18	11113.01
255.25	11050.17
255.321	11075.66
255.391	11036.05
255.461	11107.41
255.532	11045.58
255.602	11042.74
255.673	10986.45
255.743	10957.72
255.813	10901.31
255.884	10941.64
255.954	10977.54
256.024	11035.76
256.095	11036.38
256.165	11002.46
256.235	11023.91
256.306	11013.74
256.376	11052.15
256.446	11080.49
256.517	11103.43
256.587	11140.87
256.657	11163.86
256.728	11187.28
256.798	11201.4
256.868	11199.66
256.938	11183.95
257.009	11223.47
257.079	11244.92
257.149	11334.36
257.219	11294.74
257.29	11325.14
257.36	11281.38
257.43	11314.4
257.5	11258.88
257.571	11251.79
257.641	11283.5
257.711	11243.74
257.781	11272.03
257.852	11293.43
257.922	11246.01
257.992	11252.95
258.062	11235.26
258.132	11266.3
258.202	11275.6
258.273	11283.07
258.343	11344.66
258.413	11320.33
258.483	11324.28
258.553	11303.36
258.623	11278.2
258.693	11294.97
258.764	11356.51
258.834	11412.13
258.904	11422.01
258.974	11412.03
259.044	11421.87
259.114	11447.31
259.184	11481.82
259.254	11487.56
259.324	11444.08
259.394	11477.53
259.464	11544.81
259.535	11561.01
259.605	11554.93
259.675	11538.36
259.745	11571.81
259.815	11549.06
259.885	11563.37
259.955	11651.44
260.025	11644.07
260.095	11654.43
260.165	11671.73
260.235	11719.41
260.305	11705.43
260.375	11683.3
260.445	11764.99
260.515	11814.83
260.585	11853.54
260.655	11856.43
260.725	11887.09
260.795	11921.98
260.865	11988.31
260.934	11962.86
261.004	11982.52
261.074	11984.21
261.144	12035.53
261.214	12052.74
261.284	12055.44
261.354	12082.96
261.424	12049.75
261.494	12111.97
261.564	12116.55
261.634	12137.32
261.703	12083.96
261.773	12108.35
261.843	12135.39
261.913	12122.23
261.983	12076.15
262.053	12094.37
262.123	12088.59
262.192	12057.12
262.262	12083.14
262.332	12037.98
262.402	12063.19
262.472	12075.77
262.541	12019.33
262.611	12057.17
262.681	12047.39
262.751	12081.51
262.821	12084.21
262.89	12048.78
262.96	12070.62
263.03	12141.19
263.1	12168.81
263.169	12187.85
263.239	12209.11
263.309	12266.52
263.379	12295.93
263.448	12312.02
263.518	12337.33
263.588	12355.74
263.657	12415.76
263.727	12447.09
263.797	12452.83
263.867	12449.79
