Data from 20250626_urea_1M_exp2_MAYP1162681_16-24-00-863.txt Node
Date: Thu Jun 26 16:24:00 BST 2025
User: adleo
Spectrometer: MAYP116268
Trigger mode: 0
Integration Time (sec): 3.000000E0
Scans to average: 1
Electric dark correction enabled: true
Nonlinearity correction enabled: true
Boxcar width: 10
XAxis mode: Wavelengths
Number of Pixels in Spectrum: 2068
>>>>>Begin Spectral Data<<<<<
179.565	3358.39
179.642	3534.62
179.718	3659.67
179.795	3788.2
179.871	3895.3
179.948	3957.01
180.024	4023.59
180.101	4096.63
180.177	4136.57
180.254	4204.1
180.33	4277.29
180.407	4512
180.483	4777.8
180.56	5043.45
180.636	5291.28
180.712	5252.45
180.789	5279.14
180.865	5312.62
180.942	5343.47
181.018	5376.25
181.095	5422.77
181.171	5433.74
181.248	5439.26
181.324	5492.92
181.4	5507.78
181.477	5533.87
181.553	5565.77
181.63	5628.26
181.706	5667.97
181.782	5705.1
181.859	5710.28
181.935	5725.1
182.011	5719.06
182.088	5765.54
182.164	5822.36
182.24	5856.83
182.317	5889.09
182.393	5880.85
182.469	5922.96
182.546	5955.43
182.622	5968.19
182.698	5957.01
182.775	6004.02
182.851	6037.12
182.927	6010.83
183.003	6004.12
183.08	5990.74
183.156	6022.88
183.232	6015.53
183.308	5988.19
183.385	6001.24
183.461	6043.6
183.537	6042.54
183.613	6077.67
183.69	6048.97
183.766	6020.02
183.842	6044.02
183.918	6056.87
183.995	6094
184.071	6103.03
184.147	6088.87
184.223	6053.11
184.299	6085.46
184.375	6045.54
184.452	6066.52
184.528	6185.8
184.604	6218.67
184.68	6248.79
184.756	6267.61
184.832	6276.25
184.908	6291.17
184.985	6295.68
185.061	6252.69
185.137	6282.4
185.213	6248.24
185.289	6253.52
185.365	6229.05
185.441	6224.01
185.517	6267.13
185.593	6261.42
185.669	6252.54
185.745	6280.95
185.822	6337.74
185.898	6313.11
185.974	6339.11
186.05	6318.27
186.126	6249.67
186.202	6225.44
186.278	6212.48
186.354	6187.38
186.43	6203.03
186.506	6195.74
186.582	6189.55
186.658	6215.64
186.734	6154.38
186.81	6166.03
186.886	6171.55
186.962	6209.22
187.038	6197.84
187.114	6174.4
187.19	6190.05
187.266	6162.42
187.341	6175.19
187.417	6146.31
187.493	6147.79
187.569	6160.95
187.645	6140.27
187.721	6102.1
187.797	6124.27
187.873	6138.28
187.949	6117.99
188.025	6097.63
188.101	6105.74
188.176	6121.09
188.252	6101.95
188.328	6127.46
188.404	6120.84
188.48	6108.13
188.556	6081.64
188.632	6083.17
188.707	6082.5
188.783	6079.38
188.859	6074.87
188.935	6030.28
189.011	6055.09
189.086	6038.15
189.162	6010.08
189.238	6010.42
189.314	6004.18
189.39	5988.44
189.465	5971.74
189.541	6025.73
189.617	5989.85
189.693	5980.74
189.768	5991.39
189.844	6056.44
189.92	6028.1
189.996	6055.55
190.071	6089.33
190.147	6086.79
190.223	6110.74
190.298	6090.39
190.374	6052.63
190.45	6079.73
190.526	6107.61
190.601	6093.12
190.677	6097.39
190.753	6182.11
190.828	6192.18
190.904	6233.27
190.98	6274.07
191.055	6301.72
191.131	6273.34
191.207	6328.38
191.282	6354.82
191.358	6326.94
191.433	6293.66
191.509	6331.87
191.585	6322.99
191.66	6321.94
191.736	6351.31
191.811	6322.22
191.887	6365.24
191.963	6433.98
192.038	6448.62
192.114	6453.9
192.189	6466.24
192.265	6453.67
192.34	6384.69
192.416	6382.82
192.491	6376.04
192.567	6383.15
192.642	6395.78
192.718	6396.7
192.793	6362.85
192.869	6351.34
192.944	6353.93
193.02	6374.38
193.095	6386.67
193.171	6407.7
193.246	6410.58
193.322	6396.85
193.397	6399.39
193.473	6362.89
193.548	6311.57
193.624	6334.19
193.699	6325.59
193.775	6368.72
193.85	6373.42
193.925	6398.38
194.001	6390.52
194.076	6363.88
194.152	6329.16
194.227	6305.54
194.302	6280.78
194.378	6295.32
194.453	6282.66
194.529	6321.06
194.604	6282.46
194.679	6270.8
194.755	6210.11
194.83	6245.27
194.905	6241.77
194.981	6267.64
195.056	6243.51
195.131	6260.45
195.207	6248.1
195.282	6219.94
195.357	6163.9
195.433	6210.26
195.508	6179.4
195.583	6212.17
195.659	6258.17
195.734	6283.38
195.809	6281.27
195.884	6298.63
195.96	6294.74
196.035	6341.39
196.11	6332.13
196.185	6364.38
196.261	6366.73
196.336	6460.96
196.411	6418.11
196.486	6431.65
196.561	6412.06
196.637	6443.88
196.712	6487.63
196.787	6495.75
196.862	6543.8
196.937	6574.76
197.013	6592.43
197.088	6616.67
197.163	6665.88
197.238	6710.63
197.313	6710.87
197.388	6746.12
197.464	6834.86
197.539	6872.31
197.614	6849.79
197.689	6883.95
197.764	6927.53
197.839	6985.74
197.914	6973.39
197.989	7037.82
198.065	7083.7
198.14	7236.99
198.215	7312.49
198.29	7347.25
198.365	7387.04
198.44	7415.83
198.515	7495.38
198.59	7535.19
198.665	7610.85
198.74	7638.26
198.815	7641.48
198.89	7705.56
198.965	7797.13
199.04	7791.03
199.115	7827.9
199.19	7955.01
199.265	7968.08
199.34	7995.16
199.415	8098.42
199.49	8154.06
199.565	8181.86
199.64	8248.24
199.715	8237.64
199.79	8251.88
199.865	8274.93
199.94	8269.83
200.015	8367.6
200.09	8385.7
200.165	8405.08
200.24	8425.1
200.315	8536.09
200.39	8584.69
200.464	8601.24
200.539	8600.08
200.614	8642.61
200.689	8714.85
200.764	8731.51
200.839	8778.79
200.914	8800.34
200.989	8759.76
201.063	8801.53
201.138	8746.33
201.213	8749.61
201.288	8687
201.363	8694.79
201.438	8690.75
201.512	8736.88
201.587	8681.77
201.662	8693.03
201.737	8727.59
201.812	8752.71
201.886	8654.86
201.961	8683.37
202.036	8647.05
202.111	8640.02
202.186	8552.7
202.26	8506.2
202.335	8444.93
202.41	8428
202.485	8374.17
202.559	8328.13
202.634	8250.04
202.709	8283.89
202.784	8221.16
202.858	8223.61
202.933	8180.17
203.008	8159.63
203.082	8102.45
203.157	8101.29
203.232	7971.16
203.306	7907.79
203.381	7814.42
203.456	7752.62
203.53	7675.32
203.605	7618.38
203.68	7545.22
203.754	7530.82
203.829	7481.67
203.904	7423.74
203.978	7389.07
204.053	7404.36
204.127	7362.07
204.202	7354.47
204.277	7303.05
204.351	7283.82
204.426	7256.61
204.5	7234.31
204.575	7132.03
204.65	7158.24
204.724	7128.99
204.799	7156.51
204.873	7146.36
204.948	7139.59
205.022	7104.86
205.097	7081.34
205.171	7128.09
205.246	7160.3
205.32	7154.45
205.395	7153.34
205.469	7123.91
205.544	7144.1
205.618	7088.55
205.693	7119.88
205.767	7083.08
205.842	7141.86
205.916	7130.86
205.991	7109.05
206.065	7117.74
206.14	7162.91
206.214	7151.66
206.289	7135.51
206.363	7169.67
206.438	7182.27
206.512	7209.67
206.586	7266.6
206.661	7297.81
206.735	7226.78
206.81	7228.99
206.884	7278.81
206.958	7241.73
207.033	7291.43
207.107	7302.74
207.181	7396.3
207.256	7380.39
207.33	7440.41
207.405	7476.21
207.479	7524.52
207.553	7545.08
207.628	7502.57
207.702	7538.52
207.776	7515.4
207.851	7524.77
207.925	7571.04
207.999	7555.65
208.073	7542
208.148	7546.47
208.222	7509.93
208.296	7602.21
208.371	7647.15
208.445	7675.96
208.519	7756.71
208.593	7792.05
208.668	7776.75
208.742	7783.25
208.816	7793.34
208.89	7834.28
208.965	7830.92
209.039	7856.51
209.113	7900.75
209.187	7965.09
209.261	7951.15
209.336	8013.66
209.41	8071
209.484	8069.89
209.558	8140.18
209.632	8181.68
209.707	8211.84
209.781	8273.7
209.855	8327.64
209.929	8370.64
210.003	8387.38
210.077	8383.77
210.151	8520.09
210.226	8626.56
210.3	8702.21
210.374	8767.25
210.448	8773.75
210.522	8807.11
210.596	8837.34
210.67	8871.46
210.744	9007.8
210.818	9101.37
210.892	9159.14
210.966	9139.65
211.041	9183.02
211.115	9163.82
211.189	9235.21
211.263	9287.39
211.337	9307.51
211.411	9348.2
211.485	9331.97
211.559	9365.52
211.633	9377.55
211.707	9290.8
211.781	9311.27
211.855	9209.73
211.929	9187.25
212.003	9136.88
212.077	9162.31
212.151	9195.73
212.225	9217.35
212.299	9180.73
212.373	9148.96
212.447	9137.31
212.52	9220.36
212.594	9233.75
212.668	9273.36
212.742	9225.89
212.816	9210.92
212.89	9196.76
212.964	9189.2
213.038	9198.64
213.112	9233.55
213.186	9273.84
213.26	9203.6
213.333	9066.41
213.407	9079.84
213.481	9092.06
213.555	9120.2
213.629	9082.4
213.703	9030.25
213.777	9022.6
213.85	8959.43
213.924	9054.06
213.998	9049.1
214.072	9027.9
214.146	8978.17
214.219	8963.87
214.293	8951.89
214.367	8947.31
214.441	8964.45
214.515	8921.93
214.588	8847.04
214.662	8737.83
214.736	8670.85
214.81	8691.77
214.883	8715.81
214.957	8674.97
215.031	8624.85
215.105	8550
215.178	8492.83
215.252	8466.51
215.326	8384.57
215.4	8315.27
215.473	8160
215.547	8080.98
215.621	8022.2
215.694	8020.66
215.768	7939.7
215.842	7883.43
215.915	7828.48
215.989	7727.13
216.063	7673.34
216.136	7657.08
216.21	7639.3
216.284	7645.84
216.357	7625.3
216.431	7591.69
216.504	7584.77
216.578	7628.15
216.652	7638.43
216.725	7623.96
216.799	7622.56
216.873	7604.44
216.946	7615.4
217.02	7585.18
217.093	7563.79
217.167	7487.11
217.24	7419.25
217.314	7380.48
217.387	7342.29
217.461	7300.33
217.535	7325.61
217.608	7277.65
217.682	7256.45
217.755	7265.92
217.829	7220.39
217.902	7202.27
217.976	7182.57
218.049	7146.67
218.123	7081.71
218.196	7080.65
218.27	7043.7
218.343	6989.57
218.417	6987.64
218.49	6966.7
218.563	7003.74
218.637	7013.21
218.71	7070.84
218.784	7090.3
218.857	7122.2
218.931	7143.52
219.004	7151.16
219.077	7169.2
219.151	7185.87
219.224	7176.88
219.298	7172.7
219.371	7212.84
219.444	7181.18
219.518	7187.86
219.591	7204.34
219.665	7297.89
219.738	7316.73
219.811	7308.51
219.885	7345.81
219.958	7375.71
220.031	7381.14
220.105	7397.15
220.178	7407.87
220.251	7390.32
220.325	7412.87
220.398	7426.04
220.471	7438.1
220.544	7472.76
220.618	7449.25
220.691	7478.14
220.764	7494.72
220.838	7525.73
220.911	7514.77
220.984	7590.37
221.057	7625.94
221.131	7647.91
221.204	7564.73
221.277	7625.1
221.35	7732.28
221.424	7726.75
221.497	7738.39
221.57	7758.43
221.643	7785.03
221.716	7819.37
221.79	7823.36
221.863	7833.71
221.936	7842.36
222.009	7862.12
222.082	7890.79
222.155	7906.8
222.229	7963.43
222.302	7990.98
222.375	7996.18
222.448	8028.54
222.521	8037.83
222.594	8040.67
222.667	8015.43
222.74	8065.69
222.814	8052.84
222.887	8044.03
222.96	8091.7
223.033	8130.29
223.106	8153.8
223.179	8184.12
223.252	8197.12
223.325	8221.93
223.398	8232.95
223.471	8269.9
223.544	8291.58
223.617	8299.96
223.69	8314.58
223.763	8271.85
223.837	8288.74
223.91	8312.99
223.983	8275.91
224.056	8246.47
224.129	8262.82
224.202	8316.24
224.275	8305.36
224.348	8283.52
224.42	8250.9
224.493	8207.03
224.566	8177.82
224.639	8197.59
224.712	8171.12
224.785	8159.23
224.858	8158.08
224.931	8149.22
225.004	8108.77
225.077	8104.73
225.15	8027.4
225.223	8028.12
225.296	8107.88
225.369	8067.09
225.442	8041.74
225.514	8054
225.587	8070.44
225.66	8086.71
225.733	8090.51
225.806	8097.29
225.879	8089.69
225.952	8060.12
226.025	8102.41
226.097	8154.1
226.17	8139.71
226.243	8088.11
226.316	8086.91
226.389	8087.97
226.461	8104.47
226.534	8126.11
226.607	8122.46
226.68	8191.17
226.753	8188.38
226.825	8119.69
226.898	8165.05
226.971	8167.26
227.044	8191.5
227.117	8199.83
227.189	8208.34
227.262	8242.18
227.335	8260.99
227.407	8267.44
227.48	8299.27
227.553	8299.36
227.626	8288.87
227.698	8308.3
227.771	8347.98
227.844	8335.85
227.916	8357.84
227.989	8326.18
228.062	8327.67
228.134	8404.15
228.207	8412.14
228.28	8409.01
228.352	8422.44
228.425	8436.92
228.498	8477.63
228.57	8462.24
228.643	8515.04
228.716	8522.84
228.788	8510.85
228.861	8507.58
228.934	8562.58
229.006	8576.34
229.079	8589.86
229.151	8577.25
229.224	8545.36
229.296	8562.1
229.369	8655.12
229.442	8704.27
229.514	8697.83
229.587	8736.28
229.659	8672.89
229.732	8683.28
229.804	8720.72
229.877	8790.92
229.949	8817.92
230.022	8865.21
230.094	8869.93
230.167	8862.75
230.239	8823.58
230.312	8812.9
230.384	8881.51
230.457	8877.61
230.529	8888.01
230.602	8890.46
230.674	8902.35
230.747	8938.14
230.819	8966.92
230.892	8860.59
230.964	8855.2
231.037	8876.31
231.109	8874.34
231.181	8914.86
231.254	8890.22
231.326	8880.88
231.399	8863.25
231.471	8837.16
231.544	8772.11
231.616	8812
231.688	8815.85
231.761	8806.81
231.833	8804.45
231.905	8721.07
231.978	8726.56
232.05	8710.05
232.122	8713.76
232.195	8696
232.267	8734.99
232.339	8721.65
232.412	8785.94
232.484	8759.8
232.556	8735.46
232.629	8792.67
232.701	8806.29
232.773	8817.7
232.846	8806.39
232.918	8806.68
232.99	8828.73
233.062	8863.1
233.135	8872.2
233.207	8845.82
233.279	8887.96
233.351	8917.37
233.424	8931.28
233.496	8906.58
233.568	8983.95
233.64	8954.97
233.713	8968.36
233.785	8967.1
233.857	8982.8
233.929	8933.13
234.001	8996.37
234.074	9064.26
234.146	9004.17
234.218	9000.07
234.29	9001.28
234.362	8999.59
234.434	8964.64
234.507	8939.7
234.579	8899.89
234.651	8886.46
234.723	8922.42
234.795	8941.49
234.867	8941.05
234.939	8990.59
235.012	9011.19
235.084	9013.07
235.156	9052.64
235.228	9039.78
235.3	9024.19
235.372	9031.99
235.444	9094.61
235.516	9029.97
235.588	9036.76
235.66	9054.67
235.732	9035.32
235.804	9205.66
235.876	9246.62
235.948	9311.73
236.02	9320.54
236.092	9335.46
236.164	9346.44
236.236	9338.15
236.308	9338.49
236.38	9362.76
236.452	9355.49
236.524	9376.05
236.596	9439.02
236.668	9468.59
236.74	9495.07
236.812	9519.86
236.884	9550.83
236.956	9562
237.028	9552.18
237.1	9536.05
237.172	9597.32
237.244	9666.47
237.316	9570.72
237.388	9560.8
237.46	9538.25
237.532	9598.55
237.604	9597.73
237.675	9671.37
237.747	9715.4
237.819	9713.76
237.891	9722.14
237.963	9715.06
238.035	9713.33
238.107	9616.59
238.178	9671.61
238.25	9677.49
238.322	9756.26
238.394	9726.49
238.466	9722.88
238.538	9771.9
238.609	9815.82
238.681	9781.23
238.753	9769.62
238.825	9791.4
238.897	9818.94
238.968	9888.17
239.04	9866.69
239.112	9968.32
239.184	9940.52
239.255	9941.38
239.327	9973.75
239.399	9993.93
239.471	10034.67
239.542	10069.83
239.614	10133.17
239.686	10074.35
239.758	10122.9
239.829	10105.79
239.901	10163.02
239.973	10184.98
240.044	10210.13
240.116	10218.36
240.188	10228.86
240.259	10238.74
240.331	10225.83
240.403	10262.87
240.474	10226.1
240.546	10225.33
240.618	10172.24
240.689	10167.08
240.761	10192.23
240.833	10249.28
240.904	10256.6
240.976	10258.58
241.048	10277.99
241.119	10314.47
241.191	10351.47
241.262	10413.63
241.334	10418.26
241.405	10423.66
241.477	10432.42
241.549	10449.91
241.62	10476.32
241.692	10523.39
241.763	10583.96
241.835	10608.05
241.906	10622.55
241.978	10600.92
242.049	10659.84
242.121	10722.91
242.192	10788.78
242.264	10761.94
242.335	10720.6
242.407	10766.57
242.478	10780.49
242.55	10803.91
242.621	10794.22
242.693	10796.15
242.764	10794.85
242.836	10797.07
242.907	10826.27
242.979	10854.6
243.05	10873.54
243.122	10905.83
243.193	10898.16
243.264	10840
243.336	10845.59
243.407	10883.37
243.479	10957.39
243.55	10977.92
243.622	10988.57
243.693	10986.64
243.764	11048.46
243.836	11039.55
243.907	11026.73
243.978	11032.8
244.05	11053.77
244.121	11017.53
244.192	11058.78
244.264	11017.1
244.335	11036.9
244.407	10999.99
244.478	11017.72
244.549	11017.05
244.62	10976.09
244.692	10977.92
244.763	11020.13
244.834	11022.59
244.906	11006.4
244.977	11025.43
245.048	11082.89
245.119	11075.42
245.191	11062.6
245.262	11010.22
245.333	11079.22
245.405	11101.73
245.476	11139.55
245.547	11160.04
245.618	11211.07
245.689	11221.63
245.761	11262.2
245.832	11272.23
245.903	11318.49
245.974	11349
246.045	11366.01
246.117	11447.51
246.188	11446.16
246.259	11439.75
246.33	11455.51
246.401	11471.03
246.473	11444.9
246.544	11434.44
246.615	11484.66
246.686	11496.66
246.757	11569.63
246.828	11556.08
246.899	11623.76
246.97	11599.18
247.042	11597.54
247.113	11637.89
247.184	11720.51
247.255	11723.21
247.326	11753.14
247.397	11768.61
247.468	11780.13
247.539	11797.29
247.61	11760.13
247.681	11809.19
247.752	11854.73
247.823	11843.41
247.894	11866.16
247.965	11850.59
248.037	11841.38
248.108	11800.66
248.179	11809.48
248.25	11804.7
248.321	11837.81
248.392	11799.69
248.463	11867.31
248.534	11863.84
248.605	11882.39
248.675	11862.87
248.746	11877.19
248.817	11891.5
248.888	11906.44
248.959	11861.09
249.03	11879.17
249.101	11890.11
249.172	11860.27
249.243	11807.55
249.314	11859.41
249.385	11867.07
249.456	11890.64
249.527	11885.58
249.598	11900.13
249.669	11901.63
249.739	11912.04
249.81	11919.03
249.881	11881.05
249.952	11875.7
250.023	11876.18
250.094	11835.54
250.165	11802.67
250.235	11802.43
250.306	11797.56
250.377	11775.29
250.448	11801.32
250.519	11751.91
250.59	11804.89
250.66	11812.16
250.731	11872.31
250.802	11880.22
250.873	11904.51
250.944	11929.43
251.014	11919.26
251.085	12008.68
251.156	12031.91
251.227	12085.37
251.297	12138.73
251.368	12191.71
251.439	12235.48
251.51	12291.2
251.58	12279.29
251.651	12286.67
251.722	12336.95
251.792	12310.43
251.863	12316.6
251.934	12370.21
252.005	12472.25
252.075	12489.12
252.146	12547.4
252.217	12598.93
252.287	12632.24
252.358	12633.44
252.429	12708.98
252.499	12709.61
252.57	12715.15
252.641	12755.93
252.711	12761.86
252.782	12721.56
252.852	12785.63
252.923	12789.39
252.994	12796.67
253.064	12843.08
253.135	12826.26
253.205	12812.67
253.276	12872.05
253.347	12925.22
253.417	12908.06
253.488	12902.18
253.558	12890.56
253.629	12887.09
253.699	12896.39
253.77	12925.85
253.841	12922.57
253.911	12926.38
253.982	12948.36
254.052	12976.27
254.123	12993.77
254.193	12991.17
254.264	13109.17
254.334	13090.23
254.405	13059.14
254.475	13033.06
254.546	13044.77
254.616	13101.94
254.687	13122.67
254.757	13144.46
254.827	13152.12
254.898	13181.19
254.968	13182.64
255.039	13169.91
255.109	13204.96
255.18	13180.66
255.25	13121.9
255.321	13153.91
255.391	13121.71
255.461	13205.2
255.532	13129.8
255.602	13123.39
255.673	13086.56
255.743	13063.71
255.813	13000.47
255.884	13045.64
255.954	13079.38
256.024	13129.61
256.095	13135.49
256.165	13114.04
256.235	13136.56
256.306	13123.73
256.376	13167.94
256.446	13206.36
256.517	13230.51
256.587	13267.77
256.657	13292.17
256.728	13314.92
256.798	13320.46
256.868	13320.32
256.938	13290
257.009	13345.43
257.079	13379.47
257.149	13470.53
257.219	13419
257.29	13459.92
257.36	13416.82
257.43	13450.91
257.5	13398.99
257.571	13396.92
257.641	13431.14
257.711	13404.92
257.781	13436.93
257.852	13453.65
257.922	13412.87
257.992	13425.69
258.062	13429.5
258.132	13470.57
258.202	13484.65
258.273	13496.85
258.343	13562.5
258.413	13549.87
258.483	13558.12
258.553	13534.64
258.623	13507.6
258.693	13535.89
258.764	13588.63
258.834	13658.39
258.904	13684.27
258.974	13684.18
259.044	13695.07
259.114	13732.96
259.184	13762.95
259.254	13776.59
259.324	13738.41
259.394	13772.11
259.464	13840.7
259.535	13844.13
259.605	13844.13
259.675	13832.03
259.745	13875.84
259.815	13867.99
259.885	13881.68
259.955	13977.22
260.025	13978.28
260.095	13996.11
260.165	14029.62
260.235	14089.25
260.305	14074.93
260.375	14054.49
260.445	14136.63
260.515	14193.27
260.585	14230.39
260.655	14239.5
260.725	14274.84
260.795	14305.5
260.865	14368.93
260.934	14343.87
261.004	14374.67
261.074	14378.38
261.144	14437.68
261.214	14466.79
261.284	14468.19
261.354	14499.38
261.424	14468.48
261.494	14530.77
261.564	14538.53
261.634	14554.87
261.703	14501.84
261.773	14517.51
261.843	14545.47
261.913	14542.77
261.983	14505.94
262.053	14515.15
262.123	14516.79
262.192	14489.94
262.262	14523.34
262.332	14479.04
262.402	14511.48
262.472	14511.82
262.541	14460.34
262.611	14497.84
262.681	14484.2
262.751	14507.29
262.821	14513.31
262.89	14482.99
262.96	14503.77
263.03	14566.63
263.1	14596.9
263.169	14612.9
263.239	14656.82
263.309	14714.42
263.379	14738.09
263.448	14758.67
263.518	14790.34
263.588	14801.81
