Data from 20250626_urea_1M_exp2_MAYP1162681_10-13-58-656.txt Node
Date: Fri Jun 27 10:13:58 BST 2025
User: adleo
Spectrometer: MAYP116268
Trigger mode: 0
Integration Time (sec): 3.000000E0
Scans to average: 1
Electric dark correction enabled: true
Nonlinearity correction enabled: true
Boxcar width: 10
XAxis mode: Wavelengths
Number of Pixels in Spectrum: 2068
>>>>>Begin Spectral Data<<<<<
179.565	3140.61
179.642	3304.89
179.718	3425.1
179.795	3541.63
179.871	3641.83
179.948	3696.45
180.024	3759.6
180.101	3819.65
180.177	3858.19
180.254	3922.74
180.33	3991.87
180.407	4212.1
180.483	4453.32
180.56	4701.71
180.636	4931.73
180.712	4894.31
180.789	4919.46
180.865	4958.56
180.942	4983.17
181.018	5013.34
181.095	5052.59
181.171	5067.96
181.248	5069.59
181.324	5116.7
181.4	5131.36
181.477	5154.79
181.553	5189.79
181.63	5247.59
181.706	5293.21
181.782	5321.07
181.859	5325.43
181.935	5337.75
182.011	5330.61
182.088	5376.67
182.164	5429.47
182.24	5461.14
182.317	5481.21
182.393	5473.74
182.469	5509.26
182.546	5545.88
182.622	5559.58
182.698	5553.83
182.775	5593.14
182.851	5627.56
182.927	5607.9
183.003	5599.28
183.08	5586.05
183.156	5613.28
183.232	5599.56
183.308	5570.51
183.385	5589.2
183.461	5633.37
183.537	5630.73
183.613	5659.36
183.69	5636.48
183.766	5604.82
183.842	5629.66
183.918	5652.53
183.995	5683.78
184.071	5690.16
184.147	5676.55
184.223	5645.79
184.299	5671.88
184.375	5635.49
184.452	5653.96
184.528	5760.36
184.604	5792.14
184.68	5825.75
184.756	5841.82
184.832	5858.61
184.908	5873.71
184.985	5873.04
185.061	5828.68
185.137	5853.86
185.213	5825.24
185.289	5828.35
185.365	5813.44
185.441	5801.59
185.517	5838.26
185.593	5828.76
185.669	5821.86
185.745	5846.41
185.822	5889.54
185.898	5869.49
185.974	5894.51
186.05	5872.92
186.126	5803.65
186.202	5780.4
186.278	5770.52
186.354	5743.41
186.43	5760.6
186.506	5756.57
186.582	5750.43
186.658	5768.31
186.734	5718.74
186.81	5729.48
186.886	5738.39
186.962	5771.53
187.038	5765.39
187.114	5745.81
187.19	5768.69
187.266	5743.37
187.341	5750.62
187.417	5731.78
187.493	5731.63
187.569	5740.41
187.645	5725.02
187.721	5696.48
187.797	5719.35
187.873	5726.93
187.949	5713.74
188.025	5695.89
188.101	5702.84
188.176	5720.05
188.252	5709.51
188.328	5728.34
188.404	5720.76
188.48	5709.79
188.556	5682.74
188.632	5683.31
188.707	5680.19
188.783	5675.25
188.859	5664.09
188.935	5627.87
189.011	5649.6
189.086	5630.04
189.162	5605
189.238	5598.87
189.314	5594.31
189.39	5577.15
189.465	5561.08
189.541	5603.29
189.617	5560.28
189.693	5546.81
189.768	5562.35
189.844	5621.61
189.92	5598.22
189.996	5627.52
190.071	5654.95
190.147	5658.36
190.223	5681.05
190.298	5660.37
190.374	5625.85
190.45	5660.93
190.526	5686.78
190.601	5676.23
190.677	5679.87
190.753	5762.86
190.828	5778.68
190.904	5817.39
190.98	5858.17
191.055	5884.36
191.131	5862.1
191.207	5920.51
191.282	5945.96
191.358	5912.78
191.433	5880.76
191.509	5920.06
191.585	5909.84
191.66	5914.59
191.736	5936.08
191.811	5913.87
191.887	5958.88
191.963	6022.93
192.038	6032.95
192.114	6034.82
192.189	6041.3
192.265	6034.54
192.34	5967.81
192.416	5960.95
192.491	5947.85
192.567	5955.48
192.642	5963.3
192.718	5967.33
192.793	5934.09
192.869	5921.57
192.944	5939.16
193.02	5958.36
193.095	5964.12
193.171	5987.67
193.246	5981.34
193.322	5969.97
193.397	5973.38
193.473	5933.88
193.548	5884.74
193.624	5904.28
193.699	5901.16
193.775	5943.49
193.85	5944.25
193.925	5966.85
194.001	5964.07
194.076	5943.83
194.152	5914.46
194.227	5893.68
194.302	5869.19
194.378	5878.16
194.453	5872.02
194.529	5896.06
194.604	5856.29
194.679	5849.91
194.755	5788.2
194.83	5824.34
194.905	5820.22
194.981	5842.67
195.056	5824.79
195.131	5840.37
195.207	5827.13
195.282	5798.79
195.357	5742.79
195.433	5786.34
195.508	5755.92
195.583	5782.11
195.659	5828.27
195.734	5850.44
195.809	5851.4
195.884	5874.98
195.96	5874.65
196.035	5917.38
196.11	5913.59
196.185	5944.1
196.261	5943.86
196.336	6031.74
196.411	5990.7
196.486	6004.23
196.561	5985.8
196.637	6012.8
196.712	6056.15
196.787	6072.71
196.862	6119.91
196.937	6152.48
197.013	6169.66
197.088	6192.88
197.163	6243.68
197.238	6282.69
197.313	6279.76
197.388	6316.19
197.464	6398.69
197.539	6429.17
197.614	6410.88
197.689	6438.34
197.764	6484.4
197.839	6539.02
197.914	6521.11
197.989	6592.23
198.065	6631.16
198.14	6766.62
198.215	6834.48
198.29	6867.35
198.365	6901.65
198.44	6922.39
198.515	6999.89
198.59	7042.22
198.665	7117.68
198.74	7141.67
198.815	7141.57
198.89	7201
198.965	7284.84
199.04	7272.58
199.115	7314.95
199.19	7432.49
199.265	7445.12
199.34	7470.21
199.415	7565.44
199.49	7625.5
199.565	7643.53
199.64	7711.17
199.715	7704.87
199.79	7720.83
199.865	7733.76
199.94	7728.72
200.015	7820.32
200.09	7838.26
200.165	7857.98
200.24	7875.96
200.315	7989.55
200.39	8035.67
200.464	8059.24
200.539	8057.84
200.614	8093.86
200.689	8159.95
200.764	8175.73
200.839	8217.27
200.914	8228.57
200.989	8196.56
201.063	8232.26
201.138	8184.01
201.213	8180.45
201.288	8129.17
201.363	8146.78
201.438	8142.59
201.512	8188.8
201.587	8140.45
201.662	8148.72
201.737	8182.35
201.812	8200.49
201.886	8106.57
201.961	8131.02
202.036	8092.56
202.111	8082.69
202.186	8004.31
202.26	7953.85
202.335	7893.57
202.41	7881.45
202.485	7838.43
202.559	7781.45
202.634	7712.69
202.709	7735.37
202.784	7683.2
202.858	7683.49
202.933	7629.74
203.008	7615.75
203.082	7560.8
203.157	7560.99
203.232	7442.65
203.306	7379.59
203.381	7291.71
203.456	7230.53
203.53	7163.9
203.605	7108.77
203.68	7047.23
203.754	7032.98
203.829	6993.86
203.904	6934.77
203.978	6900.79
204.053	6912.9
204.127	6884.66
204.202	6868.14
204.277	6825.49
204.351	6808.48
204.426	6785.56
204.5	6767.93
204.575	6672.83
204.65	6697.2
204.724	6674.79
204.799	6698.88
204.873	6688.7
204.948	6690.62
205.022	6653.8
205.097	6634.24
205.171	6676.3
205.246	6696.96
205.32	6699.17
205.395	6702.1
205.469	6683.05
205.544	6699.72
205.618	6651.41
205.693	6684.12
205.767	6655.36
205.842	6709.5
205.916	6694.04
205.991	6669.11
206.065	6682.32
206.14	6727.89
206.214	6712.17
206.289	6687.19
206.363	6718.12
206.438	6719.8
206.512	6740.36
206.586	6793.66
206.661	6815.19
206.735	6751.83
206.81	6758.47
206.884	6791.88
206.958	6752.27
207.033	6796.09
207.107	6809.02
207.181	6894.12
207.256	6876.49
207.33	6931.86
207.405	6964.95
207.479	7014.67
207.553	7032.87
207.628	6987.6
207.702	7018.29
207.776	6998.25
207.851	7010.22
207.925	7048.91
207.999	7045.89
208.073	7035.12
208.148	7041.47
208.222	7009.99
208.296	7097.47
208.371	7139.17
208.445	7173.43
208.519	7251.54
208.593	7285.47
208.668	7279.17
208.742	7287.15
208.816	7290.52
208.89	7324.85
208.965	7321.14
209.039	7345.38
209.113	7391.8
209.187	7451.82
209.261	7448.03
209.336	7513.5
209.41	7565.61
209.484	7565.75
209.558	7626.05
209.632	7667.33
209.707	7696.66
209.781	7756.61
209.855	7803.5
209.929	7846.58
210.003	7859.66
210.077	7860.19
210.151	7989.56
210.226	8084.69
210.3	8161.81
210.374	8230.99
210.448	8246.82
210.522	8276.26
210.596	8304.26
210.67	8331.78
210.744	8462.14
210.818	8538.31
210.892	8589.13
210.966	8582.49
211.041	8622.42
211.115	8613.38
211.189	8673.43
211.263	8722.84
211.337	8738.86
211.411	8783.92
211.485	8770.58
211.559	8804.21
211.633	8810.37
211.707	8726.01
211.781	8744.74
211.855	8645.79
211.929	8618.08
212.003	8565.91
212.077	8590.75
212.151	8620.01
212.225	8643.88
212.299	8612.1
212.373	8583.9
212.447	8570.18
212.52	8640.26
212.594	8655.37
212.668	8684.63
212.742	8646.7
212.816	8629.76
212.89	8617.11
212.964	8603.05
213.038	8609.93
213.112	8647.05
213.186	8685.01
213.26	8623.31
213.333	8486.87
213.407	8492.11
213.481	8501.2
213.555	8533.84
213.629	8499.96
213.703	8447.98
213.777	8437.29
213.85	8378.39
213.924	8465.85
213.998	8457.33
214.072	8440.48
214.146	8394.52
214.219	8383.79
214.293	8367
214.367	8367.34
214.441	8384.47
214.515	8343.95
214.588	8271.58
214.662	8164.98
214.736	8097.21
214.81	8113.79
214.883	8138.3
214.957	8106.09
215.031	8056.77
215.105	7976.01
215.178	7925.84
215.252	7900.26
215.326	7820.67
215.4	7754.34
215.473	7607.19
215.547	7540.38
215.621	7483.55
215.694	7484.51
215.768	7401.91
215.842	7353.7
215.915	7298.59
215.989	7205.99
216.063	7159.3
216.136	7142.47
216.21	7121.96
216.284	7131.24
216.357	7107.93
216.431	7074.97
216.504	7071.03
216.578	7115.58
216.652	7124.51
216.725	7103.46
216.799	7109.28
216.873	7091.51
216.946	7099.67
217.02	7070.1
217.093	7050.3
217.167	6968.2
217.24	6896.44
217.314	6869.75
217.387	6833.16
217.461	6794.59
217.535	6812.89
217.608	6764.14
217.682	6744.2
217.755	6756.35
217.829	6713.64
217.902	6700.91
217.976	6684.01
218.049	6643.91
218.123	6582.88
218.196	6584.85
218.27	6551.33
218.343	6495.02
218.417	6496.75
218.49	6472.88
218.563	6508.17
218.637	6511.53
218.71	6573.97
218.784	6593.23
218.857	6615.89
218.931	6633.27
219.004	6637.68
219.077	6657.68
219.151	6674.86
219.224	6662.19
219.298	6660.26
219.371	6695
219.444	6660.15
219.518	6667.01
219.591	6681.85
219.665	6770.15
219.738	6783.16
219.811	6776.83
219.885	6808.58
219.958	6832.5
220.031	6836.82
220.105	6852.82
220.178	6861.8
220.251	6840.75
220.325	6862.38
220.398	6878.42
220.471	6890.43
220.544	6921.08
220.618	6899.02
220.691	6916.36
220.764	6937.01
220.838	6955.37
220.911	6945.18
220.984	7017.36
221.057	7048.97
221.131	7069.53
221.204	6986.41
221.277	7046.78
221.35	7146.64
221.424	7140.92
221.497	7150.67
221.57	7168.78
221.643	7197.33
221.716	7229.97
221.79	7232.66
221.863	7237.57
221.936	7244.63
222.009	7252.99
222.082	7272.75
222.155	7279.66
222.229	7334.47
222.302	7357.73
222.375	7362.01
222.448	7390.8
222.521	7398.59
222.594	7396.67
222.667	7377.79
222.74	7428.15
222.814	7414.69
222.887	7403.53
222.96	7445.3
223.033	7479.49
223.106	7501.4
223.179	7529.58
223.252	7537.81
223.325	7557.75
223.398	7577.52
223.471	7605.88
223.544	7628.32
223.617	7647.36
223.69	7668.66
223.763	7637.54
223.837	7652.98
223.91	7678.17
223.983	7640.2
224.056	7608.43
224.129	7627.47
224.202	7675.04
224.275	7663.26
224.348	7641.29
224.42	7610.66
224.493	7574.07
224.566	7557.39
224.639	7569.4
224.712	7538.23
224.785	7525.68
224.858	7522.8
224.931	7504.23
225.004	7463.38
225.077	7463.33
225.15	7377.03
225.223	7367.84
225.296	7436.73
225.369	7386.9
225.442	7365.21
225.514	7378.71
225.587	7396.2
225.66	7401.01
225.733	7396.59
225.806	7404.14
225.879	7396.11
225.952	7373.43
226.025	7410.69
226.097	7450.81
226.17	7448.4
226.243	7399.92
226.316	7392.94
226.389	7395.64
226.461	7409.68
226.534	7423.75
226.607	7416.3
226.68	7490.06
226.753	7490.78
226.825	7421.07
226.898	7468.27
226.971	7464.18
227.044	7484.27
227.117	7485.28
227.189	7502.4
227.262	7533.08
227.335	7547.56
227.407	7550.63
227.48	7571.2
227.553	7575.24
227.626	7555.42
227.698	7564.98
227.771	7591.45
227.844	7583.57
227.916	7603.48
227.989	7576.99
228.062	7579.39
228.134	7651.34
228.207	7653.41
228.28	7646.63
228.352	7659.61
228.425	7671.87
228.498	7714.24
228.57	7697.32
228.643	7747.39
228.716	7747.92
228.788	7734.5
228.861	7729.06
228.934	7774.3
229.006	7780.74
229.079	7780.98
229.151	7771.8
229.224	7745.36
229.296	7768.29
229.369	7849.65
229.442	7882.02
229.514	7867.9
229.587	7908.09
229.659	7835.66
229.732	7842.93
229.804	7876
229.877	7938.36
229.949	7961.79
230.022	7997.07
230.094	7994.81
230.167	7985.86
230.239	7951.82
230.312	7940.08
230.384	7997.87
230.457	8000.76
230.529	8013.64
230.602	8023.6
230.674	8033.8
230.747	8063.31
230.819	8090.01
230.892	7988.23
230.964	7990.06
231.037	8011.16
231.109	8011.44
231.181	8050.96
231.254	8022.64
231.326	8011.87
231.399	7992.95
231.471	7971.83
231.544	7907.12
231.616	7951.31
231.688	7956.36
231.761	7943.38
231.833	7937.81
231.905	7863.29
231.978	7857.9
232.05	7839.97
232.122	7835.06
232.195	7812.26
232.267	7839.82
232.339	7820.24
232.412	7878.32
232.484	7852
232.556	7828.31
232.629	7880.77
232.701	7894.77
232.773	7902.65
232.846	7895.2
232.918	7900.93
232.99	7913.82
233.062	7951.72
233.135	7954.99
233.207	7925.75
233.279	7962.43
233.351	7990.51
233.424	8000.22
233.496	7981.99
233.568	8054.87
233.64	8023.47
233.713	8042.9
233.785	8041.27
233.857	8052.04
233.929	8011.02
234.001	8073.78
234.074	8130.94
234.146	8065.64
234.218	8069.73
234.29	8072.04
234.362	8066.03
234.434	8027.88
234.507	7994.69
234.579	7949.48
234.651	7932.79
234.723	7960.93
234.795	7971.13
234.867	7963.57
234.939	8005.42
235.012	8015.96
235.084	8012.25
235.156	8042.21
235.228	8019.84
235.3	8001.95
235.372	8014.31
235.444	8060.87
235.516	7990.12
235.588	7994.31
235.66	8005.9
235.732	7979.92
235.804	8144.54
235.876	8178.35
235.948	8228.39
236.02	8242.62
236.092	8254.69
236.164	8268.64
236.236	8268.21
236.308	8268.69
236.38	8295.53
236.452	8277.59
236.524	8300.92
236.596	8356.73
236.668	8387.09
236.74	8412.43
236.812	8437.06
236.884	8465.46
236.956	8473.83
237.028	8469.84
237.1	8461.57
237.172	8523.46
237.244	8585.82
237.316	8483.08
237.388	8463.94
237.46	8445.5
237.532	8497.61
237.604	8494.06
237.675	8553.64
237.747	8590.56
237.819	8585.7
237.891	8585.22
237.963	8582.81
238.035	8575.16
238.107	8484.9
238.178	8537.91
238.25	8541.13
238.322	8617.64
238.394	8579.62
238.466	8582.46
238.538	8617.48
238.609	8647.99
238.681	8601.97
238.753	8588.01
238.825	8605.49
238.897	8635.89
238.968	8702.86
239.04	8683.95
239.112	8780.29
239.184	8749.53
239.255	8739.57
239.327	8766.07
239.399	8787.88
239.471	8827.1
239.542	8860.49
239.614	8915.36
239.686	8849.11
239.758	8894.5
239.829	8861.65
239.901	8912.91
239.973	8927.59
240.044	8959.7
240.116	8968.27
240.188	8982.13
240.259	8990.45
240.331	8982.7
240.403	9013.89
240.474	8970.89
240.546	8962.18
240.618	8908.88
240.689	8903.59
240.761	8927.27
240.833	8982.73
240.904	8976.72
240.976	8972.63
241.048	8983.6
241.119	9016.21
241.191	9051.92
241.262	9104.18
241.334	9106.97
241.405	9110.29
241.477	9109.28
241.549	9109.52
241.62	9128.68
241.692	9167.78
241.763	9217.57
241.835	9234.04
241.906	9247.47
241.978	9223.79
242.049	9280.93
242.121	9323.34
242.192	9376.84
242.264	9337.65
242.335	9292.44
242.407	9330.96
242.478	9340.54
242.55	9353.63
242.621	9334.27
242.693	9325.27
242.764	9314.72
242.836	9318.72
242.907	9346.12
242.979	9380.21
243.05	9398.46
243.122	9423.26
243.193	9415.12
243.264	9353.39
243.336	9354.93
243.407	9382.19
243.479	9451.19
243.55	9461.21
243.622	9480.81
243.693	9481
243.764	9550.29
243.836	9541.48
243.907	9532.86
243.978	9532.81
244.05	9552.22
244.121	9518.37
244.192	9565.42
244.264	9525.26
244.335	9535.75
244.407	9490.73
244.478	9495.55
244.549	9486.93
244.62	9443.78
244.692	9446.82
244.763	9483.21
244.834	9467.52
244.906	9448.78
244.977	9460.05
245.048	9510.93
245.119	9490.32
245.191	9473.65
245.262	9417.41
245.333	9477.93
245.405	9491.17
245.476	9520.45
245.547	9533.31
245.618	9570.91
245.689	9574.33
245.761	9602.65
245.832	9607.61
245.903	9649.75
245.974	9673.49
246.045	9690.01
246.117	9761.72
246.188	9747.52
246.259	9735.91
246.33	9759.89
246.401	9765.77
246.473	9738.6
246.544	9726.03
246.615	9774.29
246.686	9783.29
246.757	9844.5
246.828	9825.33
246.899	9884.35
246.97	9853.2
247.042	9853.68
247.113	9899.25
247.184	9974.61
247.255	9975.09
247.326	9992.87
247.397	9997.54
247.468	10003.47
247.539	10012.71
247.61	9973.94
247.681	10010.44
247.752	10055.71
247.823	10035.58
247.894	10050.61
247.965	10032.7
248.037	10015.79
248.108	9974.17
248.179	9978.12
248.25	9973.49
248.321	9997.62
248.392	9954.74
248.463	10019.95
248.534	10017.73
248.605	10025.93
248.675	10000.43
248.746	10013.68
248.817	10030.73
248.888	10041.91
248.959	9998.37
249.03	10016.62
249.101	10026.69
249.172	10018.36
249.243	9956.91
249.314	10009.5
249.385	10024.49
249.456	10047.51
249.527	10049.43
249.598	10061.67
249.669	10053.53
249.739	10061.91
249.81	10071.25
249.881	10039.71
249.952	10037.15
250.023	10033.01
250.094	9996.11
250.165	9966.67
250.235	9962.52
250.306	9965.99
250.377	9948.36
250.448	9976.29
250.519	9926.25
250.59	9974.33
250.66	9967.59
250.731	10027.5
250.802	10025.62
250.873	10031.45
250.944	10038.82
251.014	10024.8
251.085	10104.4
251.156	10129.01
251.227	10165.24
251.297	10212.61
251.368	10262.27
251.439	10295.85
251.51	10340.18
251.58	10322.89
251.651	10322.65
251.722	10373.19
251.792	10330.6
251.863	10332.05
251.934	10376.28
252.005	10465.83
252.075	10471.04
252.146	10516.27
252.217	10555.83
252.287	10589.08
252.358	10599.44
252.429	10664.97
252.499	10658.22
252.57	10669.16
252.641	10708.09
252.711	10720.72
252.782	10675.86
252.852	10730.85
252.923	10733.11
252.994	10743.37
253.064	10783.31
253.135	10767.22
253.205	10740.38
253.276	10802.19
253.347	10854.56
253.417	10836.34
253.488	10818.18
253.558	10811.38
253.629	10809.7
253.699	10816.44
253.77	10842.28
253.841	10837.02
253.911	10847.82
253.982	10864.1
254.052	10883.09
254.123	10890.37
254.193	10893.69
254.264	11008.59
254.334	10982.95
254.405	10951.58
254.475	10920.93
254.546	10934.28
254.616	10987.23
254.687	11012.29
254.757	11028.48
254.827	11025.25
254.898	11047.03
254.968	11057.35
255.039	11042.55
255.109	11069.97
255.18	11048.82
255.25	10983.71
255.321	11007.37
255.391	10978.17
255.461	11053.97
255.532	10983.9
255.602	10976.91
255.673	10933.44
255.743	10904.91
255.813	10848.39
255.884	10889.64
255.954	10924.19
256.024	10974.55
256.095	10976.09
256.165	10955.71
256.235	10977.06
256.306	10968.63
256.376	11003.38
256.446	11040.58
256.517	11064.1
256.587	11104.54
256.657	11126.61
256.728	11155.18
256.798	11158.17
256.868	11157.59
256.938	11129.78
257.009	11176.96
257.079	11201.25
257.149	11281.05
257.219	11234.69
257.29	11266.1
257.36	11220.8
257.43	11250.78
257.5	11201.14
257.571	11193.05
257.641	11219.45
257.711	11187.11
257.781	11210.68
257.852	11225.33
257.922	11171.88
257.992	11174.44
258.062	11165.47
258.132	11192.51
258.202	11195.35
258.273	11209.19
258.343	11266.93
258.413	11250.97
258.483	11245.24
258.553	11229.91
258.623	11207.65
258.693	11226.2
258.764	11285.62
258.834	11344.17
258.904	11357.81
258.974	11339.21
259.044	11344.08
259.114	11365.33
259.184	11396.03
259.254	11403.6
259.324	11354.25
259.394	11388.66
259.464	11451.94
259.535	11455.17
259.605	11454.54
259.675	11444.18
259.745	11476.04
259.815	11453.44
259.885	11453.53
259.955	11551.1
260.025	11540.78
260.095	11544.74
260.165	11570.04
260.235	11614.44
260.305	11607.45
260.375	11578.86
260.445	11662.04
260.515	11716.27
260.585	11757.58
260.655	11763.22
260.725	11802.45
260.795	11834.6
260.865	11894.8
260.934	11872.29
261.004	11896.73
261.074	11898.9
261.144	11948.05
261.214	11972.06
261.284	11972.39
261.354	12010.37
261.424	11977.2
261.494	12031.76
261.564	12037.79
261.634	12062.37
261.703	12006.12
261.773	12019.13
261.843	12052.49
261.913	12046.12
261.983	12001.73
262.053	12022.12
262.123	12018.65
262.192	11983.61
262.262	12021.45
262.332	11987.22
262.402	12013.78
262.472	12024.77
262.541	11979.62
262.611	12017.94
262.681	12000.97
262.751	12032.11
262.821	12037.31
262.89	12005.4
262.96	12032.11
263.03	12094.24
263.1	12116.61
263.169	12136.08
263.239	12165.97
263.309	12216.82
263.379	12239.72
263.448	12258.8
263.518	12277.46
263.588	12292.45
263.657	12356.51
263.727	12392.81
263.797	12397.15
263.867	12395.12
263.936	12365.19
