Data from 20250626_urea_1M_exp2_MAYP1162681_18-24-00-306.txt Node
Date: Thu Jun 26 18:24:00 BST 2025
User: adleo
Spectrometer: MAYP116268
Trigger mode: 0
Integration Time (sec): 3.000000E0
Scans to average: 1
Electric dark correction enabled: true
Nonlinearity correction enabled: true
Boxcar width: 10
XAxis mode: Wavelengths
Number of Pixels in Spectrum: 2068
>>>>>Begin Spectral Data<<<<<
179.565	3205.11
179.642	3374.59
179.718	3503.68
179.795	3624.9
179.871	3720.89
179.948	3781.57
180.024	3845.23
180.101	3910.47
180.177	3953.02
180.254	4016.01
180.33	4079.08
180.407	4304.05
180.483	4552.08
180.56	4804.59
180.636	5035.85
180.712	5005.47
180.789	5030.43
180.865	5069.01
180.942	5093.2
181.018	5124.14
181.095	5165.84
181.171	5178.87
181.248	5179.02
181.324	5222.83
181.4	5238.17
181.477	5266.87
181.553	5294.7
181.63	5350.97
181.706	5396.89
181.782	5424.91
181.859	5431.67
181.935	5447.58
182.011	5441.49
182.088	5489.34
182.164	5540.66
182.24	5577.17
182.317	5601.85
182.393	5593.94
182.469	5624.14
182.546	5657.85
182.622	5666.86
182.698	5658.37
182.775	5695.19
182.851	5730
182.927	5709.62
183.003	5695.82
183.08	5682.54
183.156	5710.59
183.232	5702.91
183.308	5671.41
183.385	5688.95
183.461	5731.11
183.537	5735.95
183.613	5770.77
183.69	5752.07
183.766	5724.48
183.842	5748.89
183.918	5767.06
183.995	5806.67
184.071	5820.3
184.147	5807.15
184.223	5781.9
184.299	5810.3
184.375	5775.54
184.452	5795.69
184.528	5906.38
184.604	5939.75
184.68	5969.63
184.756	5989.49
184.832	6000.96
184.908	6015.58
184.985	6018.22
185.061	5969.69
185.137	5994.59
185.213	5961.78
185.289	5957.22
185.365	5938.43
185.441	5934.45
185.517	5974.24
185.593	5968.24
185.669	5961.28
185.745	5984.93
185.822	6028.18
185.898	6003.99
185.974	6032.33
186.05	6012.89
186.126	5944.03
186.202	5922.55
186.278	5913.63
186.354	5887.91
186.43	5904.62
186.506	5900.83
186.582	5896.71
186.658	5922.78
186.734	5863.56
186.81	5868.89
186.886	5880.25
186.962	5911.47
187.038	5897.66
187.114	5871.54
187.19	5884.92
187.266	5859.85
187.341	5867.38
187.417	5843.07
187.493	5843.45
187.569	5854.44
187.645	5840.24
187.721	5809.58
187.797	5831.73
187.873	5845.17
187.949	5831.55
188.025	5816.67
188.101	5824.29
188.176	5835.32
188.252	5820.03
188.328	5844.56
188.404	5843.08
188.48	5826.78
188.556	5800.97
188.632	5800.83
188.707	5802.17
188.783	5801.31
188.859	5788.75
188.935	5759.25
189.011	5783.9
189.086	5770.18
189.162	5743.46
189.238	5736.23
189.314	5728.98
189.39	5714.36
189.465	5694.59
189.541	5735.8
189.617	5692.3
189.693	5674.66
189.768	5689.63
189.844	5757.34
189.92	5733.38
189.996	5754.96
190.071	5784.07
190.147	5793.04
190.223	5819.81
190.298	5796.07
190.374	5752.38
190.45	5781.23
190.526	5800.61
190.601	5787.13
190.677	5787.9
190.753	5871.77
190.828	5883.62
190.904	5922.77
190.98	5964.56
191.055	5992.87
191.131	5974.15
191.207	6033.15
191.282	6059.04
191.358	6028.87
191.433	5991.61
191.509	6027.75
191.585	6020.84
191.66	6028.62
191.736	6048.53
191.811	6019.07
191.887	6067.64
191.963	6133.89
192.038	6146.85
192.114	6151.79
192.189	6162.39
192.265	6153.23
192.34	6088.69
192.416	6080.78
192.491	6070.89
192.567	6078.67
192.642	6083.13
192.718	6082.7
192.793	6043.64
192.869	6032.28
192.944	6041
193.02	6058.38
193.095	6068.02
193.171	6089.28
193.246	6087.21
193.322	6077.47
193.397	6081.12
193.473	6043.48
193.548	5995.4
193.624	6017.09
193.699	6003.56
193.775	6051.43
193.85	6057.47
193.925	6080.5
194.001	6078.73
194.076	6056.52
194.152	6024.02
194.227	6008.42
194.302	5980.37
194.378	5996.15
194.453	5988.77
194.529	6020.77
194.604	5983.83
194.679	5971.36
194.755	5916.93
194.83	5942.18
194.905	5934.89
194.981	5960.84
195.056	5942.38
195.131	5963.82
195.207	5954.7
195.282	5934.9
195.357	5877.15
195.433	5921.57
195.508	5890.28
195.583	5919.11
195.659	5958.37
195.734	5980.78
195.809	5977.9
195.884	6005.18
195.96	6004.03
196.035	6054.74
196.11	6043.85
196.185	6072.15
196.261	6076.76
196.336	6164.71
196.411	6126.31
196.486	6139.55
196.561	6121.46
196.637	6147.12
196.712	6186.93
196.787	6197.54
196.862	6237.83
196.937	6265.76
197.013	6280.4
197.088	6303.87
197.163	6356.07
197.238	6402.68
197.313	6399.94
197.388	6435.61
197.464	6519.04
197.539	6553.26
197.614	6526.77
197.689	6557.45
197.764	6609.95
197.839	6669.67
197.914	6658.05
197.989	6727.58
198.065	6766.38
198.14	6903.93
198.215	6977.38
198.29	7008.38
198.365	7045.76
198.44	7078.75
198.515	7153.61
198.59	7194.89
198.665	7270.57
198.74	7293.74
198.815	7295.09
198.89	7357.7
198.965	7437.51
199.04	7424.43
199.115	7465.56
199.19	7590.42
199.265	7605.07
199.34	7626.9
199.415	7720.12
199.49	7773.04
199.565	7794.58
199.64	7865.21
199.715	7863.38
199.79	7877.52
199.865	7894.11
199.94	7887.58
200.015	7979.21
200.09	7995.51
200.165	8008.26
200.24	8025.72
200.315	8131.37
200.39	8178.76
200.464	8193.71
200.539	8202.52
200.614	8249.02
200.689	8317.73
200.764	8328.8
200.839	8374.81
200.914	8389.77
200.989	8358.92
201.063	8398.51
201.138	8355.69
201.213	8353.96
201.288	8294.78
201.363	8306.43
201.438	8308.11
201.512	8352.92
201.587	8302.3
201.662	8312.55
201.737	8351.04
201.812	8369.47
201.886	8285.46
201.961	8313.67
202.036	8281.4
202.111	8272.79
202.186	8184.2
202.26	8129.1
202.335	8076.18
202.41	8063.14
202.485	8018.57
202.559	7966.49
202.634	7887.66
202.709	7911.54
202.784	7855.19
202.858	7856.29
202.933	7805.28
203.008	7788.64
203.082	7736.42
203.157	7732.19
203.232	7616.95
203.306	7552.36
203.381	7463.45
203.456	7390.24
203.53	7317.53
203.605	7261.33
203.68	7195.22
203.754	7181.39
203.829	7143.08
203.904	7082.97
203.978	7046.43
204.053	7056
204.127	7017.52
204.202	7011.47
204.277	6960.3
204.351	6945.55
204.426	6920.32
204.5	6899.81
204.575	6800.22
204.65	6825.02
204.724	6799.92
204.799	6824.88
204.873	6820.51
204.948	6814.46
205.022	6790.12
205.097	6764.4
205.171	6806.61
205.246	6829.35
205.32	6828.87
205.395	6826.56
205.469	6804.53
205.544	6819.14
205.618	6769.28
205.693	6798.82
205.767	6769.33
205.842	6827.61
205.916	6810.22
205.991	6785.39
206.065	6799.51
206.14	6844.33
206.214	6831.35
206.289	6815.49
206.363	6845.51
206.438	6850.56
206.512	6874.39
206.586	6922.89
206.661	6953.51
206.735	6887.99
206.81	6889.48
206.884	6931.35
206.958	6893.23
207.033	6932.11
207.107	6950.91
207.181	7041.31
207.256	7030.79
207.33	7082.91
207.405	7114.85
207.479	7166.74
207.553	7191.76
207.628	7145.05
207.702	7174.35
207.776	7153.73
207.851	7164.26
207.925	7202.14
207.999	7192.63
208.073	7188.69
208.148	7196.18
208.222	7159.94
208.296	7250.03
208.371	7298.32
208.445	7327.3
208.519	7410.76
208.593	7452.29
208.668	7441.04
208.742	7446.76
208.816	7446.52
208.89	7480.57
208.965	7477.44
209.039	7498.65
209.113	7539.41
209.187	7604.63
209.261	7598.34
209.336	7658.09
209.41	7710.27
209.484	7716.62
209.558	7775.81
209.632	7808.35
209.707	7839.08
209.781	7902.16
209.855	7951.76
209.929	7993.54
210.003	8014.56
210.077	8015.33
210.151	8144.73
210.226	8245.4
210.3	8319.93
210.374	8389.65
210.448	8405.77
210.522	8436.9
210.596	8469.38
210.67	8498.06
210.744	8628.58
210.818	8720.68
210.892	8776.99
210.966	8758.19
211.041	8797.65
211.115	8788.46
211.189	8854.72
211.263	8907.56
211.337	8923.44
211.411	8959.93
211.485	8942.4
211.559	8971.95
211.633	8976.95
211.707	8890.65
211.781	8906.26
211.855	8806.62
211.929	8781.03
212.003	8726.2
212.077	8752.68
212.151	8783.01
212.225	8809.39
212.299	8776.06
212.373	8739.1
212.447	8724.12
212.52	8807.05
212.594	8818.51
212.668	8850.32
212.742	8810.61
212.816	8794.53
212.89	8776.78
212.964	8769.79
213.038	8778.8
213.112	8812.55
213.186	8849.5
213.26	8784.43
213.333	8655.08
213.407	8671.29
213.481	8679.8
213.555	8709.08
213.629	8673.99
213.703	8628.16
213.777	8618.44
213.85	8553.32
213.924	8646.38
213.998	8640.31
214.072	8615.56
214.146	8564.74
214.219	8551.45
214.293	8539.38
214.367	8536.06
214.441	8555.26
214.515	8510.01
214.588	8435.77
214.662	8329.29
214.736	8264.88
214.81	8284.11
214.883	8301.08
214.957	8260.3
215.031	8212.41
215.105	8137.64
215.178	8083.57
215.252	8051.35
215.326	7978.28
215.4	7911.95
215.473	7763.93
215.547	7694.47
215.621	7641.54
215.694	7646.83
215.768	7570.37
215.842	7512.11
215.915	7453.47
215.989	7365.23
216.063	7325.7
216.136	7312.48
216.21	7297.49
216.284	7306.96
216.357	7280.9
216.431	7250.29
216.504	7246.92
216.578	7298.41
216.652	7310.03
216.725	7294.22
216.799	7300.52
216.873	7273.42
216.946	7281.73
217.02	7248.31
217.093	7225.43
217.167	7141.34
217.24	7065.64
217.314	7031.06
217.387	6993.61
217.461	6951.86
217.535	6970.26
217.608	6913.63
217.682	6889.5
217.755	6896.81
217.829	6850.14
217.902	6838.85
217.976	6815.99
218.049	6779.96
218.123	6710.75
218.196	6706.86
218.27	6674.68
218.343	6613.02
218.417	6617.25
218.49	6596.22
218.563	6632.62
218.637	6640.98
218.71	6702.71
218.784	6731.77
218.857	6759.86
218.931	6783.33
219.004	6792.46
219.077	6806.54
219.151	6826.18
219.224	6818.78
219.298	6816.66
219.371	6851.36
219.444	6815.54
219.518	6827.93
219.591	6839.36
219.665	6926.76
219.738	6938.19
219.811	6927.53
219.885	6966.49
219.958	6993.69
220.031	6999.16
220.105	7014.88
220.178	7021.46
220.251	7005.12
220.325	7020.79
220.398	7035.59
220.471	7047.84
220.544	7076.18
220.618	7052.87
220.691	7076.03
220.764	7088.76
220.838	7106.25
220.911	7090.39
220.984	7164.13
221.057	7194.93
221.131	7216.79
221.204	7140.15
221.277	7201.77
221.35	7304.2
221.424	7299.39
221.497	7305.49
221.57	7330.37
221.643	7357.54
221.716	7386.39
221.79	7388.74
221.863	7395.86
221.936	7404.75
222.009	7420.03
222.082	7448.4
222.155	7462.09
222.229	7517.58
222.302	7549.36
222.375	7560.89
222.448	7598.82
222.521	7605.46
222.594	7603.73
222.667	7582.54
222.74	7629.31
222.814	7625.22
222.887	7612.71
222.96	7657.48
223.033	7694.56
223.106	7713.59
223.179	7735.43
223.252	7748.71
223.325	7774.57
223.398	7793.81
223.471	7814.68
223.544	7833.04
223.617	7841.99
223.69	7863.62
223.763	7828.12
223.837	7841.4
223.91	7863.95
223.983	7822.18
224.056	7795.93
224.129	7816.27
224.202	7857.64
224.275	7845.48
224.348	7817.92
224.42	7791.14
224.493	7743.29
224.566	7722.61
224.639	7740.25
224.712	7718.22
224.785	7706.96
224.858	7698.89
224.931	7674.65
225.004	7637.54
225.077	7636
225.15	7567.74
225.223	7562.36
225.296	7637.95
225.369	7592.52
225.442	7565.25
225.514	7578.46
225.587	7590.19
225.66	7595.87
225.733	7600.34
225.806	7607.84
225.879	7605.29
225.952	7573.67
226.025	7611.07
226.097	7651.49
226.17	7641.53
226.243	7582.51
226.316	7585.3
226.389	7584.82
226.461	7606.75
226.534	7633.14
226.607	7625.11
226.68	7687.84
226.753	7683.85
226.825	7607.1
226.898	7653.93
226.971	7656.47
227.044	7677.67
227.117	7685.27
227.189	7702.11
227.262	7728.32
227.335	7741.31
227.407	7739.14
227.48	7770.82
227.553	7779.19
227.626	7767.3
227.698	7769.85
227.771	7811.66
227.844	7788.81
227.916	7810.6
227.989	7776.99
228.062	7770.88
228.134	7848.09
228.207	7848.43
228.28	7843.24
228.352	7859.78
228.425	7870.65
228.498	7906.96
228.57	7890.42
228.643	7940.12
228.716	7942.81
228.788	7934.59
228.861	7930.4
228.934	7981.67
229.006	7988.11
229.079	7992.83
229.151	7978.15
229.224	7952.05
229.296	7967.97
229.369	8059.39
229.442	8104.82
229.514	8097.03
229.587	8133.77
229.659	8067.38
229.732	8080.85
229.804	8115.52
229.877	8178.42
229.949	8200.51
230.022	8247.73
230.094	8251.29
230.167	8241.32
230.239	8200.88
230.312	8183.66
230.384	8243.48
230.457	8235.73
230.529	8246.6
230.602	8242.46
230.674	8256.99
230.747	8290.98
230.819	8318.16
230.892	8211.84
230.964	8201.01
231.037	8227.26
231.109	8227.16
231.181	8257.51
231.254	8226.53
231.326	8211.72
231.399	8193.18
231.471	8169.75
231.544	8099.44
231.616	8133.15
231.688	8140.66
231.761	8126.81
231.833	8128.59
231.905	8055.45
231.978	8063.01
232.05	8045.07
232.122	8054.26
232.195	8036.89
232.267	8067.15
232.339	8053.53
232.412	8117.49
232.484	8095.79
232.556	8068.1
232.629	8122.87
232.701	8137.07
232.773	8148.13
232.846	8143.08
232.918	8146.25
232.99	8163.14
233.062	8199.18
233.135	8205.82
233.207	8174.54
233.279	8215.7
233.351	8239.7
233.424	8246.14
233.496	8221.9
233.568	8296.24
233.64	8265.45
233.713	8275.94
233.785	8277.39
233.857	8283.93
233.929	8240.06
234.001	8300.33
234.074	8361.21
234.146	8302.98
234.218	8302.83
234.29	8300.38
234.362	8289.85
234.434	8253.08
234.507	8230.08
234.579	8184.34
234.651	8172.41
234.723	8197.47
234.795	8216.23
234.867	8211.42
234.939	8259.25
235.012	8278.34
235.084	8273.72
235.156	8306.87
235.228	8287.48
235.3	8272.56
235.372	8281.71
235.444	8333.27
235.516	8268.53
235.588	8269.01
235.66	8284.5
235.732	8261.6
235.804	8419.3
235.876	8462.11
235.948	8515.97
236.02	8522.94
236.092	8542.28
236.164	8556.28
236.236	8560.03
236.308	8557.1
236.38	8577.83
236.452	8563.93
236.524	8574.9
236.596	8634.67
236.668	8661.33
236.74	8684.47
236.812	8705.74
236.884	8737.84
236.956	8748.87
237.028	8741.89
237.1	8729.28
237.172	8781.32
237.244	8850.97
237.316	8755.58
237.388	8738.7
237.46	8715.16
237.532	8768.58
237.604	8756.08
237.675	8816.54
237.747	8848.89
237.819	8840.52
237.891	8845.38
237.963	8836.33
238.035	8832.82
238.107	8740.56
238.178	8791.9
238.25	8800.51
238.322	8877.37
238.394	8845.84
238.466	8839.53
238.538	8872.68
238.609	8909.98
238.681	8878.16
238.753	8856.49
238.825	8872.67
238.897	8902.98
238.968	8972.71
239.04	8951.1
239.112	9051.89
239.184	9018.57
239.255	9014.86
239.327	9050.96
239.399	9073
239.471	9115.07
239.542	9149.77
239.614	9207.21
239.686	9141.38
239.758	9177.01
239.829	9150.95
239.901	9198.37
239.973	9215.07
240.044	9245.88
240.116	9254.98
240.188	9259.31
240.259	9274.43
240.331	9270.87
240.403	9300.57
240.474	9261.03
240.546	9251.84
240.618	9203.87
240.689	9204.64
240.761	9227.61
240.833	9276.73
240.904	9274.9
240.976	9277.89
241.048	9291.71
241.119	9321.57
241.191	9361.96
241.262	9424.59
241.334	9432.53
241.405	9437.78
241.477	9437.73
241.549	9444.96
241.62	9468.31
241.692	9505.29
241.763	9555.77
241.835	9568.82
241.906	9588.28
241.978	9565.31
242.049	9621.89
242.121	9669.51
242.192	9725.43
242.264	9697.26
242.335	9653.1
242.407	9693.26
242.478	9690.42
242.55	9703.52
242.621	9692.92
242.693	9696.15
242.764	9686.8
242.836	9687.04
242.907	9713.29
242.979	9740.21
243.05	9757.36
243.122	9775.66
243.193	9780.48
243.264	9723.06
243.336	9733.18
243.407	9755
243.479	9818.48
243.55	9835.67
243.622	9848.53
243.693	9848.92
243.764	9902.57
243.836	9891.4
243.907	9881.67
243.978	9896.5
244.05	9924.49
244.121	9880.91
244.192	9908.03
244.264	9867.9
244.335	9879.85
244.407	9838.67
244.478	9860.77
244.549	9854.03
244.62	9822.77
244.692	9816.61
244.763	9853.55
244.834	9843.77
244.906	9828.88
244.977	9851.09
245.048	9898.03
245.119	9882.37
245.191	9868.26
245.262	9822.65
245.333	9885.88
245.405	9899.65
245.476	9925.13
245.547	9943.15
245.618	9992.32
245.689	10006.44
245.761	10038.37
245.832	10041.99
245.903	10088.42
245.974	10105.14
246.045	10116.36
246.117	10185.59
246.188	10175.86
246.259	10164.3
246.33	10183.52
246.401	10194.35
246.473	10162.94
246.544	10152.63
246.615	10203.41
246.686	10207.55
246.757	10270.36
246.828	10252.88
246.899	10317.49
246.97	10288.69
247.042	10271.68
247.113	10309.02
247.184	10385.31
247.255	10386.47
247.326	10409.4
247.397	10406.08
247.468	10415.96
247.539	10432.63
247.61	10397.26
247.681	10436.57
247.752	10484.64
247.823	10463.02
247.894	10474.96
247.965	10453.39
248.037	10440.95
248.108	10399.66
248.179	10404.38
248.25	10398.02
248.321	10422.49
248.392	10385.1
248.463	10458.08
248.534	10459.72
248.605	10473.89
248.675	10452.58
248.746	10467.28
248.817	10483.23
248.888	10504.62
248.959	10471.04
249.03	10490.89
249.101	10491.81
249.172	10479.86
249.243	10416.71
249.314	10473.75
249.385	10483.67
249.456	10510.94
249.527	10506.51
249.598	10523.99
249.669	10522.74
249.739	10535.32
249.81	10542.98
249.881	10507.33
249.952	10497.83
250.023	10498.07
250.094	10458.99
250.165	10426.95
250.235	10424.2
250.306	10424.54
250.377	10403.34
250.448	10424.15
250.519	10370.58
250.59	10421.8
250.66	10420.26
250.731	10476.66
250.802	10478.59
250.873	10495.07
250.944	10517.76
251.014	10511.69
251.085	10588.99
251.156	10615.54
251.227	10655.44
251.297	10706.38
251.368	10751.57
251.439	10785.06
251.51	10831.47
251.58	10818.03
251.651	10818.65
251.722	10861.35
251.792	10828.78
251.863	10830.51
251.934	10875.95
252.005	10976.51
252.075	10989.04
252.146	11032.79
252.217	11077.99
252.287	11111.83
252.358	11114.62
252.429	11179.3
252.499	11170.24
252.57	11174.77
252.641	11212.55
252.711	11211.97
252.782	11173.28
252.852	11236.27
252.923	11236.85
252.994	11249.52
253.064	11297.18
253.135	11281.66
253.205	11266.04
253.276	11325.08
253.347	11376.73
253.417	11352.06
253.488	11332.25
253.558	11321.55
253.629	11322.95
253.699	11331.24
253.77	11354.28
253.841	11348.3
253.911	11358.95
253.982	11380.93
254.052	11407.25
254.123	11412.98
254.193	11425.61
254.264	11540.9
254.334	11516.8
254.405	11488.03
254.475	11459.84
254.546	11461.81
254.616	11515.21
254.687	11540.03
254.757	11556.9
254.827	11555.07
254.898	11585.57
254.968	11596.03
255.039	11582.06
255.109	11612.61
255.18	11590.54
255.25	11527.93
255.321	11561.67
255.391	11521.61
255.461	11592.46
255.532	11525.22
255.602	11519.53
255.673	11470.14
255.743	11440.59
255.813	11375.29
255.884	11421.6
255.954	11453.08
256.024	11510.77
256.095	11512.55
256.165	11483.4
256.235	11499.21
256.306	11488.27
256.376	11525.53
256.446	11559.17
256.517	11586.54
256.587	11619.99
256.657	11637.44
256.728	11658.36
256.798	11661.01
256.868	11661.15
256.938	11639.08
257.009	11679.71
257.079	11703.81
257.149	11790.51
257.219	11747.76
257.29	11781.2
257.36	11731.41
257.43	11763.42
257.5	11705.29
257.571	11701.44
257.641	11732.71
257.711	11707.46
257.781	11736.18
257.852	11752.33
257.922	11697.09
257.992	11695.12
258.062	11692.03
258.132	11729.82
258.202	11739.94
258.273	11752.09
258.343	11814.56
258.413	11791.95
258.483	11795.95
258.553	11786.65
258.623	11765.78
258.693	11786.02
258.764	11841.69
258.834	11903.72
258.904	11916.4
258.974	11907.72
259.044	11913.17
259.114	11937.9
259.184	11961.66
259.254	11969.32
259.324	11920.4
259.394	11965.08
259.464	12034.83
259.535	12039.65
259.605	12033.43
259.675	12015.36
259.745	12039.7
259.815	12013.67
259.885	12020.56
259.955	12112.83
260.025	12095.62
260.095	12104.73
260.165	12127.15
260.235	12182.87
260.305	12169.95
260.375	12148.94
260.445	12226.39
260.515	12279.17
260.585	12320.97
260.655	12328.97
260.725	12365.89
260.795	12400.21
260.865	12455.5
260.934	12422.24
261.004	12445.91
261.074	12455.74
261.144	12512.91
261.214	12547.28
261.284	12551.57
261.354	12585.74
261.424	12547.03
261.494	12602.9
261.564	12606.51
261.634	12629.46
261.703	12567.8
261.773	12593.4
261.843	12614.13
261.913	12607.33
261.983	12563.22
262.053	12572.04
262.123	12571.37
262.192	12539.55
262.262	12575.52
262.332	12539.55
262.402	12575.85
262.472	12585.83
262.541	12530.88
262.611	12572.48
262.681	12553.83
262.751	12590.03
262.821	12603.43
262.89	12576.77
262.96	12604.2
263.03	12666.97
263.1	12687.55
263.169	12710.3
263.239	12735.8
263.309	12794.71
263.379	12820.07
263.448	12844.94
263.518	12873.33
263.588	12889.77
263.657	12951.14
263.727	12980.06
