Data from 20250626_urea_1M_exp2_MAYP1162681_11-33-58-269.txt Node
Date: Fri Jun 27 11:33:58 BST 2025
User: adleo
Spectrometer: MAYP116268
Trigger mode: 0
Integration Time (sec): 3.000000E0
Scans to average: 1
Electric dark correction enabled: true
Nonlinearity correction enabled: true
Boxcar width: 10
XAxis mode: Wavelengths
Number of Pixels in Spectrum: 2068
>>>>>Begin Spectral Data<<<<<
179.565	3137.56
179.642	3303.63
179.718	3430.92
179.795	3551.95
179.871	3648.53
179.948	3705.45
180.024	3767.56
180.101	3836.18
180.177	3875.98
180.254	3940.77
180.33	4006.66
180.407	4226.41
180.483	4469.84
180.56	4720.24
180.636	4946.95
180.712	4918.97
180.789	4942.53
180.865	4975.41
180.942	4999.73
181.018	5032.44
181.095	5073.61
181.171	5086.64
181.248	5091.19
181.324	5134.51
181.4	5150.81
181.477	5177.64
181.553	5208.14
181.63	5262.05
181.706	5302.89
181.782	5328.98
181.859	5330.32
181.935	5345.28
182.011	5338.76
182.088	5387.12
182.164	5438.88
182.24	5477.3
182.317	5498.81
182.393	5495.07
182.469	5535.72
182.546	5574.02
182.622	5586.14
182.698	5578.33
182.775	5615.39
182.851	5652.54
182.927	5629.34
183.003	5613.62
183.08	5600.82
183.156	5628.82
183.232	5624.79
183.308	5595.74
183.385	5617.4
183.461	5664.73
183.537	5667.36
183.613	5704.96
183.69	5674.8
183.766	5646.35
183.842	5665.63
183.918	5683.42
183.995	5711.65
184.071	5717.41
184.147	5700.48
184.223	5666.61
184.299	5690.21
184.375	5658.08
184.452	5676.56
184.528	5787.27
184.604	5822.17
184.68	5854.82
184.756	5877.28
184.832	5888.31
184.908	5902.59
184.985	5902.93
185.061	5859.24
185.137	5879.87
185.213	5841.55
185.289	5849.94
185.365	5828.99
185.441	5824
185.517	5862.83
185.593	5859.62
185.669	5851.61
185.745	5883.31
185.822	5930.57
185.898	5917.28
185.974	5945.56
186.05	5918.26
186.126	5854.65
186.202	5831.15
186.278	5816.33
186.354	5785.73
186.43	5802.14
186.506	5795.62
186.582	5789.82
186.658	5806.55
186.734	5754.34
186.81	5762.01
186.886	5769.01
186.962	5797.68
187.038	5785.98
187.114	5763.94
187.19	5785.44
187.266	5763.77
187.341	5765.06
187.417	5744.54
187.493	5739.6
187.569	5743.92
187.645	5731.59
187.721	5694.22
187.797	5722.8
187.873	5733.64
187.949	5715.38
188.025	5701.03
188.101	5709.18
188.176	5723.99
188.252	5710.57
188.328	5734.91
188.404	5734.72
188.48	5720.24
188.556	5697.23
188.632	5701.25
188.707	5698.13
188.783	5690.98
188.859	5676.23
188.935	5643.56
189.011	5667.92
189.086	5649.03
189.162	5624.48
189.238	5621.27
189.314	5619.21
189.39	5596.77
189.465	5580.56
189.541	5629.42
189.617	5586.32
189.693	5571.51
189.768	5584.75
189.844	5653.7
189.92	5627.39
189.996	5654.63
190.071	5686.57
190.147	5689.4
190.223	5715.97
190.298	5694.63
190.374	5655.79
190.45	5689
190.526	5713.27
190.601	5697.88
190.677	5702.43
190.753	5789.98
190.828	5800.48
190.904	5839.34
190.98	5884.58
191.055	5914.27
191.131	5892.3
191.207	5946.92
191.282	5978.42
191.358	5953
191.433	5913.2
191.509	5950.39
191.585	5938.59
191.66	5940.32
191.736	5967.32
191.811	5940.94
191.887	5983.26
191.963	6047.73
192.038	6057.23
192.114	6058.09
192.189	6065.28
192.265	6058.57
192.34	5989.82
192.416	5985.21
192.491	5971.53
192.567	5978.3
192.642	5980.7
192.718	5979.98
192.793	5947.17
192.869	5929.95
192.944	5932.88
193.02	5954.86
193.095	5966.32
193.171	5982.25
193.246	5978.6
193.322	5970.02
193.397	5966.95
193.473	5932.3
193.548	5886.85
193.624	5908.93
193.699	5903.12
193.775	5949.34
193.85	5954.33
193.925	5978.56
194.001	5971.32
194.076	5954.34
194.152	5922.47
194.227	5905.73
194.302	5884.01
194.378	5894.37
194.453	5885.02
194.529	5918.07
194.604	5873.6
194.679	5857.87
194.755	5806.47
194.83	5845.07
194.905	5839.27
194.981	5866.18
195.056	5849.25
195.131	5864.98
195.207	5855.33
195.282	5825.51
195.357	5776.46
195.433	5821.6
195.508	5787.63
195.583	5814.29
195.659	5852.49
195.734	5877.73
195.809	5878.55
195.884	5901.08
195.96	5902.14
196.035	5948.57
196.11	5944.87
196.185	5979.93
196.261	5987.13
196.336	6069.35
196.411	6025.91
196.486	6041.02
196.561	6019.52
196.637	6042.54
196.712	6083.73
196.787	6096.69
196.862	6143.6
196.937	6165.95
197.013	6181.22
197.088	6205.59
197.163	6263.6
197.238	6309.24
197.313	6299.3
197.388	6339
197.464	6419.43
197.539	6455.86
197.614	6435.23
197.689	6459.47
197.764	6504.33
197.839	6558.14
197.914	6548.44
197.989	6614.41
198.065	6649.99
198.14	6793.19
198.215	6861.82
198.29	6895.89
198.365	6930.91
198.44	6965.2
198.515	7040.05
198.59	7079.69
198.665	7152.47
198.74	7173.28
198.815	7178.81
198.89	7245.25
198.965	7322.7
199.04	7311.89
199.115	7351.96
199.19	7472.04
199.265	7486.26
199.34	7513.47
199.415	7605.52
199.49	7656.7
199.565	7678.52
199.64	7746.74
199.715	7737.84
199.79	7759.14
199.865	7777.03
199.94	7774.58
200.015	7863.12
200.09	7880.53
200.165	7897.75
200.24	7916.84
200.315	8019.26
200.39	8059.47
200.464	8077.31
200.539	8079.14
200.614	8124.34
200.689	8182.45
200.764	8201.27
200.839	8249.63
200.914	8263.39
200.989	8238.55
201.063	8284.06
201.138	8245.27
201.213	8242
201.288	8189.67
201.363	8200.83
201.438	8200.44
201.512	8241.41
201.587	8188.19
201.662	8197.29
201.737	8228.07
201.812	8255.5
201.886	8173.04
201.961	8199.32
202.036	8165.47
202.111	8157.63
202.186	8071.79
202.26	8025.94
202.335	7960.42
202.41	7937.67
202.485	7894.64
202.559	7840.35
202.634	7762.54
202.709	7782.15
202.784	7727.58
202.858	7727.67
202.933	7676.42
203.008	7660.27
203.082	7608.83
203.157	7610.7
203.232	7492.03
203.306	7431.39
203.381	7335.37
203.456	7267.84
203.53	7200.29
203.605	7144.19
203.68	7083.52
203.754	7072.77
203.829	7029.42
203.904	6976.96
203.978	6947.21
204.053	6956.15
204.127	6916.66
204.202	6911.43
204.277	6855.14
204.351	6837.22
204.426	6815.59
204.5	6797.39
204.575	6697.28
204.65	6722.13
204.724	6691.65
204.799	6716.65
204.873	6706.51
204.948	6704.59
205.022	6673.73
205.097	6650.41
205.171	6688.59
205.246	6706.8
205.32	6702.86
205.395	6703.63
205.469	6681.56
205.544	6701.6
205.618	6650.06
205.693	6683.11
205.767	6645.18
205.842	6710.36
205.916	6689.52
205.991	6662.34
206.065	6676.31
206.14	6717.66
206.214	6700.89
206.289	6680.38
206.363	6711.54
206.438	6719.76
206.512	6743.83
206.586	6796.65
206.661	6826.74
206.735	6768.75
206.81	6771.78
206.884	6809.86
206.958	6771.98
207.033	6815.95
207.107	6826.52
207.181	6912.34
207.256	6896.68
207.33	6954.93
207.405	6988.17
207.479	7051.48
207.553	7073.81
207.628	7030.12
207.702	7062.3
207.776	7045.1
207.851	7059.61
207.925	7104.12
207.999	7094.95
208.073	7086.54
208.148	7093.07
208.222	7053.33
208.296	7140.19
208.371	7185.4
208.445	7216.4
208.519	7301
208.593	7334.01
208.668	7325.64
208.742	7337.82
208.816	7341.9
208.89	7377
208.965	7371.9
209.039	7396.14
209.113	7439.35
209.187	7503.37
209.261	7491.79
209.336	7544.27
209.41	7599.47
209.484	7603.94
209.558	7670.1
209.632	7705.81
209.707	7733.8
209.781	7796.44
209.855	7841.6
209.929	7883.09
210.003	7899.73
210.077	7898.15
210.151	8031.86
210.226	8132.81
210.3	8205.75
210.374	8275.12
210.448	8288.93
210.522	8321.6
210.596	8343.64
210.67	8365.09
210.744	8492.05
210.818	8589.52
210.892	8651.17
210.966	8635.1
211.041	8671.72
211.115	8663.88
211.189	8728.3
211.263	8777.09
211.337	8792.54
211.411	8828.64
211.485	8818.91
211.559	8852.5
211.633	8855.86
211.707	8764.37
211.781	8780.89
211.855	8683.38
211.929	8657.17
212.003	8607.34
212.077	8634.06
212.151	8671.61
212.225	8704.15
212.299	8669.18
212.373	8634.87
212.447	8620.57
212.52	8696.81
212.594	8703.5
212.668	8729.1
212.742	8688.53
212.816	8667.88
212.89	8653.3
212.964	8650.94
213.038	8655.28
213.112	8687.62
213.186	8731.07
213.26	8672.26
213.333	8539.6
213.407	8554.61
213.481	8560.47
213.555	8589.18
213.629	8543.35
213.703	8485.07
213.777	8475.01
213.85	8415.47
213.924	8499.38
213.998	8497.02
214.072	8473.38
214.146	8433
214.219	8418.23
214.293	8407.07
214.367	8408.71
214.441	8428.58
214.515	8381.99
214.588	8311.16
214.662	8207.45
214.736	8137.36
214.81	8154.52
214.883	8174.13
214.957	8132.16
215.031	8084.91
215.105	8009.66
215.178	7964.6
215.252	7935.65
215.326	7855.52
215.4	7785.4
215.473	7638.52
215.547	7566.76
215.621	7510.6
215.694	7510.75
215.768	7432.57
215.842	7377.97
215.915	7321.22
215.989	7228.28
216.063	7185.72
216.136	7166.2
216.21	7147.08
216.284	7159.78
216.357	7135.79
216.431	7101
216.504	7095.19
216.578	7144.55
216.652	7150.75
216.725	7134.21
216.799	7142.68
216.873	7120.92
216.946	7130.43
217.02	7099.94
217.093	7079.85
217.167	7002.22
217.24	6930.31
217.314	6900.79
217.387	6866.89
217.461	6832.02
217.535	6854.35
217.608	6803.92
217.682	6782.92
217.755	6796.04
217.829	6748.81
217.902	6737.52
217.976	6723.49
218.049	6687.24
218.123	6623.99
218.196	6631.53
218.27	6598.24
218.343	6539.34
218.417	6545.87
218.49	6526.42
218.563	6564.11
218.637	6570.26
218.71	6634.29
218.784	6660.42
218.857	6690.91
218.931	6705.98
219.004	6708.57
219.077	6718.47
219.151	6731.68
219.224	6724.38
219.298	6717.46
219.371	6754.93
219.444	6721.23
219.518	6728.53
219.591	6744.9
219.665	6828.21
219.738	6830.66
219.811	6823.79
219.885	6857.08
219.958	6881.82
220.031	6885.47
220.105	6901.52
220.178	6909.5
220.251	6882.2
220.325	6899.98
220.398	6910.65
220.471	6928.22
220.544	6960.94
220.618	6942.87
220.691	6966.46
220.764	6985.57
220.838	7006.38
220.911	6989.03
220.984	7058.29
221.057	7092.4
221.131	7113.54
221.204	7037.15
221.277	7097.22
221.35	7192.76
221.424	7188.48
221.497	7197.62
221.57	7218.27
221.643	7244.52
221.716	7274.66
221.79	7279.42
221.863	7286.58
221.936	7296.29
222.009	7307.91
222.082	7329.02
222.155	7339.49
222.229	7394.3
222.302	7417.71
222.375	7425.21
222.448	7461.5
222.521	7467.12
222.594	7465.49
222.667	7440.51
222.74	7488.47
222.814	7483.86
222.887	7471.78
222.96	7510.09
223.033	7546.36
223.106	7567.98
223.179	7592.22
223.252	7604.87
223.325	7633.52
223.398	7646.31
223.471	7669.1
223.544	7682.55
223.617	7697.51
223.69	7719.29
223.763	7685.48
223.837	7705.72
223.91	7729.38
223.983	7688.86
224.056	7660.55
224.129	7672.37
224.202	7715.95
224.275	7707.11
224.348	7684.89
224.42	7654.99
224.493	7614.37
224.566	7594.69
224.639	7610.41
224.712	7580.01
224.785	7560.63
224.858	7551.59
224.931	7533.85
225.004	7497.42
225.077	7504
225.15	7421.97
225.223	7416.78
225.296	7487.16
225.369	7432.37
225.442	7401.69
225.514	7415.48
225.587	7431.05
225.66	7441.97
225.733	7441.34
225.806	7442.11
225.879	7432.45
225.952	7404.1
226.025	7446.55
226.097	7488.21
226.17	7476.87
226.243	7428.95
226.316	7429.2
226.389	7434.63
226.461	7450.88
226.534	7471.69
226.607	7461.26
226.68	7535.35
226.753	7529.63
226.825	7457.95
226.898	7506.25
226.971	7513.51
227.044	7534.9
227.117	7538.27
227.189	7551.64
227.262	7580.54
227.335	7599.97
227.407	7598.91
227.48	7632.55
227.553	7637.74
227.626	7614.55
227.698	7626.67
227.771	7657.99
227.844	7649.96
227.916	7662.95
227.989	7633.81
228.062	7631.41
228.134	7697.34
228.207	7693.83
228.28	7686.96
228.352	7704.7
228.425	7709.27
228.498	7748.08
228.57	7727.94
228.643	7776.9
228.716	7776.76
228.788	7766.8
228.861	7763.63
228.934	7808.82
229.006	7813.43
229.079	7812.33
229.151	7803.72
229.224	7769.3
229.296	7796.57
229.369	7877.93
229.442	7923.25
229.514	7913.64
229.587	7951.39
229.659	7888.43
229.732	7895.6
229.804	7924.15
229.877	7986.71
229.949	8014.9
230.022	8056.39
230.094	8060.96
230.167	8054.56
230.239	8021.28
230.312	8011.9
230.384	8063.82
230.457	8066.81
230.529	8070.89
230.602	8067.91
230.674	8078.4
230.747	8117.48
230.819	8136.53
230.892	8038.01
230.964	8031.03
231.037	8054.29
231.109	8043.42
231.181	8085.21
231.254	8066.26
231.326	8062.99
231.399	8034.73
231.471	8011.26
231.544	7941.1
231.616	7973.22
231.688	7975.1
231.761	7961.5
231.833	7952.8
231.905	7880.68
231.978	7873.03
232.05	7858.08
232.122	7869.14
232.195	7847.11
232.267	7872.85
232.339	7853.46
232.412	7902.94
232.484	7877.92
232.556	7853.55
232.629	7911.78
232.701	7920.63
232.773	7921.45
232.846	7910.39
232.918	7920.3
232.99	7933.82
233.062	7970.71
233.135	7977.73
233.207	7950.56
233.279	7993.44
233.351	8023.06
233.424	8026.72
233.496	8007.53
233.568	8085.03
233.64	8054.78
233.713	8066.95
233.785	8063.67
233.857	8077.29
233.929	8034.54
234.001	8094.51
234.074	8149.85
234.146	8083.06
234.218	8081.28
234.29	8086.72
234.362	8076.96
234.434	8032.69
234.507	8006.86
234.579	7963.58
234.651	7951.84
234.723	7976.52
234.795	7989.51
234.867	7980.75
234.939	8025.53
235.012	8044.05
235.084	8040.44
235.156	8069.72
235.228	8058.95
235.3	8043.12
235.372	8049.43
235.444	8106.27
235.516	8038.61
235.588	8043.13
235.66	8060.88
235.732	8037.55
235.804	8194.12
235.876	8228.36
235.948	8285.24
236.02	8293.32
236.092	8307.55
236.164	8319.43
236.236	8319.81
236.308	8315.1
236.38	8341.75
236.452	8337.13
236.524	8353.63
236.596	8411.18
236.668	8435.77
236.74	8454.82
236.812	8484.5
236.884	8513.28
236.956	8516.74
237.028	8511.69
237.1	8492.6
237.172	8550.69
237.244	8616.04
237.316	8521.48
237.388	8512.01
237.46	8487.55
237.532	8541.79
237.604	8531.98
237.675	8583.91
237.747	8617.12
237.819	8609.76
237.891	8606.87
237.963	8592.24
238.035	8585.8
238.107	8489.51
238.178	8549.89
238.25	8550.71
238.322	8619.42
238.394	8584.86
238.466	8582.65
238.538	8617.58
238.609	8654.77
238.681	8612.89
238.753	8590.51
238.825	8610.39
238.897	8634.4
238.968	8704.64
239.04	8688.42
239.112	8782.07
239.184	8756.99
239.255	8754.97
239.327	8779.26
239.399	8799.24
239.471	8839.13
239.542	8875.08
239.614	8934.42
239.686	8861.48
239.758	8910.38
239.829	8877.92
239.901	8927.59
239.973	8945.55
240.044	8971.35
240.116	8978.95
240.188	8988.72
240.259	9002.63
240.331	8988.62
240.403	9017.79
240.474	8980.37
240.546	8967.86
240.618	8913.79
240.689	8913.75
240.761	8929.73
240.833	8989.19
240.904	8987.36
240.976	8988.61
241.048	8999.59
241.119	9030.12
241.191	9067.04
241.262	9120.36
241.334	9131.34
241.405	9141.55
241.477	9141.59
241.549	9151.75
241.62	9176.93
241.692	9212.99
241.763	9256.48
241.835	9271.89
241.906	9284.07
241.978	9260.19
242.049	9317.38
242.121	9373.42
242.192	9426.67
242.264	9397.69
242.335	9355.08
242.407	9396.39
242.478	9399.66
242.55	9416.37
242.621	9398.31
242.693	9396.14
242.764	9386.51
242.836	9384.77
242.907	9403.46
242.979	9430.09
243.05	9445.98
243.122	9467.94
243.193	9469.82
243.264	9416.46
243.336	9423.59
243.407	9452.34
243.479	9511.33
243.55	9523.85
243.622	9528.38
243.693	9520.86
243.764	9582.26
243.836	9561.61
243.907	9547.74
243.978	9550.29
244.05	9568.55
244.121	9533.4
244.192	9571.25
244.264	9526.17
244.335	9534.02
244.407	9499.15
244.478	9505.9
244.549	9496.26
244.62	9455.09
244.692	9454.08
244.763	9487.06
244.834	9472.52
244.906	9452.39
244.977	9471.56
245.048	9515.59
245.119	9508.61
245.191	9493.1
245.262	9437.87
245.333	9500.51
245.405	9519.53
245.476	9548.66
245.547	9566
245.618	9608.62
245.689	9612.09
245.761	9640.88
245.832	9644.16
245.903	9679.02
245.974	9705.42
246.045	9723.1
246.117	9794.28
246.188	9777.04
246.259	9763.32
246.33	9778.83
246.401	9790.91
246.473	9764.56
246.544	9756.66
246.615	9796.35
246.686	9805.02
246.757	9873.89
246.828	9860.35
246.899	9920.58
246.97	9887.69
247.042	9872.23
247.113	9907.54
247.184	9982.85
247.255	9982.52
247.326	10006.36
247.397	10008.57
247.468	10017.54
247.539	10022.83
247.61	9981.89
247.681	10021.42
247.752	10067.37
247.823	10047.34
247.894	10062.9
247.965	10037.42
248.037	10021.23
248.108	9981.69
248.179	9986.16
248.25	9970.07
248.321	9990.3
248.392	9945.73
248.463	10020.63
248.534	10024.24
248.605	10038.17
248.675	10016.96
248.746	10031.7
248.817	10046.73
248.888	10058.87
248.959	10012.58
249.03	10033.93
249.101	10038.69
249.172	10027.04
249.243	9970.55
249.314	10031.57
249.385	10039.62
249.456	10068.61
249.527	10062.06
249.598	10078.63
249.669	10077.23
249.739	10085.76
249.81	10097.51
249.881	10066.2
249.952	10055.27
250.023	10058.11
250.094	10013.83
250.165	9979.19
250.235	9975.86
250.306	9982.51
250.377	9967
250.448	9995.99
250.519	9945.37
250.59	9992.97
250.66	9994.41
250.731	10053.75
250.802	10043.29
250.873	10051.34
250.944	10066.75
251.014	10059
251.085	10130.69
251.156	10154.78
251.227	10202.33
251.297	10245.75
251.368	10290.06
251.439	10328.13
251.51	10368.26
251.58	10355.07
251.651	10360.7
251.722	10408.36
251.792	10366.35
251.863	10366.88
251.934	10415.44
252.005	10506.5
252.075	10519.12
252.146	10549.81
252.217	10592.3
252.287	10630.9
252.358	10637.12
252.429	10702.7
252.499	10697.45
252.57	10708.48
252.641	10741.78
252.711	10738.4
252.782	10699.04
252.852	10760.63
252.923	10751.66
252.994	10764.87
253.064	10812.56
253.135	10792.13
253.205	10770.06
253.276	10833.46
253.347	10880.34
253.417	10860.25
253.488	10846.71
253.558	10837.36
253.629	10840.06
253.699	10847.09
253.77	10871.57
253.841	10873.02
253.911	10878.32
253.982	10892.58
254.052	10919.91
254.123	10935.62
254.193	10938.13
254.264	11052.44
254.334	11021.98
254.405	10998.37
254.475	10968.54
254.546	10969.56
254.616	11022.75
254.687	11044.1
254.757	11055.42
254.827	11058.17
254.898	11073.93
254.968	11079.52
255.039	11065.78
255.109	11101.25
255.18	11076.86
255.25	11019.18
255.321	11042.94
255.391	11009.64
255.461	11089.15
255.532	11022.16
255.602	11011.31
255.673	10975.17
255.743	10938.78
255.813	10879.04
255.884	10921.78
255.954	10953.2
256.024	11011.51
256.095	11021.3
256.165	11000.29
256.235	11020.34
256.306	11004.77
256.376	11038.36
256.446	11068.44
256.517	11093.59
256.587	11129.88
256.657	11143.33
256.728	11164.96
256.798	11167.28
256.868	11162.94
256.938	11135.9
257.009	11178.17
257.079	11203.9
257.149	11282.21
257.219	11242.07
257.29	11278.97
257.36	11231.6
257.43	11266.11
257.5	11210.64
257.571	11194.64
257.641	11228.8
257.711	11202.15
257.781	11232.99
257.852	11254.01
257.922	11203.89
257.992	11209.38
258.062	11200.41
258.132	11241.38
258.202	11242.35
258.273	11253.91
258.343	11314.25
258.413	11294.3
258.483	11284.52
258.553	11261.48
258.623	11235.84
258.693	11251.36
258.764	11304.85
258.834	11356.61
258.904	11360.32
258.974	11340.37
259.044	11351.65
259.114	11372.71
259.184	11397.29
259.254	11408.9
259.324	11365.09
259.394	11405.04
259.464	11464.18
259.535	11472.33
259.605	11467.56
259.675	11461.2
259.745	11494.55
259.815	11474.4
259.885	11476.57
259.955	11578.81
260.025	11570.67
260.095	11579.68
260.165	11613.56
260.235	11661.91
260.305	11654.1
260.375	11628.36
260.445	11706.67
260.515	11757.48
260.585	11790.78
260.655	11800.76
260.725	11832.33
260.795	11863.56
260.865	11922.85
260.934	11897.74
261.004	11923.86
261.074	11925.21
261.144	11971.43
261.214	11996.83
261.284	11998.09
261.354	12037.94
261.424	11990.61
261.494	12051.72
261.564	12062.8
261.634	12079.96
261.703	12027.57
261.773	12047.71
261.843	12082.08
261.913	12082.03
261.983	12041.01
262.053	12062.99
262.123	12055.72
262.192	12024
262.262	12058.8
262.332	12014.6
262.402	12041.31
262.472	12047.76
262.541	11997.74
262.611	12039.29
262.681	12024.2
262.751	12057.36
262.821	12057.12
262.89	12036.01
262.96	12060.55
263.03	12124.27
263.1	12148.57
263.169	12166.79
263.239	12197.97
263.309	12252.06
263.379	12282.33
263.448	12301.9
263.518	12315.54
263.588	12325.47
263.657	12383.07
263.727	12411.75
263.797	12425.78
263.867	12428.53
263.936	12393.63
264.006	12447.42
