Data from 20250626_urea_1M_exp2_MAYP1162681_13-34-00-686.txt Node
Date: Fri Jun 27 13:34:00 BST 2025
User: adleo
Spectrometer: MAYP116268
Trigger mode: 0
Integration Time (sec): 3.000000E0
Scans to average: 1
Electric dark correction enabled: true
Nonlinearity correction enabled: true
Boxcar width: 10
XAxis mode: Wavelengths
Number of Pixels in Spectrum: 2068
>>>>>Begin Spectral Data<<<<<
179.565	3144.45
179.642	3307.54
179.718	3424.19
179.795	3545.3
179.871	3639.53
179.948	3699.3
180.024	3759.36
180.101	3824.37
180.177	3863.65
180.254	3927.31
180.33	3986.24
180.407	4206.71
180.483	4448.66
180.56	4692.16
180.636	4923.24
180.712	4889.79
180.789	4916.23
180.865	4945.95
180.942	4976.64
181.018	5001.35
181.095	5045.25
181.171	5053.06
181.248	5056.75
181.324	5102.46
181.4	5116.31
181.477	5142.81
181.553	5172.88
181.63	5227.55
181.706	5271.74
181.782	5301.28
181.859	5299.65
181.935	5324.39
182.011	5312.5
182.088	5358.32
182.164	5411.93
182.24	5447.19
182.317	5469.66
182.393	5461.42
182.469	5503.26
182.546	5533.99
182.622	5548.18
182.698	5531.97
182.775	5571.85
182.851	5605.89
182.927	5585.8
183.003	5575.02
183.08	5562.51
183.156	5588.78
183.232	5583.84
183.308	5553.02
183.385	5567.63
183.461	5616.68
183.537	5611.6
183.613	5647.32
183.69	5619.94
183.766	5591.11
183.842	5611.25
183.918	5629.38
183.995	5664.85
184.071	5675.3
184.147	5660.01
184.223	5630.49
184.299	5665.12
184.375	5627.49
184.452	5647.6
184.528	5757.97
184.604	5787.69
184.68	5818.04
184.756	5834.78
184.832	5846.87
184.908	5859.04
184.985	5860.1
185.061	5816.51
185.137	5843.18
185.213	5813.26
185.289	5822.12
185.365	5804.39
185.441	5795.99
185.517	5834.77
185.593	5825.51
185.669	5815.58
185.745	5844.31
185.822	5888.88
185.898	5862.93
185.974	5891.02
186.05	5868.32
186.126	5799.29
186.202	5776.09
186.278	5771.29
186.354	5751.43
186.43	5767.65
186.506	5762.28
186.582	5759.98
186.658	5777.95
186.734	5725.41
186.81	5727.04
186.886	5733.22
186.962	5766.45
187.038	5755.9
187.114	5734.4
187.19	5757.37
187.266	5732.01
187.341	5735.37
187.417	5713.6
187.493	5717.82
187.569	5728.76
187.645	5717.01
187.721	5686.07
187.797	5712.63
187.873	5718.53
187.949	5698.54
188.025	5679.78
188.101	5694.35
188.176	5707.82
188.252	5698.57
188.328	5717.07
188.404	5716.25
188.48	5701.58
188.556	5678.76
188.632	5679.14
188.707	5679.14
188.783	5667.72
188.859	5656.51
188.935	5626.29
189.011	5650.46
189.086	5628.65
189.162	5603.42
189.238	5594.99
189.314	5589.09
189.39	5572.16
189.465	5557.34
189.541	5604.15
189.617	5566.85
189.693	5543.37
189.768	5557.33
189.844	5621.62
189.92	5600.59
189.996	5629.84
190.071	5662.92
190.147	5660.91
190.223	5687.73
190.298	5666.43
190.374	5635.02
190.45	5670.59
190.526	5689.87
190.601	5672.12
190.677	5677.97
190.753	5756.4
190.828	5771.26
190.904	5815.77
190.98	5857.56
191.055	5883.65
191.131	5860.62
191.207	5913.85
191.282	5944.63
191.358	5915.71
191.433	5873.42
191.509	5912.15
191.585	5903.56
191.66	5904.23
191.736	5932.29
191.811	5903.84
191.887	5951.45
191.963	6013.66
192.038	6021.96
192.114	6030.02
192.189	6045.37
192.265	6037.46
192.34	5975.87
192.416	5970.21
192.491	5955.86
192.567	5966.9
192.642	5969.54
192.718	5966.95
192.793	5934.71
192.869	5923.11
192.944	5930.15
193.02	5954.34
193.095	5963.21
193.171	5979.28
193.246	5978.56
193.322	5963.84
193.397	5970.46
193.473	5926.16
193.548	5880.05
193.624	5897.37
193.699	5887.1
193.775	5924.83
193.85	5934.27
193.925	5956.87
194.001	5952.94
194.076	5935.43
194.152	5902.41
194.227	5882.5
194.302	5858.34
194.378	5868.22
194.453	5860.88
194.529	5899.89
194.604	5858.54
194.679	5845.39
194.755	5795.15
194.83	5830.14
194.905	5829.33
194.981	5850.87
195.056	5831.98
195.131	5850.87
195.207	5846.12
195.282	5821.33
195.357	5775.21
195.433	5812.48
195.508	5780.77
195.583	5802.54
195.659	5844.97
195.734	5863.01
195.809	5867.42
195.884	5892.49
195.96	5893.64
196.035	5939.45
196.11	5923.28
196.185	5954.45
196.261	5960.07
196.336	6044.35
196.411	6002.16
196.486	6018.28
196.561	5996.31
196.637	6026.47
196.712	6063.19
196.787	6068.47
196.862	6114.95
196.937	6136.44
197.013	6153.58
197.088	6183.04
197.163	6239.22
197.238	6279.19
197.313	6275.88
197.388	6311.59
197.464	6391.82
197.539	6429.02
197.614	6405.8
197.689	6438.3
197.764	6485.16
197.839	6541.57
197.914	6523.51
197.989	6587.76
198.065	6622.23
198.14	6764.51
198.215	6836.31
198.29	6872.78
198.365	6911.88
198.44	6936.71
198.515	7016.07
198.59	7055.95
198.665	7124.56
198.74	7149.79
198.815	7150.71
198.89	7211.14
198.965	7292.33
199.04	7281.99
199.115	7321.54
199.19	7440.94
199.265	7448.77
199.34	7474.78
199.415	7565.53
199.49	7623.44
199.565	7648.82
199.64	7714.97
199.715	7704.28
199.79	7717.79
199.865	7737.41
199.94	7729.72
200.015	7822.44
200.09	7836.83
200.165	7854.18
200.24	7871.98
200.315	7975.36
200.39	8018.55
200.464	8032.88
200.539	8039.91
200.614	8088.66
200.689	8150.19
200.764	8161.69
200.839	8208.17
200.914	8222.17
200.989	8194.78
201.063	8237.17
201.138	8187.67
201.213	8189.83
201.288	8139.67
201.363	8151.06
201.438	8151.88
201.512	8200.63
201.587	8144.73
201.662	8153.72
201.737	8188.94
201.812	8213.57
201.886	8128.51
201.961	8156.67
202.036	8132.77
202.111	8120.16
202.186	8036.68
202.26	7985.01
202.335	7930.36
202.41	7916.95
202.485	7871.18
202.559	7816.36
202.634	7739.42
202.709	7766.85
202.784	7710.69
202.858	7709.78
202.933	7661.99
203.008	7642.33
203.082	7588.82
203.157	7590.94
203.232	7476.54
203.306	7412
203.381	7321.56
203.456	7256.33
203.53	7187.34
203.605	7128.08
203.68	7060.63
203.754	7041.82
203.829	7004.19
203.904	6947.02
203.978	6914.53
204.053	6925.01
204.127	6889.46
204.202	6880.29
204.277	6830.82
204.351	6812.47
204.426	6791.32
204.5	6770.62
204.575	6671.91
204.65	6693.39
204.724	6663.73
204.799	6682.64
204.873	6669.91
204.948	6662.51
205.022	6630.83
205.097	6607.86
205.171	6648.52
205.246	6678.75
205.32	6671.55
205.395	6668.91
205.469	6646.55
205.544	6658.18
205.618	6610.29
205.693	6640.12
205.767	6606.37
205.842	6661.8
205.916	6643.03
205.991	6614.79
206.065	6624.88
206.14	6668.48
206.214	6657.43
206.289	6642.1
206.363	6675.19
206.438	6687.73
206.512	6713.52
206.586	6764.37
206.661	6789.7
206.735	6724.91
206.81	6726.78
206.884	6771.29
206.958	6736.24
207.033	6780.2
207.107	6806.12
207.181	6894.68
207.256	6879.35
207.33	6934.05
207.405	6970.31
207.479	7026.27
207.553	7052.11
207.628	7012.46
207.702	7042.38
207.776	7020.81
207.851	7029.93
207.925	7074.59
207.999	7063.68
208.073	7054.7
208.148	7061.72
208.222	7026.68
208.296	7117.66
208.371	7158.16
208.445	7187.04
208.519	7266.07
208.593	7301.77
208.668	7287.01
208.742	7292.44
208.816	7295.76
208.89	7337.06
208.965	7333.89
209.039	7354.37
209.113	7392.48
209.187	7448.76
209.261	7438.72
209.336	7499.57
209.41	7553.75
209.484	7555
209.558	7619.86
209.632	7657.44
209.707	7687.49
209.781	7752.92
209.855	7798.42
209.929	7841.55
210.003	7859.24
210.077	7856.6
210.151	7983.04
210.226	8080.23
210.3	8159.86
210.374	8226.97
210.448	8236.16
210.522	8260.55
210.596	8286.43
210.67	8317.22
210.744	8452.2
210.818	8545.77
210.892	8601.16
210.966	8583.8
211.041	8617.34
211.115	8605.69
211.189	8673.49
211.263	8719.15
211.337	8731.76
211.411	8768.29
211.485	8751.73
211.559	8780.31
211.633	8787.57
211.707	8704.61
211.781	8719.97
211.855	8616.87
211.929	8596.81
212.003	8544.88
212.077	8575.06
212.151	8608.71
212.225	8629.06
212.299	8592.56
212.373	8556.38
212.447	8538.47
212.52	8622.78
212.594	8641.8
212.668	8672.74
212.742	8629.81
212.816	8615.22
212.89	8606.71
212.964	8598.91
213.038	8611.47
213.112	8649.89
213.186	8691.12
213.26	8628.85
213.333	8495.81
213.407	8504.13
213.481	8508.56
213.555	8538.22
213.629	8503.66
213.703	8453.56
213.777	8448.6
213.85	8387.77
213.924	8477.36
213.998	8478.9
214.072	8453.19
214.146	8400.64
214.219	8388.85
214.293	8375.43
214.367	8376.24
214.441	8393.86
214.515	8355.69
214.588	8276.98
214.662	8178.5
214.736	8112.22
214.81	8129.76
214.883	8151.87
214.957	8118.31
215.031	8068.66
215.105	7994.24
215.178	7939.17
215.252	7910.99
215.326	7836.15
215.4	7771.42
215.473	7621.94
215.547	7549.98
215.621	7495.32
215.694	7501.14
215.768	7416.14
215.842	7362.84
215.915	7304.26
215.989	7209.68
216.063	7166.6
216.136	7151.79
216.21	7125.03
216.284	7129.98
216.357	7106.72
216.431	7071.36
216.504	7065.45
216.578	7119.09
216.652	7122.93
216.725	7108.37
216.799	7115.78
216.873	7091.9
216.946	7100.98
217.02	7069.58
217.093	7045.94
217.167	6964.32
217.24	6892.85
217.314	6866.06
217.387	6827.76
217.461	6786.01
217.535	6803.74
217.608	6747.16
217.682	6724.68
217.755	6739.42
217.829	6693.64
217.902	6681.58
217.976	6665.59
218.049	6630.58
218.123	6557.44
218.196	6563.25
218.27	6535.97
218.343	6475.63
218.417	6480.33
218.49	6459.25
218.563	6501.27
218.637	6509.19
218.71	6569.9
218.784	6591.56
218.857	6619.45
218.931	6641
219.004	6645.75
219.077	6661.61
219.151	6681.68
219.224	6677.4
219.298	6672.79
219.371	6713.58
219.444	6684.44
219.518	6692.17
219.591	6700.38
219.665	6789.59
219.738	6797.08
219.811	6778.45
219.885	6814.95
219.958	6836.14
220.031	6843.25
220.105	6852.76
220.178	6856.99
220.251	6835.65
220.325	6854.44
220.398	6865.59
220.471	6877.49
220.544	6914.44
220.618	6894.01
220.691	6917.31
220.764	6930.18
220.838	6950.7
220.911	6935.56
220.984	7001.32
221.057	7033.31
221.131	7056.27
221.204	6974.36
221.277	7032.84
221.35	7134.14
221.424	7127.89
221.497	7138.08
221.57	7151.72
221.643	7178.78
221.716	7211.56
221.79	7220.31
221.863	7229.11
221.936	7239.44
222.009	7254.23
222.082	7273.89
222.155	7285.86
222.229	7334.03
222.302	7359.69
222.375	7360.12
222.448	7392.28
222.521	7399.11
222.594	7399.11
222.667	7380.28
222.74	7432.71
222.814	7428.23
222.887	7410.96
222.96	7459.28
223.033	7491.45
223.106	7516.29
223.179	7544.96
223.252	7559.43
223.325	7577.7
223.398	7589.57
223.471	7609.86
223.544	7616.87
223.617	7627.65
223.69	7642.84
223.763	7612.64
223.837	7626.53
223.91	7654.27
223.983	7615.1
224.056	7583.05
224.129	7600.11
224.202	7639.36
224.275	7623.11
224.348	7596.72
224.42	7572.25
224.493	7525.23
224.566	7508.88
224.639	7523.49
224.712	7495.35
224.785	7478.86
224.858	7466.26
224.931	7448.62
225.004	7414.3
225.077	7422.81
225.15	7346.12
225.223	7340.68
225.296	7409.04
225.369	7360.79
225.442	7336.22
225.514	7346.89
225.587	7359.43
225.66	7366.4
225.733	7370.58
225.806	7378.51
225.879	7376.4
225.952	7347.43
226.025	7386.65
226.097	7428.46
226.17	7419.23
226.243	7368.19
226.316	7367.71
226.389	7381.31
226.461	7399.39
226.534	7416.02
226.607	7410.54
226.68	7485.02
226.753	7485.16
226.825	7417.19
226.898	7465.97
226.971	7469.62
227.044	7488.94
227.117	7501.39
227.189	7518.66
227.262	7543.18
227.335	7558.66
227.407	7553.96
227.48	7586.39
227.553	7590.67
227.626	7572.39
227.698	7575.27
227.771	7605.78
227.844	7587.51
227.916	7601.45
227.989	7571.17
228.062	7571.74
228.134	7646
228.207	7640.62
228.28	7633.22
228.352	7645.43
228.425	7651.34
228.498	7682.12
228.57	7668.32
228.643	7714.11
228.716	7717.53
228.788	7708.92
228.861	7707.81
228.934	7758.78
229.006	7760.89
229.079	7766.71
229.151	7759.26
229.224	7731.48
229.296	7750.37
229.369	7834.46
229.442	7872.23
229.514	7861.03
229.587	7895.17
229.659	7828.84
229.732	7837.93
229.804	7869.23
229.877	7932.4
229.949	7961.07
230.022	8003.13
230.094	8005.34
230.167	7997.21
230.239	7961.67
230.312	7950.33
230.384	8003.93
230.457	7998.44
230.529	8005.7
230.602	7996.76
230.674	8005.27
230.747	8042.71
230.819	8064.98
230.892	7968.97
230.964	7973.45
231.037	7996.76
231.109	7989.54
231.181	8019.6
231.254	7991.51
231.326	7985.31
231.399	7961
231.471	7929.88
231.544	7864.16
231.616	7903.35
231.688	7910.37
231.761	7895.18
231.833	7887.11
231.905	7821
231.978	7824.08
232.05	7807.69
232.122	7817.21
232.195	7791.43
232.267	7820.05
232.339	7804.85
232.412	7861.3
232.484	7834.11
232.556	7812.63
232.629	7871.38
232.701	7885.57
232.773	7899.32
232.846	7888.84
232.918	7894.37
232.99	7917.61
233.062	7952.72
233.135	7956.71
233.207	7919.53
233.279	7959.09
233.351	7990.73
233.424	7991.45
233.496	7971.74
233.568	8041.53
233.64	8008.44
233.713	8029.61
233.785	8033.46
233.857	8042.02
233.929	7996.67
234.001	8048.65
234.074	8102.21
234.146	8039.13
234.218	8034.27
234.29	8030.57
234.362	8021.15
234.434	7978.47
234.507	7949.23
234.579	7904.41
234.651	7887.33
234.723	7913.26
234.795	7924.85
234.867	7918.36
234.939	7963.19
235.012	7974.78
235.084	7982.38
235.156	8015.61
235.228	7995.75
235.3	7977.56
235.372	7995.46
235.444	8045.42
235.516	7984.98
235.588	7985.46
235.66	8008.45
235.732	7991.28
235.804	8152.38
235.876	8186.37
235.948	8245.17
236.02	8253.25
236.092	8269.83
236.164	8284.74
236.236	8287.92
236.308	8291.05
236.38	8314.67
236.452	8297.59
236.524	8310.72
236.596	8359.59
236.668	8391.98
236.74	8415.69
236.812	8437.24
236.884	8457.46
236.956	8472.47
237.028	8464.68
237.1	8452.12
237.172	8507.81
237.244	8567.48
237.316	8467.29
237.388	8454.98
237.46	8432.7
237.532	8485.87
237.604	8478.7
237.675	8538.19
237.747	8577.61
237.819	8568.18
237.891	8571.6
237.963	8565.34
238.035	8565.39
238.107	8473.21
238.178	8518.85
238.25	8520.53
238.322	8591.36
238.394	8561.71
238.466	8553.24
238.538	8589.23
238.609	8623.43
238.681	8576.55
238.753	8555.76
238.825	8578.1
238.897	8604.26
238.968	8669.36
239.04	8653.43
239.112	8743.65
239.184	8709.86
239.255	8700.86
239.327	8729.48
239.399	8743.1
239.471	8781.12
239.542	8811.15
239.614	8867.6
239.686	8802.75
239.758	8847.75
239.829	8818.9
239.901	8864.24
239.973	8878.2
240.044	8904.29
240.116	8916.17
240.188	8924.93
240.259	8940.86
240.331	8922.04
240.403	8947.88
240.474	8909.07
240.546	8898.44
240.618	8848.37
240.689	8845.92
240.761	8868.16
240.833	8916.35
240.904	8919.77
240.976	8919.29
241.048	8931.8
241.119	8965.47
241.191	8999.06
241.262	9056.86
241.334	9066.83
241.405	9073.57
241.477	9084.25
241.549	9092.1
241.62	9114.44
241.692	9157.72
241.763	9206.55
241.835	9228.03
241.906	9247.28
241.978	9231.83
242.049	9289.41
242.121	9345.83
242.192	9402.93
242.264	9370.24
242.335	9330.09
242.407	9365.62
242.478	9369.57
242.55	9384.16
242.621	9370.43
242.693	9372.65
242.764	9357.66
242.836	9352.94
242.907	9375.72
242.979	9393.39
243.05	9409.04
243.122	9426
243.193	9426.28
243.264	9367.01
243.336	9367.39
243.407	9391.57
243.479	9452.29
243.55	9471.22
243.622	9475.26
243.693	9467.37
243.764	9526.11
243.836	9512.92
243.907	9503.39
243.978	9513.21
244.05	9528.33
244.121	9489.91
244.192	9523.57
244.264	9482.78
244.335	9494.96
244.407	9452.2
244.478	9461.49
244.549	9448.11
244.62	9412.28
244.692	9404.29
244.763	9438.86
244.834	9434.81
244.906	9418.87
244.977	9433.03
245.048	9467.92
245.119	9457.95
245.191	9444.41
245.262	9393.85
245.333	9450.81
245.405	9462.17
245.476	9489.91
245.547	9512.45
245.618	9555.26
245.689	9565.08
245.761	9589.26
245.832	9589.45
245.903	9630.09
245.974	9659.71
246.045	9674.11
246.117	9744.57
246.188	9732.34
246.259	9726.03
246.33	9739.42
246.401	9748.57
246.473	9725.79
246.544	9716.39
246.615	9761.77
246.686	9771.35
246.757	9832.27
246.828	9813.1
246.899	9877.95
246.97	9847.71
247.042	9835.95
247.113	9869.96
247.184	9941.47
247.255	9946.38
247.326	9973.94
247.397	9979.86
247.468	9988.2
247.539	10002.6
247.61	9964.54
247.681	10003.79
247.752	10042.95
247.823	10022.87
247.894	10034.76
247.965	10007.17
248.037	9989.44
248.108	9946.9
248.179	9954.03
248.25	9945.12
248.321	9973.68
248.392	9926.12
248.463	9999.62
248.534	10001.6
248.605	10020.78
248.675	9993.93
248.746	10004.96
248.817	10023.22
248.888	10039.79
248.959	9989.89
249.03	10014.03
249.101	10020.05
249.172	10002.9
249.243	9943.77
249.314	10002.43
249.385	10017.03
249.456	10041.68
249.527	10041.59
249.598	10064.42
249.669	10058.59
249.739	10070.2
249.81	10075.07
249.881	10050.79
249.952	10032.96
250.023	10034.51
250.094	9986.33
250.165	9963.83
250.235	9957.08
250.306	9958.29
250.377	9937.81
250.448	9963.15
250.519	9906.89
250.59	9949.67
250.66	9949.62
250.731	10006.06
250.802	9999.99
250.873	10007.12
250.944	10026.24
251.014	10017.19
251.085	10087.3
251.156	10110.32
251.227	10153.69
251.297	10203.12
251.368	10244.11
251.439	10281.5
251.51	10315.85
251.58	10309.59
251.651	10307.71
251.722	10351.94
251.792	10310.65
251.863	10312.53
251.934	10363.36
252.005	10457.93
252.075	10470.02
252.146	10515.83
252.217	10555.73
252.287	10590.52
252.358	10593.74
252.429	10649.11
252.499	10646.85
252.57	10651.42
252.641	10685.82
252.711	10690.45
252.782	10649.69
252.852	10705.01
252.923	10703.13
252.994	10718.79
253.064	10763.54
253.135	10741.53
253.205	10725.14
253.276	10780.21
253.347	10827.67
253.417	10807.14
253.488	10791.62
253.558	10783.96
253.629	10782.56
253.699	10796.59
253.77	10827.67
253.841	10824.06
253.911	10834.9
253.982	10853.02
254.052	10880.4
254.123	10887.48
254.193	10884.39
254.264	11002.95
254.334	10982.37
254.405	10955.49
254.475	10923.68
254.546	10924.5
254.616	10979.24
254.687	11011.76
254.757	11029.6
254.827	11031.23
254.898	11047.71
254.968	11053.5
255.039	11038.37
255.109	11062.02
255.18	11035.57
255.25	10969.26
255.321	11001.01
255.391	10969.11
255.461	11041.06
255.532	10973.58
255.602	10971.32
255.673	10933.11
255.743	10902.45
255.813	10833.51
255.884	10877.02
255.954	10911.81
256.024	10957.45
256.095	10962.51
256.165	10930.32
256.235	10947.96
256.306	10937.74
256.376	10974.66
256.446	11006.13
256.517	11031.77
256.587	11075.82
256.657	11098.22
256.728	11112.15
256.798	11112.82
256.868	11111.38
256.938	11083.81
257.009	11124.24
257.079	11149.01
257.149	11229.69
257.219	11181.3
257.29	11223.45
257.36	11176.13
257.43	11211.94
257.5	11162.25
257.571	11154.21
257.641	11183.12
257.711	11157.53
257.781	11182.68
257.852	11197.04
257.922	11146.39
257.992	11150.63
258.062	11136.71
258.132	11168.13
258.202	11178.2
258.273	11191.12
258.343	11246.06
258.413	11231.46
258.483	11231.6
258.553	11203.55
258.623	11177.04
258.693	11197.72
258.764	11250.1
258.834	11304.6
258.904	11315.35
258.974	11310.78
259.044	11323.4
259.114	11352.27
259.184	11372.37
259.254	11380.61
259.324	11340.61
259.394	11379.59
259.464	11442.06
259.535	11451.12
259.605	11448.03
259.675	11436.71
259.745	11465.68
259.815	11449.39
259.885	11449.15
259.955	11545.46
260.025	11546.28
260.095	11561.07
260.165	11581.89
260.235	11630.72
260.305	11624.22
260.375	11593.32
260.445	11672.98
260.515	11716.89
260.585	11752.71
260.655	11765.43
260.725	11798.84
260.795	11828.14
260.865	11887.71
260.934	11867.32
261.004	11890.56
261.074	11894.41
261.144	11950.61
261.214	11977.21
261.284	11974.23
261.354	12009.21
261.424	11968.05
261.494	12025.11
261.564	12027.95
261.634	12049.36
261.703	11995.56
261.773	12010.5
261.843	12040.87
261.913	12033.45
261.983	11990.36
262.053	12003.18
262.123	11998.89
262.192	11967.7
262.262	12011.42
262.332	11970.84
262.402	11995.18
262.472	11997.11
262.541	11940.14
262.611	11979.76
262.681	11959.47
262.751	11994.51
262.821	11999.86
262.89	11975.42
262.96	11992.68
263.03	12056.41
263.1	12076.8
263.169	12092.41
263.239	12122.25
263.309	12178.65
263.379	12200.77
263.448	12220.44
263.518	12241.31
263.588	12253.7
263.657	12317.47
263.727	12338.87
263.797	12355.07
263.867	12358.11
