Data from 20250626_urea_1M_exp2_MAYP1162681_21-03-59-509.txt Node
Date: Thu Jun 26 21:03:59 BST 2025
User: adleo
Spectrometer: MAYP116268
Trigger mode: 0
Integration Time (sec): 3.000000E0
Scans to average: 1
Electric dark correction enabled: true
Nonlinearity correction enabled: true
Boxcar width: 10
XAxis mode: Wavelengths
Number of Pixels in Spectrum: 2068
>>>>>Begin Spectral Data<<<<<
179.565	2986.95
179.642	3142.09
179.718	3260.3
179.795	3370.23
179.871	3458.06
179.948	3510.56
180.024	3567.92
180.101	3632.26
180.177	3673.53
180.254	3734.25
180.33	3797.56
180.407	4004.9
180.483	4239.09
180.56	4474.26
180.636	4691.64
180.712	4662.14
180.789	4687.95
180.865	4719.91
180.942	4746.18
181.018	4774.42
181.095	4813.07
181.171	4822.12
181.248	4829.59
181.324	4875.29
181.4	4893.49
181.477	4924.14
181.553	4953.67
181.63	5006.79
181.706	5045.16
181.782	5068.99
181.859	5071.1
181.935	5085.76
182.011	5079.91
182.088	5122.22
182.164	5174.9
182.24	5208.47
182.317	5235
182.393	5229.97
182.469	5265.71
182.546	5296.71
182.622	5310.75
182.698	5305.09
182.775	5340.02
182.851	5372.85
182.927	5348.22
183.003	5336.86
183.08	5321.34
183.156	5350.66
183.232	5348.17
183.308	5323.11
183.385	5357.8
183.461	5402.47
183.537	5400.94
183.613	5434.25
183.69	5410.67
183.766	5383.52
183.842	5406.63
183.918	5418.99
183.995	5453.74
184.071	5463.09
184.147	5451.2
184.223	5419.83
184.299	5445.44
184.375	5416.63
184.452	5428.1
184.528	5535.21
184.604	5565.11
184.68	5598.95
184.756	5619.18
184.832	5630.45
184.908	5641.18
184.985	5627.62
185.061	5585.1
185.137	5613.15
185.213	5580.56
185.289	5581.04
185.365	5558.23
185.441	5548.16
185.517	5587.35
185.593	5573.97
185.669	5566.11
185.745	5589.36
185.822	5636.69
185.898	5617.13
185.974	5635.77
186.05	5618.21
186.126	5554.96
186.202	5534.69
186.278	5521.12
186.354	5493.74
186.43	5506.84
186.506	5509.86
186.582	5505.26
186.658	5521.21
186.734	5463.04
186.81	5468.16
186.886	5479.62
186.962	5513.16
187.038	5506.79
187.114	5484.24
187.19	5509.32
187.266	5489.28
187.341	5495.23
187.417	5476.49
187.493	5473.13
187.569	5485.79
187.645	5471.8
187.721	5443.74
187.797	5466.84
187.873	5478.54
187.949	5462.73
188.025	5448.77
188.101	5450.35
188.176	5458.55
188.252	5448.87
188.328	5475.02
188.404	5469.41
188.48	5456.28
188.556	5438.54
188.632	5440.6
188.707	5440.56
188.783	5432.07
188.859	5414.63
188.935	5385.15
189.011	5405.04
189.086	5391.77
189.162	5366.8
189.238	5361.72
189.314	5352.28
189.39	5333.06
189.465	5315.99
189.541	5361.53
189.617	5323.48
189.693	5311.79
189.768	5326.46
189.844	5387.36
189.92	5365.28
189.996	5396.34
190.071	5431.58
190.147	5427.36
190.223	5450.09
190.298	5432.3
190.374	5398.75
190.45	5428.88
190.526	5451.27
190.601	5436.84
190.677	5444.79
190.753	5525.54
190.828	5532.68
190.904	5572.57
190.98	5615.77
191.055	5643.01
191.131	5616.73
191.207	5665.24
191.282	5689.15
191.358	5661.01
191.433	5632.46
191.509	5663.94
191.585	5650.7
191.66	5649.07
191.736	5674.34
191.811	5646.91
191.887	5689.36
191.963	5749.01
192.038	5761.58
192.114	5766.8
192.189	5775.62
192.265	5764.12
192.34	5699.34
192.416	5696.03
192.491	5682.98
192.567	5689.12
192.642	5697.18
192.718	5702.17
192.793	5673.06
192.869	5656.77
192.944	5665.73
193.02	5677.34
193.095	5691.43
193.171	5714.35
193.246	5707.83
193.322	5700.16
193.397	5701.98
193.473	5663.51
193.548	5617.65
193.624	5636.22
193.699	5628.74
193.775	5671.96
193.85	5677.71
193.925	5699.63
194.001	5699
194.076	5679.16
194.152	5648.79
194.227	5622.27
194.302	5599.98
194.378	5611.82
194.453	5607.27
194.529	5639.4
194.604	5602.48
194.679	5586.37
194.755	5532.79
194.83	5569.78
194.905	5560.53
194.981	5584.94
195.056	5568.88
195.131	5583.31
195.207	5576.83
195.282	5551.29
195.357	5498.72
195.433	5536.01
195.508	5507.1
195.583	5537.78
195.659	5580.52
195.734	5598.26
195.809	5597.69
195.884	5619.01
195.96	5618.2
196.035	5665.76
196.11	5655.93
196.185	5684.02
196.261	5687.18
196.336	5767.98
196.411	5726.38
196.486	5741.87
196.561	5724.89
196.637	5750.73
196.712	5794.15
196.787	5800.87
196.862	5849.68
196.937	5878.88
197.013	5896.54
197.088	5922.96
197.163	5972.65
197.238	6010.11
197.313	6012.36
197.388	6057.94
197.464	6137.24
197.539	6168.75
197.614	6145.68
197.689	6176.15
197.764	6221.9
197.839	6283.84
197.914	6271.55
197.989	6336.35
198.065	6374.02
198.14	6509.01
198.215	6579.92
198.29	6613.4
198.365	6651.33
198.44	6669.48
198.515	6740.7
198.59	6776.29
198.665	6844.67
198.74	6867.3
198.815	6872.25
198.89	6934.54
198.965	7011.87
199.04	7000.58
199.115	7042.89
199.19	7153.5
199.265	7166.76
199.34	7193.66
199.415	7279.63
199.49	7330.6
199.565	7353.71
199.64	7419.22
199.715	7409.02
199.79	7421.85
199.865	7432.96
199.94	7430.51
200.015	7516.74
200.09	7533.76
200.165	7551.64
200.24	7566.88
200.315	7661.67
200.39	7702.59
200.464	7712.49
200.539	7715.28
200.614	7754.26
200.689	7818.56
200.764	7835.88
200.839	7874.7
200.914	7889.22
200.989	7863.87
201.063	7908.01
201.138	7860.93
201.213	7856.56
201.288	7805.78
201.363	7819.77
201.438	7820.59
201.512	7856.97
201.587	7810.03
201.662	7820.57
201.737	7856.97
201.812	7888.38
201.886	7804.99
201.961	7826.21
202.036	7799.58
202.111	7790.25
202.186	7712.71
202.26	7661.15
202.335	7605.27
202.41	7593.54
202.485	7548.08
202.559	7489.58
202.634	7412.23
202.709	7440.96
202.784	7391.07
202.858	7392.79
202.933	7341.56
203.008	7330.36
203.082	7282.89
203.157	7282.22
203.232	7166.51
203.306	7106.51
203.381	7015.23
203.456	6954.84
203.53	6893.52
203.605	6836.68
203.68	6775.26
203.754	6758.9
203.829	6718.02
203.904	6660.92
203.978	6630.56
204.053	6640.02
204.127	6608.19
204.202	6601.95
204.277	6551.97
204.351	6531.32
204.426	6509.12
204.5	6488.05
204.575	6387.36
204.65	6410.61
204.724	6385.91
204.799	6408.89
204.873	6392.6
204.948	6383.68
205.022	6357.53
205.097	6337.68
205.171	6376.6
205.246	6391.64
205.32	6390.25
205.395	6389.62
205.469	6368.86
205.544	6380.1
205.618	6333.19
205.693	6362.53
205.767	6332.2
205.842	6382.66
205.916	6369.9
205.991	6342.2
206.065	6354.87
206.14	6398.41
206.214	6382.36
206.289	6365.94
206.363	6392.48
206.438	6406.08
206.512	6426.77
206.586	6474.86
206.661	6498.12
206.735	6442.8
206.81	6448.18
206.884	6491.71
206.958	6456.29
207.033	6502.21
207.107	6521.43
207.181	6610.87
207.256	6596.85
207.33	6646.34
207.405	6685.09
207.479	6731.47
207.553	6755.19
207.628	6712.48
207.702	6741.62
207.776	6724.53
207.851	6731.44
207.925	6773.96
207.999	6761.19
208.073	6757.78
208.148	6762.49
208.222	6730.97
208.296	6809.88
208.371	6854.01
208.445	6880.72
208.519	6956.83
208.593	6987.19
208.668	6977.34
208.742	6982.96
208.816	6989.54
208.89	7028.76
208.965	7020.59
209.039	7046.06
209.113	7087.77
209.187	7149.06
209.261	7140.41
209.336	7196.15
209.41	7248.91
209.484	7250.79
209.558	7315.62
209.632	7347.96
209.707	7382.8
209.781	7440.47
209.855	7487.44
209.929	7524.25
210.003	7541.94
210.077	7544.2
210.151	7671.04
210.226	7767.53
210.3	7837.37
210.374	7898.4
210.448	7906.1
210.522	7932.89
210.596	7959.58
210.67	7988.19
210.744	8108.31
210.818	8196.13
210.892	8251.41
210.966	8238.09
211.041	8280.61
211.115	8262.19
211.189	8326.02
211.263	8368.64
211.337	8382.68
211.411	8417.52
211.485	8406.21
211.559	8440.99
211.633	8447.81
211.707	8360.83
211.781	8376.63
211.855	8282.27
211.929	8258.52
212.003	8213.77
212.077	8240.76
212.151	8265.98
212.225	8290.28
212.299	8262.74
212.373	8229.4
212.447	8217.47
212.52	8294.83
212.594	8300.32
212.668	8337.88
212.742	8298
212.816	8278.22
212.89	8263.84
212.964	8263.41
213.038	8275.97
213.112	8303.45
213.186	8332.12
213.26	8277.32
213.333	8146.44
213.407	8158.03
213.481	8165.19
213.555	8191.86
213.629	8159.62
213.703	8119.4
213.777	8107.95
213.85	8045.98
213.924	8132.41
213.998	8130.82
214.072	8106.13
214.146	8066.73
214.219	8050.18
214.293	8037.63
214.367	8040.18
214.441	8065.82
214.515	8018.48
214.588	7949.35
214.662	7849.32
214.736	7794.27
214.81	7810.03
214.883	7833.91
214.957	7796.27
215.031	7752.79
215.105	7684.3
215.178	7633.04
215.252	7601.65
215.326	7532.94
215.4	7478.94
215.473	7337.83
215.547	7272.34
215.621	7225.19
215.694	7219.81
215.768	7147.81
215.842	7097.03
215.915	7044.86
215.989	6952.86
216.063	6913.49
216.136	6895.47
216.21	6880.68
216.284	6889.09
216.357	6871.03
216.431	6835.05
216.504	6830.58
216.578	6873.83
216.652	6884.19
216.725	6867.33
216.799	6873.87
216.873	6848.66
216.946	6850.29
217.02	6823.46
217.093	6797.57
217.167	6715.21
217.24	6652.32
217.314	6626.26
217.387	6590.36
217.461	6552.71
217.535	6570.29
217.608	6520.45
217.682	6498.65
217.755	6503.02
217.829	6455.52
217.902	6438.66
217.976	6428.97
218.049	6393.64
218.123	6329.89
218.196	6327.83
218.27	6298.69
218.343	6242.97
218.417	6248.93
218.49	6231.41
218.563	6266.5
218.637	6276.48
218.71	6334.62
218.784	6358.83
218.857	6380.47
218.931	6402.34
219.004	6409.07
219.077	6425.16
219.151	6444.02
219.224	6435.47
219.298	6434.99
219.371	6475.52
219.444	6448.03
219.518	6453.88
219.591	6474.09
219.665	6563.85
219.738	6574.89
219.811	6566.35
219.885	6600.87
219.958	6621.81
220.031	6630.79
220.105	6640.59
220.178	6643.95
220.251	6622.67
220.325	6642.42
220.398	6653.36
220.471	6668.77
220.544	6692.83
220.618	6672.42
220.691	6690.37
220.764	6707.56
220.838	6726.1
220.911	6710.87
220.984	6777.85
221.057	6805.61
221.131	6818.05
221.204	6740.91
221.277	6800.93
221.35	6898.79
221.424	6889.09
221.497	6897.88
221.57	6913.39
221.643	6941.07
221.716	6971.82
221.79	6976.81
221.863	6978.98
221.936	6987.77
222.009	6998.19
222.082	7026.83
222.155	7037.69
222.229	7089.26
222.302	7112.89
222.375	7125
222.448	7156.96
222.521	7164.26
222.594	7166.18
222.667	7149.43
222.74	7194.78
222.814	7182.04
222.887	7164.48
222.96	7214.22
223.033	7248.02
223.106	7267.23
223.179	7296.66
223.252	7305.55
223.325	7327.61
223.398	7345.63
223.471	7371.1
223.544	7391.57
223.617	7395.51
223.69	7410.55
223.763	7378.05
223.837	7394.35
223.91	7413.72
223.983	7379.12
224.056	7350.63
224.129	7369.66
224.202	7410.01
224.275	7401.6
224.348	7381.7
224.42	7360.93
224.493	7317.49
224.566	7302.58
224.639	7317.19
224.712	7286.22
224.785	7278.14
224.858	7278.14
224.931	7261.85
225.004	7230.57
225.077	7228.98
225.15	7162.64
225.223	7162.68
225.296	7227.99
225.369	7185.47
225.442	7159.7
225.514	7173.15
225.587	7187.52
225.66	7194.44
225.733	7195.69
225.806	7201.89
225.879	7194.44
225.952	7163.17
226.025	7203.68
226.097	7236.53
226.17	7226.97
226.243	7183.82
226.316	7183.82
226.389	7189.64
226.461	7201.42
226.534	7215.44
226.607	7209.53
226.68	7274.1
226.753	7271.93
226.825	7207.01
226.898	7251.17
226.971	7254.34
227.044	7269.96
227.117	7277.75
227.189	7292.27
227.262	7322.8
227.335	7338.47
227.407	7337.75
227.48	7371.71
227.553	7375.51
227.626	7364.59
227.698	7378.29
227.771	7409.71
227.844	7395.67
227.916	7409.47
227.989	7387.07
228.062	7391.87
228.134	7461.31
228.207	7464.77
228.28	7455.78
228.352	7468.23
228.425	7477.85
228.498	7515.59
228.57	7500.89
228.643	7550.03
228.716	7549.36
228.788	7539.26
228.861	7532.53
228.934	7580.79
229.006	7586.08
229.079	7589.01
229.151	7577.95
229.224	7545.75
229.296	7564.17
229.369	7646.32
229.442	7687.78
229.514	7675.87
229.587	7708.85
229.659	7648.83
229.732	7656.91
229.804	7687.43
229.877	7752.61
229.949	7772.43
230.022	7812.7
230.094	7815.49
230.167	7802.93
230.239	7766.93
230.312	7758.66
230.384	7813.64
230.457	7812.97
230.529	7822.73
230.602	7823.74
230.674	7831.58
230.747	7865.74
230.819	7888.05
230.892	7795.95
230.964	7784.69
231.037	7804.87
231.109	7800.31
231.181	7826.12
231.254	7796.89
231.326	7789.39
231.399	7765.95
231.471	7739.07
231.544	7672.68
231.616	7710.57
231.688	7714.32
231.761	7700.82
231.833	7694.38
231.905	7627.85
231.978	7628.34
232.05	7608.82
232.122	7606.51
232.195	7585.69
232.267	7613.82
232.339	7593
232.412	7645.26
232.484	7627.36
232.556	7601.95
232.629	7655.69
232.701	7672.81
232.773	7680.88
232.846	7669.68
232.918	7673.39
232.99	7690.89
233.062	7727.54
233.135	7730.76
233.207	7704.79
233.279	7745.06
233.351	7768.96
233.424	7773.19
233.496	7746.46
233.568	7816.67
233.64	7794.8
233.713	7813.41
233.785	7814.46
233.857	7828.22
233.929	7783.02
234.001	7837.4
234.074	7892.72
234.146	7832.49
234.218	7825.61
234.29	7828.49
234.362	7826.96
234.434	7787.47
234.507	7761.26
234.579	7715.68
234.651	7701.35
234.723	7720.34
234.795	7734.38
234.867	7730.82
234.939	7776.37
235.012	7796.75
235.084	7796.32
235.156	7822.33
235.228	7801.75
235.3	7786.03
235.372	7795.6
235.444	7845.12
235.516	7781.85
235.588	7789.74
235.66	7805.51
235.732	7783.01
235.804	7937.68
235.876	7968.45
235.948	8025.59
236.02	8038.53
236.092	8055.78
236.164	8068.14
236.236	8074.59
236.308	8077.09
236.38	8096.43
236.452	8077.28
236.524	8094.07
236.596	8147.22
236.668	8178.68
236.74	8204.94
236.812	8229.23
236.884	8257.52
236.956	8267.29
237.028	8268.68
237.1	8252.91
237.172	8304.44
237.244	8375.35
237.316	8283.32
237.388	8277.06
237.46	8257.04
237.532	8304.82
237.604	8298.76
237.675	8356.99
237.747	8390.28
237.819	8376.48
237.891	8383.84
237.963	8384.37
238.035	8381.1
238.107	8291
238.178	8343.38
238.25	8347.95
238.322	8416.31
238.394	8385.46
238.466	8377.91
238.538	8405.28
238.609	8440.54
238.681	8405.12
238.753	8382.83
238.825	8394.96
238.897	8416.37
238.968	8481.16
239.04	8468.99
239.112	8558.1
239.184	8526.43
239.255	8523.49
239.327	8555.96
239.399	8568.28
239.471	8601.57
239.542	8627.8
239.614	8680.58
239.686	8611.07
239.758	8657.51
239.829	8626.26
239.901	8673.52
239.973	8692.72
240.044	8718.7
240.116	8722.27
240.188	8734.15
240.259	8749.26
240.331	8745.8
240.403	8775.73
240.474	8739.81
240.546	8729.8
240.618	8679.4
240.689	8676.85
240.761	8697.75
240.833	8751.23
240.904	8755.99
240.976	8756.33
241.048	8776.26
241.119	8807.75
241.191	8840.76
241.262	8884.97
241.334	8893.63
241.405	8899.7
241.477	8906.39
241.549	8916.02
241.62	8938.4
241.692	8970.65
241.763	9015.96
241.835	9035.22
241.906	9044.32
241.978	9023.09
242.049	9082.39
242.121	9132.6
242.192	9190.27
242.264	9159.94
242.335	9117
242.407	9154.36
242.478	9160.19
242.55	9168.13
242.621	9158.06
242.693	9158.26
242.764	9155.08
242.836	9153.54
242.907	9174.87
242.979	9195.33
243.05	9210.21
243.122	9235.77
243.193	9231.06
243.264	9178.33
243.336	9180.45
243.407	9212.76
243.479	9273.38
243.55	9280.79
243.622	9294.04
243.693	9294.04
243.764	9351.96
243.836	9338.77
243.907	9325.48
243.978	9329.86
244.05	9359.77
244.121	9316.92
244.192	9345.96
244.264	9306.18
244.335	9319.47
244.407	9275.94
244.478	9288.37
244.549	9277.68
244.62	9243.01
244.692	9244.41
244.763	9284.32
244.834	9272.67
244.906	9256.05
244.977	9272.81
245.048	9319.54
245.119	9308.23
245.191	9286.89
245.262	9231
245.333	9291.55
245.405	9299.11
245.476	9324.92
245.547	9332.53
245.618	9380.62
245.689	9397.87
245.761	9425.17
245.832	9429.6
245.903	9476.06
245.974	9499.9
246.045	9513.14
246.117	9581.43
246.188	9575.41
246.259	9558.32
246.33	9570.16
246.401	9575.27
246.473	9552.15
246.544	9542.42
246.615	9585.38
246.686	9599.68
246.757	9664.25
246.828	9647.06
246.899	9713.34
246.97	9690.23
247.042	9679.97
247.113	9713.25
247.184	9777.14
247.255	9773.19
247.326	9793.86
247.397	9791.4
247.468	9799.2
247.539	9817.79
247.61	9777.04
247.681	9810.75
247.752	9847.4
247.823	9836.81
247.894	9854.58
247.965	9834.3
248.037	9821.59
248.108	9778.72
248.179	9777.71
248.25	9769.37
248.321	9791.04
248.392	9754.14
248.463	9819.35
248.534	9823.63
248.605	9839.34
248.675	9823.87
248.746	9841.98
248.817	9855.57
248.888	9865.63
248.959	9828.69
249.03	9848.25
249.101	9855.14
249.172	9836.11
249.243	9781.37
249.314	9829.91
249.385	9839.59
249.456	9859.77
249.527	9851.68
249.598	9871.66
249.669	9864.49
249.739	9879.66
249.81	9891.99
249.881	9857.37
249.952	9845.08
250.023	9835.59
250.094	9793.88
250.165	9766.17
250.235	9761.06
250.306	9765.35
250.377	9756.25
250.448	9777.01
250.519	9721.91
250.59	9765.84
250.66	9769.36
250.731	9826.61
250.802	9817.12
250.873	9831.09
250.944	9843.66
251.014	9838.03
251.085	9907.46
251.156	9937.99
251.227	9975.23
251.297	10011.8
251.368	10050.91
251.439	10088.87
251.51	10139.7
251.58	10129.1
251.651	10123.27
251.722	10167.21
251.792	10133.2
251.863	10127.09
251.934	10169.24
252.005	10259.36
252.075	10267.94
252.146	10310.81
252.217	10347.09
252.287	10381.44
252.358	10382.45
252.429	10445.66
252.499	10439.35
252.57	10445.19
252.641	10484.16
252.711	10489.08
252.782	10459.83
252.852	10524.45
252.923	10523.39
252.994	10526.71
253.064	10566.31
253.135	10550.07
253.205	10530.94
253.276	10579.84
253.347	10640.01
253.417	10615.97
253.488	10601.75
253.558	10595.1
253.629	10589.47
253.699	10604.31
253.77	10636.16
253.841	10627.25
253.911	10633.23
253.982	10653.03
254.052	10674.81
254.123	10678.71
254.193	10678.62
254.264	10782.52
254.334	10757.65
254.405	10729.66
254.475	10708.02
254.546	10719.2
254.616	10773.11
254.687	10801.59
254.757	10824.91
254.827	10822.79
254.898	10851.65
254.968	10861.1
255.039	10849.15
255.109	10883.02
255.18	10858.06
255.25	10799.27
255.321	10830.98
255.391	10797.63
255.461	10869.09
255.532	10804.66
255.602	10800.42
255.673	10752.24
255.743	10733.78
255.813	10674.13
255.884	10714.32
255.954	10741.74
256.024	10795.32
256.095	10798.55
256.165	10766.75
256.235	10784.44
256.306	10771.04
256.376	10806.37
256.446	10836.87
256.517	10862.31
256.587	10899.33
256.657	10921.06
256.728	10937.29
256.798	10940.76
256.868	10940.81
256.938	10908.19
257.009	10948.04
257.079	10973.19
257.149	11059.98
257.219	11006.39
257.29	11034.23
257.36	10993.08
257.43	11024.4
257.5	10965.95
257.571	10959.83
257.641	10990.91
257.711	10966.42
257.781	10989.02
257.852	11007.68
257.922	10955.68
257.992	10956.31
258.062	10948.02
258.132	10980.07
258.202	10993.56
258.273	11006.81
258.343	11070.23
258.413	11056.93
258.483	11062.19
258.553	11041.32
258.623	11023.29
258.693	11044.55
258.764	11108.3
258.834	11163.33
258.904	11176.92
258.974	11169.12
259.044	11180.01
259.114	11203.24
259.184	11223.28
259.254	11229.5
259.324	11179.81
259.394	11225.49
259.464	11290.65
259.535	11298.94
259.605	11297.45
259.675	11287.72
259.745	11320.39
259.815	11297.6
259.885	11306.66
259.955	11399.59
260.025	11394.97
260.095	11406.68
260.165	11437.62
260.235	11485.63
260.305	11478.11
260.375	11454.59
260.445	11529.48
260.515	11582.11
260.585	11622.74
260.655	11641.06
260.725	11681.54
260.795	11712.19
260.865	11762.95
260.934	11736.29
261.004	11759.04
261.074	11763
261.144	11810.08
261.214	11834.28
261.284	11834.28
261.354	11869.94
261.424	11829.59
261.494	11883.47
261.564	11879.09
261.634	11892.68
261.703	11833.54
261.773	11844.72
261.843	11875.32
261.913	11870.21
261.983	11827.94
262.053	11847.27
262.123	11834.6
262.192	11806.88
262.262	11843.23
262.332	11814.59
262.402	11846.21
262.472	11853.35
262.541	11804.19
262.611	11838.27
262.681	11816.58
262.751	11849.21
262.821	11845.64
262.89	11821.11
262.96	11844.39
263.03	11915.1
263.1	11939.25
263.169	11961.09
263.239	11989.14
263.309	12045.83
263.379	12074.94
263.448	12093.45
263.518	12111.86
263.588	12129.84
263.657	12181.08
263.727	12212.56
263.797	12214.92
263.867	12210.15
263.936	12180.45
264.006	12229.75
