Data from 20250626_urea_1M_exp2_MAYP1162681_20-23-59-706.txt Node
Date: Thu Jun 26 20:23:59 BST 2025
User: adleo
Spectrometer: MAYP116268
Trigger mode: 0
Integration Time (sec): 3.000000E0
Scans to average: 1
Electric dark correction enabled: true
Nonlinearity correction enabled: true
Boxcar width: 10
XAxis mode: Wavelengths
Number of Pixels in Spectrum: 2068
>>>>>Begin Spectral Data<<<<<
179.565	3024.75
179.642	3188.76
179.718	3303.1
179.795	3418.06
179.871	3505.49
179.948	3556.05
180.024	3617.04
180.101	3684.65
180.177	3720.65
180.254	3783.26
180.33	3843.12
180.407	4052.08
180.483	4283.83
180.56	4519.48
180.636	4740.59
180.712	4709.84
180.789	4740.82
180.865	4772.49
180.942	4802.45
181.018	4830.22
181.095	4864.85
181.171	4872.61
181.248	4874.05
181.324	4918.17
181.4	4931.67
181.477	4958.93
181.553	4990.27
181.63	5047.86
181.706	5084.8
181.782	5109.45
181.859	5111.22
181.935	5131.97
182.011	5124.2
182.088	5172.35
182.164	5227.97
182.24	5261.63
182.317	5286.78
182.393	5281.75
182.469	5317.2
182.546	5348.64
182.622	5359.18
182.698	5354.19
182.775	5389.61
182.851	5423.45
182.927	5408.3
183.003	5400.68
183.08	5390.96
183.156	5420.57
183.232	5412.85
183.308	5381.99
183.385	5403.93
183.461	5451.2
183.537	5445.54
183.613	5482.45
183.69	5462.36
183.766	5433.44
183.842	5453.77
183.918	5469.92
183.995	5500.59
184.071	5511.72
184.147	5498.97
184.223	5472.15
184.299	5500.34
184.375	5472.16
184.452	5486.07
184.528	5585.52
184.604	5615.85
184.68	5646.72
184.756	5664.37
184.832	5671.32
184.908	5689.86
184.985	5688.38
185.061	5640.87
185.137	5666.81
185.213	5631.91
185.289	5633.35
185.365	5612.55
185.441	5605.31
185.517	5643.6
185.593	5635.59
185.669	5621.83
185.745	5644.94
185.822	5683.84
185.898	5667.34
185.974	5687.9
186.05	5667.33
186.126	5601.96
186.202	5579.25
186.278	5569.22
186.354	5547.26
186.43	5562.9
186.506	5560.26
186.582	5558.2
186.658	5579.29
186.734	5527.82
186.81	5532.65
186.886	5539.03
186.962	5572.58
187.038	5562.23
187.114	5536.6
187.19	5553.62
187.266	5530.67
187.341	5535.66
187.417	5520.47
187.493	5515.24
187.569	5525.07
187.645	5511.94
187.721	5484.6
187.797	5511.73
187.873	5523.39
187.949	5505.18
188.025	5493.13
188.101	5496.82
188.176	5512.5
188.252	5500.9
188.328	5528.97
188.404	5527.53
188.48	5515.84
188.556	5494.12
188.632	5497.24
188.707	5496.04
188.783	5494.89
188.859	5484.59
188.935	5458.75
189.011	5477.97
189.086	5465.51
189.162	5443.12
189.238	5436.27
189.314	5433.1
189.39	5413.4
189.465	5392.4
189.541	5437.85
189.617	5394.14
189.693	5376.03
189.768	5390.52
189.844	5452.92
189.92	5423.94
189.996	5451.26
190.071	5476.62
190.147	5475.18
190.223	5501.12
190.298	5484.1
190.374	5447.43
190.45	5477.66
190.526	5494.25
190.601	5485.67
190.677	5483.18
190.753	5560.43
190.828	5573.66
190.904	5605.88
190.98	5649.1
191.055	5679.4
191.131	5655.61
191.207	5715.1
191.282	5746.49
191.358	5717.73
191.433	5681.4
191.509	5711.15
191.585	5700.12
191.66	5708.8
191.736	5734.93
191.811	5705.82
191.887	5751.64
191.963	5814.17
192.038	5832.82
192.114	5834.74
192.189	5840.02
192.265	5829.91
192.34	5765.5
192.416	5763.3
192.491	5757.2
192.567	5763.11
192.642	5771.89
192.718	5773.57
192.793	5740.57
192.869	5725.66
192.944	5726.66
193.02	5743.36
193.095	5759.18
193.171	5778.55
193.246	5774.57
193.322	5763.93
193.397	5765.27
193.473	5726.02
193.548	5680.93
193.624	5691.34
193.699	5684.82
193.775	5730.21
193.85	5739.26
193.925	5764.39
194.001	5755.87
194.076	5735.63
194.152	5701.85
194.227	5679.59
194.302	5655.73
194.378	5664.79
194.453	5661.29
194.529	5697.21
194.604	5659.56
194.679	5646.52
194.755	5594.57
194.83	5629.12
194.905	5625.05
194.981	5650.99
195.056	5630.67
195.131	5648.26
195.207	5642.7
195.282	5620.41
195.357	5565.53
195.433	5610.31
195.508	5573.48
195.583	5598.7
195.659	5637.41
195.734	5653.91
195.809	5651.89
195.884	5673.94
195.96	5671.3
196.035	5712.88
196.11	5707.93
196.185	5739.58
196.261	5742.89
196.336	5830.6
196.411	5785.07
196.486	5797.58
196.561	5778.45
196.637	5805.91
196.712	5841.57
196.787	5854.53
196.862	5897.06
196.937	5919.69
197.013	5931.68
197.088	5967.51
197.163	6026.55
197.238	6067.18
197.313	6070.01
197.388	6107
197.464	6184.24
197.539	6216.43
197.614	6194.27
197.689	6220.71
197.764	6269.06
197.839	6327.89
197.914	6307.82
197.989	6375.31
198.065	6412.27
198.14	6550.34
198.215	6617.93
198.29	6654.21
198.365	6692.05
198.44	6722
198.515	6798.5
198.59	6839.91
198.665	6906.33
198.74	6926.33
198.815	6936.23
198.89	6995.87
198.965	7073.73
199.04	7064.17
199.115	7102.78
199.19	7218.16
199.265	7227.28
199.34	7249.44
199.415	7335.99
199.49	7388.92
199.565	7411.41
199.64	7477.93
199.715	7470.14
199.79	7486.33
199.865	7501.19
199.94	7492.06
200.015	7575.23
200.09	7594.8
200.165	7614.47
200.24	7631.44
200.315	7732.39
200.39	7771.97
200.464	7782.21
200.539	7788.36
200.614	7831.34
200.689	7893.9
200.764	7911.9
200.839	7958.08
200.914	7969.67
200.989	7938.35
201.063	7983.89
201.138	7939.97
201.213	7938.15
201.288	7885.06
201.363	7901.41
201.438	7896.84
201.512	7937.89
201.587	7887
201.662	7894.65
201.737	7924.23
201.812	7945.44
201.886	7856.7
201.961	7885.09
202.036	7856.06
202.111	7842.64
202.186	7764.04
202.26	7722.62
202.335	7664.91
202.41	7649.38
202.485	7606.27
202.559	7558.64
202.634	7483.68
202.709	7502.46
202.784	7447.52
202.858	7447.28
202.933	7399.74
203.008	7384.07
203.082	7326.94
203.157	7330.21
203.232	7213.83
203.306	7154.4
203.381	7068.17
203.456	7008.74
203.53	6940.05
203.605	6891.61
203.68	6828.75
203.754	6811.96
203.829	6770.87
203.904	6715.12
203.978	6683.5
204.053	6696.95
204.127	6659.64
204.202	6651.43
204.277	6607.4
204.351	6591.8
204.426	6567.44
204.5	6541.56
204.575	6448.36
204.65	6478.48
204.724	6453.63
204.799	6482.03
204.873	6469.54
204.948	6467.62
205.022	6435.09
205.097	6409.86
205.171	6444.9
205.246	6468.1
205.32	6464.12
205.395	6461.76
205.469	6438.6
205.544	6453.44
205.618	6406.81
205.693	6438.7
205.767	6405.34
205.842	6462.63
205.916	6445.78
205.991	6425.04
206.065	6437.81
206.14	6485.15
206.214	6472.03
206.289	6449.74
206.363	6474.18
206.438	6488.35
206.512	6510.44
206.586	6565.74
206.661	6592.98
206.735	6532.15
206.81	6530.23
206.884	6574
206.958	6534.79
207.033	6579.55
207.107	6598.39
207.181	6682.03
207.256	6668.54
207.33	6719.38
207.405	6755.58
207.479	6802.45
207.553	6820.89
207.628	6781.77
207.702	6810.54
207.776	6795.55
207.851	6807.7
207.925	6859.27
207.999	6844.23
208.073	6830.11
208.148	6835.3
208.222	6801.76
208.296	6894.31
208.371	6942.43
208.445	6970.83
208.519	7050.06
208.593	7082.1
208.668	7069.27
208.742	7066.24
208.816	7069.99
208.89	7108.54
208.965	7097.48
209.039	7128.53
209.113	7173.5
209.187	7231.97
209.261	7217.04
209.336	7272.64
209.41	7325.26
209.484	7319.01
209.558	7378.37
209.632	7414.84
209.707	7443.05
209.781	7502.07
209.855	7545.69
209.929	7590.97
210.003	7602.12
210.077	7602.84
210.151	7730.85
210.226	7825.08
210.3	7904.73
210.374	7967.59
210.448	7981.06
210.522	8006.94
210.596	8028.29
210.67	8051.43
210.744	8181.43
210.818	8274.5
210.892	8324.63
210.966	8314.43
211.041	8347.67
211.115	8335.99
211.189	8401.55
211.263	8449.8
211.337	8466.01
211.411	8493.58
211.485	8478.03
211.559	8515.84
211.633	8519.35
211.707	8434.43
211.781	8455.28
211.855	8360.92
211.929	8335.43
212.003	8286.83
212.077	8315.85
212.151	8345.49
212.225	8373.01
212.299	8335.7
212.373	8300.72
212.447	8287.25
212.52	8357.25
212.594	8377.66
212.668	8408.73
212.742	8372.94
212.816	8355.08
212.89	8338.97
212.964	8337.72
213.038	8345.08
213.112	8371.94
213.186	8408.06
213.26	8345.9
213.333	8215.97
213.407	8231.93
213.481	8240.4
213.555	8268.08
213.629	8231.8
213.703	8183.1
213.777	8174.87
213.85	8111.13
213.924	8196.55
213.998	8195.97
214.072	8171.28
214.146	8124.32
214.219	8116.62
214.293	8102.97
214.367	8100.27
214.441	8122.21
214.515	8087.85
214.588	8016.85
214.662	7920.62
214.736	7860.56
214.81	7876.46
214.883	7896.5
214.957	7857.32
215.031	7812.3
215.105	7737.56
215.178	7688.18
215.252	7664.48
215.326	7586.59
215.4	7530.18
215.473	7387.57
215.547	7321.93
215.621	7273.01
215.694	7269.02
215.768	7186.73
215.842	7134.78
215.915	7081.85
215.989	6988.07
216.063	6936.73
216.136	6920.82
216.21	6903.58
216.284	6917.42
216.357	6904.06
216.431	6872.12
216.504	6868.08
216.578	6914.5
216.652	6926.16
216.725	6907.66
216.799	6914.3
216.873	6896.91
216.946	6900.51
217.02	6877.04
217.093	6851.06
217.167	6778.19
217.24	6716.31
217.314	6690.05
217.387	6651.37
217.461	6620.01
217.535	6640.18
217.608	6593.42
217.682	6573.77
217.755	6584.91
217.829	6539.42
217.902	6522.85
217.976	6508.59
218.049	6472.68
218.123	6411.62
218.196	6414.21
218.27	6387.27
218.343	6328.58
218.417	6327.81
218.49	6307.27
218.563	6341.59
218.637	6354.61
218.71	6411.99
218.784	6430.91
218.857	6457.98
218.931	6479.95
219.004	6483.79
219.077	6501.33
219.151	6517.5
219.224	6509.24
219.298	6498.25
219.371	6531.72
219.444	6500.43
219.518	6506.43
219.591	6514.69
219.665	6596.67
219.738	6604.98
219.811	6595.53
219.885	6635.09
219.958	6662.71
220.031	6673.12
220.105	6684.37
220.178	6683.74
220.251	6658.81
220.325	6681.2
220.398	6696.18
220.471	6709.62
220.544	6736.62
220.618	6721.48
220.691	6744.39
220.764	6758.12
220.838	6782.09
220.911	6769.45
220.984	6839.75
221.057	6870.39
221.131	6892.05
221.204	6822.35
221.277	6879.49
221.35	6976.2
221.424	6965.82
221.497	6978.03
221.57	6999.11
221.643	7025.88
221.716	7062.59
221.79	7073.31
221.863	7081.67
221.936	7089.6
222.009	7105.01
222.082	7134
222.155	7140.91
222.229	7192.63
222.302	7222.13
222.375	7229.01
222.448	7259.71
222.521	7262.69
222.594	7264.95
222.667	7248.77
222.74	7290.62
222.814	7283.02
222.887	7273.55
222.96	7318.72
223.033	7348.87
223.106	7362.61
223.179	7383.82
223.252	7389.44
223.325	7409.77
223.398	7421.12
223.471	7442.69
223.544	7452.5
223.617	7463.8
223.69	7480.42
223.763	7450.04
223.837	7466.53
223.91	7487.15
223.983	7450.77
224.056	7424.87
224.129	7439.15
224.202	7483.68
224.275	7476.18
224.348	7452.15
224.42	7424.89
224.493	7382.64
224.566	7362.69
224.639	7382.58
224.712	7361.76
224.785	7352.86
224.858	7348.2
224.931	7334.07
225.004	7300.86
225.077	7307.06
225.15	7229.8
225.223	7219.03
225.296	7286.03
225.369	7238.41
225.442	7216.73
225.514	7228.55
225.587	7244.16
225.66	7251.52
225.733	7247.58
225.806	7251.76
225.879	7246.48
225.952	7221.97
226.025	7256.96
226.097	7300.73
226.17	7283.67
226.243	7229.81
226.316	7225.1
226.389	7228.89
226.461	7242.79
226.534	7258.78
226.607	7248.12
226.68	7311.34
226.753	7317.54
226.825	7251.6
226.898	7294.27
226.971	7300.03
227.044	7315.7
227.117	7319.01
227.189	7336.81
227.262	7366.66
227.335	7384.16
227.407	7384.64
227.48	7405.54
227.553	7412.85
227.626	7397.02
227.698	7416.44
227.771	7456.41
227.844	7446.99
227.916	7464.63
227.989	7439.87
228.062	7438.67
228.134	7509.79
228.207	7512.68
228.28	7502.44
228.352	7518.16
228.425	7528.35
228.498	7561.77
228.57	7552.69
228.643	7596.16
228.716	7594.71
228.788	7585.58
228.861	7578.17
228.934	7630.52
229.006	7639.37
229.079	7640.43
229.151	7629.56
229.224	7593.95
229.296	7605.44
229.369	7688.46
229.442	7728.82
229.514	7715.27
229.587	7755.8
229.659	7697.8
229.732	7705.25
229.804	7741.26
229.877	7797.31
229.949	7818.61
230.022	7864.47
230.094	7865.24
230.167	7865.05
230.239	7829.95
230.312	7824.38
230.384	7880.62
230.457	7876.58
230.529	7888.02
230.602	7893.02
230.674	7899.08
230.747	7934.83
230.819	7965.9
230.892	7873.55
230.964	7860.12
231.037	7882.42
231.109	7880.83
231.181	7914.68
231.254	7886.56
231.326	7877.42
231.399	7860.62
231.471	7839.99
231.544	7770.81
231.616	7804.56
231.688	7804.22
231.761	7792.06
231.833	7784.66
231.905	7719.62
231.978	7718.13
232.05	7704.82
232.122	7708.9
232.195	7689.81
232.267	7718.62
232.339	7698.08
232.412	7750.73
232.484	7736.82
232.556	7715.73
232.629	7768.37
232.701	7775.59
232.773	7786.3
232.846	7776.74
232.918	7780.35
232.99	7796.41
233.062	7828.78
233.135	7840.85
233.207	7814.45
233.279	7855.01
233.351	7883
233.424	7884.49
233.496	7866.79
233.568	7931.34
233.64	7901.48
233.713	7919.03
233.785	7917.59
233.857	7930
233.929	7885.19
234.001	7937.74
234.074	7989.03
234.146	7925.57
234.218	7926.86
234.29	7930.47
234.362	7922.54
234.434	7879.82
234.507	7852.84
234.579	7816.68
234.651	7799.22
234.723	7824.18
234.795	7839.04
234.867	7826.15
234.939	7872.71
235.012	7883.68
235.084	7883.68
235.156	7910.7
235.228	7891.37
235.3	7875.69
235.372	7886.61
235.444	7938.45
235.516	7878.44
235.588	7879.16
235.66	7897.24
235.732	7873.1
235.804	8030.09
235.876	8063.17
235.948	8124.08
236.02	8135.81
236.092	8147.59
236.164	8155.86
236.236	8154.66
236.308	8152.02
236.38	8176.69
236.452	8164.86
236.524	8186.02
236.596	8239.66
236.668	8267.9
236.74	8286.32
236.812	8314.5
236.884	8341.69
236.956	8350.69
237.028	8340.21
237.1	8325.4
237.172	8384.35
237.244	8444.83
237.316	8346.19
237.388	8332.58
237.46	8308.9
237.532	8359.13
237.604	8351.2
237.675	8414
237.747	8448.6
237.819	8437.2
237.891	8437.78
237.963	8428.16
238.035	8416.8
238.107	8328.96
238.178	8379.02
238.25	8384.75
238.322	8454.89
238.394	8415.77
238.466	8411.3
238.538	8448.29
238.609	8490.47
238.681	8446.1
238.753	8429.88
238.825	8449.81
238.897	8479.05
238.968	8546.21
239.04	8530.09
239.112	8616.31
239.184	8588.92
239.255	8584.73
239.327	8622.83
239.399	8641.7
239.471	8674.94
239.542	8708.87
239.614	8764.11
239.686	8701.87
239.758	8746.86
239.829	8716.57
239.901	8773.65
239.973	8784.62
240.044	8815.91
240.116	8822.79
240.188	8829.72
240.259	8843.92
240.331	8833.28
240.403	8862.59
240.474	8823.24
240.546	8813.48
240.618	8767.65
240.689	8762.12
240.761	8781.95
240.833	8825.57
240.904	8827.35
240.976	8835.39
241.048	8851.99
241.119	8884.93
241.191	8914.91
241.262	8976.66
241.334	8986.53
241.405	8989.7
241.477	8997.12
241.549	8995.58
241.62	9018.2
241.692	9059.5
241.763	9106.89
241.835	9129.32
241.906	9145.45
241.978	9128.75
242.049	9185.07
242.121	9237.78
242.192	9289.53
242.264	9258.53
242.335	9228.3
242.407	9267.15
242.478	9269.37
242.55	9282.7
242.621	9263.97
242.693	9269.94
242.764	9258.76
242.836	9254.52
242.907	9279.47
242.979	9304.02
243.05	9330.36
243.122	9348.71
243.193	9343.36
243.264	9288.52
243.336	9291.41
243.407	9315.44
243.479	9375.24
243.55	9387.38
243.622	9405.73
243.693	9406.59
243.764	9465.52
243.836	9443.1
243.907	9430.87
243.978	9438.66
244.05	9461.54
244.121	9422.06
244.192	9459.43
244.264	9411.56
244.335	9423.26
244.407	9375.45
244.478	9393.27
244.549	9386.72
244.62	9355.37
244.692	9355.04
244.763	9390.37
244.834	9377.13
244.906	9361.87
244.977	9375.16
245.048	9426.23
245.119	9395.65
245.191	9380.96
245.262	9331.22
245.333	9389.81
245.405	9402.38
245.476	9428.57
245.547	9436.14
245.618	9489.05
245.689	9497.38
245.761	9531.23
245.832	9540.29
245.903	9580.06
245.974	9604.05
246.045	9617.82
246.117	9684.14
246.188	9676.43
246.259	9666.75
246.33	9681.73
246.401	9688.62
246.473	9660.97
246.544	9649.07
246.615	9701.08
246.686	9708.74
246.757	9772.78
246.828	9756.12
246.899	9818.65
246.97	9792.46
247.042	9788.31
247.113	9816.98
247.184	9884.67
247.255	9880.29
247.326	9904.23
247.397	9914.54
247.468	9913.24
247.539	9922.97
247.61	9887.18
247.681	9921.37
247.752	9960.09
247.823	9947.23
247.894	9961.3
247.965	9938.71
248.037	9920.5
248.108	9878.26
248.179	9882.69
248.25	9872.91
248.321	9901.08
248.392	9869.28
248.463	9936.71
248.534	9935.27
248.605	9951.7
248.675	9923.65
248.746	9939.93
248.817	9952.75
248.888	9970.52
248.959	9933.1
249.03	9952.08
249.101	9956.27
249.172	9944.23
249.243	9888.37
249.314	9936.82
249.385	9948.43
249.456	9976.55
249.527	9971.88
249.598	9994.27
249.669	9988.83
249.739	9997.84
249.81	10002.71
249.881	9962.54
249.952	9951.5
250.023	9948.76
250.094	9909.93
250.165	9891.04
250.235	9888.25
250.306	9887.81
250.377	9863.05
250.448	9882.08
250.519	9828.61
250.59	9877.8
250.66	9880.74
250.731	9939.44
250.802	9937.27
250.873	9949.51
250.944	9964.68
251.014	9955.43
251.085	10030.6
251.156	10056.7
251.227	10100.31
251.297	10143.67
251.368	10187.65
251.439	10215.93
251.51	10257.07
251.58	10245.46
251.651	10244.6
251.722	10294.56
251.792	10259.54
251.863	10254.67
251.934	10301.5
252.005	10389.75
252.075	10397.85
252.146	10446.12
252.217	10486.64
252.287	10522.34
252.358	10523.5
252.429	10585.56
252.499	10585.94
252.57	10594.33
252.641	10630.42
252.711	10635.43
252.782	10606.04
252.852	10667.33
252.923	10669.84
252.994	10679.53
253.064	10726.97
253.135	10699.23
253.205	10680.87
253.276	10737
253.347	10792.59
253.417	10775.44
253.488	10758.71
253.558	10755.05
253.629	10741.85
253.699	10750.96
253.77	10773.56
253.841	10767.88
253.911	10778.62
253.982	10791.82
254.052	10810.62
254.123	10818.23
254.193	10827.49
254.264	10934.04
254.334	10909.13
254.405	10886.09
254.475	10861.47
254.546	10860.41
254.616	10921.26
254.687	10946.95
254.757	10961.98
254.827	10970.32
254.898	10994.12
254.968	11013.21
255.039	10989.12
255.109	11022.65
255.18	11000.53
255.25	10946.13
255.321	10980.97
255.391	10943.66
255.461	11014.94
255.532	10945.59
255.602	10940.04
255.673	10887.04
255.743	10863.28
255.813	10799.68
255.884	10837.07
255.954	10866.42
256.024	10918.37
256.095	10921.89
256.165	10894.8
256.235	10916.35
256.306	10896.11
256.376	10933.41
256.446	10958.57
256.517	10993.07
256.587	11025.31
256.657	11045.21
256.728	11056.68
256.798	11061.12
256.868	11058.85
256.938	11035.52
257.009	11081.02
257.079	11111.86
257.149	11200.24
257.219	11147.22
257.29	11182.68
257.36	11139.41
257.43	11171.51
257.5	11121.29
257.571	11117.72
257.641	11139.94
257.711	11105.62
257.781	11132.85
257.852	11145.53
257.922	11098.01
257.992	11099.5
258.062	11088.22
258.132	11116.13
258.202	11128.61
258.273	11139.98
258.343	11201.14
258.413	11187.94
258.483	11190.73
258.553	11167.07
258.623	11145.43
258.693	11172.18
258.764	11223.64
258.834	11284.94
258.904	11295.16
258.974	11285.91
259.044	11296.99
259.114	11328.56
259.184	11358
259.254	11366.39
259.324	11328.75
259.394	11370.19
259.464	11426.39
259.535	11444.18
259.605	11443.21
259.675	11432.47
259.745	11464.57
259.815	11451.84
259.885	11455.94
259.955	11542.75
260.025	11537.26
260.095	11545.16
260.165	11566.95
260.235	11614.48
260.305	11601.32
260.375	11583.82
260.445	11656.21
260.515	11701.13
260.585	11735.74
260.655	11745.18
260.725	11778.78
260.795	11807.5
260.865	11858.07
260.934	11841.48
261.004	11858.79
261.074	11866.02
261.144	11912.48
261.214	11937.64
261.284	11933.4
261.354	11960.72
261.424	11930.98
261.494	11975.94
261.564	11978.98
261.634	12002.65
261.703	11960.95
261.773	11978.45
261.843	12003.08
261.913	11999.51
261.983	11962.88
262.053	11973.92
262.123	11971.51
262.192	11942.25
262.262	11971.75
262.332	11935.31
262.402	11961.1
262.472	11976.38
262.541	11922.11
262.611	11959.18
262.681	11937.34
262.751	11972.29
262.821	11983.91
262.89	11961.25
262.96	11993.88
263.03	12063.78
263.1	12077.18
263.169	12096.8
263.239	12123.6
263.309	12182.31
263.379	12201.74
263.448	12216.87
263.518	12242.66
263.588	12257.07
263.657	12316.17
263.727	12343.16
263.797	12352.13
263.867	12345.91
263.936	12308.17
264.006	12361.8
264.076	12365.95
264.145	12369.66
