Data from 20250626_urea_1M_exp2_MAYP1162681_02-24-00-950.txt Node
Date: Fri Jun 27 02:24:00 BST 2025
User: adleo
Spectrometer: MAYP116268
Trigger mode: 0
Integration Time (sec): 3.000000E0
Scans to average: 1
Electric dark correction enabled: true
Nonlinearity correction enabled: true
Boxcar width: 10
XAxis mode: Wavelengths
Number of Pixels in Spectrum: 2068
>>>>>Begin Spectral Data<<<<<
179.565	2765.56
179.642	2909.95
179.718	3015.28
179.795	3122.85
179.871	3204.56
179.948	3247.07
180.024	3297.09
180.101	3352.49
180.177	3385.89
180.254	3444.97
180.33	3502.68
180.407	3689.42
180.483	3905.47
180.56	4122.74
180.636	4323
180.712	4296.82
180.789	4317.01
180.865	4346.55
180.942	4369.93
181.018	4397.15
181.095	4430.8
181.171	4443.38
181.248	4442.47
181.324	4484.69
181.4	4496.13
181.477	4521.49
181.553	4555.06
181.63	4607.22
181.706	4650.74
181.782	4677.66
181.859	4678.09
181.935	4691.74
182.011	4686.33
182.088	4725.77
182.164	4772.91
182.24	4801.23
182.317	4820.37
182.393	4818.17
182.469	4852.97
182.546	4885.1
182.622	4897.98
182.698	4891.18
182.775	4922.16
182.851	4956.82
182.927	4935.84
183.003	4925.08
183.08	4912.25
183.156	4934.8
183.232	4927.32
183.308	4899.22
183.385	4912.76
183.461	4950.02
183.537	4947.63
183.613	4976.36
183.69	4954.86
183.766	4930.56
183.842	4954.7
183.918	4968.78
183.995	5000.95
184.071	5008.38
184.147	4993.05
184.223	4962.19
184.299	4988.06
184.375	4958.99
184.452	4976.1
184.528	5077
184.604	5107.55
184.68	5136.38
184.756	5155.83
184.832	5166.08
184.908	5179.53
184.985	5182.69
185.061	5144.1
185.137	5167.43
185.213	5139.94
185.289	5142.62
185.365	5120.59
185.441	5112.83
185.517	5152.23
185.593	5142.03
185.669	5134.36
185.745	5162.48
185.822	5201.06
185.898	5181.56
185.974	5203.1
186.05	5180.49
186.126	5117.72
186.202	5095.07
186.278	5083.28
186.354	5059.09
186.43	5081.04
186.506	5072.47
186.582	5069.79
186.658	5092.29
186.734	5047.28
186.81	5054.27
186.886	5063.8
186.962	5101.25
187.038	5091.96
187.114	5071.67
187.19	5092.37
187.266	5067.67
187.341	5068.29
187.417	5052.34
187.493	5049.18
187.569	5058.48
187.645	5046.55
187.721	5017.61
187.797	5041.17
187.873	5053.15
187.949	5037.11
188.025	5014.63
188.101	5024.25
188.176	5035.55
188.252	5021
188.328	5038.37
188.404	5037.08
188.48	5023.38
188.556	4998.67
188.632	5003.74
188.707	4999.14
188.783	4993.73
188.859	4981
188.935	4951.73
189.011	4969.59
189.086	4955.23
189.162	4934.54
189.238	4929.7
189.314	4922.18
189.39	4906.62
189.465	4889.33
189.541	4932.72
189.617	4896
189.693	4881.88
189.768	4892.08
189.844	4953.71
189.92	4931.51
189.996	4954.31
190.071	4980.27
190.147	4981.32
190.223	5002.88
190.298	4987.98
190.374	4953.45
190.45	4987.01
190.526	5006.93
190.601	4997.31
190.677	5002.24
190.753	5076.45
190.828	5086.46
190.904	5124.55
190.98	5160.77
191.055	5189.51
191.131	5169.87
191.207	5225.86
191.282	5248.6
191.358	5225.61
191.433	5188.07
191.509	5222.19
191.585	5211.65
191.66	5214.67
191.736	5233.93
191.811	5213.13
191.887	5249.94
191.963	5308.78
192.038	5320.61
192.114	5324.3
192.189	5334.27
192.265	5325.94
192.34	5261.92
192.416	5262.83
192.491	5257.27
192.567	5263.74
192.642	5271.94
192.718	5274.34
192.793	5241.51
192.869	5235.28
192.944	5237.63
193.02	5257.09
193.095	5267.68
193.171	5288.81
193.246	5291.59
193.322	5282.68
193.397	5280
193.473	5243.43
193.548	5202.21
193.624	5217.88
193.699	5212.18
193.775	5252.31
193.85	5257
193.925	5280.38
194.001	5272.24
194.076	5248.86
194.152	5220.96
194.227	5200.55
194.302	5171.39
194.378	5179.43
194.453	5170.1
194.529	5197.69
194.604	5156.58
194.679	5146.14
194.755	5094.71
194.83	5122.52
194.905	5113.37
194.981	5131.96
195.056	5120.42
195.131	5132.83
195.207	5121.51
195.282	5096.66
195.357	5045.09
195.433	5085.42
195.508	5057.68
195.583	5080.67
195.659	5117.9
195.734	5137.12
195.809	5136.45
195.884	5162.16
195.96	5165.47
196.035	5201.83
196.11	5198.9
196.185	5232.1
196.261	5231.05
196.336	5309.1
196.411	5268.73
196.486	5287.85
196.561	5269.02
196.637	5290.62
196.712	5332.91
196.787	5341.4
196.862	5380.72
196.937	5407.03
197.013	5419.49
197.088	5445.75
197.163	5493.95
197.238	5534.16
197.313	5532.1
197.388	5568.34
197.464	5641.97
197.539	5670.25
197.614	5654.44
197.689	5680.91
197.764	5720.38
197.839	5776.62
197.914	5764.72
197.989	5823.95
198.065	5857.47
198.14	5989.52
198.215	6054.85
198.29	6077.7
198.365	6115.65
198.44	6143.61
198.515	6209.35
198.59	6245.54
198.665	6307.97
198.74	6334.91
198.815	6338.89
198.89	6396.91
198.965	6466.98
199.04	6459.97
199.115	6496.05
199.19	6601.45
199.265	6612.78
199.34	6639.09
199.415	6723.8
199.49	6773.1
199.565	6796.34
199.64	6858.58
199.715	6851.46
199.79	6865.2
199.865	6881.72
199.94	6878.17
200.015	6963.21
200.09	6977.14
200.165	6995.83
200.24	7013.46
200.315	7104.97
200.39	7142.79
200.464	7155.85
200.539	7152.73
200.614	7190.01
200.689	7249.3
200.764	7260.65
200.839	7300.65
200.914	7314.34
200.989	7285.25
201.063	7319.71
201.138	7272.95
201.213	7270.26
201.288	7222.4
201.363	7233.02
201.438	7236.14
201.512	7271.35
201.587	7224.86
201.662	7236.3
201.737	7267.59
201.812	7292.06
201.886	7210.97
201.961	7236.07
202.036	7206.92
202.111	7203.56
202.186	7128.52
202.26	7080.41
202.335	7028.22
202.41	7017.46
202.485	6973.33
202.559	6923.47
202.634	6855.21
202.709	6885.63
202.784	6839.33
202.858	6839.33
202.933	6797.12
203.008	6779.58
203.082	6729.55
203.157	6725.37
203.232	6617.87
203.306	6561.08
203.381	6475.4
203.456	6418.12
203.53	6359.33
203.605	6309.4
203.68	6248.03
203.754	6231.73
203.829	6198.89
203.904	6152.21
203.978	6117.74
204.053	6124.41
204.127	6093.61
204.202	6091.4
204.277	6043.18
204.351	6023.37
204.426	6003.73
204.5	5984.3
204.575	5897.74
204.65	5924.48
204.724	5902.24
204.799	5930.43
204.873	5921.5
204.948	5920.44
205.022	5895.41
205.097	5874.67
205.171	5914.09
205.246	5937.85
205.32	5940.63
205.395	5938.66
205.469	5916.96
205.544	5933.75
205.618	5891.68
205.693	5920.37
205.767	5889.11
205.842	5942.22
205.916	5928.31
205.991	5900.35
206.065	5910.76
206.14	5945.44
206.214	5935.22
206.289	5916.31
206.363	5938.52
206.438	5942.94
206.512	5955.03
206.586	5998.29
206.661	6018.16
206.735	5961.16
206.81	5965.19
206.884	5999.44
206.958	5965.82
207.033	6002.54
207.107	6017.04
207.181	6099.17
207.256	6084.58
207.33	6134.28
207.405	6164.26
207.479	6211.33
207.553	6231.62
207.628	6195.61
207.702	6228.8
207.776	6211.43
207.851	6216.85
207.925	6255.26
207.999	6248.4
208.073	6247.44
208.148	6256.32
208.222	6229.24
208.296	6303.48
208.371	6343.36
208.445	6363.86
208.519	6434.53
208.593	6471.49
208.668	6462.9
208.742	6469.14
208.816	6472.98
208.89	6503.43
208.965	6497.96
209.039	6520.68
209.113	6563.5
209.187	6613.77
209.261	6600
209.336	6650.94
209.41	6702.75
209.484	6709.77
209.558	6765.24
209.632	6795.97
209.707	6821.33
209.781	6878.53
209.855	6921.58
209.929	6963.23
210.003	6986.62
210.077	6983.98
210.151	7096.75
210.226	7184.81
210.3	7251.43
210.374	7308.15
210.448	7316.75
210.522	7349.1
210.596	7374.19
210.67	7400.24
210.744	7521.06
210.818	7607.86
210.892	7656.95
210.966	7649.83
211.041	7681.75
211.115	7669.26
211.189	7733.29
211.263	7780.16
211.337	7790.64
211.411	7826.32
211.485	7811.22
211.559	7841.31
211.633	7849.86
211.707	7775.81
211.781	7795.16
211.855	7706.92
211.929	7688.09
212.003	7643.46
212.077	7659.96
212.151	7685.4
212.225	7704.92
212.299	7672.73
212.373	7642.15
212.447	7630.37
212.52	7698.17
212.594	7707.16
212.668	7733.84
212.742	7694.89
212.816	7674.41
212.89	7661.43
212.964	7657.68
213.038	7661.48
213.112	7683.99
213.186	7720.13
213.26	7664.74
213.333	7542.59
213.407	7552.58
213.481	7561.28
213.555	7588.65
213.629	7561.67
213.703	7517.82
213.777	7511.57
213.85	7452.14
213.924	7530.93
213.998	7531.79
214.072	7511.68
214.146	7473.08
214.219	7466.3
214.293	7451.83
214.367	7456.21
214.441	7474.14
214.515	7438.75
214.588	7372.61
214.662	7285.82
214.736	7230.56
214.81	7249.23
214.883	7272.81
214.957	7236.16
215.031	7195.3
215.105	7126.81
215.178	7075.64
215.252	7048.5
215.326	6977.82
215.4	6923
215.473	6794.28
215.547	6727.24
215.621	6676.77
215.694	6674.36
215.768	6603.18
215.842	6556.13
215.915	6501.89
215.989	6415.58
216.063	6372.53
216.136	6361.25
216.21	6339.89
216.284	6346.28
216.357	6327.08
216.431	6287.67
216.504	6289.78
216.578	6331.65
216.652	6342.78
216.725	6330.92
216.799	6334.91
216.873	6316.15
216.946	6325.64
217.02	6288.38
217.093	6268.61
217.167	6200.17
217.24	6141.74
217.314	6116.47
217.387	6082.47
217.461	6051.23
217.535	6069.56
217.608	6019.91
217.682	6002.2
217.755	6014.82
217.829	5977.33
217.902	5956.17
217.976	5948.3
218.049	5910.98
218.123	5853.42
218.196	5857.06
218.27	5830.58
218.343	5782.83
218.417	5784.17
218.49	5767.1
218.563	5804.41
218.637	5813.47
218.71	5865.49
218.784	5886.46
218.857	5911.54
218.931	5929.22
219.004	5930.76
219.077	5946.36
219.151	5964.63
219.224	5953.55
219.298	5952.97
219.371	5981
219.444	5959.23
219.518	5964.89
219.591	5979.56
219.665	6054.04
219.738	6060.14
219.811	6046.42
219.885	6081.64
219.958	6106.41
220.031	6110.15
220.105	6127.19
220.178	6129.78
220.251	6106.21
220.325	6119.89
220.398	6128.86
220.471	6145.08
220.544	6171.9
220.618	6152.99
220.691	6174.53
220.764	6191.32
220.838	6211.24
220.911	6202.99
220.984	6264.4
221.057	6290.89
221.131	6310.08
221.204	6241.74
221.277	6296.52
221.35	6397.25
221.424	6385.44
221.497	6395.57
221.57	6411.69
221.643	6436.28
221.716	6467.83
221.79	6480.83
221.863	6493.71
221.936	6501.39
222.009	6514.2
222.082	6536.29
222.155	6547.14
222.229	6595.31
222.302	6617.68
222.375	6623.49
222.448	6652.07
222.521	6654.47
222.594	6659.32
222.667	6634.56
222.74	6680.89
222.814	6670.94
222.887	6651.77
222.96	6694.27
223.033	6726.12
223.106	6745.46
223.179	6767.47
223.252	6776.84
223.325	6794.27
223.398	6802.3
223.471	6824.05
223.544	6842.72
223.617	6858.72
223.69	6875.15
223.763	6846.46
223.837	6870.2
223.91	6890.28
223.983	6855.61
224.056	6837.27
224.129	6852.25
224.202	6896.45
224.275	6882.47
224.348	6864.75
224.42	6841.31
224.493	6800.44
224.566	6784.73
224.639	6798.27
224.712	6777.7
224.785	6769.96
224.858	6761.99
224.931	6747.24
225.004	6714.02
225.077	6710.71
225.15	6639.99
225.223	6639.51
225.296	6697.76
225.369	6653.86
225.442	6629.51
225.514	6642.95
225.587	6655.24
225.66	6660.81
225.733	6669.03
225.806	6676.81
225.879	6673.64
225.952	6647.72
226.025	6689.79
226.097	6723.05
226.17	6716.95
226.243	6669.7
226.316	6665.33
226.389	6667.49
226.461	6683.87
226.534	6705.72
226.607	6702.55
226.68	6762.74
226.753	6758.95
226.825	6702.86
226.898	6740.22
226.971	6743.58
227.044	6762.02
227.117	6765.09
227.189	6781.57
227.262	6804.64
227.335	6819.34
227.407	6813.44
227.48	6838.93
227.553	6842.87
227.626	6827
227.698	6835.07
227.771	6863.63
227.844	6853.21
227.916	6872.47
227.989	6847.4
228.062	6850.8
228.134	6913.76
228.207	6914.24
228.28	6905.26
228.352	6912.08
228.425	6922.36
228.498	6955.9
228.57	6941.39
228.643	6987.96
228.716	6989.93
228.788	6983.59
228.861	6982.05
228.934	7036
229.006	7041.66
229.079	7042.58
229.151	7038.11
229.224	7011.03
229.296	7031.39
229.369	7104.51
229.442	7138.2
229.514	7125.19
229.587	7149.64
229.659	7091.83
229.732	7105.48
229.804	7141.84
229.877	7202.27
229.949	7218.56
230.022	7256.7
230.094	7256.8
230.167	7246.84
230.239	7211.87
230.312	7200.53
230.384	7247.55
230.457	7244.86
230.529	7259.8
230.602	7259.12
230.674	7263.79
230.747	7293.51
230.819	7313.79
230.892	7229.44
230.964	7233.43
231.037	7256.24
231.109	7254.85
231.181	7287.37
231.254	7258.79
231.326	7243.99
231.399	7229.7
231.471	7213.6
231.544	7151.92
231.616	7186.94
231.688	7196.99
231.761	7187.19
231.833	7178.5
231.905	7113.89
231.978	7115.05
232.05	7094.82
232.122	7101.46
232.195	7087.71
232.267	7118.9
232.339	7100.44
232.412	7151.66
232.484	7126.75
232.556	7105.43
232.629	7160.25
232.701	7170.25
232.773	7181.78
232.846	7177.89
232.918	7178.46
232.99	7187.98
233.062	7223.69
233.135	7227.87
233.207	7196.63
233.279	7230.11
233.351	7250.52
233.424	7256.77
233.496	7227.75
233.568	7295.66
233.64	7267.51
233.713	7279.18
233.785	7278.65
233.857	7289.42
233.929	7249.3
234.001	7298.59
234.074	7348.07
234.146	7290.46
234.218	7285.85
234.29	7285.94
234.362	7274.18
234.434	7235.86
234.507	7214.24
234.579	7177.14
234.651	7166.71
234.723	7194.44
234.795	7209.67
234.867	7211.45
234.939	7257.21
235.012	7278.21
235.084	7278.98
235.156	7308.62
235.228	7291.85
235.3	7276.37
235.372	7289.02
235.444	7335.68
235.516	7275.57
235.588	7279.51
235.66	7292.68
235.732	7278.6
235.804	7427.43
235.876	7466.63
235.948	7516.1
236.02	7525.04
236.092	7535.66
236.164	7546.76
236.236	7541.09
236.308	7538.35
236.38	7561.62
236.452	7544.79
236.524	7555.17
236.596	7598.62
236.668	7620.21
236.74	7635.88
236.812	7655.01
236.884	7678.43
236.956	7682.95
237.028	7681.89
237.1	7673
237.172	7721.72
237.244	7779.04
237.316	7693.82
237.388	7677.48
237.46	7663.1
237.532	7707.38
237.604	7699.45
237.675	7750.14
237.747	7786.07
237.819	7776.99
237.891	7775.06
237.963	7769.44
238.035	7771.79
238.107	7692.23
238.178	7738.51
238.25	7750.72
238.322	7819.91
238.394	7786.83
238.466	7786.49
238.538	7817.4
238.609	7851.25
238.681	7815.27
238.753	7795.01
238.825	7800.11
238.897	7823.57
238.968	7881.45
239.04	7865.05
239.112	7950.84
239.184	7918.33
239.255	7912.89
239.327	7936.88
239.399	7950.1
239.471	7983.28
239.542	8007.52
239.614	8053.97
239.686	7995.14
239.758	8031.26
239.829	8004.98
239.901	8056.44
239.973	8068.32
240.044	8093.66
240.116	8100.64
240.188	8108.57
240.259	8121.37
240.331	8115.02
240.403	8139.93
240.474	8104.6
240.546	8098.4
240.618	8050.87
240.689	8050.58
240.761	8065.35
240.833	8110.19
240.904	8113.46
240.976	8115.04
241.048	8135.06
241.119	8168.46
241.191	8200.97
241.262	8253.1
241.334	8248.58
241.405	8244.68
241.477	8243.96
241.549	8252.86
241.62	8269.17
241.692	8308.14
241.763	8351.17
241.835	8369.5
241.906	8390.81
241.978	8370.9
242.049	8425.94
242.121	8474.62
242.192	8529.81
242.264	8504.65
242.335	8477.75
242.407	8516.01
242.478	8518.94
242.55	8528.28
242.621	8511.48
242.693	8516.92
242.764	8505.26
242.836	8514.12
242.907	8541.26
242.979	8574.61
243.05	8587.41
243.122	8604.59
243.193	8601.27
243.264	8548.33
243.336	8551.13
243.407	8572.16
243.479	8631.44
243.55	8645.6
243.622	8654.69
243.693	8649.78
243.764	8706.47
243.836	8688.53
243.907	8674
243.978	8678.13
244.05	8694.55
244.121	8661.64
244.192	8688.88
244.264	8655.71
244.335	8667.17
244.407	8626.99
244.478	8632.33
244.549	8626.22
244.62	8594.07
244.692	8585.6
244.763	8623.37
244.834	8613.31
244.906	8597.48
244.977	8614.67
245.048	8653.19
245.119	8631.68
245.191	8614.5
245.262	8564.3
245.333	8617.47
245.405	8634.5
245.476	8660.2
245.547	8670.17
245.618	8714.77
245.689	8720.89
245.761	8739.85
245.832	8740.76
245.903	8778.83
245.974	8797.94
246.045	8809.68
246.117	8876.78
246.188	8872.74
246.259	8855.22
246.33	8869.71
246.401	8875.92
246.473	8848.52
246.544	8836.63
246.615	8885.54
246.686	8895.31
246.757	8949.64
246.828	8934.91
246.899	8987.16
246.97	8963.29
247.042	8957.66
247.113	8989.25
247.184	9056.34
247.255	9059.95
247.326	9086.57
247.397	9091
247.468	9095.96
247.539	9108.82
247.61	9074.15
247.681	9102.74
247.752	9144.23
247.823	9126.85
247.894	9141.2
247.965	9118.05
248.037	9099.13
248.108	9060.37
248.179	9061.72
248.25	9059.98
248.321	9090.21
248.392	9053.75
248.463	9114.94
248.534	9114.94
248.605	9126.01
248.675	9108.09
248.746	9124.51
248.817	9133.61
248.888	9151.28
248.959	9112.15
249.03	9128.57
249.101	9135.4
249.172	9126.93
249.243	9072.98
249.314	9123.09
249.385	9129.11
249.456	9150.09
249.527	9150.76
249.598	9171.51
249.669	9174.54
249.739	9183.55
249.81	9191.3
249.881	9162.18
249.952	9153.41
250.023	9153.65
250.094	9114.65
250.165	9089.84
250.235	9083.29
250.306	9088.69
250.377	9062.4
250.448	9084.4
250.519	9034.43
250.59	9073.1
250.66	9067.8
250.731	9118.72
250.802	9111.5
250.873	9126.72
250.944	9150.4
251.014	9151.7
251.085	9209.84
251.156	9227.6
251.227	9266.13
251.297	9297
251.368	9330.36
251.439	9365.14
251.51	9401.59
251.58	9398.85
251.651	9396.97
251.722	9437.57
251.792	9402.41
251.863	9408.38
251.934	9453.07
252.005	9541.96
252.075	9548.75
252.146	9591.35
252.217	9630.46
252.287	9664.61
252.358	9663.26
252.429	9714.75
252.499	9705.21
252.57	9718.37
252.641	9753.04
252.711	9751.79
252.782	9727.27
252.852	9784.93
252.923	9780.02
252.994	9794.08
253.064	9828.56
253.135	9810.21
253.205	9790.32
253.276	9845.13
253.347	9892.12
253.417	9876.13
253.488	9860.43
253.558	9853.16
253.629	9855.13
253.699	9863.22
253.77	9883.84
253.841	9879.27
253.911	9886.06
253.982	9903.44
254.052	9927.78
254.123	9939.29
254.193	9943.29
254.264	10044.03
254.334	10024.33
254.405	10005.11
254.475	9975.05
254.546	9974.77
254.616	10026.44
254.687	10048.74
254.757	10064.21
254.827	10062.48
254.898	10082.08
254.968	10092.29
255.039	10079.05
255.109	10105.92
255.18	10084.73
255.25	10036.75
255.321	10065.12
255.391	10038.09
255.461	10100.76
255.532	10034.04
255.602	10026.52
255.673	9983.99
255.743	9959.32
255.813	9907.5
255.884	9943.38
255.954	9969.06
256.024	10024.94
256.095	10023.35
256.165	10004.37
256.235	10013.24
256.306	10002.64
256.376	10039.16
256.446	10065.61
256.517	10090.51
256.587	10130.26
256.657	10149.29
256.728	10161.14
256.798	10169.52
256.868	10166.15
256.938	10142.39
257.009	10178.81
257.079	10201.74
257.149	10280.55
257.219	10238.73
257.29	10268.15
257.36	10222.2
257.43	10250.92
257.5	10200.33
257.571	10194.45
257.641	10221.48
257.711	10197.43
257.781	10230.77
257.852	10244.16
257.922	10200.61
257.992	10200.76
258.062	10185.58
258.132	10214.92
258.202	10225.71
258.273	10238.57
258.343	10290.71
258.413	10280.4
258.483	10289.7
258.553	10274.66
258.623	10256.35
258.693	10274.56
258.764	10324.71
258.834	10383.34
258.904	10400.59
258.974	10394.09
259.044	10404.49
259.114	10430.61
259.184	10456.48
259.254	10456.09
259.324	10417.64
259.394	10449.82
259.464	10509.09
259.535	10516.08
259.605	10514.34
259.675	10509.96
259.745	10533.04
259.815	10523.02
259.885	10522.34
259.955	10610.11
260.025	10600.33
260.095	10613.29
260.165	10638.01
260.235	10686.69
260.305	10671.85
260.375	10647.08
260.445	10715.1
260.515	10760.69
260.585	10795.39
260.655	10805.22
260.725	10836.92
260.795	10867.42
260.865	10919.9
260.934	10897.25
261.004	10922.26
261.074	10920.33
261.144	10968.46
261.214	10998.63
261.284	10995.65
261.354	11029.47
261.424	10986.57
261.494	11044.05
261.564	11042.36
261.634	11061.74
261.703	11009.64
261.773	11033.44
261.843	11067.08
261.913	11059.08
261.983	11020.14
262.053	11033.2
262.123	11026.31
262.192	10998.65
262.262	11022.27
262.332	10989.59
262.402	11019.91
262.472	11025.54
262.541	10996.4
262.611	11023.67
262.681	11004.11
262.751	11033.89
262.821	11035.57
262.89	11015.33
262.96	11033.6
263.03	11100.3
263.1	11118.04
263.169	11136.83
263.239	11161.17
263.309	11216.16
263.379	11238.96
263.448	11256.83
263.518	11269.41
263.588	11282.33
263.657	11339.19
263.727	11369.56
263.797	11379.29
263.867	11378.57
263.936	11347.39
264.006	11386.8
264.076	11389.45
264.145	11385.4
264.215	11372.44
264.285	11404.34
264.354	11374.03
