Data from 20250626_urea_1M_exp2_MAYP1162681_11-03-58-417.txt Node
Date: Fri Jun 27 11:03:58 BST 2025
User: adleo
Spectrometer: MAYP116268
Trigger mode: 0
Integration Time (sec): 3.000000E0
Scans to average: 1
Electric dark correction enabled: true
Nonlinearity correction enabled: true
Boxcar width: 10
XAxis mode: Wavelengths
Number of Pixels in Spectrum: 2068
>>>>>Begin Spectral Data<<<<<
179.565	3180.35
179.642	3339.07
179.718	3465.24
179.795	3583.02
179.871	3675.04
179.948	3735.82
180.024	3797.73
180.101	3860.75
180.177	3897.56
180.254	3962.11
180.33	4023.53
180.407	4242.47
180.483	4489.83
180.56	4737.26
180.636	4968.14
180.712	4929.99
180.789	4952.7
180.865	4989.7
180.942	5011.2
181.018	5045.58
181.095	5082.34
181.171	5090.63
181.248	5099.01
181.324	5140.52
181.4	5155.18
181.477	5186.47
181.553	5217.03
181.63	5272.76
181.706	5315.37
181.782	5347.4
181.859	5349.85
181.935	5367.2
182.011	5363.12
182.088	5409.77
182.164	5459.59
182.24	5497.11
182.317	5525.28
182.393	5522.69
182.469	5559.6
182.546	5596.99
182.622	5607.59
182.698	5594.11
182.775	5634.15
182.851	5670.44
182.927	5646.85
183.003	5637.84
183.08	5622.07
183.156	5647.15
183.232	5640.96
183.308	5615.45
183.385	5632.13
183.461	5672.7
183.537	5677.01
183.613	5708.28
183.69	5682.77
183.766	5656.43
183.842	5679.02
183.918	5693.84
183.995	5729.56
184.071	5736.8
184.147	5719.59
184.223	5687.82
184.299	5722.74
184.375	5689.8
184.452	5704.67
184.528	5815.82
184.604	5844.53
184.68	5878.77
184.756	5898.82
184.832	5907.31
184.908	5920.35
184.985	5921.64
185.061	5882.04
185.137	5903.1
185.213	5872.84
185.289	5875.47
185.365	5858.98
185.441	5850.49
185.517	5887.4
185.593	5873.82
185.669	5865.72
185.745	5898.38
185.822	5947.37
185.898	5923.72
185.974	5947.59
186.05	5925.95
186.126	5859.46
186.202	5841.96
186.278	5826.42
186.354	5805.26
186.43	5826.47
186.506	5820.29
186.582	5817.03
186.658	5836.92
186.734	5783.89
186.81	5788.26
186.886	5793.96
186.962	5823.31
187.038	5815.97
187.114	5795.13
187.19	5817.25
187.266	5796.25
187.341	5793.08
187.417	5772.17
187.493	5771.5
187.569	5782.73
187.645	5764.41
187.721	5734.52
187.797	5758.55
187.873	5776.53
187.949	5751.61
188.025	5733.66
188.101	5741.42
188.176	5757.53
188.252	5744.02
188.328	5763.8
188.404	5758.34
188.48	5745.97
188.556	5724.1
188.632	5721.9
188.707	5720.12
188.783	5716.47
188.859	5702.48
188.935	5670.64
189.011	5690.68
189.086	5675.39
189.162	5648.72
189.238	5648.63
189.314	5642.78
189.39	5624.12
189.465	5600.48
189.541	5652.08
189.617	5604.71
189.693	5586.84
189.768	5597.78
189.844	5666.68
189.92	5640.86
189.996	5672.32
190.071	5703.97
190.147	5707.32
190.223	5729.77
190.298	5706.41
190.374	5665.56
190.45	5700.31
190.526	5723.57
190.601	5712.44
190.677	5717.14
190.753	5798.4
190.828	5806.31
190.904	5848.15
190.98	5889.74
191.055	5916.99
191.131	5894.05
191.207	5954.52
191.282	5987.02
191.358	5958.97
191.433	5918.78
191.509	5962.92
191.585	5954.14
191.66	5952.95
191.736	5975.34
191.811	5950.69
191.887	5995.12
191.963	6056.04
192.038	6063.62
192.114	6069.09
192.189	6071.87
192.265	6061.33
192.34	5995.12
192.416	5991.38
192.491	5979.52
192.567	5988.02
192.642	5999.97
192.718	5998.15
192.793	5966.34
192.869	5958.38
192.944	5966.19
193.02	5983.23
193.095	5993.98
193.171	6011.73
193.246	6010.14
193.322	6002.9
193.397	6004.67
193.473	5971.32
193.548	5928.37
193.624	5948.48
193.699	5942.49
193.775	5989.81
193.85	5995.7
193.925	6021.66
194.001	6022.09
194.076	5998.73
194.152	5963.12
194.227	5941.28
194.302	5921.82
194.378	5928.58
194.453	5914.72
194.529	5947.35
194.604	5908.49
194.679	5893.67
194.755	5837.43
194.83	5875.06
194.905	5866.91
194.981	5891.28
195.056	5868.12
195.131	5886.73
195.207	5878.96
195.282	5851.14
195.357	5797.35
195.433	5841.57
195.508	5810.91
195.583	5827.46
195.659	5872.18
195.734	5893.15
195.809	5888.6
195.884	5912.14
195.96	5913.39
196.035	5955.65
196.11	5947.53
196.185	5981.45
196.261	5984.61
196.336	6074.42
196.411	6028.68
196.486	6044.65
196.561	6025.46
196.637	6055.24
196.712	6095.32
196.787	6104.64
196.862	6150.88
196.937	6177.4
197.013	6195.27
197.088	6219.78
197.163	6278.31
197.238	6320.26
197.313	6318.72
197.388	6357.12
197.464	6432.8
197.539	6468.94
197.614	6452.24
197.689	6479.95
197.764	6525.38
197.839	6588.32
197.914	6569.59
197.989	6636.86
198.065	6677.04
198.14	6821.51
198.215	6895.53
198.29	6929.17
198.365	6972.69
198.44	7000.5
198.515	7077.75
198.59	7112.35
198.665	7186.24
198.74	7207.63
198.815	7211.23
198.89	7272.87
198.965	7356.42
199.04	7348.59
199.115	7390.39
199.19	7507.01
199.265	7518.74
199.34	7543.88
199.415	7631.47
199.49	7688.7
199.565	7710.04
199.64	7774.57
199.715	7762.25
199.79	7781.29
199.865	7797.4
199.94	7785.48
200.015	7874.59
200.09	7888.59
200.165	7909.56
200.24	7929.13
200.315	8042.87
200.39	8086.78
200.464	8106.11
200.539	8106.64
200.614	8150.12
200.689	8214.1
200.764	8231.23
200.839	8276.42
200.914	8290.61
200.989	8255.43
201.063	8301.32
201.138	8261.96
201.213	8259.17
201.288	8204.34
201.363	8210.25
201.438	8211.94
201.512	8258.38
201.587	8210.36
201.662	8220.13
201.737	8254.38
201.812	8277.58
201.886	8189.24
201.961	8212.53
202.036	8180.51
202.111	8173.05
202.186	8091.39
202.26	8037.21
202.335	7973.71
202.41	7953.66
202.485	7912.17
202.559	7866.15
202.634	7788.67
202.709	7808.71
202.784	7757.12
202.858	7758.17
202.933	7712.26
203.008	7691
203.082	7636.54
203.157	7632.3
203.232	7518.28
203.306	7454.61
203.381	7363.2
203.456	7295.71
203.53	7228.35
203.605	7170.67
203.68	7108.36
203.754	7093.34
203.829	7056.33
203.904	7002.82
203.978	6972.35
204.053	6986.14
204.127	6949.34
204.202	6937.38
204.277	6891.61
204.351	6870.32
204.426	6850.52
204.5	6827.85
204.575	6732.02
204.65	6757.2
204.724	6731.1
204.799	6758.45
204.873	6751.34
204.948	6746.54
205.022	6712.26
205.097	6692.99
205.171	6734.43
205.246	6756.48
205.32	6755.91
205.395	6757.83
205.469	6733.02
205.544	6750.56
205.618	6693.4
205.693	6720.63
205.767	6691.39
205.842	6748.95
205.916	6732.29
205.991	6705.48
206.065	6720.33
206.14	6760.67
206.214	6749.23
206.289	6735.3
206.363	6765.12
206.438	6774.06
206.512	6792.46
206.586	6844.56
206.661	6865.37
206.735	6806.71
206.81	6805.66
206.884	6842.1
206.958	6805.94
207.033	6854.81
207.107	6871.34
207.181	6958.71
207.256	6947.08
207.33	6998.13
207.405	7033.82
207.479	7089.26
207.553	7110.58
207.628	7065.36
207.702	7102.1
207.776	7080.72
207.851	7087.44
207.925	7129.41
207.999	7114.28
208.073	7109.81
208.148	7114.95
208.222	7083.95
208.296	7168.85
208.371	7213.91
208.445	7242.51
208.519	7313.18
208.593	7347.44
208.668	7337.83
208.742	7346.24
208.816	7352.06
208.89	7392.02
208.965	7384.8
209.039	7407.21
209.113	7449.75
209.187	7509.05
209.261	7497.43
209.336	7554.43
209.41	7608.91
209.484	7605.59
209.558	7668.67
209.632	7702.75
209.707	7734.72
209.781	7796.93
209.855	7842.29
209.929	7888.74
210.003	7906.44
210.077	7905.96
210.151	8031.87
210.226	8135.62
210.3	8210
210.374	8275.2
210.448	8287.85
210.522	8323.41
210.596	8351.6
210.67	8382.3
210.744	8510.98
210.818	8603.16
210.892	8660.58
210.966	8644.42
211.041	8685.94
211.115	8676.27
211.189	8741.9
211.263	8789.63
211.337	8802.19
211.411	8845.61
211.485	8828.23
211.559	8863.02
211.633	8875.71
211.707	8793.71
211.781	8804.79
211.855	8711.26
211.929	8682.74
212.003	8632
212.077	8654.29
212.151	8688.62
212.225	8712.1
212.299	8686.15
212.373	8652.12
212.447	8638.74
212.52	8718.68
212.594	8729.18
212.668	8761.17
212.742	8721.33
212.816	8709.92
212.89	8695.1
212.964	8683.78
213.038	8694.37
213.112	8729.04
213.186	8768.11
213.26	8703.96
213.333	8573.13
213.407	8580.34
213.481	8592.41
213.555	8621.16
213.629	8582.27
213.703	8528.99
213.777	8517.68
213.85	8454.82
213.924	8538.67
213.998	8538
214.072	8515.75
214.146	8475.14
214.219	8463.1
214.293	8445.5
214.367	8446.08
214.441	8465.95
214.515	8425.33
214.588	8352.67
214.662	8243.99
214.736	8180.35
214.81	8198.19
214.883	8217.03
214.957	8182.55
215.031	8134.53
215.105	8057.31
215.178	8006.8
215.252	7979.3
215.326	7902.49
215.4	7832.75
215.473	7687.69
215.547	7613.04
215.621	7557.07
215.694	7551.49
215.768	7469.52
215.842	7413.96
215.915	7348.16
215.989	7258.68
216.063	7214.2
216.136	7194.49
216.21	7175.61
216.284	7181.38
216.357	7156.14
216.431	7124.38
216.504	7116.35
216.578	7157.6
216.652	7168.78
216.725	7149.8
216.799	7154.17
216.873	7138.7
216.946	7146.39
217.02	7119.88
217.093	7099.99
217.167	7023.93
217.24	6956.69
217.314	6924.62
217.387	6893.08
217.461	6859.36
217.535	6876.46
217.608	6824.73
217.682	6810.46
217.755	6822.03
217.829	6776.92
217.902	6767.36
217.976	6747.43
218.049	6706.41
218.123	6641.64
218.196	6643.7
218.27	6610.9
218.343	6552.86
218.417	6547.86
218.49	6527.98
218.563	6561.64
218.637	6566.78
218.71	6622.7
218.784	6642.92
218.857	6669.76
218.931	6688.67
219.004	6691.4
219.077	6708.71
219.151	6722.29
219.224	6708.99
219.298	6703.75
219.371	6741.47
219.444	6710.74
219.518	6725.67
219.591	6745.02
219.665	6840.73
219.738	6850.96
219.811	6842.89
219.885	6875.41
219.958	6899.77
220.031	6902.03
220.105	6919.33
220.178	6920.14
220.251	6895.92
220.325	6920.15
220.398	6933.36
220.471	6952.04
220.544	6981.2
220.618	6956.54
220.691	6981.71
220.764	6998.48
220.838	7015.53
220.911	7005.82
220.984	7076.2
221.057	7100.8
221.131	7118.33
221.204	7030.3
221.277	7087.84
221.35	7187.03
221.424	7186.5
221.497	7198.28
221.57	7217.97
221.643	7241.67
221.716	7284.12
221.79	7290.94
221.863	7298.78
221.936	7312.04
222.009	7324.1
222.082	7350.78
222.155	7363.32
222.229	7411.02
222.302	7435.72
222.375	7445.38
222.448	7473.89
222.521	7476.44
222.594	7476.96
222.667	7457.13
222.74	7513.11
222.814	7504.36
222.887	7489.11
222.96	7531.76
223.033	7564.36
223.106	7586.37
223.179	7614.22
223.252	7620.14
223.325	7640.9
223.398	7649.75
223.471	7668.25
223.544	7682.34
223.617	7697.2
223.69	7713.4
223.763	7687.33
223.837	7706.47
223.91	7735.08
223.983	7691.44
224.056	7660.34
224.129	7678.37
224.202	7720.46
224.275	7703.48
224.348	7678.63
224.42	7653.77
224.493	7606.08
224.566	7590.45
224.639	7606.84
224.712	7578.07
224.785	7564.56
224.858	7565.71
224.931	7554.36
225.004	7521.58
225.077	7520.96
225.15	7437.67
225.223	7435.37
225.296	7500.03
225.369	7449.07
225.442	7421.09
225.514	7438.05
225.587	7456.79
225.66	7465.54
225.733	7465.74
225.806	7475.54
225.879	7469.15
225.952	7438.73
226.025	7479.26
226.097	7514.09
226.17	7503.66
226.243	7448.1
226.316	7444.93
226.389	7441.95
226.461	7456.71
226.534	7478.77
226.607	7472.71
226.68	7547.53
226.753	7547.05
226.825	7478.16
226.898	7524.64
226.971	7527.71
227.044	7548.63
227.117	7556.32
227.189	7566.18
227.262	7594.84
227.335	7609.7
227.407	7605.28
227.48	7632.38
227.553	7638.25
227.626	7626.65
227.698	7638.43
227.771	7674.46
227.844	7655.91
227.916	7673.84
227.989	7640.28
228.062	7639.18
228.134	7708.48
228.207	7705.55
228.28	7693.39
228.352	7704.64
228.425	7718.54
228.498	7752.11
228.57	7734.51
228.643	7772.89
228.716	7777.08
228.788	7764.81
228.861	7760.87
228.934	7813.95
229.006	7824
229.079	7827.27
229.151	7813.94
229.224	7775.45
229.296	7799.34
229.369	7884.93
229.442	7926.25
229.514	7917.36
229.587	7950.93
229.659	7887.63
229.732	7895.95
229.804	7931.96
229.877	7997.64
229.949	8019.82
230.022	8062.75
230.094	8063.72
230.167	8060.35
230.239	8024.09
230.312	8016.88
230.384	8075.1
230.457	8072.22
230.529	8074.43
230.602	8068.99
230.674	8077.6
230.747	8116.92
230.819	8134.81
230.892	8040.39
230.964	8033.31
231.037	8056.48
231.109	8049.94
231.181	8089.37
231.254	8064.75
231.326	8053.78
231.399	8032.75
231.471	8008.11
231.544	7942.53
231.616	7980.08
231.688	7985.47
231.761	7975.86
231.833	7971.96
231.905	7899.46
231.978	7894.84
232.05	7882.19
232.122	7892.01
232.195	7871.81
232.267	7899.41
232.339	7881.76
232.412	7935.71
232.484	7915.12
232.556	7892.96
232.629	7947.87
232.701	7956.62
232.773	7964.17
232.846	7959.22
232.918	7959.27
232.99	7975
233.062	8006.26
233.135	8012.09
233.207	7985.68
233.279	8022.02
233.351	8044.82
233.424	8042.99
233.496	8027.5
233.568	8097.06
233.64	8063.97
233.713	8079.12
233.785	8084.51
233.857	8101.06
233.929	8059.9
234.001	8115.78
234.074	8167.18
234.146	8110.97
234.218	8107.07
234.29	8108.85
234.362	8097.31
234.434	8056.85
234.507	8023.13
234.579	7977.15
234.651	7960.85
234.723	7986.78
234.795	7999.72
234.867	7999.43
234.939	8053.06
235.012	8064.41
235.084	8069.52
235.156	8100.63
235.228	8079.28
235.3	8062.05
235.372	8066.82
235.444	8115.68
235.516	8054.85
235.588	8055.76
235.66	8066.78
235.732	8048.98
235.804	8209.8
235.876	8244.23
235.948	8301.15
236.02	8314.57
236.092	8333.08
236.164	8339.81
236.236	8334.66
236.308	8335.24
236.38	8355.69
236.452	8343.71
236.524	8356.7
236.596	8402.01
236.668	8425.01
236.74	8450.88
236.812	8473.98
236.884	8507.09
236.956	8513.3
237.028	8506.03
237.1	8494.06
237.172	8550.85
237.244	8611.2
237.316	8513.99
237.388	8498.93
237.46	8477.85
237.532	8531.99
237.604	8523.29
237.675	8588.12
237.747	8626.72
237.819	8617.58
237.891	8618.78
237.963	8605.07
238.035	8605.74
238.107	8520.34
238.178	8575.76
238.25	8584.8
238.322	8654.95
238.394	8612.84
238.466	8614.38
238.538	8645.32
238.609	8673.22
238.681	8630.77
238.753	8613.2
238.825	8623.5
238.897	8653.71
238.968	8722.37
239.04	8700.9
239.112	8791.61
239.184	8762.39
239.255	8755.89
239.327	8780
239.399	8798.48
239.471	8841.89
239.542	8876.68
239.614	8926.78
239.686	8862.94
239.758	8907.76
239.829	8880.35
239.901	8934.74
239.973	8949.95
240.044	8979.99
240.116	8998.66
240.188	9008.91
240.259	9019.36
240.331	9014.25
240.403	9040.68
240.474	8997.82
240.546	8991.42
240.618	8943.71
240.689	8940
240.761	8956.47
240.833	9016.6
240.904	9013.28
240.976	9011.21
241.048	9023.97
241.119	9060.38
241.191	9097.39
241.262	9143.87
241.334	9146.42
241.405	9149.5
241.477	9150.13
241.549	9159.52
241.62	9179.98
241.692	9219.03
241.763	9266.75
241.835	9285.05
241.906	9296.07
241.978	9275.9
242.049	9334.79
242.121	9383.79
242.192	9436.37
242.264	9406.38
242.335	9359.68
242.407	9394.2
242.478	9393.91
242.55	9404.41
242.621	9392.46
242.693	9393.33
242.764	9389.81
242.836	9392.07
242.907	9415.82
242.979	9442.73
243.05	9454.67
243.122	9473.22
243.193	9467.2
243.264	9406.48
243.336	9410.14
243.407	9442.02
243.479	9509.86
243.55	9516.66
243.622	9533.08
243.693	9529.52
243.764	9588.79
243.836	9574.06
243.907	9573.29
243.978	9577.19
244.05	9599.88
244.121	9557.22
244.192	9588.71
244.264	9545.08
244.335	9555.67
244.407	9515.12
244.478	9522.35
244.549	9518.25
244.62	9483.2
244.692	9480.55
244.763	9521.33
244.834	9510.16
244.906	9486.61
244.977	9499.13
245.048	9543.22
245.119	9522.6
245.191	9507.96
245.262	9459.57
245.333	9526.06
245.405	9537.57
245.476	9561.31
245.547	9572.38
245.618	9616.2
245.689	9624
245.761	9651.79
245.832	9654.06
245.903	9693.4
245.974	9720.61
246.045	9727.36
246.117	9798.98
246.188	9789.44
246.259	9775.67
246.33	9789.83
246.401	9803.94
246.473	9771.62
246.544	9763.81
246.615	9809.09
246.686	9816.46
246.757	9873.67
246.828	9847.18
246.899	9903.98
246.97	9875.09
247.042	9869.55
247.113	9911.08
247.184	9982.11
247.255	9982.3
247.326	10008.31
247.397	10012.16
247.468	10017.99
247.539	10032.3
247.61	9992.36
247.681	10031.08
247.752	10076.55
247.823	10058.11
247.894	10066
247.965	10052.62
248.037	10042.02
248.108	10001.46
248.179	10006.27
248.25	9998.76
248.321	10030.5
248.392	9991.61
248.463	10062.99
248.534	10063.66
248.605	10075.28
248.675	10055.61
248.746	10069.25
248.817	10087.27
248.888	10102.49
248.959	10057.31
249.03	10072.63
249.101	10078.36
249.172	10066.41
249.243	10006.5
249.314	10057.61
249.385	10076.54
249.456	10095.71
249.527	10082.31
249.598	10098.26
249.669	10093.54
249.739	10101.72
249.81	10112.32
249.881	10073.79
249.952	10070.37
250.023	10064.49
250.094	10024.99
250.165	9998.97
250.235	9992.08
250.306	9992.46
250.377	9967.08
250.448	9994.19
250.519	9941.31
250.59	9987.85
250.66	9986.16
250.731	10046.65
250.802	10045.59
250.873	10055.56
250.944	10075.41
251.014	10070.98
251.085	10150.53
251.156	10175.29
251.227	10225.64
251.297	10268.48
251.368	10312.07
251.439	10341.22
251.51	10389.93
251.58	10375.19
251.651	10369.65
251.722	10420.96
251.792	10377.37
251.863	10383.05
251.934	10427.95
252.005	10527.91
252.075	10535.38
252.146	10583.89
252.217	10619.94
252.287	10649.86
252.358	10651.69
252.429	10715.54
252.499	10710.38
252.57	10721.61
252.641	10758.71
252.711	10761.22
252.782	10724.07
252.852	10789.17
252.923	10789.08
252.994	10797.51
253.064	10840.58
253.135	10825.79
253.205	10806.94
253.276	10869.53
253.347	10927.06
253.417	10910.77
253.488	10896.7
253.558	10886.96
253.629	10879.11
253.699	10890.43
253.77	10921.76
253.841	10916.22
253.911	10920.51
253.982	10935.39
254.052	10953.42
254.123	10966.72
254.193	10967.73
254.264	11080.95
254.334	11052.17
254.405	11024.03
254.475	10995.41
254.546	11004.08
254.616	11051.11
254.687	11074.1
254.757	11088.89
254.827	11079.93
254.898	11099.93
254.968	11104.94
255.039	11094.43
255.109	11125.37
255.18	11106.43
255.25	11041.28
255.321	11073.37
255.391	11035.2
255.461	11107.73
255.532	11044.98
255.602	11031.05
255.673	10986.96
255.743	10952.44
255.813	10897.33
255.884	10943.44
255.954	10970.43
256.024	11020.5
256.095	11026.33
256.165	10998.91
256.235	11015.3
256.306	11010.1
256.376	11047.78
256.446	11075.98
256.517	11099.06
256.587	11140.99
256.657	11153.13
256.728	11182.57
256.798	11189.71
256.868	11191.54
256.938	11166.43
257.009	11206.19
257.079	11233.75
257.149	11311.87
257.219	11262.66
257.29	11292.53
257.36	11248.1
257.43	11282.23
257.5	11223.43
257.571	11215.58
257.641	11246.22
257.711	11217.93
257.781	11238.94
257.852	11249.74
257.922	11200.97
257.992	11198.17
258.062	11183.71
258.132	11220.73
258.202	11221.16
258.273	11226.51
258.343	11290.61
258.413	11279.92
258.483	11269.36
258.553	11246.52
258.623	11224.54
258.693	11248.44
258.764	11304.39
258.834	11351.95
258.904	11362.75
258.974	11357.89
259.044	11376.58
259.114	11396.68
259.184	11424.78
259.254	11431.82
259.324	11395.77
259.394	11437.5
259.464	11505.65
259.535	11514.42
259.605	11511.63
259.675	11502.28
259.745	11538.14
259.815	11515.44
259.885	11516.59
259.955	11617.97
260.025	11612.38
260.095	11616.91
260.165	11638.88
260.235	11686.56
260.305	11689.55
260.375	11669.35
260.445	11753.59
260.515	11798.23
260.585	11843.49
260.655	11847.35
260.725	11883.93
260.795	11910.1
260.865	11962.54
260.934	11942.06
261.004	11963.07
261.074	11964.04
261.144	12014.83
261.214	12035.51
261.284	12037.2
261.354	12068.28
261.424	12035.6
261.494	12093.24
261.564	12103.27
261.634	12128.91
261.703	12080.37
261.773	12090.78
261.843	12122.84
261.913	12110.64
261.983	12069.43
262.053	12082.35
262.123	12082.59
262.192	12047.07
262.262	12078.2
262.332	12037.71
262.402	12065.09
262.472	12074.06
262.541	12027.84
262.611	12065.58
262.681	12050.35
262.751	12082.12
262.821	12088.04
262.89	12055.6
262.96	12074.4
263.03	12135.86
263.1	12157.22
263.169	12173.27
263.239	12201.71
263.309	12255.99
263.379	12275.27
263.448	12291.27
263.518	12309.64
263.588	12325.59
263.657	12391.05
263.727	12424.31
263.797	12440.94
263.867	12443.78
263.936	12405.41
