Data from 20250626_urea_1M_exp2_MAYP1162681_21-23-59-413.txt Node
Date: Thu Jun 26 21:23:59 BST 2025
User: adleo
Spectrometer: MAYP116268
Trigger mode: 0
Integration Time (sec): 3.000000E0
Scans to average: 1
Electric dark correction enabled: true
Nonlinearity correction enabled: true
Boxcar width: 10
XAxis mode: Wavelengths
Number of Pixels in Spectrum: 2068
>>>>>Begin Spectral Data<<<<<
179.565	2963.72
179.642	3127.22
179.718	3245.46
179.795	3359.59
179.871	3446.5
179.948	3498.13
180.024	3562.06
180.101	3622.12
180.177	3657.83
180.254	3716.55
180.33	3778.97
180.407	3984.19
180.483	4216.84
180.56	4447.6
180.636	4662.26
180.712	4632.57
180.789	4654.11
180.865	4691.09
180.942	4716.98
181.018	4747.33
181.095	4790.58
181.171	4806.57
181.248	4802.11
181.324	4840.34
181.4	4855.28
181.477	4881.76
181.553	4916.6
181.63	4966.66
181.706	5007.47
181.782	5035.37
181.859	5043.03
181.935	5054.62
182.011	5050.17
182.088	5096.73
182.164	5148.79
182.24	5184.22
182.317	5206.67
182.393	5198.63
182.469	5228.91
182.546	5261.72
182.622	5268.76
182.698	5256.78
182.775	5288.36
182.851	5326.21
182.927	5309.87
183.003	5297.33
183.08	5287.89
183.156	5316.26
183.232	5307.15
183.308	5283.48
183.385	5303.17
183.461	5341.6
183.537	5342.27
183.613	5375.39
183.69	5348.31
183.766	5322.32
183.842	5344.37
183.918	5363.01
183.995	5397.56
184.071	5409.11
184.147	5399.38
184.223	5372.62
184.299	5402.91
184.375	5370.38
184.452	5387.26
184.528	5493.17
184.604	5522.16
184.68	5550.14
184.756	5561.8
184.832	5573.5
184.908	5585.57
184.985	5584.51
185.061	5543.97
185.137	5571.06
185.213	5539.18
185.289	5539.8
185.365	5520.21
185.441	5513.98
185.517	5546.78
185.593	5535.86
185.669	5524.21
185.745	5545.25
185.822	5591.1
185.898	5567.31
185.974	5593.57
186.05	5574.44
186.126	5512.15
186.202	5492.41
186.278	5482.1
186.354	5460.28
186.43	5478.61
186.506	5469.41
186.582	5467.4
186.658	5486.42
186.734	5436.48
186.81	5437.25
186.886	5449.32
186.962	5479.8
187.038	5469.78
187.114	5448.96
187.19	5473.32
187.266	5448.88
187.341	5456.03
187.417	5437.38
187.493	5441.27
187.569	5449.94
187.645	5433.03
187.721	5399.08
187.797	5420.31
187.873	5433.73
187.949	5418.83
188.025	5403.96
188.101	5412.92
188.176	5422.93
188.252	5410.81
188.328	5430.21
188.404	5430.69
188.48	5416.84
188.556	5393.35
188.632	5392.87
188.707	5392.15
188.783	5382.66
188.859	5372.46
188.935	5339.28
189.011	5354.57
189.086	5340.05
189.162	5312.64
189.238	5307.66
189.314	5301.67
189.39	5286.28
189.465	5266.06
189.541	5309.39
189.617	5262.82
189.693	5251.99
189.768	5267.19
189.844	5331.4
189.92	5305.45
189.996	5331.47
190.071	5360.9
190.147	5366.75
190.223	5388.61
190.298	5373.75
190.374	5338.72
190.45	5371
190.526	5391.42
190.601	5384.57
190.677	5384.71
190.753	5469.1
190.828	5479.21
190.904	5523.99
190.98	5567.05
191.055	5594.14
191.131	5569.68
191.207	5628.63
191.282	5654.17
191.358	5625.22
191.433	5586.84
191.509	5621.56
191.585	5614.08
191.66	5619.16
191.736	5641.17
191.811	5617.63
191.887	5657.58
191.963	5718.76
192.038	5734.34
192.114	5735.87
192.189	5746.23
192.265	5741.96
192.34	5673.92
192.416	5671.66
192.491	5648.69
192.567	5655.79
192.642	5667.01
192.718	5667.49
192.793	5636.76
192.869	5624.44
192.944	5635.46
193.02	5655.36
193.095	5668.5
193.171	5684.08
193.246	5677.9
193.322	5670.18
193.397	5673
193.473	5636.31
193.548	5595.78
193.624	5608.97
193.699	5607.87
193.775	5643.85
193.85	5649.5
193.925	5676.46
194.001	5672.1
194.076	5658.58
194.152	5627.73
194.227	5604.57
194.302	5578.89
194.378	5585.84
194.453	5577.98
194.529	5609.96
194.604	5570.02
194.679	5554.73
194.755	5501.59
194.83	5531.72
194.905	5521.7
194.981	5543.66
195.056	5524.54
195.131	5536.96
195.207	5531.1
195.282	5501.11
195.357	5453.24
195.433	5486.55
195.508	5452.79
195.583	5476.14
195.659	5517.82
195.734	5537.29
195.809	5537.1
195.884	5558.22
195.96	5559.33
196.035	5598.83
196.11	5588.18
196.185	5621.83
196.261	5628.97
196.336	5713.02
196.411	5673.97
196.486	5692.96
196.561	5677.8
196.637	5705.22
196.712	5748.5
196.787	5759.87
196.862	5804.55
196.937	5828.62
197.013	5846.13
197.088	5874.85
197.163	5929.27
197.238	5966.3
197.313	5965.63
197.388	6004.92
197.464	6089.29
197.539	6123.88
197.614	6103.74
197.689	6132.67
197.764	6177.12
197.839	6232.64
197.914	6218.86
197.989	6285.14
198.065	6317.29
198.14	6449.14
198.215	6512.55
198.29	6546.18
198.365	6583.25
198.44	6613.15
198.515	6688.5
198.59	6730.71
198.665	6796.98
198.74	6818.02
198.815	6823.93
198.89	6884.92
198.965	6952.81
199.04	6941.71
199.115	6981.82
199.19	7098.09
199.265	7108.84
199.34	7133.06
199.415	7219.26
199.49	7274.93
199.565	7293.91
199.64	7360.08
199.715	7350.41
199.79	7369.2
199.865	7378.81
199.94	7370.41
200.015	7454.68
200.09	7468.91
200.165	7480.54
200.24	7500.3
200.315	7601.86
200.39	7645.33
200.464	7655.85
200.539	7666.92
200.614	7707.87
200.689	7767.16
200.764	7783.23
200.839	7826.52
200.914	7836.33
200.989	7805.35
201.063	7839.68
201.138	7794.29
201.213	7792.32
201.288	7745.1
201.363	7757.41
201.438	7761.5
201.512	7801.62
201.587	7751.46
201.662	7761.13
201.737	7798.93
201.812	7822.64
201.886	7734.87
201.961	7759.26
202.036	7733.51
202.111	7720.42
202.186	7637.22
202.26	7587.3
202.335	7530.37
202.41	7519.31
202.485	7475.83
202.559	7425.31
202.634	7357.01
202.709	7383.23
202.784	7333.1
202.858	7336.08
202.933	7288.08
203.008	7265.97
203.082	7217.1
203.157	7217.97
203.232	7102.61
203.306	7043
203.381	6957.16
203.456	6898.4
203.53	6831.46
203.605	6776.59
203.68	6717.19
203.754	6705.49
203.829	6669.99
203.904	6614.24
203.978	6579.6
204.053	6594.44
204.127	6564.87
204.202	6554.55
204.277	6511.39
204.351	6492.52
204.426	6464.75
204.5	6441.23
204.575	6350.93
204.65	6373.55
204.724	6351.44
204.799	6373.46
204.873	6362.51
204.948	6355.5
205.022	6328.2
205.097	6305.47
205.171	6345.5
205.246	6365.43
205.32	6367.5
205.395	6363.32
205.469	6341.79
205.544	6353.41
205.618	6303.1
205.693	6331.52
205.767	6304.88
205.842	6362.07
205.916	6345.28
205.991	6319.02
206.065	6335.68
206.14	6379.65
206.214	6370.81
206.289	6348.43
206.363	6377.66
206.438	6387.75
206.512	6410.17
206.586	6457.01
206.661	6482.04
206.735	6420.34
206.81	6424.43
206.884	6457.01
206.958	6422.66
207.033	6462.66
207.107	6482.07
207.181	6566.7
207.256	6554.51
207.33	6605.92
207.405	6634.38
207.479	6690.27
207.553	6714.51
207.628	6672.24
207.702	6699.17
207.776	6679.82
207.851	6691.77
207.925	6736.46
207.999	6720.9
208.073	6708.75
208.148	6715.28
208.222	6683.91
208.296	6769.82
208.371	6815.54
208.445	6849.31
208.519	6931.76
208.593	6969.6
208.668	6955.91
208.742	6960.81
208.816	6961.39
208.89	6991.53
208.965	6986.09
209.039	7000.7
209.113	7044.38
209.187	7100.77
209.261	7093.13
209.336	7147.13
209.41	7201.58
209.484	7202.93
209.558	7266.94
209.632	7306.43
209.707	7336.18
209.781	7392.98
209.855	7433.36
209.929	7474.17
210.003	7491.04
210.077	7486.19
210.151	7609.6
210.226	7706.57
210.3	7776.15
210.374	7838.81
210.448	7855.84
210.522	7883.64
210.596	7912.83
210.67	7938.84
210.744	8059.77
210.818	8144.32
210.892	8197.86
210.966	8181.85
211.041	8219.84
211.115	8211.52
211.189	8277.56
211.263	8326.39
211.337	8339.23
211.411	8373.87
211.485	8361.55
211.559	8396.95
211.633	8399.83
211.707	8317.52
211.781	8334.71
211.855	8244.41
211.929	8222.82
212.003	8170.23
212.077	8195.83
212.151	8229.23
212.225	8251.12
212.299	8222.81
212.373	8194.19
212.447	8184.71
212.52	8260.63
212.594	8267.46
212.668	8297.67
212.742	8248.07
212.816	8226.66
212.89	8214.11
212.964	8210.64
213.038	8215.02
213.112	8238.36
213.186	8279.63
213.26	8225.64
213.333	8094.97
213.407	8106.22
213.481	8113.91
213.555	8147.21
213.629	8117.95
213.703	8071.14
213.777	8065.85
213.85	8009.13
213.924	8093.25
213.998	8085.02
214.072	8062.44
214.146	8026.94
214.219	8012.41
214.293	8006.54
214.367	8009.62
214.441	8030.35
214.515	7993.07
214.588	7921.69
214.662	7821.24
214.736	7760.18
214.81	7775.03
214.883	7801.59
214.957	7767.28
215.031	7723.99
215.105	7649.44
215.178	7599.2
215.252	7569.73
215.326	7495.26
215.4	7433.34
215.473	7292.86
215.547	7223.38
215.621	7170.52
215.694	7165.62
215.768	7087.91
215.842	7035.68
215.915	6981.55
215.989	6891.53
216.063	6844.57
216.136	6832.13
216.21	6818.44
216.284	6826.13
216.357	6804.99
216.431	6770.89
216.504	6767.14
216.578	6815.38
216.652	6825.84
216.725	6805.28
216.799	6812.49
216.873	6797.89
216.946	6809.13
217.02	6783.36
217.093	6763.14
217.167	6690.24
217.24	6622.83
217.314	6595.86
217.387	6562.04
217.461	6526.5
217.535	6548.44
217.608	6503.75
217.682	6484.59
217.755	6496.35
217.829	6456
217.902	6438
217.976	6420.96
218.049	6380.3
218.123	6315.49
218.196	6313.43
218.27	6285.88
218.343	6226.08
218.417	6223.78
218.49	6199.59
218.563	6227.91
218.637	6237.27
218.71	6292.58
218.784	6315.38
218.857	6339.62
218.931	6356.31
219.004	6358.52
219.077	6372.74
219.151	6388.05
219.224	6375.9
219.298	6370.14
219.371	6402.56
219.444	6379.91
219.518	6385.33
219.591	6401.79
219.665	6480.25
219.738	6496.96
219.811	6481.84
219.885	6515.64
219.958	6540.42
220.031	6549.06
220.105	6563.9
220.178	6575.76
220.251	6553.33
220.325	6572.26
220.398	6587.09
220.471	6603.41
220.544	6636.69
220.618	6618.1
220.691	6637.69
220.764	6654.11
220.838	6676.3
220.911	6662.85
220.984	6727.86
221.057	6759.79
221.131	6782.89
221.204	6713.74
221.277	6764.14
221.35	6869.48
221.424	6865.64
221.497	6875.49
221.57	6894.41
221.643	6923.19
221.716	6953.42
221.79	6958.8
221.863	6967.98
221.936	6977.39
222.009	6986.85
222.082	7007.23
222.155	7017.94
222.229	7071.33
222.302	7096.07
222.375	7101.69
222.448	7138.55
222.521	7146.34
222.594	7146.82
222.667	7126.5
222.74	7170.46
222.814	7163.39
222.887	7146.37
222.96	7191.11
223.033	7222.89
223.106	7239.94
223.179	7263.16
223.252	7266.62
223.325	7294.73
223.398	7310.93
223.471	7331.45
223.544	7347.59
223.617	7360.91
223.69	7376.09
223.763	7345.23
223.837	7367.96
223.91	7392.91
223.983	7348.85
224.056	7316.8
224.129	7333.81
224.202	7370.36
224.275	7367.09
224.348	7344.6
224.42	7318.5
224.493	7277.22
224.566	7259
224.639	7272.83
224.712	7252.45
224.785	7246.39
224.858	7239.32
224.931	7219.61
225.004	7189.78
225.077	7193.48
225.15	7118.49
225.223	7119.21
225.296	7185.24
225.369	7137.43
225.442	7107.63
225.514	7126.51
225.587	7144.9
225.66	7155.1
225.733	7162.45
225.806	7159.37
225.879	7154.57
225.952	7130.74
226.025	7165.97
226.097	7201.99
226.17	7195.5
226.243	7143.61
226.316	7139.53
226.389	7141.54
226.461	7152.65
226.534	7172.44
226.607	7167.59
226.68	7235.07
226.753	7236.71
226.825	7171.64
226.898	7214.93
226.971	7219.83
227.044	7236.8
227.117	7243.72
227.189	7256.7
227.262	7285.45
227.335	7301.84
227.407	7305.44
227.48	7328.84
227.553	7338.79
227.626	7326.96
227.698	7334.4
227.771	7368.36
227.844	7352.41
227.916	7368.46
227.989	7347.94
228.062	7350.77
228.134	7419.39
228.207	7422.9
228.28	7409.49
228.352	7421.51
228.425	7428.14
228.498	7465.5
228.57	7448.96
228.643	7492.58
228.716	7493.73
228.788	7482.67
228.861	7479.26
228.934	7525.02
229.006	7532.66
229.079	7534.49
229.151	7521.26
229.224	7495.22
229.296	7516.47
229.369	7601.02
229.442	7642.67
229.514	7631.67
229.587	7662.68
229.659	7599.11
229.732	7605.03
229.804	7641.17
229.877	7702.79
229.949	7728.91
230.022	7769.37
230.094	7768.75
230.167	7759.46
230.239	7722.31
230.312	7715.58
230.384	7772.29
230.457	7767.91
230.529	7781.42
230.602	7780.99
230.674	7788.54
230.747	7819.67
230.819	7837.32
230.892	7740.62
230.964	7735.9
231.037	7752.24
231.109	7742.52
231.181	7778.24
231.254	7755.21
231.326	7742.71
231.399	7726.88
231.471	7703.5
231.544	7636.59
231.616	7664.33
231.688	7666.15
231.761	7657.27
231.833	7641.69
231.905	7575.46
231.978	7578.44
232.05	7558.59
232.122	7563.4
232.195	7545.03
232.267	7574.27
232.339	7559.7
232.412	7611.12
232.484	7590.97
232.556	7574.1
232.629	7629.72
232.701	7643.33
232.773	7650.01
232.846	7643.47
232.918	7637.22
232.99	7652.22
233.062	7687.33
233.135	7704.73
233.207	7679.25
233.279	7719.28
233.351	7751.59
233.424	7755.53
233.496	7735
233.568	7803.91
233.64	7776.65
233.713	7792.66
233.785	7791.99
233.857	7800.26
233.929	7762.52
234.001	7813.1
234.074	7868.57
234.146	7811.41
234.218	7808.24
234.29	7808.34
234.362	7804.68
234.434	7771.5
234.507	7748.46
234.579	7709.75
234.651	7690.38
234.723	7714.71
234.795	7726.87
234.867	7723.51
234.939	7763.57
235.012	7779.67
235.084	7779.72
235.156	7804.19
235.228	7787.17
235.3	7775.29
235.372	7784.77
235.444	7838.96
235.516	7773.09
235.588	7771.26
235.66	7787.33
235.732	7762.27
235.804	7917.03
235.876	7943.52
235.948	8000.39
236.02	8004.04
236.092	8019.52
236.164	8031.01
236.236	8035.92
236.308	8032.89
236.38	8052.08
236.452	8035.67
236.524	8048.76
236.596	8101.96
236.668	8129.14
236.74	8151.73
236.812	8171.65
236.884	8201.43
236.956	8204.03
237.028	8203.55
237.1	8189.98
237.172	8246.09
237.244	8310.36
237.316	8211.78
237.388	8199.47
237.46	8176.57
237.532	8229.87
237.604	8219.77
237.675	8282.71
237.747	8311.78
237.819	8306.82
237.891	8309.85
237.963	8307.93
238.035	8301.34
238.107	8216.1
238.178	8265.97
238.25	8273.28
238.322	8344.14
238.394	8313.63
238.466	8311.66
238.538	8343.64
238.609	8379.67
238.681	8337.56
238.753	8319.32
238.825	8342.52
238.897	8371.81
238.968	8437.76
239.04	8418.85
239.112	8504.77
239.184	8470.84
239.255	8468.39
239.327	8495.76
239.399	8512.69
239.471	8551.33
239.542	8583.75
239.614	8632.02
239.686	8566.75
239.758	8608.47
239.829	8581.12
239.901	8624.48
239.973	8638.43
240.044	8666.1
240.116	8679.14
240.188	8684.34
240.259	8697.53
240.331	8689.1
240.403	8718.41
240.474	8679.74
240.546	8672.96
240.618	8628.05
240.689	8629.79
240.761	8648.22
240.833	8703.34
240.904	8702.09
240.976	8700.45
241.048	8709.98
241.119	8739.21
241.191	8782.47
241.262	8831.06
241.334	8835.29
241.405	8839.39
241.477	8843.04
241.549	8852.43
241.62	8868.17
241.692	8914.28
241.763	8957.86
241.835	8973.69
241.906	8986.11
241.978	8962.1
242.049	9019.09
242.121	9068.33
242.192	9123.45
242.264	9094.18
242.335	9055.62
242.407	9091.34
242.478	9096.15
242.55	9109.34
242.621	9100.1
242.693	9096.34
242.764	9099.96
242.836	9095.43
242.907	9119.36
242.979	9141.69
243.05	9156.33
243.122	9175.74
243.193	9166.68
243.264	9115.51
243.336	9116.76
243.407	9143.58
243.479	9212.62
243.55	9223.35
243.622	9234.67
243.693	9228.46
243.764	9287.24
243.836	9269.05
243.907	9259.23
243.978	9260.48
244.05	9285.04
244.121	9247.92
244.192	9281.24
244.264	9235.15
244.335	9255.91
244.407	9217.82
244.478	9231.16
244.549	9225.86
244.62	9192.07
244.692	9191.15
244.763	9227.31
244.834	9218.64
244.906	9198.9
244.977	9205.54
245.048	9251.36
245.119	9236.19
245.191	9219.67
245.262	9169.89
245.333	9229.19
245.405	9248.98
245.476	9274.02
245.547	9290.25
245.618	9333.14
245.689	9337
245.761	9358.23
245.832	9363.33
245.903	9407.44
245.974	9431.04
246.045	9445.24
246.117	9519.26
246.188	9508.23
246.259	9489.17
246.33	9514.16
246.401	9523.69
246.473	9500.81
246.544	9488.91
246.615	9529.66
246.686	9537.79
246.757	9600.49
246.828	9586.04
246.899	9646.74
246.97	9618.34
247.042	9609.67
247.113	9643.29
247.184	9718.35
247.255	9726.39
247.326	9747.01
247.397	9752.79
247.468	9762.66
247.539	9769.45
247.61	9722.68
247.681	9758.02
247.752	9800.5
247.823	9776.61
247.894	9790.1
247.965	9772.95
248.037	9754.46
248.108	9716.41
248.179	9720.41
248.25	9707.59
248.321	9731.38
248.392	9692.12
248.463	9764.59
248.534	9768.44
248.605	9783.91
248.675	9757.36
248.746	9766.02
248.817	9776.96
248.888	9786.69
248.959	9745.03
249.03	9766.85
249.101	9779.85
249.172	9763.82
249.243	9716.05
249.314	9772.88
249.385	9786.66
249.456	9805.58
249.527	9802.16
249.598	9824.51
249.669	9824.17
249.739	9833.61
249.81	9839.34
249.881	9802.79
249.952	9798.4
250.023	9792
250.094	9753.32
250.165	9736.79
250.235	9741.94
250.306	9744.69
250.377	9723.35
250.448	9742.42
250.519	9693.15
250.59	9737.71
250.66	9744.21
250.731	9796.94
250.802	9789.28
250.873	9800.75
250.944	9819.82
251.014	9814.71
251.085	9881.59
251.156	9903.02
251.227	9945.65
251.297	9982.27
251.368	10021.23
251.439	10054.86
251.51	10094.6
251.58	10083.91
251.651	10078.13
251.722	10114.84
251.792	10079.58
251.863	10077.85
251.934	10130.55
252.005	10212.48
252.075	10219.62
252.146	10258.1
252.217	10290.28
252.287	10326.75
252.358	10330.13
252.429	10397.58
252.499	10395.51
252.57	10404.38
252.641	10438.58
252.711	10443.6
252.782	10413
252.852	10471.4
252.923	10466.05
252.994	10482.48
253.064	10521.45
253.135	10502.28
253.205	10476.65
253.276	10531.81
253.347	10587.25
253.417	10566.87
253.488	10558.97
253.558	10548.51
253.629	10545.91
253.699	10560.03
253.77	10573.62
253.841	10562.11
253.911	10557.38
253.982	10570.58
254.052	10591.79
254.123	10604.17
254.193	10606.34
254.264	10719.64
254.334	10699.64
254.405	10673.43
254.475	10642.69
254.546	10647.79
254.616	10702.62
254.687	10731.96
254.757	10749.45
254.827	10749.21
254.898	10770.75
254.968	10773.83
255.039	10767.72
255.109	10801.73
255.18	10783.71
255.25	10730.66
255.321	10761.21
255.391	10736.29
255.461	10804.04
255.532	10740.48
255.602	10733.97
255.673	10697.93
255.743	10667.42
255.813	10610.09
255.884	10648.49
255.954	10678.41
256.024	10730.55
256.095	10728.62
256.165	10707.18
256.235	10727.04
256.306	10719.38
256.376	10760.73
256.446	10793.74
256.517	10812.91
256.587	10843.85
256.657	10861.59
256.728	10881.92
256.798	10892.9
256.868	10887.6
256.938	10865.29
257.009	10907.17
257.079	10936.56
257.149	11009.81
257.219	10957.08
257.29	10985.55
257.36	10947.34
257.43	10977.37
257.5	10927.83
257.571	10924.89
257.641	10952.98
257.711	10926.57
257.781	10946.91
257.852	10955.05
257.922	10903.88
257.992	10910.96
258.062	10907.1
258.132	10938.04
258.202	10942.57
258.273	10945.66
258.343	11006.62
258.413	10994.19
258.483	10997.42
258.553	10975.15
258.623	10957.13
258.693	10985.08
258.764	11046.85
258.834	11101.59
258.904	11114.32
258.974	11104.54
259.044	11113.84
259.114	11142.71
259.184	11166.51
259.254	11176.78
259.324	11137.74
259.394	11178.7
259.464	11236.73
259.535	11245.21
259.605	11243.33
259.675	11242.36
259.745	11275.52
259.815	11257.4
259.885	11267.95
259.955	11359.35
260.025	11351.15
260.095	11363.25
260.165	11387.4
260.235	11428.22
260.305	11416.8
260.375	11392.8
260.445	11468.55
260.515	11520.13
260.585	11550.25
260.655	11558.88
260.725	11592.71
260.795	11620.71
260.865	11680.24
260.934	11658.26
261.004	11680.43
261.074	11688.82
261.144	11736.72
261.214	11763.42
261.284	11763.62
261.354	11783.76
261.424	11740.76
261.494	11791.07
261.564	11792.04
261.634	11809.92
261.703	11755.5
261.773	11777.09
261.843	11808.57
261.913	11805.72
261.983	11761.62
262.053	11781.09
262.123	11776.27
262.192	11745.96
262.262	11777.96
262.332	11739.16
262.402	11761.77
262.472	11771.46
262.541	11720.57
262.611	11755.56
262.681	11733.77
262.751	11769.05
262.821	11784.57
262.89	11767.7
262.96	11791.66
263.03	11857.7
263.1	11878.91
263.169	11900.59
263.239	11922.14
263.309	11976.61
263.379	11993.58
263.448	12007.89
263.518	12030.6
263.588	12044.33
263.657	12100.05
263.727	12133.02
263.797	12140.06
263.867	12140.35
263.936	12105.07
264.006	12153.45
264.076	12146.22
