Data from 20250626_urea_1M_exp2_MAYP1162681_19-33-59-954.txt Node
Date: Thu Jun 26 19:33:59 BST 2025
User: adleo
Spectrometer: MAYP116268
Trigger mode: 0
Integration Time (sec): 3.000000E0
Scans to average: 1
Electric dark correction enabled: true
Nonlinearity correction enabled: true
Boxcar width: 10
XAxis mode: Wavelengths
Number of Pixels in Spectrum: 2068
>>>>>Begin Spectral Data<<<<<
179.565	3056.43
179.642	3207.85
179.718	3324.37
179.795	3439.47
179.871	3536.27
179.948	3589.88
180.024	3649.77
180.101	3712.45
180.177	3750.75
180.254	3812.02
180.33	3873.38
180.407	4085.03
180.483	4329.66
180.56	4571.34
180.636	4795.62
180.712	4765.25
180.789	4787.08
180.865	4820.39
180.942	4849.68
181.018	4882.96
181.095	4919.28
181.171	4934.17
181.248	4942.55
181.324	4986.82
181.4	5006.36
181.477	5035.68
181.553	5071.39
181.63	5125.67
181.706	5168.22
181.782	5194.16
181.859	5198.52
181.935	5215.82
182.011	5206.14
182.088	5246.02
182.164	5299.58
182.24	5331.28
182.317	5360.93
182.393	5359.83
182.469	5399.6
182.546	5433.25
182.622	5440.34
182.698	5432.14
182.775	5462.91
182.851	5497.23
182.927	5479.93
183.003	5465.36
183.08	5444.8
183.156	5467.09
183.232	5461.14
183.308	5429.18
183.385	5449.64
183.461	5491.73
183.537	5495.23
183.613	5533.81
183.69	5504.38
183.766	5473.73
183.842	5496.21
183.918	5508.77
183.995	5536.43
184.071	5544.39
184.147	5531.97
184.223	5503.04
184.299	5531.53
184.375	5504.35
184.452	5525.12
184.528	5633.85
184.604	5662.27
184.68	5697.4
184.756	5719.66
184.832	5729.44
184.908	5746.02
184.985	5747.26
185.061	5705.41
185.137	5726.23
185.213	5691.9
185.289	5700
185.365	5675.85
185.441	5669.18
185.517	5701.81
185.593	5694.42
185.669	5687.66
185.745	5710.58
185.822	5754.09
185.898	5730.25
185.974	5752.59
186.05	5727.64
186.126	5655.02
186.202	5635.99
186.278	5621.03
186.354	5594.12
186.43	5614.9
186.506	5611.73
186.582	5605.79
186.658	5627.64
186.734	5575.06
186.81	5580.62
186.886	5588
186.962	5626.5
187.038	5621.85
187.114	5600.97
187.19	5622.12
187.266	5594.51
187.341	5596.33
187.417	5576.44
187.493	5581.28
187.569	5593.08
187.645	5581
187.721	5557.5
187.797	5583.82
187.873	5598.01
187.949	5579.85
188.025	5559.07
188.101	5565.45
188.176	5579.4
188.252	5564.63
188.328	5585.23
188.404	5580.68
188.48	5565.06
188.556	5543.43
188.632	5541.13
188.707	5539.02
188.783	5534.89
188.859	5526.08
188.935	5498.7
189.011	5522.81
189.086	5504.69
189.162	5481.77
189.238	5476.41
189.314	5467.73
189.39	5449.85
189.465	5431.39
189.541	5481.45
189.617	5444.49
189.693	5429.35
189.768	5443.64
189.844	5503.36
189.92	5482.42
189.996	5511.43
190.071	5542.73
190.147	5542.54
190.223	5565.27
190.298	5544.99
190.374	5511.19
190.45	5539.42
190.526	5562.77
190.601	5550.54
190.677	5554.9
190.753	5630.34
190.828	5637.19
190.904	5679.16
190.98	5719.02
191.055	5747.17
191.131	5717.67
191.207	5769.06
191.282	5794.37
191.358	5766.61
191.433	5734.41
191.509	5769.67
191.585	5758.74
191.66	5760.51
191.736	5781.27
191.811	5755.33
191.887	5804.12
191.963	5859.46
192.038	5876.05
192.114	5875.33
192.189	5883.29
192.265	5873.42
192.34	5807.09
192.416	5803.54
192.491	5789.1
192.567	5793.04
192.642	5804.41
192.718	5812.03
192.793	5782.87
192.869	5773.33
192.944	5780.09
193.02	5798.08
193.095	5806.04
193.171	5830.12
193.246	5828.39
193.322	5819.33
193.397	5823.83
193.473	5788.61
193.548	5746.93
193.624	5759.59
193.699	5755.04
193.775	5801.97
193.85	5808.01
193.925	5834.25
194.001	5834.82
194.076	5814.82
194.152	5783.11
194.227	5757.59
194.302	5730.7
194.378	5741.58
194.453	5732.91
194.529	5763.51
194.604	5725.33
194.679	5715.55
194.755	5656.69
194.83	5691.29
194.905	5685.39
194.981	5707.89
195.056	5689.58
195.131	5707.32
195.207	5699.59
195.282	5677.73
195.357	5623.75
195.433	5662.44
195.508	5632.8
195.583	5654.57
195.659	5690.16
195.734	5717.31
195.809	5719.52
195.884	5740.13
195.96	5733.7
196.035	5780.03
196.11	5776.62
196.185	5805.25
196.261	5806.78
196.336	5890.85
196.411	5847.61
196.486	5858.69
196.561	5835.09
196.637	5856.66
196.712	5897.41
196.787	5908.45
196.862	5948.11
196.937	5968.64
197.013	5988.12
197.088	6014.21
197.163	6070
197.238	6113.9
197.313	6109.39
197.388	6143.65
197.464	6226.6
197.539	6264.46
197.614	6240.28
197.689	6267.69
197.764	6313.06
197.839	6372.47
197.914	6356.91
197.989	6424.21
198.065	6466.02
198.14	6611.88
198.215	6687.07
198.29	6716.29
198.365	6753.84
198.44	6778.23
198.515	6852.43
198.59	6889.66
198.665	6960.56
198.74	6981.99
198.815	6986.03
198.89	7048.71
198.965	7127
199.04	7115.13
199.115	7152.45
199.19	7267.31
199.265	7278.88
199.34	7302.91
199.415	7393.56
199.49	7450.72
199.565	7468.41
199.64	7530.51
199.715	7517.95
199.79	7529.05
199.865	7545.54
199.94	7538.86
200.015	7631.08
200.09	7647.77
200.165	7664.01
200.24	7679.35
200.315	7782.82
200.39	7826.29
200.464	7837.87
200.539	7843.36
200.614	7890.04
200.689	7954.72
200.764	7976.95
200.839	8022.9
200.914	8038.53
200.989	8007.49
201.063	8052.47
201.138	8008.26
201.213	8012.3
201.288	7957.82
201.363	7971.48
201.438	7977.3
201.512	8019.93
201.587	7968.03
201.662	7986.11
201.737	8026.47
201.812	8045.71
201.886	7960.47
201.961	7993.78
202.036	7963.2
202.111	7953.78
202.186	7870.4
202.26	7822.78
202.335	7768.09
202.41	7748.09
202.485	7704.74
202.559	7651.23
202.634	7572.33
202.709	7600.96
202.784	7547.31
202.858	7547.55
202.933	7499.68
203.008	7477.94
203.082	7428.87
203.157	7428.73
203.232	7307.66
203.306	7242.41
203.381	7157.86
203.456	7092.51
203.53	7018.95
203.605	6968.11
203.68	6901.54
203.754	6884.02
203.829	6843.28
203.904	6781.22
203.978	6754.89
204.053	6768.2
204.127	6735.59
204.202	6728.63
204.277	6682.57
204.351	6661.73
204.426	6639.48
204.5	6618.5
204.575	6520.2
204.65	6542.64
204.724	6517.69
204.799	6543.89
204.873	6533.9
204.948	6528.42
205.022	6497.47
205.097	6475.03
205.171	6514.35
205.246	6540.24
205.32	6538.95
205.395	6536.78
205.469	6513.9
205.544	6526.35
205.618	6474.63
205.693	6505.8
205.767	6476.66
205.842	6530.5
205.916	6517.63
205.991	6495.31
206.065	6508.08
206.14	6546.2
206.214	6532.46
206.289	6508.68
206.363	6536.29
206.438	6541
206.512	6564.15
206.586	6616.71
206.661	6647.57
206.735	6580.49
206.81	6582.12
206.884	6628.88
206.958	6593.5
207.033	6641.3
207.107	6652.74
207.181	6740.7
207.256	6724.03
207.33	6772
207.405	6809.79
207.479	6861.14
207.553	6879.86
207.628	6838.35
207.702	6878.82
207.776	6858.5
207.851	6877.28
207.925	6916.16
207.999	6910.64
208.073	6903.63
208.148	6913.96
208.222	6873.3
208.296	6964.31
208.371	7006.63
208.445	7032.72
208.519	7116.24
208.593	7146.18
208.668	7142.52
208.742	7151.08
208.816	7162.71
208.89	7204.53
208.965	7195.25
209.039	7215.44
209.113	7259.5
209.187	7318.94
209.261	7303.95
209.336	7366.18
209.41	7417.38
209.484	7421.23
209.558	7487.28
209.632	7519.96
209.707	7548.75
209.781	7608.25
209.855	7651.72
209.929	7695.76
210.003	7706.04
210.077	7698.64
210.151	7827.52
210.226	7919.45
210.3	7990.59
210.374	8050.73
210.448	8057.8
210.522	8086.14
210.596	8113.36
210.67	8139.43
210.744	8266.6
210.818	8354.04
210.892	8406.49
210.966	8391.39
211.041	8429.01
211.115	8415.01
211.189	8485.2
211.263	8530.52
211.337	8552.17
211.411	8590.67
211.485	8573.15
211.559	8608.07
211.633	8616.1
211.707	8534.35
211.781	8550.72
211.855	8456.26
211.929	8430.29
212.003	8383.36
212.077	8410.22
212.151	8440.83
212.225	8468.59
212.299	8432.19
212.373	8404.24
212.447	8387.78
212.52	8464.91
212.594	8475.98
212.668	8504.37
212.742	8462.41
212.816	8452.3
212.89	8438.16
212.964	8426.7
213.038	8435.51
213.112	8465.69
213.186	8506.86
213.26	8445.32
213.333	8315.63
213.407	8325.49
213.481	8334.43
213.555	8362.07
213.629	8325.68
213.703	8274.63
213.777	8263.23
213.85	8206.78
213.924	8288.84
213.998	8285.43
214.072	8265.98
214.146	8219.16
214.219	8208.53
214.293	8196.94
214.367	8191.98
214.441	8208.63
214.515	8169.99
214.588	8101.44
214.662	8000.01
214.736	7931.15
214.81	7950.56
214.883	7973.34
214.957	7931.09
215.031	7883.03
215.105	7810.2
215.178	7763.65
215.252	7734.56
215.326	7660.52
215.4	7594.97
215.473	7453.9
215.547	7382.34
215.621	7329.32
215.694	7330.28
215.768	7251.54
215.842	7193.01
215.915	7136.07
215.989	7045.6
216.063	7003.92
216.136	6988.69
216.21	6971.16
216.284	6982.74
216.357	6963.08
216.431	6933.44
216.504	6937.38
216.578	6984.43
216.652	6990.09
216.725	6968.76
216.799	6976.78
216.873	6959.64
216.946	6965.69
217.02	6939.96
217.093	6925.69
217.167	6850.27
217.24	6780.64
217.314	6749.39
217.387	6716.52
217.461	6682.46
217.535	6699.95
217.608	6648.28
217.682	6621.86
217.755	6632.67
217.829	6588.52
217.902	6567.34
217.976	6547.51
218.049	6507.13
218.123	6445.53
218.196	6449.42
218.27	6417.78
218.343	6363.07
218.417	6362.15
218.49	6344.44
218.563	6377.81
218.637	6377.52
218.71	6430.73
218.784	6457.81
218.857	6485.08
218.931	6505.71
219.004	6510.94
219.077	6523.63
219.151	6541.63
219.224	6538.22
219.298	6534.04
219.371	6569.2
219.444	6541.79
219.518	6551.78
219.591	6566.94
219.665	6650.04
219.738	6663.68
219.811	6653.22
219.885	6690.77
219.958	6719.59
220.031	6723.77
220.105	6739.38
220.178	6747.26
220.251	6718.24
220.325	6739.72
220.398	6752.59
220.471	6764.79
220.544	6789.57
220.618	6774.2
220.691	6797.34
220.764	6814.68
220.838	6835.82
220.911	6824.48
220.984	6891.13
221.057	6921.87
221.131	6942.28
221.204	6868.31
221.277	6927.18
221.35	7030.67
221.424	7022.36
221.497	7023.8
221.57	7044.54
221.643	7065.12
221.716	7101.64
221.79	7114.66
221.863	7125.19
221.936	7135.71
222.009	7151.41
222.082	7175.78
222.155	7185.06
222.229	7236.88
222.302	7260.66
222.375	7266.43
222.448	7299.4
222.521	7306.7
222.594	7303.05
222.667	7282.88
222.74	7324.83
222.814	7317.37
222.887	7298.47
222.96	7342.59
223.033	7384.33
223.106	7402.68
223.179	7431.01
223.252	7435.24
223.325	7458.88
223.398	7468.5
223.471	7488.59
223.544	7505.26
223.617	7515.21
223.69	7534.92
223.763	7505.54
223.837	7522.7
223.91	7548.33
223.983	7504.6
224.056	7478.93
224.129	7496.76
224.202	7541.83
224.275	7531.97
224.348	7507.7
224.42	7483.66
224.493	7438.72
224.566	7416.45
224.639	7437.36
224.712	7410.43
224.785	7403.94
224.858	7393.99
224.931	7375.91
225.004	7344.82
225.077	7344.96
225.15	7273.7
225.223	7269.09
225.296	7335.18
225.369	7292.12
225.442	7264.57
225.514	7283.5
225.587	7296.76
225.66	7313.06
225.733	7311.14
225.806	7314.36
225.879	7307.63
225.952	7280.92
226.025	7321.58
226.097	7367.62
226.17	7358.05
226.243	7306.69
226.316	7302.07
226.389	7309.14
226.461	7327.79
226.534	7346.29
226.607	7338.51
226.68	7400.77
226.753	7396.49
226.825	7330.93
226.898	7376.06
226.971	7380.72
227.044	7397.01
227.117	7400.76
227.189	7405.86
227.262	7436.83
227.335	7455.1
227.407	7457.02
227.48	7488.39
227.553	7496.62
227.626	7476.21
227.698	7482.66
227.771	7524.98
227.844	7515.13
227.916	7531.62
227.989	7502.1
228.062	7497.24
228.134	7569.81
228.207	7576.88
228.28	7570.06
228.352	7581.11
228.425	7585.83
228.498	7622.66
228.57	7610.84
228.643	7657.05
228.716	7660.47
228.788	7647.38
228.861	7646.13
228.934	7696.47
229.006	7701.38
229.079	7706.04
229.151	7692.19
229.224	7664.65
229.296	7680.18
229.369	7762.73
229.442	7804.2
229.514	7790.22
229.587	7828.1
229.659	7763.08
229.732	7771.49
229.804	7805
229.877	7863.45
229.949	7886.93
230.022	7924.65
230.094	7926.82
230.167	7918.25
230.239	7887.05
230.312	7880.89
230.384	7940.07
230.457	7932.91
230.529	7942.62
230.602	7944.74
230.674	7954.31
230.747	7988.48
230.819	8008.97
230.892	7908.93
230.964	7899.69
231.037	7925.06
231.109	7921.16
231.181	7955.25
231.254	7927.31
231.326	7917.22
231.399	7901.24
231.471	7879.98
231.544	7814.89
231.616	7845.99
231.688	7853.06
231.761	7837.98
231.833	7833.22
231.905	7759.42
231.978	7761.87
232.05	7746.63
232.122	7741.82
232.195	7725.33
232.267	7754.95
232.339	7733.89
232.412	7787.92
232.484	7768.25
232.556	7745.32
232.629	7803.5
232.701	7812.88
232.773	7820.52
232.846	7811.29
232.918	7818.27
232.99	7830.82
233.062	7867.04
233.135	7877.48
233.207	7850.54
233.279	7889.96
233.351	7912.51
233.424	7922.65
233.496	7900.19
233.568	7967.3
233.64	7936.19
233.713	7947.25
233.785	7947.06
233.857	7966.97
233.929	7922.97
234.001	7980.77
234.074	8032.26
234.146	7973.07
234.218	7973.75
234.29	7970.86
234.362	7964.42
234.434	7919.01
234.507	7894.58
234.579	7855.14
234.651	7844.51
234.723	7869.09
234.795	7881.02
234.867	7869.86
234.939	7909.69
235.012	7920.94
235.084	7917.86
235.156	7954.26
235.228	7936.51
235.3	7917.61
235.372	7921.22
235.444	7977.67
235.516	7913.81
235.588	7916.84
235.66	7921.8
235.732	7898.85
235.804	8065.48
235.876	8101.25
235.948	8160.77
236.02	8172.45
236.092	8186.97
236.164	8192.5
236.236	8191.64
236.308	8192.84
236.38	8222.62
236.452	8206.64
236.524	8226.46
236.596	8285.3
236.668	8311.04
236.74	8333.93
236.812	8357.79
236.884	8389.02
236.956	8390.56
237.028	8378.11
237.1	8369.21
237.172	8431.72
237.244	8495.19
237.316	8398.42
237.388	8385.48
237.46	8358.53
237.532	8408.71
237.604	8400.54
237.675	8458.24
237.747	8484.95
237.819	8474.99
237.891	8476.87
237.963	8469.46
238.035	8471.67
238.107	8382.52
238.178	8434.13
238.25	8448.28
238.322	8525.64
238.394	8495.28
238.466	8497.25
238.538	8537.56
238.609	8569.75
238.681	8526.96
238.753	8507.65
238.825	8518.63
238.897	8547.11
238.968	8621.2
239.04	8604.79
239.112	8697.95
239.184	8673.93
239.255	8677.54
239.327	8708.62
239.399	8726.19
239.471	8767.09
239.542	8790.57
239.614	8841.25
239.686	8775.49
239.758	8813.65
239.829	8775.61
239.901	8819.26
239.973	8836.44
240.044	8863.35
240.116	8874.27
240.188	8878.46
240.259	8899.01
240.331	8896.03
240.403	8924.52
240.474	8881.9
240.546	8874.15
240.618	8821.59
240.689	8816.39
240.761	8843.11
240.833	8893.03
240.904	8892.5
240.976	8898.04
241.048	8912.43
241.119	8946.91
241.191	8983.44
241.262	9040.22
241.334	9047.88
241.405	9055.68
241.477	9056.98
241.549	9066.13
241.62	9087.94
241.692	9135.98
241.763	9183.12
241.835	9198.53
241.906	9214.66
241.978	9190.55
242.049	9248.99
242.121	9305.6
242.192	9360.39
242.264	9325.63
242.335	9286.83
242.407	9326.36
242.478	9322.07
242.55	9336.13
242.621	9318.26
242.693	9320.34
242.764	9302.32
242.836	9305.45
242.907	9329.38
242.979	9358.51
243.05	9374.64
243.122	9393.81
243.193	9388.37
243.264	9335.88
243.336	9337.71
243.407	9356.29
243.479	9421.63
243.55	9431.46
243.622	9439.64
243.693	9437.86
243.764	9496.22
243.836	9479.23
243.907	9469.7
243.978	9481.73
244.05	9502.39
244.121	9475.19
244.192	9505.19
244.264	9470.37
244.335	9486.74
244.407	9446.78
244.478	9458.34
244.549	9457.56
244.62	9421.16
244.692	9421.26
244.763	9453.66
244.834	9447.89
244.906	9437.15
244.977	9450.78
245.048	9495.78
245.119	9480.46
245.191	9460.86
245.262	9409.05
245.333	9472.69
245.405	9489.02
245.476	9513.67
245.547	9522.25
245.618	9560.77
245.689	9570.06
245.761	9599.34
245.832	9599.44
245.903	9634.98
245.974	9655.88
246.045	9662.48
246.117	9735.06
246.188	9726.15
246.259	9710.4
246.33	9725.72
246.401	9735.35
246.473	9716.52
246.544	9706.59
246.615	9751.34
246.686	9760.68
246.757	9822.08
246.828	9804.5
246.899	9861.78
246.97	9838.04
247.042	9841.66
247.113	9875.91
247.184	9951.07
247.255	9953.77
247.326	9977.38
247.397	9985.23
247.468	9993.61
247.539	10009.21
247.61	9968.94
247.681	10006.03
247.752	10052.21
247.823	10026.6
247.894	10038.49
247.965	10013.21
248.037	10002.95
248.108	9962.24
248.179	9967.69
248.25	9963.11
248.321	9995.14
248.392	9955.48
248.463	10019.93
248.534	10014.92
248.605	10033.13
248.675	10011.64
248.746	10022.96
248.817	10033.17
248.888	10042.71
248.959	9998.16
249.03	10017.81
249.101	10027.49
249.172	10009.24
249.243	9950.48
249.314	10014.06
249.385	10023.94
249.456	10048.74
249.527	10038.14
249.598	10058.13
249.669	10055.77
249.739	10060.3
249.81	10066.08
249.881	10033.61
249.952	10026
250.023	10020.41
250.094	9971.03
250.165	9946.02
250.235	9942.51
250.306	9947.71
250.377	9932.83
250.448	9957.82
250.519	9906.38
250.59	9956.19
250.66	9957.88
250.731	10005.7
250.802	10001.46
250.873	10012.73
250.944	10035.76
251.014	10029.21
251.085	10097.77
251.156	10124.17
251.227	10168.26
251.297	10208.01
251.368	10248.9
251.439	10283.35
251.51	10328.64
251.58	10328.45
251.651	10328.16
251.722	10372.97
251.792	10334.48
251.863	10332.02
251.934	10376.78
252.005	10464.84
252.075	10472.41
252.146	10517.64
252.217	10565.34
252.287	10598.88
252.358	10610.25
252.429	10666.92
252.499	10662.44
252.57	10675.64
252.641	10714.28
252.711	10720.02
252.782	10683.01
252.852	10750.09
252.923	10754
252.994	10767.87
253.064	10800.01
253.135	10777.12
253.205	10759.1
253.276	10822.65
253.347	10877.81
253.417	10864.13
253.488	10853.91
253.558	10844.99
253.629	10839.45
253.699	10853.57
253.77	10875.07
253.841	10864.61
253.911	10870.88
253.982	10888.8
254.052	10914.15
254.123	10920.61
254.193	10923.16
254.264	11038.59
254.334	11002.44
254.405	10976.52
254.475	10950.3
254.546	10962.21
254.616	11011.69
254.687	11033.95
254.757	11053.66
254.827	11059.35
254.898	11084.31
254.968	11088.84
255.039	11070.19
255.109	11100.45
255.18	11078
255.25	11012.94
255.321	11044.79
255.391	11009.42
255.461	11080.55
255.532	11014.81
255.602	11002.23
255.673	10956.7
255.743	10924.69
255.813	10875.74
255.884	10906.34
255.954	10936.12
256.024	10984.6
256.095	10994.05
256.165	10964.94
256.235	10982.34
256.306	10966.87
256.376	11003.26
256.446	11036.32
256.517	11060.94
256.587	11100.61
256.657	11115.21
256.728	11136.41
256.798	11138.43
256.868	11140.27
256.938	11116.7
257.009	11151.44
257.079	11179.68
257.149	11258.14
257.219	11210.14
257.29	11235.57
257.36	11194.28
257.43	11226.57
257.5	11179.43
257.571	11172.21
257.641	11209.98
257.711	11177.4
257.781	11203.57
257.852	11214.37
257.922	11165.21
257.992	11170.22
258.062	11158.17
258.132	11193.21
258.202	11201.64
258.273	11213.5
258.343	11278.37
258.413	11261.41
258.483	11264.59
258.553	11249.17
258.623	11234.95
258.693	11263.96
258.764	11319.62
258.834	11378.99
258.904	11389.21
258.974	11380.68
259.044	11387.91
259.114	11409.89
259.184	11433.36
259.254	11443.48
259.324	11397.02
259.394	11437.26
259.464	11509.94
259.535	11521.22
259.605	11518.57
259.675	11516.59
259.745	11552.6
259.815	11527.39
259.885	11531.78
259.955	11626.5
260.025	11619.51
260.095	11633
260.165	11652.33
260.235	11702.9
260.305	11693.93
260.375	11674.99
260.445	11752.77
260.515	11807.19
260.585	11845.61
260.655	11859.25
260.725	11895.01
260.795	11930.49
260.865	11987.61
260.934	11953.57
261.004	11981.34
261.074	11983.75
261.144	12033.39
261.214	12056.48
261.284	12062.31
261.354	12095.66
261.424	12059.65
261.494	12113.53
261.564	12113.82
261.634	12135.37
261.703	12079.94
261.773	12097.77
261.843	12121.92
261.913	12112.52
261.983	12067.6
262.053	12081.24
262.123	12067.6
262.192	12030.77
262.262	12064.32
262.332	12021.62
262.402	12057.04
262.472	12054.3
262.541	12007.11
262.611	12049.44
262.681	12034.06
262.751	12068.76
262.821	12076.14
262.89	12047.22
262.96	12066.69
263.03	12126.32
263.1	12149.84
263.169	12176.59
263.239	12205.95
263.309	12262.11
263.379	12286.84
263.448	12306.84
263.518	12327.28
263.588	12351.09
263.657	12405.12
263.727	12438.19
263.797	12447.35
263.867	12438.87
263.936	12412.16
