Data from 20250626_urea_1M_exp2_MAYP1162681_17-14-00-604.txt Node
Date: Thu Jun 26 17:14:00 BST 2025
User: adleo
Spectrometer: MAYP116268
Trigger mode: 0
Integration Time (sec): 3.000000E0
Scans to average: 1
Electric dark correction enabled: true
Nonlinearity correction enabled: true
Boxcar width: 10
XAxis mode: Wavelengths
Number of Pixels in Spectrum: 2068
>>>>>Begin Spectral Data<<<<<
179.565	3317.82
179.642	3489.76
179.718	3618.53
179.795	3745.15
179.871	3840.53
179.948	3899.59
180.024	3966.68
180.101	4037.04
180.177	4079.08
180.254	4146.35
180.33	4207.64
180.407	4440.72
180.483	4699.28
180.56	4957.98
180.636	5195.47
180.712	5165.98
180.789	5189.79
180.865	5221.3
180.942	5243.48
181.018	5271.46
181.095	5308.05
181.171	5323.53
181.248	5328.18
181.324	5374.3
181.4	5387.2
181.477	5423.15
181.553	5458.03
181.63	5516.52
181.706	5560.98
181.782	5589.91
181.859	5591.44
181.935	5612.88
182.011	5603.77
182.088	5650.52
182.164	5709.73
182.24	5746.44
182.317	5772.96
182.393	5767.68
182.469	5809.3
182.546	5848.63
182.622	5863.5
182.698	5854.29
182.775	5893.04
182.851	5930.5
182.927	5909.01
183.003	5900.77
183.08	5883.07
183.156	5909.83
183.232	5901.82
183.308	5867
183.385	5887.91
183.461	5934.73
183.537	5941.68
183.613	5978.96
183.69	5952.14
183.766	5918.06
183.842	5943.06
183.918	5953.9
183.995	5994.14
184.071	6006.33
184.147	5987.76
184.223	5953.01
184.299	5987.27
184.375	5958.01
184.452	5978.37
184.528	6091.87
184.604	6122.66
184.68	6156
184.756	6174
184.832	6184.36
184.908	6202.25
184.985	6204.36
185.061	6155.62
185.137	6175.54
185.213	6143.25
185.289	6145.89
185.365	6127.37
185.441	6117.44
185.517	6158.11
185.593	6150.19
185.669	6138.81
185.745	6167.75
185.822	6220.59
185.898	6194.33
185.974	6214.67
186.05	6188.56
186.126	6122.56
186.202	6103.33
186.278	6088.45
186.354	6063.64
186.43	6086.26
186.506	6081.7
186.582	6076.9
186.658	6101.17
186.734	6045.53
186.81	6050.75
186.886	6064.86
186.962	6099.97
187.038	6092.58
187.114	6068.81
187.19	6086.57
187.266	6059.42
187.341	6063.94
187.417	6038.46
187.493	6036.35
187.569	6043.93
187.645	6026.9
187.721	5991.19
187.797	6013.79
187.873	6021.27
187.949	6004.49
188.025	5983.46
188.101	5993.67
188.176	6008.45
188.252	5996.75
188.328	6019.56
188.404	6015.87
188.48	5998.36
188.556	5971.35
188.632	5973.08
188.707	5971.25
188.783	5968.57
188.859	5957.4
188.935	5927.88
189.011	5952.92
189.086	5941.56
189.162	5916.32
189.238	5912.68
189.314	5905.63
189.39	5891.47
189.465	5875.83
189.541	5922.61
189.617	5877.81
189.693	5860.98
189.768	5875.28
189.844	5937.73
189.92	5907.73
189.996	5934.93
190.071	5965.63
190.147	5967.7
190.223	5995.44
190.298	5977.34
190.374	5936.76
190.45	5974.6
190.526	5992.88
190.601	5979.2
190.677	5981.7
190.753	6065.97
190.828	6075.32
190.904	6116.59
190.98	6154.46
191.055	6186.04
191.131	6160.55
191.207	6219.85
191.282	6244.74
191.358	6212.69
191.433	6183.3
191.509	6225.11
191.585	6217.81
191.66	6221.99
191.736	6250.54
191.811	6223.23
191.887	6269.8
191.963	6335.45
192.038	6345.05
192.114	6347.79
192.189	6358.63
192.265	6347.75
192.34	6280.31
192.416	6275.08
192.491	6262.31
192.567	6274.18
192.642	6286.32
192.718	6291.36
192.793	6258.29
192.869	6251.48
192.944	6260.64
193.02	6277.06
193.095	6291.99
193.171	6307.87
193.246	6307.49
193.322	6295.83
193.397	6296.69
193.473	6260.96
193.548	6215.69
193.624	6236.91
193.699	6229.81
193.775	6274.81
193.85	6282.57
193.925	6310.42
194.001	6307.78
194.076	6289.01
194.152	6254.82
194.227	6232.69
194.302	6205.64
194.378	6217.49
194.453	6207.32
194.529	6244.96
194.604	6203.06
194.679	6182.28
194.755	6126.49
194.83	6163.14
194.905	6155.46
194.981	6181.33
195.056	6153.8
195.131	6169.06
195.207	6160.22
195.282	6139.78
195.357	6078.33
195.433	6118.35
195.508	6081.88
195.583	6113.74
195.659	6156.51
195.734	6176.19
195.809	6174.32
195.884	6198.26
195.96	6192.83
196.035	6238.76
196.11	6220.8
196.185	6253.44
196.261	6263.42
196.336	6351.57
196.411	6301.54
196.486	6313.96
196.561	6293.13
196.637	6325.04
196.712	6372.63
196.787	6380.51
196.862	6429.18
196.937	6464.16
197.013	6482.08
197.088	6513.75
197.163	6563.28
197.238	6608.95
197.313	6607.79
197.388	6644.77
197.464	6731.92
197.539	6770.52
197.614	6745.22
197.689	6780.52
197.764	6826.26
197.839	6885.14
197.914	6873.65
197.989	6939.36
198.065	6979.46
198.14	7127.63
198.215	7197.68
198.29	7226.29
198.365	7267.28
198.44	7290.87
198.515	7371.1
198.59	7414.02
198.665	7485.3
198.74	7511.79
198.815	7516.75
198.89	7579.13
198.965	7666.13
199.04	7655.88
199.115	7696.02
199.19	7820.76
199.265	7832.34
199.34	7856.62
199.415	7955.88
199.49	8013.38
199.565	8042.14
199.64	8119.04
199.715	8104.31
199.79	8121.72
199.865	8139.09
199.94	8134.37
200.015	8229.58
200.09	8248.64
200.165	8262.2
200.24	8285.2
200.315	8400.41
200.39	8445.84
200.464	8468.21
200.539	8465.32
200.614	8508.28
200.689	8582.43
200.764	8603.38
200.839	8647.47
200.914	8668.07
200.989	8630.71
201.063	8671.47
201.138	8620.46
201.213	8616.17
201.288	8562.34
201.363	8576.38
201.438	8577.4
201.512	8623.62
201.587	8569.28
201.662	8576.26
201.737	8613.79
201.812	8636.08
201.886	8532.75
201.961	8557.21
202.036	8516.08
202.111	8513.39
202.186	8422.23
202.26	8369.48
202.335	8304.61
202.41	8294.89
202.485	8246.17
202.559	8194.36
202.634	8118.02
202.709	8145.56
202.784	8089.81
202.858	8090.15
202.933	8039.89
203.008	8020.74
203.082	7959.76
203.157	7954.18
203.232	7832.52
203.306	7768.77
203.381	7675.22
203.456	7612.86
203.53	7541.87
203.605	7488.64
203.68	7419.62
203.754	7409.01
203.829	7361.36
203.904	7300.61
203.978	7260.8
204.053	7270.7
204.127	7231.69
204.202	7223.76
204.277	7174.07
204.351	7156.72
204.426	7135.38
204.5	7115.48
204.575	7014.52
204.65	7042.69
204.724	7022.06
204.799	7052.74
204.873	7040.39
204.948	7035.58
205.022	7008.07
205.097	6980.76
205.171	7024.9
205.246	7045.04
205.32	7042.55
205.395	7038.61
205.469	7018.83
205.544	7037.29
205.618	6985.01
205.693	7017.93
205.767	6983.2
205.842	7044.47
205.916	7024.68
205.991	6997.77
206.065	7009.35
206.14	7057.06
206.214	7039.08
206.289	7015.19
206.363	7036.71
206.438	7048.73
206.512	7071.56
206.586	7121.09
206.661	7152.24
206.735	7085.64
206.81	7089.97
206.884	7132.67
206.958	7096.65
207.033	7143.18
207.107	7162.03
207.181	7259.67
207.256	7247.27
207.33	7300.6
207.405	7338.47
207.479	7395.08
207.553	7415.79
207.628	7368.96
207.702	7404.57
207.776	7390.05
207.851	7403.22
207.925	7449
207.999	7433.29
208.073	7420.69
208.148	7426.41
208.222	7395.21
208.296	7488.16
208.371	7534.11
208.445	7563
208.519	7649.56
208.593	7686.48
208.668	7672.82
208.742	7678.6
208.816	7684.17
208.89	7726.31
208.965	7723.32
209.039	7748.15
209.113	7798.39
209.187	7859.02
209.261	7843.06
209.336	7902.54
209.41	7956.6
209.484	7956.36
209.558	8026
209.632	8070.33
209.707	8104.24
209.781	8164.65
209.855	8210.41
209.929	8256.15
210.003	8275.54
210.077	8266.44
210.151	8396.64
210.226	8494.73
210.3	8568.93
210.374	8636.46
210.448	8648.35
210.522	8673.67
210.596	8698.6
210.67	8723.14
210.744	8859.02
210.818	8951.14
210.892	9006.12
210.966	8988.41
211.041	9038.66
211.115	9027.93
211.189	9095.36
211.263	9146.72
211.337	9162.41
211.411	9197.37
211.485	9177.67
211.559	9217.57
211.633	9233.4
211.707	9142.52
211.781	9168.44
211.855	9069.93
211.929	9043.75
212.003	8991.85
212.077	9016.55
212.151	9050.83
212.225	9075.62
212.299	9042.15
212.373	9008.84
212.447	8995.88
212.52	9078.88
212.594	9085.96
212.668	9121.48
212.742	9079.6
212.816	9065.2
212.89	9048.11
212.964	9045.42
213.038	9063.14
213.112	9092.85
213.186	9130.15
213.26	9074.54
213.333	8932.55
213.407	8942.85
213.481	8946.5
213.555	8975.22
213.629	8940.4
213.703	8886.15
213.777	8883.79
213.85	8822.02
213.924	8913.51
213.998	8910.24
214.072	8882.64
214.146	8832.24
214.219	8811.92
214.293	8797.49
214.367	8796.67
214.441	8826.13
214.515	8785.21
214.588	8703.24
214.662	8596.93
214.736	8531.25
214.81	8540.19
214.883	8566.25
214.957	8523.93
215.031	8480.31
215.105	8400.86
215.178	8354.28
215.252	8322.82
215.326	8235.64
215.4	8171.4
215.473	8021.15
215.547	7947.63
215.621	7897.09
215.694	7898.92
215.768	7818.93
215.842	7765.12
215.915	7701.57
215.989	7596.66
216.063	7545.62
216.136	7532.01
216.21	7509.75
216.284	7521.92
216.357	7507.06
216.431	7470.43
216.504	7470.38
216.578	7523.19
216.652	7534.04
216.725	7511.92
216.799	7520.82
216.873	7504.77
216.946	7508.61
217.02	7472.3
217.093	7449.32
217.167	7363.15
217.24	7290.73
217.314	7264.22
217.387	7221.28
217.461	7183.17
217.535	7207.92
217.608	7159.77
217.682	7138.1
217.755	7150.69
217.829	7100.69
217.902	7084.54
217.976	7070.13
218.049	7029.96
218.123	6960.87
218.196	6960.77
218.27	6921.95
218.343	6860.95
218.417	6862.3
218.49	6841.11
218.563	6882.71
218.637	6888.91
218.71	6954.35
218.784	6981.99
218.857	7004.51
218.931	7029.58
219.004	7037.6
219.077	7047.41
219.151	7064.75
219.224	7057.93
219.298	7049.08
219.371	7086
219.444	7052.95
219.518	7057.27
219.591	7071.49
219.665	7158.87
219.738	7174.73
219.811	7170.26
219.885	7210.29
219.958	7237.74
220.031	7244.75
220.105	7261.34
220.178	7270.37
220.251	7247.92
220.325	7269.08
220.398	7285.9
220.471	7304.3
220.544	7332.66
220.618	7315.78
220.691	7341.88
220.764	7353.56
220.838	7377.83
220.911	7366.1
220.984	7435.44
221.057	7466.49
221.131	7487.49
221.204	7402.08
221.277	7461.85
221.35	7563.63
221.424	7559.97
221.497	7563.05
221.57	7587.99
221.643	7618.24
221.716	7655.51
221.79	7663.69
221.863	7671.29
221.936	7678.3
222.009	7685.22
222.082	7711.05
222.155	7723.17
222.229	7776.61
222.302	7807.57
222.375	7817.33
222.448	7859.37
222.521	7870.96
222.594	7875.91
222.667	7857.03
222.74	7915.49
222.814	7908.08
222.887	7893.79
222.96	7937.03
223.033	7980.61
223.106	7999.41
223.179	8028.77
223.252	8037.04
223.325	8056.18
223.398	8065.71
223.471	8092.15
223.544	8110.18
223.617	8121.01
223.69	8137.26
223.763	8103.87
223.837	8121.58
223.91	8145.34
223.983	8098.21
224.056	8069.64
224.129	8091.53
224.202	8131.18
224.275	8117.52
224.348	8095.2
224.42	8068.07
224.493	8022.81
224.566	8002.8
224.639	8019.15
224.712	7989.99
224.785	7981.57
224.858	7982.53
224.931	7971.65
225.004	7938.09
225.077	7945.45
225.15	7873.86
225.223	7875.4
225.296	7942.68
225.369	7898.24
225.442	7871.3
225.514	7888.08
225.587	7901.16
225.66	7907.51
225.733	7914
225.806	7920.16
225.879	7908.81
225.952	7882.08
226.025	7921.42
226.097	7964.31
226.17	7951.46
226.243	7890.69
226.316	7886.94
226.389	7890.11
226.461	7905.94
226.534	7924.11
226.607	7912.43
226.68	7980.46
226.753	7979.26
226.825	7923.19
226.898	7968.53
226.971	7971.76
227.044	7989.89
227.117	7998.02
227.189	8013.75
227.262	8042.76
227.335	8063.5
227.407	8072.73
227.48	8102.2
227.553	8111.06
227.626	8092.52
227.698	8110.99
227.771	8154.4
227.844	8136.08
227.916	8153.44
227.989	8123.38
228.062	8127.99
228.134	8203.54
228.207	8206.43
228.28	8196.09
228.352	8198.54
228.425	8210.38
228.498	8257.19
228.57	8245.26
228.643	8292.86
228.716	8300.17
228.788	8296.03
228.861	8291.22
228.934	8344.82
229.006	8359.25
229.079	8365.02
229.151	8359.97
229.224	8328.04
229.296	8349.73
229.369	8448.16
229.442	8496.2
229.514	8486.54
229.587	8524.83
229.659	8458.52
229.732	8476.9
229.804	8518.33
229.877	8582.35
229.949	8607.86
230.022	8651.72
230.094	8653.26
230.167	8648.93
230.239	8607.22
230.312	8596.34
230.384	8656.81
230.457	8649.01
230.529	8658.54
230.602	8657
230.674	8667.15
230.747	8702.4
230.819	8725.6
230.892	8618.51
230.964	8613.55
231.037	8638.8
231.109	8632.02
231.181	8672.19
231.254	8635.33
231.326	8617.63
231.399	8605.54
231.471	8576.13
231.544	8504.16
231.616	8536.2
231.688	8543.81
231.761	8533.95
231.833	8528.37
231.905	8456.59
231.978	8459
232.05	8438.75
232.122	8444.57
232.195	8423.35
232.267	8458.43
232.339	8441.59
232.412	8501.77
232.484	8482.47
232.556	8457.07
232.629	8512
232.701	8526.2
232.773	8536.21
232.846	8531.54
232.918	8530.48
232.99	8546.03
233.062	8587.32
233.135	8599.02
233.207	8568.12
233.279	8605.93
233.351	8630.37
233.424	8637.2
233.496	8617.62
233.568	8695.11
233.64	8661.57
233.713	8680.68
233.785	8680.87
233.857	8699.31
233.929	8652.54
234.001	8709.94
234.074	8768.58
234.146	8713.7
234.218	8711.34
234.29	8716.92
234.362	8709.56
234.434	8670.67
234.507	8650.74
234.579	8604.35
234.651	8592.41
234.723	8616.14
234.795	8633.42
234.867	8631.44
234.939	8678.23
235.012	8690.98
235.084	8692.38
235.156	8729.81
235.228	8714.22
235.3	8698.77
235.372	8705.56
235.444	8759.69
235.516	8690.21
235.588	8701.42
235.66	8717.69
235.732	8693.58
235.804	8861.83
235.876	8905.52
235.948	8964.93
236.02	8975.61
236.092	8996.06
236.164	9012.14
236.236	9017
236.308	9022.68
236.38	9046.56
236.452	9033.99
236.524	9058.73
236.596	9118.57
236.668	9149.33
236.74	9170.12
236.812	9197.18
236.884	9235.03
236.956	9257.03
237.028	9254.62
237.1	9236.48
237.172	9297.73
237.244	9372.74
237.316	9275.65
237.388	9258.76
237.46	9240.5
237.532	9296.64
237.604	9289.86
237.675	9352.85
237.747	9392.29
237.819	9374.86
237.891	9389.79
237.963	9383.43
238.035	9378.76
238.107	9275.17
238.178	9330.18
238.25	9337.69
238.322	9410.81
238.394	9373.54
238.466	9364
238.538	9402.51
238.609	9440.26
238.681	9399.32
238.753	9379.38
238.825	9391.56
238.897	9423.19
238.968	9495.83
239.04	9482.06
239.112	9577.98
239.184	9547.16
239.255	9542.24
239.327	9587.59
239.399	9602.04
239.471	9642.05
239.542	9675.09
239.614	9741.15
239.686	9677.86
239.758	9725.73
239.829	9698.31
239.901	9753.46
239.973	9767.37
240.044	9799.79
240.116	9809.56
240.188	9823.67
240.259	9841.64
240.331	9836.44
240.403	9871.55
240.474	9829.97
240.546	9815.14
240.618	9763.5
240.689	9761.52
240.761	9793.56
240.833	9844.96
240.904	9851.27
240.976	9859.26
241.048	9878.68
241.119	9914.81
241.191	9955.46
241.262	10010.53
241.334	10015.54
241.405	10022.53
241.477	10031.68
241.549	10041.56
241.62	10076.19
241.692	10116.9
241.763	10173.8
241.835	10197.65
241.906	10211.09
241.978	10188.4
242.049	10259.4
242.121	10318.31
242.192	10376.84
242.264	10339.27
242.335	10295.57
242.407	10331.23
242.478	10330.07
242.55	10348.04
242.621	10337.49
242.693	10336.09
242.764	10335.94
242.836	10346.11
242.907	10373.82
242.979	10403.44
243.05	10420.06
243.122	10440.11
243.193	10436.16
243.264	10372.13
243.336	10375.74
243.407	10412.65
243.479	10486.36
243.55	10495.51
243.622	10504.96
243.693	10510.11
243.764	10573.32
243.836	10567.78
243.907	10557.91
243.978	10569.47
244.05	10597.51
244.121	10563.88
244.192	10599.39
244.264	10555.25
244.335	10567.01
244.407	10515.99
244.478	10528.85
244.549	10523.12
244.62	10487.71
244.692	10491.37
244.763	10529.57
244.834	10525.53
244.906	10498.78
244.977	10513.82
245.048	10566.54
245.119	10555.41
245.191	10536.38
245.262	10490.42
245.333	10547.55
245.405	10566.73
245.476	10603.93
245.547	10612.94
245.618	10655.96
245.689	10671.72
245.761	10707.76
245.832	10719.71
245.903	10773.24
245.974	10802.63
246.045	10823.26
246.117	10901.61
246.188	10895.15
246.259	10886.29
246.33	10906.62
246.401	10926.57
246.473	10904.11
246.544	10892.21
246.615	10943.58
246.686	10956.69
246.757	11026.46
246.828	11010.36
246.899	11082.9
246.97	11054.09
247.042	11050.62
247.113	11092.35
247.184	11170.87
247.255	11173.81
247.326	11200.41
247.397	11206.63
247.468	11216.41
247.539	11226.87
247.61	11184.75
247.681	11225.56
247.752	11277.17
247.823	11254.29
247.894	11270
247.965	11246.29
248.037	11238.19
248.108	11191.35
248.179	11198.96
248.25	11188.17
248.321	11216.79
248.392	11170.13
248.463	11239.19
248.534	11238.85
248.605	11252.35
248.675	11229.55
248.746	11241.84
248.817	11255.52
248.888	11269.02
248.959	11227.48
249.03	11251.53
249.101	11257.21
249.172	11240.06
249.243	11176.69
249.314	11241.56
249.385	11253.61
249.456	11284.25
249.527	11282.13
249.598	11310.52
249.669	11309.26
249.739	11321.36
249.81	11333.6
249.881	11302.13
249.952	11294.32
250.023	11295.77
250.094	11258.13
250.165	11235.04
250.235	11232
250.306	11231.62
250.377	11209.01
250.448	11230.51
250.519	11181.54
250.59	11233.55
250.66	11237.26
250.731	11300.38
250.802	11293.3
250.873	11309.44
250.944	11330.12
251.014	11326.46
251.085	11404.3
251.156	11424.45
251.227	11469.71
251.297	11515.98
251.368	11565.42
251.439	11603.5
251.51	11650.5
251.58	11640.81
251.651	11637.39
251.722	11683.61
251.792	11651.95
251.863	11659.46
251.934	11718.07
252.005	11818.56
252.075	11826.47
252.146	11873.94
252.217	11917.13
252.287	11955.88
252.358	11958.87
252.429	12026.26
252.499	12015.22
252.57	12029.1
252.641	12073.83
252.711	12082.51
252.782	12052.58
252.852	12118.18
252.923	12115.92
252.994	12139.49
253.064	12183.2
253.135	12168.36
253.205	12154.18
253.276	12211.01
253.347	12272.66
253.417	12247.35
253.488	12233.13
253.558	12231.25
253.629	12231.2
253.699	12241.23
253.77	12266.34
253.841	12259.79
253.911	12263.45
253.982	12286.35
254.052	12310.88
254.123	12327.13
254.193	12324.86
254.264	12434.14
254.334	12402.37
254.405	12377.36
254.475	12335.76
254.546	12344.44
254.616	12401.41
254.687	12426.47
254.757	12442.86
254.827	12443.88
254.898	12475.21
254.968	12479.11
255.039	12464.27
255.109	12491.45
255.18	12470
255.25	12413.99
255.321	12443.1
255.391	12411
255.461	12494.54
255.532	12421.12
255.602	12412.97
255.673	12375.28
255.743	12358.21
255.813	12299.17
255.884	12355.62
255.954	12392.78
256.024	12456.99
256.095	12455.45
256.165	12430.62
256.235	12460.03
256.306	12443.64
256.376	12483.41
256.446	12519.61
256.517	12554.94
256.587	12602.19
256.657	12625.61
256.728	12648.46
256.798	12664.66
256.868	12664.61
256.938	12627.54
257.009	12672.03
257.079	12694.74
257.149	12773.45
257.219	12721.92
257.29	12754.36
257.36	12703.31
257.43	12739.37
257.5	12678.82
257.571	12681.76
257.641	12716.03
257.711	12680.65
257.781	12708.75
257.852	12727.75
257.922	12680.02
257.992	12682.72
258.062	12674.48
258.132	12713.48
258.202	12721.14
258.273	12731.03
258.343	12799.53
258.413	12790.99
258.483	12792.15
258.553	12779.09
258.623	12764.58
258.693	12789.36
258.764	12845.51
258.834	12905
258.904	12917.19
258.974	12907.99
259.044	12913.63
259.114	12945.49
259.184	12977.69
259.254	12990.47
259.324	12946.84
259.394	12989.74
259.464	13055.64
259.535	13061.86
259.605	13054.05
259.675	13043.01
259.745	13082.97
259.815	13064.13
259.885	13077.53
259.955	13175.48
260.025	13162.18
260.095	13181.41
260.165	13207.49
260.235	13276.14
260.305	13265.34
260.375	13247.69
260.445	13328.53
260.515	13382.81
260.585	13419.31
260.655	13427.89
260.725	13468.14
260.795	13494.61
260.865	13547.68
260.934	13524.73
261.004	13549.9
261.074	13566.53
261.144	13626.93
261.214	13645.97
261.284	13642.89
261.354	13664.77
261.424	13633.49
261.494	13700.3
261.564	13701.75
261.634	13723.97
261.703	13661.16
261.773	13685.26
261.843	13712.93
261.913	13713.66
261.983	13675.72
262.053	13690.56
262.123	13686.03
262.192	13648.87
262.262	13679.72
262.332	13643.08
262.402	13671.14
262.472	13681.84
262.541	13619.32
262.611	13652.39
262.681	13634.5
262.751	13671.91
262.821	13688.06
262.89	13654.89
262.96	13674.95
263.03	13743.93
263.1	13765.38
263.169	13785.82
263.239	13809.1
263.309	13867.34
263.379	13886.38
263.448	13901.22
263.518	13928.8
263.588	13943.4
