Data from 20250626_urea_1M_exp2_MAYP1162681_05-43-59-973.txt Node
Date: Fri Jun 27 05:43:59 BST 2025
User: adleo
Spectrometer: MAYP116268
Trigger mode: 0
Integration Time (sec): 3.000000E0
Scans to average: 1
Electric dark correction enabled: true
Nonlinearity correction enabled: true
Boxcar width: 10
XAxis mode: Wavelengths
Number of Pixels in Spectrum: 2068
>>>>>Begin Spectral Data<<<<<
179.565	2698.72
179.642	2837.33
179.718	2949.21
179.795	3051.99
179.871	3133.84
179.948	3183.24
180.024	3232.74
180.101	3287.73
180.177	3321.65
180.254	3380.81
180.33	3435.71
180.407	3618.28
180.483	3828.41
180.56	4038.64
180.636	4233.35
180.712	4206.41
180.789	4227.46
180.865	4255.89
180.942	4280.18
181.018	4306.81
181.095	4339.83
181.171	4353.32
181.248	4360.07
181.324	4392.85
181.4	4404.38
181.477	4429.74
181.553	4455.42
181.63	4506.23
181.706	4545.43
181.782	4569.67
181.859	4571.06
181.935	4587.09
182.011	4579.39
182.088	4623.61
182.164	4673.9
182.24	4707.1
182.317	4728.96
182.393	4724.03
182.469	4760.26
182.546	4794.73
182.622	4809.23
182.698	4799.8
182.775	4829.43
182.851	4858.54
182.927	4841.5
183.003	4831.45
183.08	4818.57
183.156	4843.08
183.232	4842.12
183.308	4812.49
183.385	4831.3
183.461	4867.17
183.537	4869.61
183.613	4901.21
183.69	4877.65
183.766	4849.67
183.842	4866.05
183.918	4879.16
183.995	4913.83
184.071	4918.71
184.147	4905.26
184.223	4876.6
184.299	4905.62
184.375	4879.19
184.452	4897.98
184.528	5000.02
184.604	5032.85
184.68	5060.53
184.756	5081.22
184.832	5084.86
184.908	5102.19
184.985	5098.69
185.061	5062.78
185.137	5079.59
185.213	5053.5
185.289	5059.1
185.365	5041.43
185.441	5041.15
185.517	5073.45
185.593	5063.24
185.669	5056.63
185.745	5086.33
185.822	5128.59
185.898	5104.5
185.974	5124.17
186.05	5105.24
186.126	5044.97
186.202	5025.25
186.278	5012.75
186.354	4989.75
186.43	5010.89
186.506	5005.14
186.582	5005.29
186.658	5018.54
186.734	4971.53
186.81	4973.3
186.886	4977.42
186.962	5005.43
187.038	4995.04
187.114	4974.19
187.19	4989.71
187.266	4967.3
187.341	4960.02
187.417	4940.67
187.493	4943.79
187.569	4952.94
187.645	4934.6
187.721	4903.89
187.797	4923.42
187.873	4938.94
187.949	4921.76
188.025	4902.97
188.101	4911.15
188.176	4922.26
188.252	4912.55
188.328	4936.09
188.404	4937.86
188.48	4925.75
188.556	4909.46
188.632	4908.41
188.707	4915.5
188.783	4911.86
188.859	4899.61
188.935	4878.97
189.011	4898.89
189.086	4880.03
189.162	4856.61
189.238	4852.88
189.314	4846.66
189.39	4833.3
189.465	4818.07
189.541	4859.25
189.617	4825.79
189.693	4812.34
189.768	4822.44
189.844	4882.67
189.92	4856.93
189.996	4881.59
190.071	4908.55
190.147	4904.34
190.223	4926.28
190.298	4907.36
190.374	4874.99
190.45	4907.15
190.526	4925.78
190.601	4914.48
190.677	4921.61
190.753	4998.97
190.828	5009.79
190.904	5049.55
190.98	5081.99
191.055	5103.88
191.131	5081.12
191.207	5128.53
191.282	5153.43
191.358	5128.14
191.433	5091.42
191.509	5125.02
191.585	5110.22
191.66	5110.79
191.736	5136.94
191.811	5113.76
191.887	5151.66
191.963	5209.1
192.038	5223.38
192.114	5225.25
192.189	5234.25
192.265	5226.59
192.34	5165.27
192.416	5159.52
192.491	5147.01
192.567	5158.47
192.642	5163.69
192.718	5167.14
192.793	5136.39
192.869	5121.45
192.944	5127.67
193.02	5149.14
193.095	5157.95
193.171	5176.49
193.246	5176.78
193.322	5167.53
193.397	5169.59
193.473	5135.08
193.548	5095.83
193.624	5109.25
193.699	5101.88
193.775	5137.78
193.85	5143.85
193.925	5166.81
194.001	5165.61
194.076	5148.03
194.152	5118.41
194.227	5105.18
194.302	5084.55
194.378	5090.34
194.453	5086.9
194.529	5119.9
194.604	5081.48
194.679	5070.23
194.755	5025.03
194.83	5054.18
194.905	5049.58
194.981	5073.63
195.056	5058.21
195.131	5070.14
195.207	5062.32
195.282	5040.83
195.357	4996.69
195.433	5036.97
195.508	5003.68
195.583	5028.58
195.659	5062.51
195.734	5078.27
195.809	5071.9
195.884	5088.08
195.96	5091.19
196.035	5126.54
196.11	5117.48
196.185	5149.86
196.261	5153.69
196.336	5227.23
196.411	5190.37
196.486	5201.58
196.561	5178.63
196.637	5198.74
196.712	5234.31
196.787	5245
196.862	5288.88
196.937	5309.53
197.013	5320.07
197.088	5347.23
197.163	5395.57
197.238	5438.81
197.313	5444.75
197.388	5479.4
197.464	5556.9
197.539	5589.15
197.614	5572.62
197.689	5599.8
197.764	5637.5
197.839	5689.51
197.914	5675.08
197.989	5735.5
198.065	5769.15
198.14	5899.64
198.215	5964.97
198.29	5997.32
198.365	6029.07
198.44	6051.86
198.515	6124.89
198.59	6162.7
198.665	6225.6
198.74	6243.84
198.815	6245.62
198.89	6300.23
198.965	6371.04
199.04	6360.15
199.115	6399.16
199.19	6505.88
199.265	6514.38
199.34	6536.75
199.415	6618.37
199.49	6672.59
199.565	6692.86
199.64	6755.13
199.715	6747.68
199.79	6761.13
199.865	6773.71
199.94	6769.92
200.015	6847.59
200.09	6860.08
200.165	6873.48
200.24	6891.98
200.315	6986.45
200.39	7026.23
200.464	7035.79
200.539	7039.4
200.614	7073.74
200.689	7126.06
200.764	7139.57
200.839	7182.88
200.914	7196.66
200.989	7168.2
201.063	7199.63
201.138	7157.96
201.213	7158.64
201.288	7109.35
201.363	7120.59
201.438	7122.22
201.512	7161.4
201.587	7113.83
201.662	7121.28
201.737	7151.5
201.812	7173.47
201.886	7096.28
201.961	7120.37
202.036	7088.68
202.111	7081.33
202.186	7009
202.26	6967.14
202.335	6911.89
202.41	6895.89
202.485	6852.35
202.559	6803.89
202.634	6744.43
202.709	6768.8
202.784	6718.67
202.858	6719.96
202.933	6669.36
203.008	6653.36
203.082	6601.61
203.157	6604.54
203.232	6500.12
203.306	6443.72
203.381	6355.32
203.456	6293.97
203.53	6230.06
203.605	6182.43
203.68	6126.16
203.754	6114.8
203.829	6078.94
203.904	6035.04
203.978	6007.25
204.053	6022.42
204.127	5995.89
204.202	5986.53
204.277	5944.03
204.351	5925.47
204.426	5905.79
204.5	5891.45
204.575	5800.4
204.65	5822.96
204.724	5798.18
204.799	5815.82
204.873	5808.04
204.948	5809.34
205.022	5779.05
205.097	5756.01
205.171	5790.82
205.246	5810.83
205.32	5809.92
205.395	5806.51
205.469	5778.82
205.544	5793.45
205.618	5745.1
205.693	5772.16
205.767	5741.04
205.842	5789.35
205.916	5776.17
205.991	5751.23
206.065	5764.22
206.14	5808.77
206.214	5799.22
206.289	5781.33
206.363	5808.95
206.438	5813.84
206.512	5833.85
206.586	5887.84
206.661	5913.9
206.735	5861.13
206.81	5866.56
206.884	5901.75
206.958	5872.79
207.033	5917.65
207.107	5931.53
207.181	6013.74
207.256	5999.68
207.33	6047.88
207.405	6078.48
207.479	6126.55
207.553	6145.45
207.628	6103.89
207.702	6129.84
207.776	6111.12
207.851	6124.65
207.925	6167.24
207.999	6155.96
208.073	6148.67
208.148	6153.76
208.222	6124.48
208.296	6205.18
208.371	6239.29
208.445	6265.21
208.519	6337.42
208.593	6367.7
208.668	6356.37
208.742	6364.39
208.816	6369.72
208.89	6403.53
208.965	6400.36
209.039	6419.66
209.113	6461.33
209.187	6517.86
209.261	6510.95
209.336	6565.01
209.41	6611.2
209.484	6611.39
209.558	6672.43
209.632	6706.41
209.707	6729.94
209.781	6782.66
209.855	6820.71
209.929	6864.95
210.003	6878.74
210.077	6879.12
210.151	6990.24
210.226	7075.02
210.3	7133.98
210.374	7191.65
210.448	7202.89
210.522	7232.26
210.596	7258.41
210.67	7279.31
210.744	7395.97
210.818	7475.27
210.892	7523.68
210.966	7509.22
211.041	7540.46
211.115	7532.72
211.189	7593.67
211.263	7639.76
211.337	7654.71
211.411	7684.09
211.485	7663.55
211.559	7694.59
211.633	7695.84
211.707	7625.51
211.781	7648.13
211.855	7565.39
211.929	7540.31
212.003	7496.65
212.077	7513.34
212.151	7538.82
212.225	7561.37
212.299	7532.45
212.373	7501.74
212.447	7489.95
212.52	7555.48
212.594	7567.93
212.668	7590.86
212.742	7555.66
212.816	7537.3
212.89	7523.41
212.964	7523.02
213.038	7536.1
213.112	7569.29
213.186	7606.63
213.26	7551.78
213.333	7431.47
213.407	7440.88
213.481	7448.86
213.555	7476.52
213.629	7447.33
213.703	7402.81
213.777	7396.7
213.85	7343.15
213.924	7422.21
213.998	7417.74
214.072	7401.67
214.146	7367.15
214.219	7357.97
214.293	7344.33
214.367	7346.92
214.441	7362.88
214.515	7325.91
214.588	7266.5
214.662	7170.68
214.736	7110.38
214.81	7122.86
214.883	7142.92
214.957	7109.98
215.031	7073.64
215.105	6999.31
215.178	6952.9
215.252	6926.77
215.326	6858.27
215.4	6801.91
215.473	6672.11
215.547	6614.12
215.621	6569.75
215.694	6562.88
215.768	6495.6
215.842	6446.92
215.915	6392.59
215.989	6316.23
216.063	6274.92
216.136	6253.51
216.21	6236.57
216.284	6247.28
216.357	6228.03
216.431	6193.57
216.504	6187.91
216.578	6228.34
216.652	6241.14
216.725	6226.64
216.799	6232.21
216.873	6216
216.946	6221.8
217.02	6195.14
217.093	6172.49
217.167	6098.11
217.24	6036.77
217.314	6006.32
217.387	5972.47
217.461	5939.85
217.535	5950.65
217.608	5905.32
217.682	5889.15
217.755	5899.56
217.829	5859.39
217.902	5849.31
217.976	5835.79
218.049	5809.12
218.123	5753.06
218.196	5754.83
218.27	5728.11
218.343	5676.44
218.417	5681.33
218.49	5662.48
218.563	5692.89
218.637	5698.02
218.71	5754.62
218.784	5777.51
218.857	5806.95
218.931	5825.26
219.004	5831.59
219.077	5849.44
219.151	5864.88
219.224	5856.68
219.298	5853.84
219.371	5882.63
219.444	5852.86
219.518	5865.71
219.591	5872.62
219.665	5950.31
219.738	5957.21
219.811	5949.35
219.885	5988.54
219.958	6008.03
220.031	6009.03
220.105	6022.9
220.178	6027.94
220.251	6004.81
220.325	6027.75
220.398	6031.54
220.471	6043.48
220.544	6066.75
220.618	6054.13
220.691	6075.14
220.764	6084.64
220.838	6106.52
220.911	6100.67
220.984	6164.32
221.057	6191.1
221.131	6209.76
221.204	6136.67
221.277	6189.81
221.35	6279.58
221.424	6274.39
221.497	6283.71
221.57	6303.37
221.643	6329.15
221.716	6361.08
221.79	6367.51
221.863	6367.61
221.936	6379.65
222.009	6391.26
222.082	6417.81
222.155	6417.53
222.229	6464.68
222.302	6491.71
222.375	6489.45
222.448	6513.36
222.521	6517.54
222.594	6517.44
222.667	6500.08
222.74	6545.05
222.814	6542.84
222.887	6529.39
222.96	6565.83
223.033	6592.21
223.106	6613.22
223.179	6634.94
223.252	6646.28
223.325	6666.35
223.398	6678.55
223.471	6704.72
223.544	6717.91
223.617	6728.92
223.69	6752.58
223.763	6727.61
223.837	6743.69
223.91	6766.26
223.983	6735.25
224.056	6714.99
224.129	6728.2
224.202	6771.05
224.275	6759
224.348	6736.09
224.42	6708.81
224.493	6670.97
224.566	6654.92
224.639	6666.83
224.712	6643.38
224.785	6632.81
224.858	6629.21
224.931	6615.33
225.004	6583.84
225.077	6584.51
225.15	6515.2
225.223	6509.15
225.296	6567.11
225.369	6524.23
225.442	6501.38
225.514	6509.73
225.587	6520.1
225.66	6523.41
225.733	6521.1
225.806	6530.61
225.879	6525.52
225.952	6505.65
226.025	6538.4
226.097	6579.44
226.17	6573.78
226.243	6529.28
226.316	6528.41
226.389	6530.81
226.461	6543.54
226.534	6553.77
226.607	6546.23
226.68	6612.13
226.753	6611.17
226.825	6555.32
226.898	6596.9
226.971	6602.75
227.044	6622.15
227.117	6629.45
227.189	6646.17
227.262	6675.52
227.335	6692.67
227.407	6691.61
227.48	6713.79
227.553	6723.93
227.626	6704.55
227.698	6710.75
227.771	6740.41
227.844	6721.15
227.916	6735.41
227.989	6709.15
228.062	6715.29
228.134	6785.1
228.207	6785.48
228.28	6778.62
228.352	6786.2
228.425	6796.49
228.498	6835.21
228.57	6822.05
228.643	6864.86
228.716	6872.89
228.788	6860.44
228.861	6853.96
228.934	6902.61
229.006	6909.72
229.079	6906.35
229.151	6901.84
229.224	6877.35
229.296	6890.56
229.369	6969.86
229.442	7006
229.514	7004.41
229.587	7032.99
229.659	6976.01
229.732	6981.63
229.804	7014.39
229.877	7069.66
229.949	7089.51
230.022	7120.67
230.094	7119.47
230.167	7109.86
230.239	7071.19
230.312	7058.56
230.384	7107.11
230.457	7101.2
230.529	7108.83
230.602	7110.8
230.674	7120.03
230.747	7150.61
230.819	7180.4
230.892	7091.75
230.964	7090.64
231.037	7106.97
231.109	7103.46
231.181	7137.32
231.254	7116.14
231.326	7103.84
231.399	7088.69
231.471	7070.23
231.544	7010.87
231.616	7041.23
231.688	7051.37
231.761	7041.86
231.833	7040.38
231.905	6980.39
231.978	6981.11
232.05	6971.22
232.122	6975.21
232.195	6953.54
232.267	6982.61
232.339	6966.27
232.412	7016.89
232.484	6995.88
232.556	6975
232.629	7022.93
232.701	7032.73
232.773	7038.45
232.846	7029.9
232.918	7027.4
232.99	7039.66
233.062	7069.25
233.135	7077.57
233.207	7045.22
233.279	7082.92
233.351	7107.9
233.424	7110.11
233.496	7088.73
233.568	7149.67
233.64	7123.73
233.713	7140.55
233.785	7140.4
233.857	7150.16
233.929	7107.74
234.001	7158.18
234.074	7209.96
234.146	7155.21
234.218	7154.73
234.29	7152.28
234.362	7149.92
234.434	7119.98
234.507	7094.13
234.579	7055.41
234.651	7046.47
234.723	7072.8
234.795	7084.05
234.867	7079.67
234.939	7121
235.012	7138.87
235.084	7137.29
235.156	7164.96
235.228	7146.65
235.3	7129.4
235.372	7131.85
235.444	7181.38
235.516	7121.47
235.588	7120.8
235.66	7132.91
235.732	7111.24
235.804	7256.95
235.876	7284.62
235.948	7331.73
236.02	7338.51
236.092	7356.76
236.164	7362.28
236.236	7359.54
236.308	7353.44
236.38	7370.45
236.452	7358.39
236.524	7372.66
236.596	7423.9
236.668	7447.12
236.74	7465
236.812	7486
236.884	7513.6
236.956	7522.25
237.028	7523.45
237.1	7517.01
237.172	7566.25
237.244	7623.12
237.316	7536.53
237.388	7525.04
237.46	7509.99
237.532	7557.77
237.604	7552.11
237.675	7609.66
237.747	7643.52
237.819	7633.28
237.891	7635.3
237.963	7625.88
238.035	7623.04
238.107	7541.42
238.178	7587.7
238.25	7592.89
238.322	7661.25
238.394	7631.1
238.466	7627.16
238.538	7653.26
238.609	7678.16
238.681	7649.4
238.753	7631.22
238.825	7642.9
238.897	7668.09
238.968	7721.39
239.04	7706.1
239.112	7780.04
239.184	7754.4
239.255	7751.18
239.327	7782.57
239.399	7801.08
239.471	7838.96
239.542	7860.17
239.614	7906.62
239.686	7850
239.758	7893.09
239.829	7865.41
239.901	7914.56
239.973	7929.9
240.044	7956.3
240.116	7968.27
240.188	7973.47
240.259	7982.56
240.331	7976.21
240.403	8001.26
240.474	7968.97
240.546	7962.53
240.618	7923.09
240.689	7917.7
240.761	7934.98
240.833	7981.92
240.904	7983.75
240.976	7981.73
241.048	7997.7
241.119	8023.97
241.191	8054.75
241.262	8103.07
241.334	8105.05
241.405	8103.6
241.477	8103.94
241.549	8106.54
241.62	8127.03
241.692	8166.43
241.763	8209.11
241.835	8225.76
241.906	8239.95
241.978	8218.83
242.049	8269.24
242.121	8318.36
242.192	8368.63
242.264	8337.46
242.335	8301.09
242.407	8327.98
242.478	8325.39
242.55	8344.87
242.621	8336.64
242.693	8336.84
242.764	8323.16
242.836	8328.74
242.907	8352.37
242.979	8379.02
243.05	8400.92
243.122	8415.84
243.193	8407.27
243.264	8356.56
243.336	8361.27
243.407	8379.56
243.479	8441.63
243.55	8452.84
243.622	8465.45
243.693	8462.32
243.764	8515.92
243.836	8500.39
243.907	8493.51
243.978	8503.56
244.05	8516.27
244.121	8481.96
244.192	8510.88
244.264	8478.49
244.335	8485.04
244.407	8447.46
244.478	8457.23
244.549	8446.26
244.62	8414.74
244.692	8411.23
244.763	8446.35
244.834	8438.7
244.906	8428.54
244.977	8444.82
245.048	8485.21
245.119	8463.03
245.191	8450.51
245.262	8404.95
245.333	8459.02
245.405	8472.83
245.476	8496.69
245.547	8502.52
245.618	8540.81
245.689	8545.19
245.761	8570.55
245.832	8573.39
245.903	8610.49
245.974	8633.11
246.045	8644.33
246.117	8707.09
246.188	8701.7
246.259	8691.55
246.33	8699.87
246.401	8707.62
246.473	8679.02
246.544	8667.75
246.615	8709.34
246.686	8710.16
246.757	8766.36
246.828	8755.1
246.899	8809.12
246.97	8786.12
247.042	8782.8
247.113	8814.77
247.184	8880.17
247.255	8877.76
247.326	8901.59
247.397	8900.19
247.468	8901.54
247.539	8911.45
247.61	8873.86
247.681	8907.06
247.752	8940.27
247.823	8926.51
247.894	8938.74
247.965	8918.19
248.037	8908.27
248.108	8871.73
248.179	8877.32
248.25	8864.51
248.321	8887.37
248.392	8855.49
248.463	8913.68
248.534	8919.6
248.605	8931.06
248.675	8911.84
248.746	8928.4
248.817	8933.17
248.888	8953.39
248.959	8917.91
249.03	8935.49
249.101	8936.83
249.172	8919.07
249.243	8868.02
249.314	8911.96
249.385	8922.46
249.456	8941.99
249.527	8935.88
249.598	8955.03
249.669	8959.17
249.739	8975.11
249.81	8980.11
249.881	8948.68
249.952	8946.18
250.023	8939.82
250.094	8907.56
250.165	8884.45
250.235	8873.81
250.306	8887.63
250.377	8866.88
250.448	8887.67
250.519	8842.48
250.59	8890.43
250.66	8894.13
250.731	8949.33
250.802	8955.25
250.873	8966.95
250.944	8981.35
251.014	8971.38
251.085	9037.12
251.156	9053.14
251.227	9096.15
251.297	9136.41
251.368	9173.18
251.439	9199.19
251.51	9230.19
251.58	9212.48
251.651	9207.43
251.722	9258.85
251.792	9217.79
251.863	9215.96
251.934	9258.67
252.005	9339.26
252.075	9346.68
252.146	9382.1
252.217	9417.16
252.287	9443.55
252.358	9446.83
252.429	9503.37
252.499	9499.71
252.57	9512.72
252.641	9547.43
252.711	9544.64
252.782	9514.45
252.852	9569.5
252.923	9570.9
252.994	9589.78
253.064	9632.43
253.135	9620.82
253.205	9594.72
253.276	9649.08
253.347	9700.65
253.417	9680.71
253.488	9666.36
253.558	9668.04
253.629	9667.13
253.699	9673.05
253.77	9697.57
253.841	9688.38
253.911	9692.57
253.982	9709.32
254.052	9731.05
254.123	9732.26
254.193	9729.27
254.264	9829.52
254.334	9805.1
254.405	9777.69
254.475	9745.28
254.546	9749.81
254.616	9808.32
254.687	9834.62
254.757	9849.55
254.827	9847.91
254.898	9871.61
254.968	9879.7
255.039	9862.22
255.109	9886.78
255.18	9872.47
255.25	9821.27
255.321	9852.77
255.391	9825.22
255.461	9889.66
255.532	9824.62
255.602	9826.89
255.673	9791.25
255.743	9764.07
255.813	9711.97
255.884	9747.8
255.954	9776.94
256.024	9821.93
256.095	9814.03
256.165	9789.47
256.235	9807.97
256.306	9802
256.376	9836.01
256.446	9874.5
256.517	9894.1
256.587	9933.07
256.657	9945.65
256.728	9954.79
256.798	9952.34
256.868	9950.75
256.938	9929.94
257.009	9967.75
257.079	9990.44
257.149	10067.94
257.219	10024.44
257.29	10049.28
257.36	10009.79
257.43	10040.86
257.5	9995.97
257.571	9990.96
257.641	10020.43
257.711	9995.53
257.781	10014.98
257.852	10021.83
257.922	9966.57
257.992	9969.27
258.062	9962.09
258.132	9990.08
258.202	10002.36
258.273	10019.56
258.343	10074.05
258.413	10059.98
258.483	10061.96
258.553	10041
258.623	10016.09
258.693	10040.9
258.764	10098.56
258.834	10152.55
258.904	10167.05
258.974	10159.06
259.044	10166.43
259.114	10184.25
259.184	10200.3
259.254	10203.33
259.324	10168.4
259.394	10206.07
259.464	10266.05
259.535	10269.33
259.605	10273.33
259.675	10265.72
259.745	10290.29
259.815	10273.67
259.885	10279.69
259.955	10357.91
260.025	10354.3
260.095	10373.09
260.165	10390.24
260.235	10430.77
260.305	10420.94
260.375	10399.21
260.445	10470.45
260.515	10519.5
260.585	10559.55
260.655	10573.28
260.725	10611.97
260.795	10642.95
260.865	10699.18
260.934	10673.98
261.004	10699.61
261.074	10699.37
261.144	10741.57
261.214	10772.27
261.284	10769.91
261.354	10797.66
261.424	10761.03
261.494	10807.85
261.564	10805.92
261.634	10824.09
261.703	10778.7
261.773	10798.89
261.843	10828.76
261.913	10821.29
261.983	10784.38
262.053	10803.71
262.123	10802.41
262.192	10770.9
262.262	10792.1
262.332	10753.3
262.402	10780.1
262.472	10785.16
262.541	10743.82
262.611	10782.52
262.681	10764.01
262.751	10801.12
262.821	10809.11
262.89	10792.54
262.96	10817.11
263.03	10879.43
263.1	10909.4
263.169	10924.63
263.239	10944.24
263.309	10994.46
263.379	11018.41
263.448	11032.43
263.518	11050.17
263.588	11063.81
263.657	11120.38
263.727	11156.91
263.797	11166.11
263.867	11169.34
263.936	11145.2
264.006	11195.4
264.076	11196.17
264.145	11188.22
264.215	11173.67
264.285	11196.85
264.354	11163.84
264.424	11156.47
264.494	11120.46
