Data from 20250626_urea_1M_exp2_MAYP1162681_12-34-00-998.txt Node
Date: Fri Jun 27 12:34:00 BST 2025
User: adleo
Spectrometer: MAYP116268
Trigger mode: 0
Integration Time (sec): 3.000000E0
Scans to average: 1
Electric dark correction enabled: true
Nonlinearity correction enabled: true
Boxcar width: 10
XAxis mode: Wavelengths
Number of Pixels in Spectrum: 2068
>>>>>Begin Spectral Data<<<<<
179.565	3127.41
179.642	3290.2
179.718	3412.4
179.795	3530.94
179.871	3625.22
179.948	3680.45
180.024	3747.8
180.101	3818.9
180.177	3854.48
180.254	3919.78
180.33	3981.97
180.407	4195.77
180.483	4441.65
180.56	4689.03
180.636	4915.27
180.712	4883.69
180.789	4910.13
180.865	4940.85
180.942	4962.78
181.018	4989.65
181.095	5028.32
181.171	5045.37
181.248	5044.36
181.324	5090.66
181.4	5104.46
181.477	5134.26
181.553	5167.97
181.63	5221.5
181.706	5258.93
181.782	5290.62
181.859	5291.1
181.935	5311.23
182.011	5308.36
182.088	5351.35
182.164	5405.84
182.24	5448.43
182.317	5472.38
182.393	5463.37
182.469	5505.41
182.546	5544.71
182.622	5558.66
182.698	5549.21
182.775	5588.24
182.851	5633.92
182.927	5614.89
183.003	5609.52
183.08	5594.04
183.156	5627.79
183.232	5620.69
183.308	5590.11
183.385	5612.06
183.461	5656.03
183.537	5653.58
183.613	5684.84
183.69	5659.14
183.766	5624.5
183.842	5647.24
183.918	5665.12
183.995	5697.96
184.071	5706.69
184.147	5691.78
184.223	5659.05
184.299	5691.48
184.375	5656.52
184.452	5670.78
184.528	5777.13
184.604	5805.75
184.68	5840.08
184.756	5851.11
184.832	5861.57
184.908	5879.78
184.985	5878.05
185.061	5837.39
185.137	5859.94
185.213	5828.72
185.289	5834.04
185.365	5819.04
185.441	5809.92
185.517	5849.37
185.593	5846.97
185.669	5837.14
185.745	5862.46
185.822	5910.72
185.898	5884.87
185.974	5910.71
186.05	5882.98
186.126	5818.93
186.202	5796.4
186.278	5783.78
186.354	5759.51
186.43	5773.33
186.506	5766.91
186.582	5762.59
186.658	5781.67
186.734	5727.6
186.81	5737.71
186.886	5745.24
186.962	5776.36
187.038	5762.5
187.114	5737.97
187.19	5754.18
187.266	5728.44
187.341	5729.45
187.417	5708.01
187.493	5710.89
187.569	5721.63
187.645	5710.7
187.721	5679.71
187.797	5703.64
187.873	5715.67
187.949	5693.91
188.025	5679.95
188.101	5687.19
188.176	5696.11
188.252	5684.26
188.328	5710.23
188.404	5708.03
188.48	5694.89
188.556	5671.44
188.632	5673.98
188.707	5674.46
188.783	5669.43
188.859	5658.74
188.935	5633.75
189.011	5656
189.086	5635.82
189.162	5606.09
189.238	5602.3
189.314	5589.74
189.39	5573.06
189.465	5551.76
189.541	5603.6
189.617	5559.26
189.693	5543.39
189.768	5560.61
189.844	5627.79
189.92	5606.04
189.996	5627.85
190.071	5659.55
190.147	5663.34
190.223	5686.46
190.298	5665.45
190.374	5626.9
190.45	5659.16
190.526	5678.1
190.601	5666.11
190.677	5677.37
190.753	5762.28
190.828	5770.67
190.904	5814.27
190.98	5856.77
191.055	5885.31
191.131	5862.66
191.207	5922.17
191.282	5948.92
191.358	5922.4
191.433	5881.5
191.509	5915.63
191.585	5906.03
191.66	5908.62
191.736	5932.51
191.811	5905.36
191.887	5951.48
191.963	6016.23
192.038	6032.2
192.114	6036.62
192.189	6041.61
192.265	6028.9
192.34	5965.48
192.416	5965.91
192.491	5955.4
192.567	5959.48
192.642	5968.51
192.718	5966.35
192.793	5932.72
192.869	5927.39
192.944	5932.48
193.02	5948.69
193.095	5957.95
193.171	5982.42
193.246	5983.19
193.322	5975.08
193.397	5979.15
193.473	5938.07
193.548	5889.33
193.624	5900.65
193.699	5900.94
193.775	5947.06
193.85	5952.52
193.925	5975.75
194.001	5972.58
194.076	5950.95
194.152	5922.78
194.227	5905.02
194.302	5881.39
194.378	5890.12
194.453	5876.55
194.529	5908.07
194.604	5871.13
194.679	5859.43
194.755	5799.98
194.83	5830.56
194.905	5827.15
194.981	5849.89
195.056	5829.95
195.131	5850.38
195.207	5845.34
195.282	5810.91
195.357	5758.07
195.433	5798.74
195.508	5764.87
195.583	5786.79
195.659	5830.46
195.734	5848.35
195.809	5845.38
195.884	5868.53
195.96	5870.64
196.035	5915.3
196.11	5907.14
196.185	5943.93
196.261	5944.27
196.336	6033.92
196.411	5990.53
196.486	5997.3
196.561	5974.8
196.637	6004.96
196.712	6047.83
196.787	6058.39
196.862	6102.71
196.937	6127.79
197.013	6146.61
197.088	6174.24
197.163	6229.46
197.238	6272.56
197.313	6270.45
197.388	6311.29
197.464	6393.31
197.539	6424.79
197.614	6402.14
197.689	6434.93
197.764	6476.28
197.839	6533.54
197.914	6515.77
197.989	6583.28
198.065	6621.59
198.14	6763.96
198.215	6830.48
198.29	6860.8
198.365	6896.97
198.44	6924.91
198.515	7002.07
198.59	7043.01
198.665	7115.16
198.74	7142.42
198.815	7141.55
198.89	7208.96
198.965	7287.13
199.04	7279.82
199.115	7323.83
199.19	7447.22
199.265	7457.07
199.34	7484.47
199.415	7576.03
199.49	7634.22
199.565	7656.82
199.64	7727.3
199.715	7724.74
199.79	7743.69
199.865	7760.47
199.94	7755.33
200.015	7846.79
200.09	7865.07
200.165	7880.84
200.24	7896.71
200.315	7996.49
200.39	8041.7
200.464	8052.18
200.539	8052.47
200.614	8094.07
200.689	8158.67
200.764	8175.23
200.839	8218.87
200.914	8229.16
200.989	8201.88
201.063	8246.67
201.138	8197.46
201.213	8192.02
201.288	8134.45
201.363	8149.26
201.438	8150.22
201.512	8200.56
201.587	8150.53
201.662	8157.55
201.737	8192.23
201.812	8219.76
201.886	8137.49
201.961	8157.94
202.036	8128.23
202.111	8121.35
202.186	8037.53
202.26	7986.87
202.335	7922.7
202.41	7906.06
202.485	7861.64
202.559	7809.9
202.634	7728.15
202.709	7754.57
202.784	7703.18
202.858	7705.82
202.933	7651.11
203.008	7630.63
203.082	7567.46
203.157	7565.97
203.232	7449.84
203.306	7386.65
203.381	7294.72
203.456	7224.59
203.53	7160.8
203.605	7105.43
203.68	7042.02
203.754	7025.8
203.829	6986.43
203.904	6931.67
203.978	6898.65
204.053	6914.51
204.127	6879.74
204.202	6871.62
204.277	6826.18
204.351	6808.75
204.426	6783.27
204.5	6763.05
204.575	6667
204.65	6694.43
204.724	6670.83
204.799	6695.78
204.873	6687.37
204.948	6686.32
205.022	6653.87
205.097	6631.81
205.171	6670.03
205.246	6689.25
205.32	6686.9
205.395	6682.67
205.469	6658.15
205.544	6680.01
205.618	6625.69
205.693	6652.97
205.767	6627.52
205.842	6684.64
205.916	6665.05
205.991	6637.97
206.065	6653.62
206.14	6699
206.214	6682.81
206.289	6660.61
206.363	6688.22
206.438	6698.03
206.512	6712.63
206.586	6768.28
206.661	6792.84
206.735	6730.21
206.81	6731.6
206.884	6773.9
206.958	6735.49
207.033	6782
207.107	6796.57
207.181	6884.98
207.256	6875.85
207.33	6918.88
207.405	6955.39
207.479	7012.5
207.553	7038.39
207.628	6994.99
207.702	7026.64
207.776	7013.43
207.851	7025.2
207.925	7068.12
207.999	7052.12
208.073	7046.65
208.148	7052.41
208.222	7020.17
208.296	7109.66
208.371	7153.81
208.445	7183.22
208.519	7268.87
208.593	7302.65
208.668	7288.18
208.742	7293.33
208.816	7295.68
208.89	7339.92
208.965	7328.32
209.039	7349.72
209.113	7390.05
209.187	7447.71
209.261	7435.8
209.336	7493.09
209.41	7544.29
209.484	7551.6
209.558	7616.46
209.632	7654.09
209.707	7682.41
209.781	7744.91
209.855	7791.42
209.929	7837.24
210.003	7858.01
210.077	7850.51
210.151	7984.8
210.226	8083.77
210.3	8155.98
210.374	8227.37
210.448	8240.89
210.522	8270.1
210.596	8289.72
210.67	8320.7
210.744	8452.45
210.818	8545.12
210.892	8600.84
210.966	8588.34
211.041	8625.44
211.115	8613.84
211.189	8682.02
211.263	8733.41
211.337	8748.09
211.411	8786.4
211.485	8767.63
211.559	8797.55
211.633	8808.81
211.707	8721.6
211.781	8739.37
211.855	8643.02
211.929	8610.12
212.003	8553.91
212.077	8582.79
212.151	8622.65
212.225	8643.34
212.299	8607.56
212.373	8575.18
212.447	8560.83
212.52	8637.93
212.594	8648.32
212.668	8682.53
212.742	8642.35
212.816	8622.57
212.89	8610.06
212.964	8600.57
213.038	8612.7
213.112	8643.22
213.186	8680.12
213.26	8617.13
213.333	8488.85
213.407	8499.1
213.481	8512.47
213.555	8542.22
213.629	8509.01
213.703	8460.35
213.777	8451.69
213.85	8396.54
213.924	8482.56
213.998	8473.94
214.072	8450.45
214.146	8404.44
214.219	8389.28
214.293	8375.76
214.367	8373.46
214.441	8390.49
214.515	8349.82
214.588	8280.83
214.662	8177.11
214.736	8114.1
214.81	8128.57
214.883	8149
214.957	8114.33
215.031	8065.88
215.105	7993.04
215.178	7938.74
215.252	7906.23
215.326	7831.83
215.4	7767.14
215.473	7616.22
215.547	7549.66
215.621	7495.53
215.694	7492.5
215.768	7410.53
215.842	7358.33
215.915	7302.59
215.989	7212.82
216.063	7167.91
216.136	7147.96
216.21	7127.59
216.284	7140.67
216.357	7118.42
216.431	7084.3
216.504	7078.34
216.578	7122.8
216.652	7132.84
216.725	7116.21
216.799	7124.43
216.873	7101.71
216.946	7108.24
217.02	7081.89
217.093	7058.82
217.167	6980.37
217.24	6911.31
217.314	6884.19
217.387	6842.08
217.461	6808.02
217.535	6821.43
217.608	6771.33
217.682	6752.16
217.755	6762.54
217.829	6709.2
217.902	6695.51
217.976	6677.27
218.049	6640.96
218.123	6572.49
218.196	6566.39
218.27	6532.44
218.343	6475.88
218.417	6478.24
218.49	6458.79
218.563	6496.58
218.637	6503.06
218.71	6563.29
218.784	6585.58
218.857	6617.41
218.931	6638.38
219.004	6642.27
219.077	6662.6
219.151	6681.51
219.224	6669.6
219.298	6660.96
219.371	6697.47
219.444	6669
219.518	6675.67
219.591	6695.93
219.665	6788.22
219.738	6803.92
219.811	6792.36
219.885	6829.15
219.958	6852.26
220.031	6850.43
220.105	6863.36
220.178	6871.57
220.251	6850.29
220.325	6868.84
220.398	6878.4
220.471	6894.29
220.544	6925.42
220.618	6903.27
220.691	6921.42
220.764	6935.06
220.838	6962.74
220.911	6954.04
220.984	7018.93
221.057	7050.05
221.131	7061.39
221.204	6980.19
221.277	7040.03
221.35	7146.04
221.424	7139.07
221.497	7147
221.57	7170.68
221.643	7197.26
221.716	7232.21
221.79	7233.75
221.863	7250
221.936	7259.75
222.009	7274.69
222.082	7296.85
222.155	7303
222.229	7357.81
222.302	7387.56
222.375	7389.24
222.448	7418.99
222.521	7425.15
222.594	7428.7
222.667	7412.04
222.74	7461.97
222.814	7446.96
222.887	7424.35
222.96	7468.15
223.033	7499.31
223.106	7517.52
223.179	7540.65
223.252	7545.46
223.325	7569.35
223.398	7574.45
223.471	7597.57
223.544	7607.18
223.617	7618.72
223.69	7640.98
223.763	7606.88
223.837	7622.17
223.91	7654.24
223.983	7613.25
224.056	7588.44
224.129	7603.63
224.202	7648.03
224.275	7635.82
224.348	7615.24
224.42	7594.23
224.493	7545.34
224.566	7533.08
224.639	7546.92
224.712	7522.87
224.785	7515.32
224.858	7514.65
224.931	7501.43
225.004	7467.92
225.077	7468.74
225.15	7391.66
225.223	7389.54
225.296	7461.13
225.369	7414.31
225.442	7386.71
225.514	7398.72
225.587	7408.34
225.66	7418.53
225.733	7415.69
225.806	7424.01
225.879	7421.46
225.952	7391.96
226.025	7431.09
226.097	7471.35
226.17	7468.08
226.243	7414.45
226.316	7408.06
226.389	7408.64
226.461	7424.65
226.534	7438.78
226.607	7432.43
226.68	7498.21
226.753	7493.26
226.825	7421.92
226.898	7466.95
226.971	7466.57
227.044	7490.07
227.117	7497.23
227.189	7506.85
227.262	7535.94
227.335	7549.46
227.407	7543.93
227.48	7575.21
227.553	7584.98
227.626	7566.36
227.698	7573.13
227.771	7603.64
227.844	7592.01
227.916	7605.66
227.989	7572.25
228.062	7579.22
228.134	7648.23
228.207	7647.75
228.28	7638.18
228.352	7652.13
228.425	7665.31
228.498	7701.66
228.57	7682.67
228.643	7732.02
228.716	7733.8
228.788	7725.72
228.861	7724.13
228.934	7776.92
229.006	7784.37
229.079	7784.08
229.151	7775.81
229.224	7749.81
229.296	7769.66
229.369	7852.89
229.442	7893.59
229.514	7885.9
229.587	7916.73
229.659	7857.57
229.732	7868.68
229.804	7899.69
229.877	7963.68
229.949	7987.3
230.022	8027.39
230.094	8028.5
230.167	8013.77
230.239	7975.31
230.312	7964.3
230.384	8015.2
230.457	8013.28
230.529	8018.14
230.602	8019.05
230.674	8025.45
230.747	8054.29
230.819	8081.94
230.892	7983.77
230.964	7981.75
231.037	8004.67
231.109	7997.26
231.181	8026.59
231.254	8004.57
231.326	8001.25
231.399	7977.67
231.471	7951.21
231.544	7886.01
231.616	7928.57
231.688	7938.57
231.761	7930.98
231.833	7923.58
231.905	7853.77
231.978	7852.66
232.05	7833.1
232.122	7836.75
232.195	7819.49
232.267	7849.89
232.339	7827.86
232.412	7882.76
232.484	7859.86
232.556	7837.51
232.629	7890.93
232.701	7906.61
232.773	7906.37
232.846	7894.16
232.918	7898.44
232.99	7914.89
233.062	7953.61
233.135	7956.55
233.207	7929.13
233.279	7967.39
233.351	7997.35
233.424	8005.62
233.496	7981.91
233.568	8058.59
233.64	8023.44
233.713	8037.05
233.785	8033.87
233.857	8045.42
233.929	7999.35
234.001	8057.73
234.074	8111.44
234.146	8047.3
234.218	8044.46
234.29	8048.98
234.362	8040.38
234.434	7998.95
234.507	7970.29
234.579	7922.24
234.651	7907.66
234.723	7929.21
234.795	7941
234.867	7934.74
234.939	7981.5
235.012	7997.61
235.084	7994.39
235.156	8027.95
235.228	8011.84
235.3	7995.24
235.372	8013.24
235.444	8071.43
235.516	8003.33
235.588	8002.51
235.66	8020.07
235.732	7996.84
235.804	8158.99
235.876	8197.9
235.948	8249.62
236.02	8256.25
236.092	8271.88
236.164	8279.67
236.236	8281.84
236.308	8280.73
236.38	8304.16
236.452	8287.37
236.524	8301.46
236.596	8357.08
236.668	8383.83
236.74	8403.55
236.812	8426.16
236.884	8449.36
236.956	8455.56
237.028	8450.08
237.1	8439.07
237.172	8497.78
237.244	8559.28
237.316	8463.03
237.388	8443.41
237.46	8429.02
237.532	8483.97
237.604	8473.92
237.675	8535.38
237.747	8571.67
237.819	8559.74
237.891	8561.52
237.963	8549.64
238.035	8553.58
238.107	8465.53
238.178	8519.65
238.25	8521
238.322	8599.38
238.394	8565.4
238.466	8560.64
238.538	8596.96
238.609	8629.05
238.681	8580.68
238.753	8562.96
238.825	8580.83
238.897	8606.08
238.968	8672.62
239.04	8654.23
239.112	8744.26
239.184	8713.79
239.255	8710.23
239.327	8746.36
239.399	8759.35
239.471	8803.43
239.542	8825.95
239.614	8870.13
239.686	8804.03
239.758	8852.4
239.829	8813.83
239.901	8863.98
239.973	8875.77
240.044	8903.79
240.116	8916.16
240.188	8934.25
240.259	8950.18
240.331	8935.06
240.403	8966.01
240.474	8928.01
240.546	8914.2
240.618	8871.84
240.689	8869.67
240.761	8889.51
240.833	8938.57
240.904	8941.84
240.976	8934.09
241.048	8948.53
241.119	8988.69
241.191	9019.3
241.262	9074.74
241.334	9089.33
241.405	9095.01
241.477	9093.95
241.549	9103.97
241.62	9126.55
241.692	9160.3
241.763	9206.24
241.835	9226.27
241.906	9238.88
241.978	9216.35
242.049	9273.59
242.121	9321.92
242.192	9371.13
242.264	9338.49
242.335	9298.77
242.407	9332.57
242.478	9339.64
242.55	9361.45
242.621	9344.07
242.693	9349.07
242.764	9338.57
242.836	9336.84
242.907	9364.05
242.979	9396.21
243.05	9411.43
243.122	9429.39
243.193	9424.58
243.264	9361.79
243.336	9363.91
243.407	9393.86
243.479	9452.22
243.55	9467.2
243.622	9480.78
243.693	9485.11
243.764	9547.71
243.836	9521
243.907	9515.85
243.978	9524.66
244.05	9542.82
244.121	9505.21
244.192	9531.7
244.264	9490.23
244.335	9503.19
244.407	9457.29
244.478	9468.52
244.549	9450.7
244.62	9419.59
244.692	9422.67
244.763	9468.75
244.834	9454.2
244.906	9433.5
244.977	9446.84
245.048	9494.29
245.119	9475.8
245.191	9461.21
245.262	9407.13
245.333	9478.67
245.405	9488.78
245.476	9516.13
245.547	9528.66
245.618	9567.56
245.689	9579.21
245.761	9610.57
245.832	9615.91
245.903	9656.17
245.974	9681.89
246.045	9699.52
246.117	9773.55
246.188	9757.9
246.259	9740.27
246.33	9766.86
246.401	9778.66
246.473	9756.88
246.544	9739.39
246.615	9782.84
246.686	9781.2
246.757	9841.78
246.828	9823
246.899	9888.81
246.97	9848.8
247.042	9844.56
247.113	9883.1
247.184	9950.89
247.255	9946.99
247.326	9969.15
247.397	9969.15
247.468	9966.55
247.539	9978.59
247.61	9925.75
247.681	9963.88
247.752	10010.41
247.823	9983.73
247.894	9999.96
247.965	9976.7
248.037	9969.48
248.108	9925.21
248.179	9930.31
248.25	9919.86
248.321	9943.51
248.392	9897.54
248.463	9972.43
248.534	9968.05
248.605	9984.67
248.675	9968.04
248.746	9982.88
248.817	9998.3
248.888	10016.02
248.959	9981.15
249.03	9999.8
249.101	10008.42
249.172	10000.13
249.243	9941.91
249.314	9997.2
249.385	10009.1
249.456	10031.54
249.527	10024.75
249.598	10045.89
249.669	10046.71
249.739	10050.52
249.81	10063.23
249.881	10033.47
249.952	10027.4
250.023	10023.25
250.094	9980.47
250.165	9954.84
250.235	9946.31
250.306	9941.88
250.377	9916.06
250.448	9937.01
250.519	9884.7
250.59	9932.25
250.66	9927.24
250.731	9985.37
250.802	9984.12
250.873	9996.4
250.944	10012.4
251.014	10002.28
251.085	10080.68
251.156	10105.1
251.227	10158.48
251.297	10202.33
251.368	10240.67
251.439	10272.86
251.51	10310.1
251.58	10292.13
251.651	10294.78
251.722	10340.89
251.792	10303.7
251.863	10304.95
251.934	10349.42
252.005	10444.52
252.075	10453.29
252.146	10497.17
252.217	10531.33
252.287	10565.35
252.358	10563.52
252.429	10625.15
252.499	10617.3
252.57	10619.13
252.641	10658.01
252.711	10667.79
252.782	10629.25
252.852	10691.79
252.923	10687.8
252.994	10706.2
253.064	10759.38
253.135	10737.51
253.205	10719.87
253.276	10775.28
253.347	10833.33
253.417	10814.93
253.488	10798.54
253.558	10794.45
253.629	10793.63
253.699	10804.61
253.77	10827.51
253.841	10820.91
253.911	10832.33
253.982	10854.58
254.052	10880.61
254.123	10886.15
254.193	10876.42
254.264	10981.33
254.334	10953.53
254.405	10927.07
254.475	10891.9
254.546	10890.98
254.616	10940.51
254.687	10967.98
254.757	10993.62
254.827	10989.19
254.898	11012.65
254.968	11025.66
255.039	11008.85
255.109	11037.76
255.18	11017.91
255.25	10957.77
255.321	10987.16
255.391	10957.66
255.461	11033.23
255.532	10966.57
255.602	10959.15
255.673	10917.47
255.743	10889.03
255.813	10826.98
255.884	10869.91
255.954	10906.92
256.024	10957.13
256.095	10962.39
256.165	10935.06
256.235	10946.92
256.306	10934.06
256.376	10973.24
256.446	11001.29
256.517	11024.27
256.587	11057.38
256.657	11077.04
256.728	11100.22
256.798	11106.15
256.868	11103.69
256.938	11071.88
257.009	11112.07
257.079	11140.02
257.149	11227.35
257.219	11178.19
257.29	11209.31
257.36	11163.87
257.43	11195.34
257.5	11141.99
257.571	11133.12
257.641	11164.21
257.711	11138.66
257.781	11167.57
257.852	11177.89
257.922	11126.66
257.992	11129.26
258.062	11120.49
258.132	11147.43
258.202	11146.08
258.273	11156.78
258.343	11218.52
258.413	11202.91
258.483	11205.27
258.553	11182.09
258.623	11152.11
258.693	11179.24
258.764	11237.6
258.834	11297.3
258.904	11306.85
258.974	11295.52
259.044	11306.61
259.114	11334.13
259.184	11359.53
259.254	11367.43
259.324	11328.06
259.394	11367.52
259.464	11430.61
259.535	11443.82
259.605	11440.11
259.675	11434.62
259.745	11466.76
259.815	11442.57
259.885	11444.25
259.955	11533.77
260.025	11528.9
260.095	11544.81
260.165	11570.69
260.235	11624.63
260.305	11610.51
260.375	11586.41
260.445	11668.96
260.515	11717.54
260.585	11753.31
260.655	11756.11
260.725	11791.87
260.795	11822.33
260.865	11876.12
260.934	11857.32
261.004	11878.1
261.074	11880.27
261.144	11934.72
261.214	11960.08
261.284	11960.9
261.354	11996.46
261.424	11967.69
261.494	12020.12
261.564	12017.42
261.634	12036.32
261.703	11977.8
261.773	12000.21
261.843	12029.61
261.913	12025.18
261.983	11985.56
262.053	11998.67
262.123	11998.48
262.192	11964.55
262.262	11998.62
262.332	11962.23
262.402	11985.13
262.472	11993.9
262.541	11947.44
262.611	11989.62
262.681	11970.68
262.751	12005.24
262.821	12017.05
262.89	11979.93
262.96	12008.46
263.03	12071.42
263.1	12094.32
263.169	12116.1
263.239	12137.84
263.309	12196.8
263.379	12219.4
263.448	12234.34
263.518	12253.58
263.588	12270.4
263.657	12334.31
263.727	12364.35
263.797	12375.77
263.867	12375.72
263.936	12343.76
264.006	12401.93
264.076	12389.31
