Data from 20250626_urea_1M_exp2_MAYP1162681_01-23-58-228.txt Node
Date: Fri Jun 27 01:23:58 BST 2025
User: adleo
Spectrometer: MAYP116268
Trigger mode: 0
Integration Time (sec): 3.000000E0
Scans to average: 1
Electric dark correction enabled: true
Nonlinearity correction enabled: true
Boxcar width: 10
XAxis mode: Wavelengths
Number of Pixels in Spectrum: 2068
>>>>>Begin Spectral Data<<<<<
179.565	2778.04
179.642	2925.45
179.718	3031.78
179.795	3134.98
179.871	3212.23
179.948	3259.44
180.024	3314.43
180.101	3373.69
180.177	3409.7
180.254	3467.42
180.33	3521.26
180.407	3712.35
180.483	3928.6
180.56	4144.76
180.636	4347.51
180.712	4316.06
180.789	4330.7
180.865	4356.08
180.942	4380.42
181.018	4407.16
181.095	4448.18
181.171	4458.47
181.248	4458.28
181.324	4501.7
181.4	4515.24
181.477	4547.93
181.553	4578.01
181.63	4629.99
181.706	4666.95
181.782	4692.15
181.859	4698.42
181.935	4718.24
182.011	4711.68
182.088	4752.09
182.164	4802.24
182.24	4831.19
182.317	4857.22
182.393	4858.08
182.469	4898.1
182.546	4930.04
182.622	4940.57
182.698	4931.04
182.775	4965.66
182.851	5001.14
182.927	4981.55
183.003	4969.49
183.08	4953.59
183.156	4980.94
183.232	4969.05
183.308	4943.01
183.385	4960.24
183.461	4995.54
183.537	4995.59
183.613	5022.98
183.69	5000.95
183.766	4976.13
183.842	4998.26
183.918	5015.02
183.995	5047.54
184.071	5054.3
184.147	5040.41
184.223	5014.9
184.299	5041.01
184.375	5011.08
184.452	5025.36
184.528	5122
184.604	5154.46
184.68	5184.49
184.756	5201.5
184.832	5218.51
184.908	5233.45
184.985	5233.16
185.061	5193.07
185.137	5209.99
185.213	5183.74
185.289	5184.51
185.365	5165.16
185.441	5156.87
185.517	5186.98
185.593	5175.58
185.669	5170.45
185.745	5196.99
185.822	5233.51
185.898	5211.32
185.974	5234.02
186.05	5214.23
186.126	5150.21
186.202	5125.6
186.278	5116.21
186.354	5086.74
186.43	5100.41
186.506	5098.25
186.582	5094.47
186.658	5113.81
186.734	5069.23
186.81	5073.06
186.886	5084.98
186.962	5112.52
187.038	5104.38
187.114	5084.48
187.19	5101.63
187.266	5076.68
187.341	5080.37
187.417	5066.87
187.493	5065.24
187.569	5075.73
187.645	5059.93
187.721	5039.23
187.797	5067.29
187.873	5077.11
187.949	5065.86
188.025	5048.22
188.101	5050.62
188.176	5062.21
188.252	5047.94
188.328	5068.42
188.404	5069.91
188.48	5054.01
188.556	5032.84
188.632	5034.66
188.707	5035.33
188.783	5035.76
188.859	5025.47
188.935	4997.97
189.011	5019.19
189.086	5008.66
189.162	4987.34
189.238	4984.08
189.314	4975.32
189.39	4959.85
189.465	4944.66
189.541	4987.25
189.617	4951.24
189.693	4940.27
189.768	4948.95
189.844	5009.14
189.92	4984.59
189.996	5007.53
190.071	5035.74
190.147	5041.39
190.223	5066.55
190.298	5049.73
190.374	5011.89
190.45	5042.67
190.526	5063.89
190.601	5048.61
190.677	5050.1
190.753	5119.28
190.828	5131.45
190.904	5166.61
190.98	5205.72
191.055	5230.92
191.131	5207.44
191.207	5255.05
191.282	5277.27
191.358	5253.94
191.433	5220.24
191.509	5258.29
191.585	5249.57
191.66	5256.81
191.736	5276.45
191.811	5251.96
191.887	5290.55
191.963	5347.62
192.038	5359.02
192.114	5359.88
192.189	5367.69
192.265	5359.94
192.34	5301.81
192.416	5296.4
192.491	5285.19
192.567	5288.64
192.642	5296.26
192.718	5295.83
192.793	5267.66
192.869	5257.65
192.944	5261.57
193.02	5281.42
193.095	5288.08
193.171	5302.5
193.246	5299.86
193.322	5292.68
193.397	5290.71
193.473	5258.54
193.548	5215.89
193.624	5228.59
193.699	5222.84
193.775	5263.16
193.85	5267.61
193.925	5288.94
194.001	5286.26
194.076	5270.11
194.152	5240.44
194.227	5217.96
194.302	5199.81
194.378	5215.14
194.453	5209.87
194.529	5246.67
194.604	5210.21
194.679	5196.03
194.755	5148.38
194.83	5179.26
194.905	5174.71
194.981	5195.36
195.056	5174.76
195.131	5193.45
195.207	5189.03
195.282	5165.52
195.357	5116.82
195.433	5153.51
195.508	5125.05
195.583	5147.56
195.659	5185
195.734	5204.31
195.809	5205.03
195.884	5226.05
195.96	5224.62
196.035	5258.34
196.11	5248.8
196.185	5279.47
196.261	5286.94
196.336	5363.94
196.411	5322.13
196.486	5332.82
196.561	5319.11
196.637	5341.48
196.712	5382.29
196.787	5389.24
196.862	5431.74
196.937	5456.46
197.013	5472.96
197.088	5499.84
197.163	5550.64
197.238	5591.19
197.313	5593.4
197.388	5629.59
197.464	5704.37
197.539	5731.99
197.614	5722.35
197.689	5752.18
197.764	5795.07
197.839	5850.41
197.914	5836.45
197.989	5901.11
198.065	5938.13
198.14	6065.39
198.215	6131.45
198.29	6156.46
198.365	6194.42
198.44	6217.59
198.515	6288.08
198.59	6324.85
198.665	6389.83
198.74	6413.84
198.815	6416.82
198.89	6468.99
198.965	6540.93
199.04	6532.81
199.115	6568.18
199.19	6671.3
199.265	6682.58
199.34	6702.65
199.415	6778.66
199.49	6833.63
199.565	6848.32
199.64	6910.38
199.715	6904.03
199.79	6916.57
199.865	6932.51
199.94	6922.1
200.015	7004.45
200.09	7018.24
200.165	7033.32
200.24	7051.63
200.315	7150.41
200.39	7191.12
200.464	7205.67
200.539	7211.63
200.614	7250.74
200.689	7313.84
200.764	7326.29
200.839	7364.43
200.914	7377.73
200.989	7356.19
201.063	7390.46
201.138	7353.11
201.213	7348.11
201.288	7300.3
201.363	7316.15
201.438	7318.08
201.512	7362.41
201.587	7317.85
201.662	7332.03
201.737	7367.5
201.812	7383.94
201.886	7298.27
201.961	7315.39
202.036	7286.38
202.111	7273.02
202.186	7194.61
202.26	7150
202.335	7100.36
202.41	7086.95
202.485	7039.75
202.559	6988.1
202.634	6917.77
202.709	6938.22
202.784	6891.44
202.858	6888.75
202.933	6838.13
203.008	6815.31
203.082	6766.85
203.157	6765.79
203.232	6656.5
203.306	6595.23
203.381	6516.99
203.456	6456.06
203.53	6397.32
203.605	6348.2
203.68	6289.66
203.754	6274.94
203.829	6233.12
203.904	6180.72
203.978	6153.59
204.053	6172.65
204.127	6143.62
204.202	6141.55
204.277	6098.42
204.351	6082.25
204.426	6063.91
204.5	6046.26
204.575	5962.58
204.65	5983.36
204.724	5957.53
204.799	5972.86
204.873	5961.34
204.948	5958.13
205.022	5935.02
205.097	5915.48
205.171	5956.49
205.246	5977.8
205.32	5980.53
205.395	5979.91
205.469	5956.76
205.544	5965.69
205.618	5919.53
205.693	5943.42
205.767	5912.29
205.842	5963.44
205.916	5947.38
205.991	5921.33
206.065	5933.32
206.14	5968.1
206.214	5955.57
206.289	5942.23
206.363	5976.19
206.438	5988.48
206.512	6002.88
206.586	6046.14
206.661	6070.01
206.735	6007.72
206.81	6009.93
206.884	6045.52
206.958	6015.45
207.033	6055.44
207.107	6074.36
207.181	6152.22
207.256	6140.61
207.33	6185.03
207.405	6219.77
207.479	6265.35
207.553	6284.01
207.628	6250.2
207.702	6282.2
207.776	6262.86
207.851	6267.32
207.925	6303.82
207.999	6293.31
208.073	6287.12
208.148	6289.81
208.222	6260.52
208.296	6340.61
208.371	6384.14
208.445	6408.96
208.519	6482.39
208.593	6521.56
208.668	6508.31
208.742	6511
208.816	6519.25
208.89	6551.19
208.965	6546.24
209.039	6566.17
209.113	6611.16
209.187	6660.04
209.261	6653.56
209.336	6705.22
209.41	6757.77
209.484	6763.29
209.558	6822.57
209.632	6859.2
209.707	6890.7
209.781	6944.93
209.855	6989.33
209.929	7028.91
210.003	7046.49
210.077	7042.51
210.151	7153.56
210.226	7240.86
210.3	7314.4
210.374	7374.78
210.448	7389.15
210.522	7414.2
210.596	7444.77
210.67	7473.75
210.744	7598.43
210.818	7680.05
210.892	7734.23
210.966	7718.09
211.041	7753.14
211.115	7740.54
211.189	7799.77
211.263	7843.9
211.337	7856.06
211.411	7886.7
211.485	7870.49
211.559	7897.65
211.633	7900.34
211.707	7827.39
211.781	7847.41
211.855	7758.25
211.929	7731.15
212.003	7684.79
212.077	7707.68
212.151	7738.56
212.225	7750.97
212.299	7714.25
212.373	7685.74
212.447	7675.35
212.52	7745.31
212.594	7749.21
212.668	7779.98
212.742	7743.77
212.816	7727.13
212.89	7715.11
212.964	7710.11
213.038	7717.85
213.112	7749.4
213.186	7788
213.26	7731.12
213.333	7610.07
213.407	7615.4
213.481	7626.35
213.555	7656.04
213.629	7626.07
213.703	7578.89
213.777	7572.98
213.85	7519.13
213.924	7596.76
213.998	7591.61
214.072	7573.14
214.146	7538.09
214.219	7526.6
214.293	7508.86
214.367	7510.16
214.441	7525.84
214.515	7492.8
214.588	7426.37
214.662	7335.09
214.736	7279.15
214.81	7291.25
214.883	7310.84
214.957	7282.03
215.031	7237.41
215.105	7170.79
215.178	7123.84
215.252	7090.35
215.326	7020.88
215.4	6961.78
215.473	6829.01
215.547	6767.36
215.621	6718.94
215.694	6717.74
215.768	6647.95
215.842	6603.68
215.915	6548.71
215.989	6466.19
216.063	6424.01
216.136	6411.67
216.21	6390.84
216.284	6398.14
216.357	6380.81
216.431	6350.52
216.504	6343.8
216.578	6389.28
216.652	6398.05
216.725	6383.55
216.799	6393.69
216.873	6377.9
216.946	6387.06
217.02	6357.81
217.093	6336.5
217.167	6262.68
217.24	6196.95
217.314	6167.55
217.387	6130.77
217.461	6099.44
217.535	6123.53
217.608	6075.21
217.682	6052.42
217.755	6062.25
217.829	6023.61
217.902	6009.98
217.976	5996.93
218.049	5966.23
218.123	5907.41
218.196	5907.03
218.27	5877.19
218.343	5825.59
218.417	5829.04
218.49	5809.43
218.563	5844.58
218.637	5851.97
218.71	5908.01
218.784	5933.01
218.857	5960.64
218.931	5983.27
219.004	5989.84
219.077	6002.56
219.151	6018.67
219.224	6014.79
219.298	6012.01
219.371	6043.44
219.444	6018.36
219.518	6024.5
219.591	6036.78
219.665	6113.91
219.738	6122.01
219.811	6106.72
219.885	6143.24
219.958	6166.95
220.031	6173.42
220.105	6186.91
220.178	6189.02
220.251	6169.68
220.325	6183.17
220.398	6189.21
220.471	6203.03
220.544	6230.05
220.618	6209.4
220.691	6231.62
220.764	6245.68
220.838	6268.63
220.911	6256.48
220.984	6318.24
221.057	6349.77
221.131	6367.19
221.204	6295.14
221.277	6351.23
221.35	6452.14
221.424	6450.12
221.497	6455.98
221.57	6471
221.643	6497.32
221.716	6533
221.79	6543.66
221.863	6557.15
221.936	6571.6
222.009	6586.58
222.082	6606.8
222.155	6616.16
222.229	6667.27
222.302	6688.58
222.375	6693
222.448	6717.68
222.521	6723.98
222.594	6724.07
222.667	6706.65
222.74	6751.88
222.814	6744.34
222.887	6727.18
222.96	6762
223.033	6795.35
223.106	6817.62
223.179	6840.74
223.252	6847.56
223.325	6864.22
223.398	6874.36
223.471	6894
223.544	6902.84
223.617	6914.9
223.69	6932.72
223.763	6900.38
223.837	6916.95
223.91	6941.5
223.983	6907.99
224.056	6883.45
224.129	6893.24
224.202	6935.78
224.275	6922.66
224.348	6897.98
224.42	6874.77
224.493	6836.3
224.566	6819.77
224.639	6831.05
224.712	6805.15
224.785	6796.07
224.858	6794.34
224.931	6781.61
225.004	6753.22
225.077	6754.66
225.15	6689.37
225.223	6683.94
225.296	6745.8
225.369	6703.31
225.442	6674.96
225.514	6692.53
225.587	6706.31
225.66	6720.77
225.733	6716.06
225.806	6721.83
225.879	6722.69
225.952	6698.78
226.025	6735.86
226.097	6775.86
226.17	6771.2
226.243	6726.07
226.316	6722.85
226.389	6721.41
226.461	6736.21
226.534	6747.68
226.607	6742.5
226.68	6805.25
226.753	6806.3
226.825	6744.3
226.898	6785.45
226.971	6786.02
227.044	6800.48
227.117	6809.56
227.189	6817.68
227.262	6848.62
227.335	6870.44
227.407	6863.33
227.48	6887.81
227.553	6888.78
227.626	6870.07
227.698	6878.96
227.771	6912.85
227.844	6906.27
227.916	6924.86
227.989	6897.53
228.062	6899.83
228.134	6967.93
228.207	6966.58
228.28	6959.09
228.352	6971.19
228.425	6987.29
228.498	7026.79
228.57	7015.45
228.643	7048.71
228.716	7055.87
228.788	7047.32
228.861	7043.81
228.934	7097.52
229.006	7105.39
229.079	7110.63
229.151	7103.47
229.224	7077.73
229.296	7091.57
229.369	7165.65
229.442	7204.11
229.514	7189.95
229.587	7226.13
229.659	7169.22
229.732	7180.76
229.804	7210.97
229.877	7270.35
229.949	7291.22
230.022	7329.26
230.094	7326.28
230.167	7326.09
230.239	7288.42
230.312	7275.5
230.384	7322.76
230.457	7314.88
230.529	7322.23
230.602	7324.34
230.674	7329.87
230.747	7360.17
230.819	7386.27
230.892	7291.97
230.964	7287.35
231.037	7308.34
231.109	7293.97
231.181	7325.53
231.254	7298
231.326	7289.01
231.399	7269.49
231.471	7240.98
231.544	7176.7
231.616	7210.33
231.688	7207.83
231.761	7200.62
231.833	7198.46
231.905	7135.05
231.978	7133.51
232.05	7120.06
232.122	7117.76
232.195	7096.85
232.267	7124.49
232.339	7107.33
232.412	7160.89
232.484	7140.55
232.556	7120.15
232.629	7178.33
232.701	7192.27
232.773	7200.72
232.846	7192.46
232.918	7195.97
232.99	7211.59
233.062	7249.18
233.135	7258.31
233.207	7235.53
233.279	7266.8
233.351	7289.72
233.424	7294.19
233.496	7280.63
233.568	7339.03
233.64	7314.48
233.713	7333.75
233.785	7329.28
233.857	7343.84
233.929	7303.48
234.001	7354.18
234.074	7408.36
234.146	7352.44
234.218	7344.56
234.29	7346.48
234.362	7337.59
234.434	7303.03
234.507	7281.16
234.579	7242.04
234.651	7227.67
234.723	7249.2
234.795	7261.02
234.867	7256.89
234.939	7301.06
235.012	7310.48
235.084	7315.05
235.156	7341.43
235.228	7321.97
235.3	7313.17
235.372	7309.28
235.444	7357.47
235.516	7294.38
235.588	7298.51
235.66	7313.8
235.732	7293.8
235.804	7434.79
235.876	7466.16
235.948	7511.02
236.02	7523.13
236.092	7534.47
236.164	7548.5
236.236	7553.36
236.308	7557.25
236.38	7578.88
236.452	7564.7
236.524	7581.52
236.596	7631.33
236.668	7655.8
236.74	7674.4
236.812	7689.88
236.884	7722.82
236.956	7728.98
237.028	7721.72
237.1	7709.75
237.172	7760.79
237.244	7822.19
237.316	7735.73
237.388	7726.98
237.46	7709.86
237.532	7754.92
237.604	7751.22
237.675	7808.02
237.747	7835.97
237.819	7825.39
237.891	7826.06
237.963	7819.24
238.035	7819.48
238.107	7742.5
238.178	7789.94
238.25	7799.12
238.322	7872.26
238.394	7840.38
238.466	7837.63
238.538	7872.1
238.609	7899.65
238.681	7857.94
238.753	7838.75
238.825	7850.73
238.897	7875.05
238.968	7940.73
239.04	7921.78
239.112	8002.04
239.184	7971.59
239.255	7973.18
239.327	7999.67
239.399	8019.29
239.471	8054.35
239.542	8079.02
239.614	8120.04
239.686	8060.77
239.758	8099.68
239.829	8068.64
239.901	8117.02
239.973	8126.35
240.044	8156.71
240.116	8165.31
240.188	8178.88
240.259	8186.48
240.331	8183.78
240.403	8209.42
240.474	8170.09
240.546	8164.47
240.618	8119.2
240.689	8115.2
240.761	8127.71
240.833	8178.28
240.904	8178.52
240.976	8172.41
241.048	8181.46
241.119	8208.79
241.191	8247.76
241.262	8298.11
241.334	8302.92
241.405	8309.32
241.477	8319.61
241.549	8331.4
241.62	8356.95
241.692	8393.37
241.763	8445.16
241.835	8457.38
241.906	8471.53
241.978	8453.2
242.049	8502.76
242.121	8553.51
242.192	8604.13
242.264	8581.76
242.335	8541.3
242.407	8573.25
242.478	8583.06
242.55	8603.22
242.621	8590.85
242.693	8588.98
242.764	8580.26
242.836	8584.64
242.907	8604.57
242.979	8628.87
243.05	8637.72
243.122	8652.31
243.193	8647.64
243.264	8592.44
243.336	8595.09
243.407	8620.5
243.479	8680.36
243.55	8696.4
243.622	8703.95
243.693	8705.73
243.764	8762.33
243.836	8744.25
243.907	8734.28
243.978	8737.65
244.05	8752.29
244.121	8725.34
244.192	8752.82
244.264	8713.59
244.335	8719.51
244.407	8676.49
244.478	8685.06
244.549	8681.4
244.62	8650.07
244.692	8650.07
244.763	8688.52
244.834	8681.78
244.906	8667.15
244.977	8679.13
245.048	8721.51
245.119	8706.59
245.191	8687.58
245.262	8636.13
245.333	8696.22
245.405	8709.75
245.476	8737.51
245.547	8752.87
245.618	8789.64
245.689	8795.75
245.761	8822.71
245.832	8824.92
245.903	8866.02
245.974	8893.51
246.045	8897.07
246.117	8964.7
246.188	8950.8
246.259	8933.81
246.33	8954.36
246.401	8958.5
246.473	8937.46
246.544	8922.14
246.615	8962.82
246.686	8968.02
246.757	9023.47
246.828	9007.73
246.899	9062.05
246.97	9032.07
247.042	9018.87
247.113	9061.25
247.184	9137.64
247.255	9139.32
247.326	9169.03
247.397	9177.17
247.468	9176.54
247.539	9196.67
247.61	9161.08
247.681	9194.1
247.752	9232.08
247.823	9209.36
247.894	9222.79
247.965	9199.64
248.037	9184.23
248.108	9143.84
248.179	9149.04
248.25	9139.65
248.321	9160.25
248.392	9123.84
248.463	9189.55
248.534	9196.72
248.605	9204.57
248.675	9176.67
248.746	9185.87
248.817	9191.22
248.888	9200.56
248.959	9156.61
249.03	9168.5
249.101	9169.08
249.172	9159.26
249.243	9107.47
249.314	9161.53
249.385	9174.24
249.456	9194.36
249.527	9191.38
249.598	9212.8
249.669	9212.8
249.739	9228.54
249.81	9241.73
249.881	9211.21
249.952	9205
250.023	9198.89
250.094	9155.35
250.165	9131.85
250.235	9136.13
250.306	9142.83
250.377	9124.92
250.448	9153.75
250.519	9109.99
250.59	9155.3
250.66	9151.4
250.731	9208.15
250.802	9206.61
250.873	9214.46
250.944	9235.26
251.014	9230.06
251.085	9296.48
251.156	9315.3
251.227	9347.43
251.297	9389.43
251.368	9434.87
251.439	9461.17
251.51	9500.95
251.58	9495.08
251.651	9492.96
251.722	9527.35
251.792	9491.57
251.863	9487.86
251.934	9530.24
252.005	9614.03
252.075	9617.45
252.146	9659.87
252.217	9691.51
252.287	9719.16
252.358	9724.41
252.429	9774.4
252.499	9772.77
252.57	9777.87
252.641	9814.81
252.711	9820.59
252.782	9786.54
252.852	9836.45
252.923	9839.92
252.994	9858.85
253.064	9893.37
253.135	9872.96
253.205	9859.47
253.276	9911.48
253.347	9968.11
253.417	9954.24
253.488	9938.2
253.558	9930.92
253.629	9931.26
253.699	9939.64
253.77	9964.07
253.841	9960.94
253.911	9971.64
253.982	9982.04
254.052	10006.08
254.123	10012.15
254.193	10015.24
254.264	10113.86
254.334	10091.84
254.405	10064.43
254.475	10027.73
254.546	10034.81
254.616	10089.28
254.687	10108.74
254.757	10127.58
254.827	10120.55
254.898	10139.52
254.968	10144.2
255.039	10130.47
255.109	10154.75
255.18	10140.58
255.25	10082.44
255.321	10105.85
255.391	10076.7
255.461	10139.03
255.532	10078.42
255.602	10073.75
255.673	10033.43
255.743	10008.42
255.813	9951.06
255.884	9992.59
255.954	10023.03
256.024	10076.8
256.095	10081.37
256.165	10058.11
256.235	10072.9
256.306	10063.12
256.376	10096.99
256.446	10131.01
256.517	10158.89
256.587	10200.19
256.657	10212.13
256.728	10237.23
256.798	10251.82
256.868	10248.4
256.938	10228.26
257.009	10268.3
257.079	10286.41
257.149	10361.18
257.219	10320.18
257.29	10348.73
257.36	10310.58
257.43	10341.37
257.5	10281.15
257.571	10273.68
257.641	10301.23
257.711	10276.37
257.781	10305.56
257.852	10316.89
257.922	10269.96
257.992	10272.08
258.062	10252.95
258.132	10289.48
258.202	10288.9
258.273	10294.49
258.343	10354.81
258.413	10345.27
258.483	10342.43
258.553	10326.58
258.623	10310.29
258.693	10329.18
258.764	10388
258.834	10436.41
258.904	10445.38
258.974	10445.09
259.044	10455.49
259.114	10479.01
259.184	10502.18
259.254	10507.96
259.324	10468.36
259.394	10500.3
259.464	10562.5
259.535	10576.82
259.605	10570.65
259.675	10563.95
259.745	10588.29
259.815	10571.28
259.885	10578.31
259.955	10671.14
260.025	10668.68
260.095	10673.59
260.165	10696.67
260.235	10734.89
260.305	10723.86
260.375	10709.84
260.445	10783.65
260.515	10833.47
260.585	10867.16
260.655	10877.04
260.725	10910.96
260.795	10938.23
260.865	10994.23
260.934	10972.88
261.004	10998.33
261.074	10999.63
261.144	11051.32
261.214	11079.37
261.284	11076.87
261.354	11109.82
261.424	11071.93
261.494	11123.63
261.564	11131.87
261.634	11153.71
261.703	11108.5
261.773	11129.41
261.843	11154.18
261.913	11146.91
261.983	11100.93
262.053	11119.54
262.123	11121.22
262.192	11089.03
262.262	11124.55
262.332	11090.53
262.402	11110.53
262.472	11111.39
262.541	11070.01
262.611	11100.47
262.681	11082.1
262.751	11110.05
262.821	11106.44
262.89	11076.27
262.96	11095.79
263.03	11153.77
263.1	11179.22
263.169	11201.58
263.239	11225.1
263.309	11273.58
263.379	11292.91
263.448	11311.7
263.518	11329.92
263.588	11334.16
263.657	11387.08
263.727	11415.37
263.797	11427.51
263.867	11428.72
263.936	11402.79
264.006	11458.97
264.076	11458.49
264.145	11455.89
264.215	11449
264.285	11481.48
