Data from 20250626_urea_1M_exp2_MAYP1162681_02-34-00-903.txt Node
Date: Fri Jun 27 02:34:00 BST 2025
User: adleo
Spectrometer: MAYP116268
Trigger mode: 0
Integration Time (sec): 3.000000E0
Scans to average: 1
Electric dark correction enabled: true
Nonlinearity correction enabled: true
Boxcar width: 10
XAxis mode: Wavelengths
Number of Pixels in Spectrum: 2068
>>>>>Begin Spectral Data<<<<<
179.565	2732.69
179.642	2875.81
179.718	2976.75
179.795	3078.54
179.871	3159.94
179.948	3210.45
180.024	3266.83
180.101	3327.32
180.177	3359.94
180.254	3416.56
180.33	3474.82
180.407	3661.8
180.483	3878.71
180.56	4093.2
180.636	4294.08
180.712	4266.43
180.789	4285.85
180.865	4313.57
180.942	4338.19
181.018	4370.1
181.095	4401.25
181.171	4409.62
181.248	4409.48
181.324	4457.53
181.4	4473.13
181.477	4501.27
181.553	4528.76
181.63	4577.39
181.706	4612.53
181.782	4637.92
181.859	4643.56
181.935	4659.22
182.011	4653.81
182.088	4689.76
182.164	4738.37
182.24	4766.17
182.317	4791.34
182.393	4788.13
182.469	4825.37
182.546	4859.32
182.622	4871.43
182.698	4868.6
182.775	4909.35
182.851	4949.04
182.927	4924.86
183.003	4913.52
183.08	4898.15
183.156	4925.58
183.232	4918.64
183.308	4895.7
183.385	4916.86
183.461	4954.12
183.537	4953.83
183.613	4985.87
183.69	4968.58
183.766	4945.73
183.842	4967.47
183.918	4980.11
183.995	5010.09
184.071	5019.28
184.147	5006.4
184.223	4978.55
184.299	5004.99
184.375	4972.72
184.452	4987.96
184.528	5089.62
184.604	5117.2
184.68	5149.04
184.756	5167.44
184.832	5177.79
184.908	5187.22
184.985	5184.06
185.061	5142.35
185.137	5162.42
185.213	5128.85
185.289	5132.92
185.365	5113.53
185.441	5107.78
185.517	5141.76
185.593	5136.82
185.669	5131.27
185.745	5151.62
185.822	5189.82
185.898	5169.22
185.974	5192.15
186.05	5173.65
186.126	5111.89
186.202	5094.37
186.278	5083.83
186.354	5056.18
186.43	5072.43
186.506	5070.61
186.582	5071.43
186.658	5092.06
186.734	5044.13
186.81	5053.18
186.886	5061.03
186.962	5089.72
187.038	5080.09
187.114	5059
187.19	5074.38
187.266	5046.89
187.341	5056
187.417	5041.1
187.493	5043.16
187.569	5053.66
187.645	5035.94
187.721	5013.03
187.797	5036.73
187.873	5050.15
187.949	5033.16
188.025	5018.15
188.101	5026.58
188.176	5033.04
188.252	5023.32
188.328	5046.01
188.404	5043.28
188.48	5029.87
188.556	5008.85
188.632	5011.29
188.707	5016.8
188.783	5011.29
188.859	5003.73
188.935	4973.45
189.011	4992.65
189.086	4975.66
189.162	4952.47
189.238	4948.79
189.314	4936.34
189.39	4917.61
189.465	4899.02
189.541	4944.72
189.617	4909.14
189.693	4893.01
189.768	4907.62
189.844	4961.43
189.92	4939.71
189.996	4960.44
190.071	4987.07
190.147	4990.04
190.223	5009.97
190.298	4988.7
190.374	4957.19
190.45	4986.72
190.526	5003.82
190.601	4989.55
190.677	4993.09
190.753	5066.68
190.828	5074.54
190.904	5112.43
190.98	5153.64
191.055	5172.51
191.131	5155.07
191.207	5208
191.282	5230.98
191.358	5204.54
191.433	5172.76
191.509	5204.49
191.585	5201.04
191.66	5202.86
191.736	5219.72
191.811	5197.25
191.887	5238.62
191.963	5294.58
192.038	5304.78
192.114	5307.04
192.189	5316.71
192.265	5308.29
192.34	5249.88
192.416	5248.44
192.491	5237.37
192.567	5242.45
192.642	5249.4
192.718	5245.09
192.793	5214.18
192.869	5206.42
192.944	5212.69
193.02	5233.49
193.095	5239.86
193.171	5252.03
193.246	5250.41
193.322	5244.94
193.397	5248.54
193.473	5211.91
193.548	5172.13
193.624	5190.25
193.699	5186.52
193.775	5227.31
193.85	5234.16
193.925	5254.57
194.001	5248.59
194.076	5228.42
194.152	5205.27
194.227	5190.27
194.302	5168.77
194.378	5173.32
194.453	5166.9
194.529	5197.76
194.604	5161.68
194.679	5154.64
194.755	5105.8
194.83	5136.25
194.905	5132.85
194.981	5154.45
195.056	5136.74
195.131	5149.77
195.207	5139.84
195.282	5116.09
195.357	5066.53
195.433	5103.65
195.508	5070.74
195.583	5092.34
195.659	5129.52
195.734	5141.22
195.809	5142.51
195.884	5163.53
195.96	5162.81
196.035	5201.95
196.11	5197.35
196.185	5221.64
196.261	5218.86
196.336	5300.93
196.411	5262.39
196.486	5272.5
196.561	5254.53
196.637	5281.59
196.712	5318.03
196.787	5330.49
196.862	5373.47
196.937	5395.55
197.013	5413.34
197.088	5442.52
197.163	5493.54
197.238	5534.43
197.313	5534.14
197.388	5568.42
197.464	5642.71
197.539	5679.33
197.614	5660.06
197.689	5681.55
197.764	5722.89
197.839	5780.23
197.914	5762.96
197.989	5820.8
198.065	5857.86
198.14	5985.64
198.215	6047.29
198.29	6077.05
198.365	6111.11
198.44	6135.14
198.515	6204.63
198.59	6235.97
198.665	6300.51
198.74	6327.02
198.815	6332.01
198.89	6388.44
198.965	6462.92
199.04	6454.52
199.115	6484.8
199.19	6590.63
199.265	6605.32
199.34	6632.64
199.415	6717.49
199.49	6772.16
199.565	6793.96
199.64	6853.56
199.715	6845.05
199.79	6855.66
199.865	6872.14
199.94	6862.44
200.015	6941.81
200.09	6955.98
200.165	6973.8
200.24	6987.3
200.315	7080.26
200.39	7121.53
200.464	7136.57
200.539	7134.79
200.614	7174.8
200.689	7235.64
200.764	7257.23
200.839	7295.11
200.914	7303.04
200.989	7275.73
201.063	7311.77
201.138	7270.97
201.213	7265.44
201.288	7216.67
201.363	7233.05
201.438	7228.35
201.512	7268.35
201.587	7224.42
201.662	7237.49
201.737	7268.49
201.812	7290.36
201.886	7207.83
201.961	7228.12
202.036	7200.41
202.111	7192.86
202.186	7114.18
202.26	7070.92
202.335	7007.39
202.41	6998.69
202.485	6958.84
202.559	6901.59
202.634	6832.41
202.709	6852.33
202.784	6807.76
202.858	6805.12
202.933	6758.73
203.008	6748.69
203.082	6700.33
203.157	6697.26
203.232	6589.7
203.306	6528.5
203.381	6448.48
203.456	6389.63
203.53	6329.02
203.605	6279.9
203.68	6221.74
203.754	6211.63
203.829	6172.16
203.904	6122.99
203.978	6089.48
204.053	6100.95
204.127	6076.82
204.202	6073.17
204.277	6030.43
204.351	6013.78
204.426	5994.53
204.5	5971.7
204.575	5883.36
204.65	5910.82
204.724	5889.84
204.799	5911.74
204.873	5905.07
204.948	5902.91
205.022	5878.55
205.097	5855.7
205.171	5887.98
205.246	5909.77
205.32	5908.57
205.395	5911.06
205.469	5895.15
205.544	5911.81
205.618	5868.2
205.693	5896.08
205.767	5868.64
205.842	5918.35
205.916	5904.29
205.991	5880.26
206.065	5902.24
206.14	5940.52
206.214	5922.71
206.289	5903.22
206.363	5930.13
206.438	5936.42
206.512	5953.07
206.586	5997.82
206.661	6022.3
206.735	5968.61
206.81	5973.99
206.884	6010.87
206.958	5975
207.033	6009.95
207.107	6021.23
207.181	6100.29
207.256	6084.36
207.33	6126.67
207.405	6162.65
207.479	6213.99
207.553	6236.01
207.628	6194.72
207.702	6221.68
207.776	6206.47
207.851	6214.24
207.925	6249.58
207.999	6245.02
208.073	6236.91
208.148	6243.97
208.222	6213.01
208.296	6287.96
208.371	6327.74
208.445	6349.97
208.519	6425.21
208.593	6455.35
208.668	6440.99
208.742	6443.34
208.816	6449.2
208.89	6487.91
208.965	6479.94
209.039	6495.16
209.113	6536.84
209.187	6593.1
209.261	6585.28
209.336	6640.35
209.41	6690.05
209.484	6693.66
209.558	6747.83
209.632	6783.89
209.707	6809
209.781	6867.79
209.855	6913.67
209.929	6948.3
210.003	6969.29
210.077	6965.44
210.151	7088.6
210.226	7181.8
210.3	7251.05
210.374	7312.86
210.448	7317.38
210.522	7346.61
210.596	7371.7
210.67	7399.19
210.744	7512.08
210.818	7597.1
210.892	7643.36
210.966	7631.82
211.041	7669.94
211.115	7661.63
211.189	7719.46
211.263	7764.79
211.337	7775.17
211.411	7809.03
211.485	7798.01
211.559	7829.35
211.633	7834.01
211.707	7757.27
211.781	7777.92
211.855	7696.6
211.929	7673.58
212.003	7631.93
212.077	7657.81
212.151	7688.78
212.225	7709.75
212.299	7676.3
212.373	7644.09
212.447	7632.5
212.52	7702.85
212.594	7707.46
212.668	7735.68
212.742	7701.21
212.816	7687.79
212.89	7676.16
212.964	7671.92
213.038	7680.29
213.112	7702.18
213.186	7738.61
213.26	7675.92
213.333	7555.6
213.407	7561.46
213.481	7565.98
213.555	7591.57
213.629	7554.64
213.703	7507.76
213.777	7497.32
213.85	7446.07
213.924	7528.89
213.998	7528.99
214.072	7508.06
214.146	7467.87
214.219	7455.13
214.293	7442.64
214.367	7444.08
214.441	7462.59
214.515	7424.12
214.588	7357.74
214.662	7264.08
214.736	7206.03
214.81	7225.71
214.883	7244.39
214.957	7210.34
215.031	7170.68
215.105	7102.19
215.178	7055.78
215.252	7031.76
215.326	6961.47
215.4	6901.84
215.473	6765.34
215.547	6704.02
215.621	6654.79
215.694	6656.23
215.768	6587.36
215.842	6540.79
215.915	6485.29
215.989	6397.07
216.063	6355.03
216.136	6336.84
216.21	6321.53
216.284	6328.49
216.357	6312.36
216.431	6281.3
216.504	6276.94
216.578	6317.7
216.652	6325.9
216.725	6310.78
216.799	6310.54
216.873	6295.28
216.946	6302.24
217.02	6273.94
217.093	6253.64
217.167	6186.16
217.24	6124.09
217.314	6095.36
217.387	6058.35
217.461	6028.69
217.535	6051.77
217.608	6009.65
217.682	5992.23
217.755	6005.61
217.829	5969.04
217.902	5952.68
217.976	5943.42
218.049	5910.04
218.123	5853.1
218.196	5855.55
218.27	5828.35
218.343	5780.89
218.417	5779.54
218.49	5760.7
218.563	5792.49
218.637	5797.1
218.71	5852.09
218.784	5875.31
218.857	5903.5
218.931	5922.01
219.004	5925.36
219.077	5942.26
219.151	5958.62
219.224	5953.53
219.298	5945.52
219.371	5975.75
219.444	5951.44
219.518	5953.74
219.591	5970.1
219.665	6049.81
219.738	6054.89
219.811	6046.22
219.885	6080.71
219.958	6106.72
220.031	6109.84
220.105	6126.64
220.178	6132.21
220.251	6105.85
220.325	6123.52
220.398	6131.63
220.471	6141.56
220.544	6164.35
220.618	6141.84
220.691	6159.49
220.764	6175.09
220.838	6197.36
220.911	6188.28
220.984	6247.3
221.057	6277.43
221.131	6295.33
221.204	6225.26
221.277	6282.34
221.35	6375.76
221.424	6373.17
221.497	6379.75
221.57	6404.69
221.643	6423.66
221.716	6450.89
221.79	6457.75
221.863	6460.97
221.936	6472.87
222.009	6488.85
222.082	6514.59
222.155	6527.17
222.229	6578.99
222.302	6598.72
222.375	6607.27
222.448	6635.7
222.521	6643.62
222.594	6642.18
222.667	6621.07
222.74	6665.34
222.814	6663.56
222.887	6645.01
222.96	6681.03
223.033	6712.02
223.106	6728.62
223.179	6757.89
223.252	6768.46
223.325	6792.99
223.398	6810.1
223.471	6830.22
223.544	6844.19
223.617	6852.16
223.69	6864.74
223.763	6831.98
223.837	6850.66
223.91	6868.43
223.983	6837.8
224.056	6812.68
224.129	6826.61
224.202	6868.7
224.275	6854.49
224.348	6829.41
224.42	6809.38
224.493	6769
224.566	6750.5
224.639	6763.17
224.712	6735.69
224.785	6732.47
224.858	6726.56
224.931	6712.24
225.004	6682.57
225.077	6683.39
225.15	6619.11
225.223	6622.8
225.296	6683.27
225.369	6639.81
225.442	6617.91
225.514	6623.38
225.587	6637.4
225.66	6649.51
225.733	6650.47
225.806	6655.41
225.879	6646.39
225.952	6621.47
226.025	6657.83
226.097	6697.91
226.17	6693.2
226.243	6654.12
226.316	6646.97
226.389	6646.82
226.461	6663.97
226.534	6681.64
226.607	6677.13
226.68	6739.01
226.753	6728.3
226.825	6674.46
226.898	6723.15
226.971	6721.28
227.044	6740.2
227.117	6745.72
227.189	6751.73
227.262	6778.63
227.335	6797.08
227.407	6800.15
227.48	6827.95
227.553	6840.2
227.626	6826.36
227.698	6832.84
227.771	6860.82
227.844	6844.93
227.916	6863.76
227.989	6835.75
228.062	6835.75
228.134	6902.26
228.207	6905.19
228.28	6897.65
228.352	6902.21
228.425	6908.17
228.498	6946.65
228.57	6935.51
228.643	6978.09
228.716	6985.49
228.788	6976.12
228.861	6973.38
228.934	7016.13
229.006	7024.1
229.079	7022.9
229.151	7014.63
229.224	6984.87
229.296	7002.25
229.369	7083.63
229.442	7125.46
229.514	7116.58
229.587	7149.39
229.659	7088.74
229.732	7098.31
229.804	7131.45
229.877	7192.98
229.949	7215.53
230.022	7259.96
230.094	7260.49
230.167	7252.8
230.239	7218.31
230.312	7207.45
230.384	7259.76
230.457	7259.66
230.529	7267.59
230.602	7270.95
230.674	7276.39
230.747	7308.56
230.819	7327.68
230.892	7237.52
230.964	7229.29
231.037	7247.97
231.109	7243.41
231.181	7279.58
231.254	7251.33
231.326	7245.23
231.399	7226.85
231.471	7195.95
231.544	7129.84
231.616	7167.65
231.688	7169.86
231.761	7162.13
231.833	7155.79
231.905	7087.67
231.978	7085.61
232.05	7067.88
232.122	7064.28
232.195	7048.9
232.267	7081.82
232.339	7066.77
232.412	7118.61
232.484	7097.36
232.556	7075.9
232.629	7128.26
232.701	7139.66
232.773	7145.76
232.846	7139.51
232.918	7140.47
232.99	7160.8
233.062	7191.37
233.135	7194.35
233.207	7168.06
233.279	7202.55
233.351	7228.3
233.424	7231.71
233.496	7214.65
233.568	7280.45
233.64	7259.74
233.713	7270.94
233.785	7264.88
233.857	7281.08
233.929	7241.63
234.001	7295.83
234.074	7346.94
234.146	7295.2
234.218	7288.56
234.29	7292.31
234.362	7287.99
234.434	7254.96
234.507	7231.8
234.579	7193.98
234.651	7181.82
234.723	7205.51
234.795	7218.2
234.867	7213.11
234.939	7256.22
235.012	7272.12
235.084	7273.37
235.156	7297.25
235.228	7281.92
235.3	7270.92
235.372	7275
235.444	7320.99
235.516	7255.4
235.588	7254.87
235.66	7259.24
235.732	7237.62
235.804	7381.82
235.876	7406.23
235.948	7451.52
236.02	7455.79
236.092	7469.82
236.164	7478.42
236.236	7480.83
236.308	7479.14
236.38	7496.21
236.452	7488.76
236.524	7503.27
236.596	7547.01
236.668	7572.45
236.74	7591.62
236.812	7613.06
236.884	7640.47
236.956	7647.44
237.028	7644.9
237.1	7635.77
237.172	7691.51
237.244	7755.02
237.316	7671.73
237.388	7662.65
237.46	7644.86
237.532	7699.52
237.604	7695.06
237.675	7752.14
237.747	7783.5
237.819	7778.21
237.891	7788.17
237.963	7778.79
238.035	7776.92
238.107	7698.07
238.178	7744.17
238.25	7749.21
238.322	7816.43
238.394	7785.94
238.466	7780.12
238.538	7817.23
238.609	7844.15
238.681	7801.3
238.753	7784.41
238.825	7796.15
238.897	7825.14
238.968	7888.36
239.04	7867.49
239.112	7948.22
239.184	7917
239.255	7912.38
239.327	7934.31
239.399	7948.2
239.471	7982.01
239.542	8008.41
239.614	8057.75
239.686	8001.22
239.758	8044.51
239.829	8017.98
239.901	8060.26
239.973	8079.35
240.044	8098.45
240.116	8114.03
240.188	8127.06
240.259	8139.18
240.331	8130.52
240.403	8153.18
240.474	8113.95
240.546	8107.32
240.618	8060.89
240.689	8060.46
240.761	8081.15
240.833	8134.17
240.904	8131.71
240.976	8127.96
241.048	8141.67
241.119	8168.19
241.191	8196.38
241.262	8241.14
241.334	8243.74
241.405	8250.52
241.477	8251.49
241.549	8261.59
241.62	8278.57
241.692	8311.24
241.763	8354.84
241.835	8366.78
241.906	8379.53
241.978	8363.22
242.049	8414.74
242.121	8463.09
242.192	8510.63
242.264	8481.62
242.335	8442.07
242.407	8478.68
242.478	8486.43
242.55	8497.35
242.621	8493.88
242.693	8494.51
242.764	8489.7
242.836	8492.73
242.907	8513.23
242.979	8536.57
243.05	8551.29
243.122	8569.63
243.193	8569.53
243.264	8515.87
243.336	8524.34
243.407	8552.65
243.479	8612.08
243.55	8625.26
243.622	8637.11
243.693	8636.14
243.764	8687.73
243.836	8673.35
243.907	8663.05
243.978	8666.37
244.05	8685.76
244.121	8640.01
244.192	8667.77
244.264	8628.11
244.335	8638.36
244.407	8605.4
244.478	8612.86
244.549	8605.01
244.62	8577.54
244.692	8574.07
244.763	8608.81
244.834	8599.67
244.906	8582.05
244.977	8593.89
245.048	8636.94
245.119	8621.78
245.191	8608.35
245.262	8565.62
245.333	8620.56
245.405	8634.86
245.476	8660.89
245.547	8675.77
245.618	8721.09
245.689	8730.19
245.761	8758.78
245.832	8759.6
245.903	8799.11
245.974	8824.91
246.045	8843.59
246.117	8905.11
246.188	8896.98
246.259	8883.74
246.33	8894.52
246.401	8897.89
246.473	8870.02
246.544	8854.12
246.615	8895.62
246.686	8900.05
246.757	8959.87
246.828	8939.71
246.899	8994.17
246.97	8970.83
247.042	8967.84
247.113	8994.18
247.184	9069.94
247.255	9067.29
247.326	9086.07
247.397	9088.48
247.468	9091.8
247.539	9102.87
247.61	9067.73
247.681	9100.16
247.752	9142.62
247.823	9126.69
247.894	9145.37
247.965	9122.8
248.037	9113.31
248.108	9075.33
248.179	9078.79
248.25	9067.48
248.321	9091.54
248.392	9048.78
248.463	9103.65
248.534	9097.2
248.605	9117.57
248.675	9093.77
248.746	9115.1
248.817	9133.35
248.888	9142.4
248.959	9103.12
249.03	9109.09
249.101	9112.41
249.172	9097.54
249.243	9045.41
249.314	9092.97
249.385	9100.39
249.456	9128.3
249.527	9126.13
249.598	9137.69
249.669	9136.1
249.739	9141.97
249.81	9151.6
249.881	9125.08
249.952	9118.72
250.023	9116.12
250.094	9072.11
250.165	9044.61
250.235	9036.61
250.306	9038.4
250.377	9021.98
250.448	9048.26
250.519	9008.55
250.59	9051.35
250.66	9054.05
250.731	9109.45
250.802	9109.16
250.873	9122.64
250.944	9134.34
251.014	9123.12
251.085	9191.8
251.156	9213.27
251.227	9254.79
251.297	9297.12
251.368	9337.65
251.439	9370.02
251.51	9408.97
251.58	9404.88
251.651	9405.94
251.722	9446.49
251.792	9414.86
251.863	9414.47
251.934	9456.75
252.005	9542.41
252.075	9547.9
252.146	9585.02
252.217	9618.79
252.287	9651.88
252.358	9653.56
252.429	9715.98
252.499	9715.26
252.57	9727.69
252.641	9763.18
252.711	9767.28
252.782	9733.76
252.852	9794.93
252.923	9795.95
252.994	9809.34
253.064	9851.61
253.135	9834.32
253.205	9810.24
253.276	9858.4
253.347	9905.74
253.417	9888.25
253.488	9875.2
253.558	9873.46
253.629	9872.5
253.699	9877.89
253.77	9893.17
253.841	9884.74
253.911	9884.5
253.982	9900
254.052	9923.61
254.123	9932.33
254.193	9937.49
254.264	10043.96
254.334	10012.26
254.405	9986.93
254.475	9958.94
254.546	9961.21
254.616	10004.31
254.687	10033.93
254.757	10047.37
254.827	10048.29
254.898	10068.13
254.968	10069.53
255.039	10053.78
255.109	10078.54
255.18	10062.59
255.25	10013.56
255.321	10040.72
255.391	10015.43
255.461	10080.99
255.532	10013.59
255.602	10004.97
255.673	9957.57
255.743	9926.63
255.813	9879.2
255.884	9921.59
255.954	9951.69
256.024	10002.76
256.095	10011.81
256.165	9990.96
256.235	10012.83
256.306	10004.3
256.376	10037.26
256.446	10075.27
256.517	10097.57
256.587	10140.6
256.657	10153.51
256.728	10169.16
256.798	10180.91
256.868	10180.82
256.938	10156.34
257.009	10197.48
257.079	10227.2
257.149	10308.57
257.219	10267.86
257.29	10295.16
257.36	10250.46
257.43	10278.21
257.5	10222.42
257.571	10213.56
257.641	10238.9
257.711	10210.76
257.781	10231.66
257.852	10245.11
257.922	10194.96
257.992	10200.21
258.062	10190.62
258.132	10221.41
258.202	10229.16
258.273	10242.12
258.343	10297.34
258.413	10280.43
258.483	10284.43
258.553	10257.54
258.623	10238.27
258.693	10256.24
258.764	10307.54
258.834	10359.47
258.904	10369.93
258.974	10367.57
259.044	10381.44
259.114	10404.23
259.184	10433.04
259.254	10437.43
259.324	10402.54
259.394	10441.56
259.464	10497.75
259.535	10505.55
259.605	10508.54
259.675	10507.1
259.745	10528.88
259.815	10508.93
259.885	10517.36
259.955	10598.71
260.025	10598.18
260.095	10608.35
260.165	10630.47
260.235	10678.42
260.305	10672.97
260.375	10654.52
260.445	10727.75
260.515	10768.22
260.585	10799.4
260.655	10802.49
260.725	10829.95
260.795	10854.04
260.865	10897.85
260.934	10880.31
261.004	10898.18
261.074	10897.94
261.144	10943.81
261.214	10965.11
261.284	10964.15
261.354	10998.35
261.424	10967.36
261.494	11021.95
261.564	11027.68
261.634	11051.06
261.703	10999.93
261.773	11018.91
261.843	11047.68
261.913	11039.68
261.983	10999.25
262.053	11016.99
262.123	11019.2
262.192	10998.68
262.262	11030.92
262.332	10997.95
262.402	11022.15
262.472	11029.18
262.541	10984.76
262.611	11020.42
262.681	11009.34
262.751	11046.73
262.821	11047.75
262.89	11014.54
262.96	11034.93
263.03	11091.32
263.1	11115.08
263.169	11128.86
263.239	11153.1
263.309	11204.57
263.379	11227.03
263.448	11255.17
263.518	11274.98
263.588	11284.81
263.657	11336.09
263.727	11364.28
263.797	11374.98
263.867	11376.91
263.936	11345.39
264.006	11395.5
264.076	11384.56
264.145	11388.8
264.215	11371.4
264.285	11401.28
