Data from 20250626_urea_1M_exp2_MAYP1162681_16-54-00-713.txt Node
Date: Thu Jun 26 16:54:00 BST 2025
User: adleo
Spectrometer: MAYP116268
Trigger mode: 0
Integration Time (sec): 3.000000E0
Scans to average: 1
Electric dark correction enabled: true
Nonlinearity correction enabled: true
Boxcar width: 10
XAxis mode: Wavelengths
Number of Pixels in Spectrum: 2068
>>>>>Begin Spectral Data<<<<<
179.565	3319.11
179.642	3491.67
179.718	3618.95
179.795	3748.53
179.871	3849.23
179.948	3910.12
180.024	3976.69
180.101	4050.16
180.177	4092.13
180.254	4156.57
180.33	4222.19
180.407	4457.63
180.483	4718.49
180.56	4978.24
180.636	5222.77
180.712	5197.17
180.789	5222.14
180.865	5256.24
180.942	5283.11
181.018	5313.06
181.095	5355.5
181.171	5369.44
181.248	5373.32
181.324	5424.78
181.4	5437.34
181.477	5468.74
181.553	5501.65
181.63	5562.4
181.706	5607.53
181.782	5639.06
181.859	5647.68
181.935	5666.96
182.011	5656.6
182.088	5697.99
182.164	5752.83
182.24	5786.82
182.317	5808.87
182.393	5803.98
182.469	5836.01
182.546	5871.16
182.622	5884.01
182.698	5869.14
182.775	5906.61
182.851	5945.07
182.927	5919.12
183.003	5908.91
183.08	5889.82
183.156	5918.5
183.232	5908.62
183.308	5876.72
183.385	5894.51
183.461	5941.19
183.537	5939.42
183.613	5978.33
183.69	5954.53
183.766	5930.29
183.842	5953.37
183.918	5971.69
183.995	6007.86
184.071	6022.11
184.147	6007.91
184.223	5974.6
184.299	6010.97
184.375	5976.96
184.452	5995.06
184.528	6106.79
184.604	6138.39
184.68	6173.55
184.756	6195.68
184.832	6205.66
184.908	6219.71
184.985	6223.12
185.061	6170.16
185.137	6203.56
185.213	6168.92
185.289	6172.56
185.365	6147.81
185.441	6143.93
185.517	6184.3
185.593	6174.52
185.669	6170.24
185.745	6196.68
185.822	6244.68
185.898	6220.59
185.974	6248.21
186.05	6224.07
186.126	6161.39
186.202	6139.13
186.278	6126.08
186.354	6098.77
186.43	6119.13
186.506	6108.1
186.582	6104.98
186.658	6127.13
186.734	6063.86
186.81	6069.66
186.886	6082.8
186.962	6115.95
187.038	6099.59
187.114	6075.39
187.19	6097.08
187.266	6068.11
187.341	6073.01
187.417	6049.02
187.493	6047.34
187.569	6053.24
187.645	6039.95
187.721	6006.02
187.797	6031.15
187.873	6044.21
187.949	6021.04
188.025	6001.98
188.101	6014.35
188.176	6025.15
188.252	6013.59
188.328	6037.56
188.404	6034.92
188.48	6015.88
188.556	5992.99
188.632	5992.56
188.707	5994.34
188.783	5988.72
188.859	5976.54
188.935	5946.65
189.011	5978.36
189.086	5963.44
189.162	5937.97
189.238	5929.57
189.314	5919.12
189.39	5901.12
189.465	5881.16
189.541	5929.77
189.617	5888.46
189.693	5871.87
189.768	5883.58
189.844	5950.64
189.92	5921.02
189.996	5947.12
190.071	5981.61
190.147	5985.4
190.223	6013.96
190.298	5993.85
190.374	5958.25
190.45	5991
190.526	6010.38
190.601	5987.93
190.677	5984
190.753	6072.74
190.828	6084.2
190.904	6123.99
190.98	6166.03
191.055	6200.01
191.131	6176.63
191.207	6229.41
191.282	6254.64
191.358	6224.22
191.433	6184.36
191.509	6224.39
191.585	6213.88
191.66	6215.56
191.736	6238.4
191.811	6212.39
191.887	6257.91
191.963	6321.12
192.038	6334.13
192.114	6339.36
192.189	6352.27
192.265	6345.94
192.34	6275.33
192.416	6274.7
192.491	6266.2
192.567	6278.16
192.642	6281
192.718	6285.08
192.793	6254.5
192.869	6246.68
192.944	6254.98
193.02	6281.15
193.095	6294.2
193.171	6311.77
193.246	6311
193.322	6299
193.397	6302.69
193.473	6262.26
193.548	6213.34
193.624	6235.81
193.699	6235.62
193.775	6280.33
193.85	6289.2
193.925	6317.52
194.001	6308.84
194.076	6284.41
194.152	6250.61
194.227	6228.81
194.302	6202.53
194.378	6212.8
194.453	6198.79
194.529	6234.55
194.604	6190.58
194.679	6176.62
194.755	6125.63
194.83	6162.9
194.905	6158.77
194.981	6178.26
195.056	6158.21
195.131	6173.08
195.207	6161.46
195.282	6130.8
195.357	6072.32
195.433	6114.17
195.508	6078.31
195.583	6111.23
195.659	6158.27
195.734	6176.42
195.809	6178.15
195.884	6201.79
195.96	6201.7
196.035	6246.37
196.11	6240.7
196.185	6273.1
196.261	6277.8
196.336	6367.79
196.411	6317.61
196.486	6329.47
196.561	6311.32
196.637	6338.09
196.712	6381.8
196.787	6393.04
196.862	6433.88
196.937	6466.41
197.013	6484.47
197.088	6511.4
197.163	6566.6
197.238	6612.6
197.313	6613.95
197.388	6653.76
197.464	6739.94
197.539	6781.34
197.614	6764.92
197.689	6796.38
197.764	6840.25
197.839	6900.85
197.914	6884.28
197.989	6953.93
198.065	6993.4
198.14	7151.01
198.215	7224.04
198.29	7261.44
198.365	7299.41
198.44	7332.99
198.515	7407.92
198.59	7450.51
198.665	7529.38
198.74	7550.69
198.815	7555.74
198.89	7624.52
198.965	7703.73
199.04	7686.27
199.115	7727.71
199.19	7853.75
199.265	7863.61
199.34	7896.26
199.415	7991.62
199.49	8048.93
199.565	8075.38
199.64	8150.89
199.715	8135.19
199.79	8151.06
199.865	8164.82
199.94	8157.8
200.015	8249.45
200.09	8273.61
200.165	8286.5
200.24	8304.54
200.315	8415.71
200.39	8462.1
200.464	8472.68
200.539	8476.1
200.614	8526.41
200.689	8588.11
200.764	8604.76
200.839	8656.9
200.914	8668.59
200.989	8638.65
201.063	8679.74
201.138	8630.7
201.213	8629.88
201.288	8568.49
201.363	8589.56
201.438	8589.61
201.512	8637.37
201.587	8579.52
201.662	8584.1
201.737	8631.11
201.812	8655.57
201.886	8557.39
201.961	8585.07
202.036	8552.66
202.111	8549.29
202.186	8467.54
202.26	8414.07
202.335	8358.54
202.41	8334.96
202.485	8290.86
202.559	8234.86
202.634	8161.35
202.709	8184.47
202.784	8133.43
202.858	8134.97
202.933	8076.34
203.008	8057.63
203.082	8002.08
203.157	8005.3
203.232	7885.28
203.306	7814.98
203.381	7720.65
203.456	7654.11
203.53	7580.23
203.605	7522.86
203.68	7453.89
203.754	7436.7
203.829	7400.15
203.904	7333.92
203.978	7299.49
204.053	7308.73
204.127	7274.13
204.202	7258.12
204.277	7211.42
204.351	7186.28
204.426	7169.26
204.5	7147.58
204.575	7049.74
204.65	7076.04
204.724	7050.99
204.799	7078.74
204.873	7067.01
204.948	7059.13
205.022	7034.64
205.097	7008.96
205.171	7054.64
205.246	7077.53
205.32	7076.13
205.395	7072.96
205.469	7051.65
205.544	7070.35
205.618	7019.46
205.693	7054.69
205.767	7024.04
205.842	7082.62
205.916	7065.43
205.991	7037.46
206.065	7054.47
206.14	7096.66
206.214	7084.92
206.289	7059.21
206.363	7089.82
206.438	7094.14
206.512	7119.47
206.586	7165.49
206.661	7193.24
206.735	7119.86
206.81	7124.29
206.884	7164.16
206.958	7122.03
207.033	7166.6
207.107	7181.51
207.181	7270.92
207.256	7252.51
207.33	7309.26
207.405	7348.71
207.479	7400.04
207.553	7417.34
207.628	7364.6
207.702	7404
207.776	7379.44
207.851	7398.76
207.925	7445.42
207.999	7438.35
208.073	7430.61
208.148	7442.05
208.222	7405.56
208.296	7501.24
208.371	7548.87
208.445	7582.53
208.519	7665.86
208.593	7702.79
208.668	7696.87
208.742	7706.98
208.816	7709.28
208.89	7752.91
208.965	7742.66
209.039	7774.22
209.113	7823.7
209.187	7889.46
209.261	7876.87
209.336	7936.2
209.41	7990.26
209.484	7986.9
209.558	8053.61
209.632	8087.03
209.707	8120.7
209.781	8187.94
209.855	8232.88
209.929	8277.56
210.003	8292.33
210.077	8295.98
210.151	8434.8
210.226	8533.86
210.3	8608.21
210.374	8679.01
210.448	8687.1
210.522	8719.97
210.596	8741.49
210.67	8771.32
210.744	8915.07
210.818	9009.02
210.892	9069.34
210.966	9056.44
211.041	9095.52
211.115	9084.12
211.189	9156.6
211.263	9203.87
211.337	9221.54
211.411	9266.51
211.485	9244.94
211.559	9278.87
211.633	9286.13
211.707	9191.92
211.781	9210.42
211.855	9109.84
211.929	9082.56
212.003	9029.93
212.077	9062.29
212.151	9098.55
212.225	9124.74
212.299	9084.76
212.373	9050.15
212.447	9037.63
212.52	9113.31
212.594	9122.65
212.668	9156.78
212.742	9114.31
212.816	9099.1
212.89	9074.89
212.964	9063.71
213.038	9079.7
213.112	9111.24
213.186	9149.12
213.26	9086.05
213.333	8951.95
213.407	8966.96
213.481	8977.07
213.555	9012.37
213.629	8973.7
213.703	8918.34
213.777	8905.43
213.85	8842.75
213.924	8933.28
213.998	8927.98
214.072	8903.61
214.146	8860
214.219	8846.38
214.293	8832.71
214.367	8827.9
214.441	8856.06
214.515	8819.8
214.588	8741.44
214.662	8639.66
214.736	8574.46
214.81	8584.27
214.883	8602.35
214.957	8564.59
215.031	8516.3
215.105	8432.85
215.178	8378.18
215.252	8350.81
215.326	8270.32
215.4	8202.95
215.473	8051.54
215.547	7978.31
215.621	7926.46
215.694	7924.88
215.768	7842.77
215.842	7782.23
215.915	7726.8
215.989	7626.9
216.063	7577.87
216.136	7560.66
216.21	7542.25
216.284	7548.93
216.357	7532.3
216.431	7498.64
216.504	7490.81
216.578	7536.11
216.652	7546.63
216.725	7527.54
216.799	7532.64
216.873	7515.86
216.946	7522.25
217.02	7492.04
217.093	7474.87
217.167	7393.78
217.24	7323.77
217.314	7288.81
217.387	7256.48
217.461	7218.56
217.535	7244.03
217.608	7192.09
217.682	7171.8
217.755	7180.69
217.829	7134.88
217.902	7124.55
217.976	7105.38
218.049	7072.22
218.123	7008.04
218.196	7010.82
218.27	6976.47
218.343	6921.76
218.417	6922.1
218.49	6902.88
218.563	6937.9
218.637	6939.34
218.71	6996.43
218.784	7025.61
218.857	7058.85
218.931	7079.25
219.004	7086.51
219.077	7101.03
219.151	7118.13
219.224	7106.89
219.298	7101.36
219.371	7141.59
219.444	7107.06
219.518	7117.48
219.591	7126.32
219.665	7216.25
219.738	7224.47
219.811	7214.29
219.885	7249.03
219.958	7272.92
220.031	7277.25
220.105	7292.63
220.178	7303.4
220.251	7281.14
220.325	7301.53
220.398	7311.62
220.471	7322.38
220.544	7357.42
220.618	7333.67
220.691	7357.89
220.764	7375.05
220.838	7399.23
220.911	7385
220.984	7458.29
221.057	7486.07
221.131	7510.91
221.204	7428.47
221.277	7496.18
221.35	7604.07
221.424	7598.74
221.497	7609.32
221.57	7628.54
221.643	7659.03
221.716	7691.2
221.79	7700.43
221.863	7709.53
221.936	7721.69
222.009	7743.36
222.082	7762.65
222.155	7774.48
222.229	7823.44
222.302	7847.48
222.375	7851.14
222.448	7889.71
222.521	7890.77
222.594	7895.38
222.667	7872.94
222.74	7922.51
222.814	7910.82
222.887	7897.05
222.96	7944.91
223.033	7988.98
223.106	8013.02
223.179	8044.45
223.252	8055.46
223.325	8083.69
223.398	8095.1
223.471	8121.79
223.544	8135.97
223.617	8147.28
223.69	8167.38
223.763	8143.18
223.837	8172.48
223.91	8201.2
223.983	8156.52
224.056	8133.58
224.129	8150.7
224.202	8198.73
224.275	8193.73
224.348	8166.02
224.42	8137.93
224.493	8096.51
224.566	8073.27
224.639	8093.95
224.712	8062.72
224.785	8052.8
224.858	8047.56
224.931	8028.8
225.004	7991.38
225.077	7995.28
225.15	7917.58
225.223	7917.49
225.296	7989.83
225.369	7939.33
225.442	7913.11
225.514	7933.26
225.587	7948.4
225.66	7967.84
225.733	7967.89
225.806	7968.94
225.879	7966.59
225.952	7940.29
226.025	7978.1
226.097	8016.7
226.17	8009.91
226.243	7955.72
226.316	7953.32
226.389	7958.56
226.461	7983
226.534	8000.4
226.607	7996.85
226.68	8072.76
226.753	8072.23
226.825	7999.94
226.898	8051.69
226.971	8053.66
227.044	8070.01
227.117	8078.62
227.189	8091.28
227.262	8126.21
227.335	8144.3
227.407	8143.73
227.48	8175.17
227.553	8180.76
227.626	8169.35
227.698	8176.37
227.771	8212.72
227.844	8200.45
227.916	8214.3
227.989	8183.03
228.062	8188.13
228.134	8258.49
228.207	8261.13
228.28	8253.39
228.352	8264.6
228.425	8275.57
228.498	8314.64
228.57	8301.32
228.643	8356.32
228.716	8355.84
228.788	8348.14
228.861	8353.44
228.934	8408.57
229.006	8412.61
229.079	8419.59
229.151	8412.8
229.224	8383.56
229.296	8410.26
229.369	8500.18
229.442	8548.41
229.514	8539.08
229.587	8582.87
229.659	8521.89
229.732	8536.66
229.804	8569.04
229.877	8639.76
229.949	8657.57
230.022	8707.07
230.094	8706.3
230.167	8693.97
230.239	8659.04
230.312	8651.1
230.384	8707.05
230.457	8707.48
230.529	8718.59
230.602	8717.82
230.674	8726.3
230.747	8767.37
230.819	8791.1
230.892	8690.7
230.964	8684.49
231.037	8711.33
231.109	8702.32
231.181	8735.77
231.254	8706.65
231.326	8697.17
231.399	8680.32
231.471	8659.23
231.544	8589.09
231.616	8630.95
231.688	8636.53
231.761	8626.1
231.833	8619.36
231.905	8546.96
231.978	8551
232.05	8537.44
232.122	8542.25
232.195	8525.16
232.267	8555.39
232.339	8537.92
232.412	8592.57
232.484	8575
232.556	8550.57
232.629	8607.91
232.701	8620.91
232.773	8627.74
232.846	8625.24
232.918	8624.66
232.99	8637.7
233.062	8676.11
233.135	8682.27
233.207	8657.29
233.279	8696.21
233.351	8721.14
233.424	8728.21
233.496	8701.69
233.568	8780.49
233.64	8751.28
233.713	8762.88
233.785	8759.65
233.857	8774.09
233.929	8730.59
234.001	8792.29
234.074	8848.91
234.146	8785.12
234.218	8785.7
234.29	8792.48
234.362	8787.77
234.434	8749.35
234.507	8725.87
234.579	8683.75
234.651	8674.75
234.723	8701.47
234.795	8721.54
234.867	8720.05
234.939	8774.78
235.012	8796.34
235.084	8793.16
235.156	8832
235.228	8820.64
235.3	8809.86
235.372	8824.35
235.444	8884.41
235.516	8809.63
235.588	8811.84
235.66	8830.8
235.732	8811.98
235.804	8978.8
235.876	9016.96
235.948	9077
236.02	9088.89
236.092	9106.07
236.164	9117.57
236.236	9119.06
236.308	9114.92
236.38	9136.83
236.452	9119.35
236.524	9140.24
236.596	9199.21
236.668	9222.8
236.74	9243.3
236.812	9266.65
236.884	9299.16
236.956	9306.38
237.028	9309.32
237.1	9301.38
237.172	9368.65
237.244	9437.75
237.316	9338.1
237.388	9323.9
237.46	9306.37
237.532	9364.87
237.604	9360.68
237.675	9422.81
237.747	9460.08
237.819	9454.64
237.891	9461.77
237.963	9457.24
238.035	9451.46
238.107	9363.6
238.178	9423.34
238.25	9435.9
238.322	9516.59
238.394	9477.39
238.466	9478.26
238.538	9515.96
238.609	9550.81
238.681	9507.85
238.753	9490.13
238.825	9506.84
238.897	9531.01
238.968	9606.21
239.04	9585.64
239.112	9684.22
239.184	9652.43
239.255	9649.4
239.327	9683.43
239.399	9698.41
239.471	9736.6
239.542	9769.68
239.614	9827.96
239.686	9758.11
239.758	9805.12
239.829	9774.09
239.901	9833.85
239.973	9852.35
240.044	9879.56
240.116	9897.38
240.188	9915.06
240.259	9930.71
240.331	9928.98
240.403	9972.27
240.474	9929.58
240.546	9930.11
240.618	9875.34
240.689	9879.48
240.761	9909.16
240.833	9963.79
240.904	9972.46
240.976	9972.12
241.048	9995.1
241.119	10028.63
241.191	10075.3
241.262	10131.49
241.334	10140.69
241.405	10148.54
241.477	10154.52
241.549	10171.23
241.62	10191.42
241.692	10226.97
241.763	10282.43
241.835	10299.1
241.906	10312.4
241.978	10290.72
242.049	10352.24
242.121	10410.96
242.192	10477.73
242.264	10446.42
242.335	10409.71
242.407	10453.4
242.478	10468.19
242.55	10489.49
242.621	10478.98
242.693	10476
242.764	10472.82
242.836	10477.06
242.907	10505.87
242.979	10535.02
243.05	10556.22
243.122	10586.43
243.193	10586.77
243.264	10531.89
243.336	10544.56
243.407	10569.13
243.479	10642.95
243.55	10657.79
243.622	10673.69
243.693	10674.75
243.764	10741.24
243.836	10730.02
243.907	10726.36
243.978	10726.26
244.05	10743.8
244.121	10704.15
244.192	10735.95
244.264	10694.36
244.335	10710.75
244.407	10667.77
244.478	10685.31
244.549	10676.2
244.62	10636.88
244.692	10639.58
244.763	10682.22
244.834	10669.93
244.906	10660.15
244.977	10673.69
245.048	10726.95
245.119	10714.09
245.191	10696.26
245.262	10639.16
245.333	10702.08
245.405	10712.2
245.476	10751.61
245.547	10773.93
245.618	10826.73
245.689	10845.67
245.761	10878.15
245.832	10885.18
245.903	10931.68
245.974	10958
246.045	10977.13
246.117	11059.72
246.188	11051.1
246.259	11035.77
246.33	11052.93
246.401	11072.11
246.473	11041.84
246.544	11035.05
246.615	11089.89
246.686	11098.81
246.757	11174.55
246.828	11164.43
246.899	11232.49
246.97	11203.1
247.042	11196.83
247.113	11238.04
247.184	11319.07
247.255	11325.38
247.326	11351.79
247.397	11357.91
247.468	11367.55
247.539	11380.66
247.61	11341.81
247.681	11385.95
247.752	11432.7
247.823	11419.11
247.894	11436.07
247.965	11421.71
248.037	11403.88
248.108	11356.41
248.179	11366.29
248.25	11359.15
248.321	11389.85
248.392	11355.92
248.463	11429.26
248.534	11427.34
248.605	11442.13
248.675	11419.81
248.746	11435.43
248.817	11454.23
248.888	11473.7
248.959	11431.58
249.03	11454.04
249.101	11461.56
249.172	11441.36
249.243	11390.91
249.314	11451.92
249.385	11465.18
249.456	11492.35
249.527	11495.73
249.598	11520.55
249.669	11519.34
249.739	11528.4
249.81	11536.36
249.881	11500.55
249.952	11492.02
250.023	11494.91
250.094	11454.9
250.165	11426.61
250.235	11423.62
250.306	11435.43
250.377	11409.79
250.448	11442.03
250.519	11393.69
250.59	11438.95
250.66	11441.36
250.731	11499.24
250.802	11501.31
250.873	11507.33
250.944	11526.23
251.014	11519
251.085	11596.55
251.156	11624.75
251.227	11680.57
251.297	11730.5
251.368	11771.37
251.439	11818.08
251.51	11866.19
251.58	11858.28
251.651	11862.67
251.722	11915.26
251.792	11865.13
251.863	11876.84
251.934	11924.22
252.005	12023.03
252.075	12041.92
252.146	12093.3
252.217	12139.29
252.287	12171.49
252.358	12181.32
252.429	12255.07
252.499	12252.42
252.57	12273.1
252.641	12315.04
252.711	12316.14
252.782	12273.44
252.852	12347.82
252.923	12342.13
252.994	12354.42
253.064	12400.06
253.135	12385.89
253.205	12369.5
253.276	12438.86
253.347	12489.76
253.417	12470.58
253.488	12453.61
253.558	12440.79
253.629	12444.55
253.699	12454.62
253.77	12485.57
253.841	12480.37
253.911	12490.44
253.982	12507.7
254.052	12531.61
254.123	12536.67
254.193	12542.69
254.264	12661.62
254.334	12630.52
254.405	12608.49
254.475	12583.09
254.546	12594.76
254.616	12650.09
254.687	12679.26
254.757	12699.98
254.827	12707.22
254.898	12740.67
254.968	12751.56
255.039	12744.67
255.109	12773.11
255.18	12752.67
255.25	12692.08
255.321	12728.81
255.391	12688.8
255.461	12766.46
255.532	12687.98
255.602	12690
255.673	12643.63
255.743	12620.3
255.813	12566.46
255.884	12609.7
255.954	12642.96
256.024	12698.39
256.095	12702.3
256.165	12672.51
256.235	12691.93
256.306	12677.23
256.376	12710.78
256.446	12743.81
256.517	12774.51
256.587	12814.19
256.657	12828.98
256.728	12852.89
256.798	12854.44
256.868	12862.68
256.938	12837.66
257.009	12890.2
257.079	12917.01
257.149	13006.28
257.219	12955.67
257.29	12977.84
257.36	12929.15
257.43	12968.34
257.5	12911.03
257.571	12907.51
257.641	12945.06
257.711	12915.22
257.781	12946.46
257.852	12964
257.922	12916.47
257.992	12917.63
258.062	12914.54
258.132	12959.28
258.202	12962.94
258.273	12988.3
258.343	13050.49
258.413	13034.58
258.483	13034.43
258.553	13020.21
258.623	12997.12
258.693	13023.73
258.764	13093.29
258.834	13161.02
258.904	13172.44
258.974	13165.16
259.044	13176.4
259.114	13200.89
259.184	13232.65
259.254	13239.4
259.324	13192.98
259.394	13236.32
259.464	13302.65
259.535	13312.53
259.605	13308.48
259.675	13308.48
259.745	13336.01
259.815	13315.09
259.885	13324.78
259.955	13427.84
260.025	13424.32
260.095	13439.65
260.165	13471.85
260.235	13530.13
260.305	13515.62
260.375	13492.72
260.445	13583.25
260.515	13640.86
260.585	13682.03
260.655	13699.29
260.725	13742.43
260.795	13784.56
260.865	13843.18
260.934	13816.52
261.004	13841.69
261.074	13843.47
261.144	13892.35
261.214	13920.12
261.284	13928.07
261.354	13960.52
261.424	13918.92
261.494	13971.65
261.564	13972.38
261.634	13989.88
261.703	13924.7
261.773	13948.76
261.843	13978.16
261.913	13968.04
261.983	13919.45
262.053	13936.56
262.123	13925.09
262.192	13888.06
262.262	13918.19
262.332	13881.36
262.402	13912.94
262.472	13924.27
262.541	13879.24
262.611	13924.75
262.681	13906.24
262.751	13935.07
262.821	13939.74
262.89	13915.25
262.96	13934.83
263.03	13996.29
263.1	14023.81
263.169	14044.69
263.239	14076.5
263.309	14132.66
263.379	14159.9
263.448	14184.53
263.518	14196.77
263.588	14209.98
263.657	14276.99
263.727	14315.02
