Data from 20250626_urea_1M_exp2_MAYP1162681_18-44-00-199.txt Node
Date: Thu Jun 26 18:44:00 BST 2025
User: adleo
Spectrometer: MAYP116268
Trigger mode: 0
Integration Time (sec): 3.000000E0
Scans to average: 1
Electric dark correction enabled: true
Nonlinearity correction enabled: true
Boxcar width: 10
XAxis mode: Wavelengths
Number of Pixels in Spectrum: 2068
>>>>>Begin Spectral Data<<<<<
179.565	3136.06
179.642	3303.44
179.718	3428.98
179.795	3549.66
179.871	3646.87
179.948	3704.91
180.024	3765.82
180.101	3834.99
180.177	3875.35
180.254	3937.55
180.33	4003.37
180.407	4224.32
180.483	4470.43
180.56	4723.51
180.636	4953.77
180.712	4927.56
180.789	4957.06
180.865	4989.8
180.942	5013.93
181.018	5044.01
181.095	5080.19
181.171	5096.62
181.248	5099.78
181.324	5146.37
181.4	5161.94
181.477	5190.98
181.553	5218.94
181.63	5277.51
181.706	5317.05
181.782	5345.68
181.859	5350.62
181.935	5364.08
182.011	5355.98
182.088	5401.14
182.164	5450.78
182.24	5484.22
182.317	5508.76
182.393	5505.74
182.469	5544.7
182.546	5577.59
182.622	5593.12
182.698	5580.6
182.775	5614.55
182.851	5653.38
182.927	5629.84
183.003	5621.21
183.08	5605.59
183.156	5633.87
183.232	5630.51
183.308	5602.03
183.385	5621.49
183.461	5665.27
183.537	5667.86
183.613	5702.67
183.69	5679.27
183.766	5650.53
183.842	5675.09
183.918	5689.42
183.995	5720.83
184.071	5730.28
184.147	5719.82
184.223	5686.33
184.299	5719.09
184.375	5682.84
184.452	5696.9
184.528	5807.63
184.604	5837.54
184.68	5869.62
184.756	5888.09
184.832	5890.3
184.908	5905.73
184.985	5907.93
185.061	5861.71
185.137	5892.46
185.213	5859.61
185.289	5858.66
185.365	5835.45
185.441	5828.45
185.517	5866.36
185.593	5862.14
185.669	5854.32
185.745	5880.32
185.822	5928.63
185.898	5909.49
185.974	5938.3
186.05	5916.08
186.126	5847.09
186.202	5822.25
186.278	5809.45
186.354	5788.05
186.43	5807.34
186.506	5801.83
186.582	5796.7
186.658	5822.25
186.734	5763.37
186.81	5769.41
186.886	5778.71
186.962	5813.32
187.038	5801.96
187.114	5776.37
187.19	5791.63
187.266	5766.12
187.341	5772.22
187.417	5748.82
187.493	5744.6
187.569	5753.38
187.645	5742.2
187.721	5712.03
187.797	5737.58
187.873	5754.8
187.949	5732.08
188.025	5713.08
188.101	5723.15
188.176	5736.48
188.252	5721.09
188.328	5740.64
188.404	5737.57
188.48	5729.23
188.556	5708.51
188.632	5708.85
188.707	5711.87
188.783	5707.07
188.859	5695.43
188.935	5663.77
189.011	5687.26
189.086	5675.61
189.162	5650.68
189.238	5644.92
189.314	5640.61
189.39	5624.69
189.465	5604.83
189.541	5653.98
189.617	5618.07
189.693	5600.77
189.768	5612.09
189.844	5678.64
189.92	5656.46
189.996	5681.11
190.071	5707.29
190.147	5705.18
190.223	5728.78
190.298	5707.24
190.374	5669.89
190.45	5702.53
190.526	5724.79
190.601	5710.49
190.677	5711.5
190.753	5795.07
190.828	5802.84
190.904	5839.87
190.98	5878.88
191.055	5907.23
191.131	5889.86
191.207	5945.01
191.282	5970.9
191.358	5940.68
191.433	5902.67
191.509	5940.53
191.585	5934.68
191.66	5935.92
191.736	5962.97
191.811	5937.46
191.887	5982.71
191.963	6048.38
192.038	6065.89
192.114	6067.91
192.189	6075.77
192.265	6070.45
192.34	6001.46
192.416	5996.47
192.491	5985.29
192.567	5996.62
192.642	6001.85
192.718	6001.71
192.793	5968.51
192.869	5958.34
192.944	5967.16
193.02	5987.08
193.095	5993.46
193.171	6014.14
193.246	6016.59
193.322	6008.29
193.397	6011.02
193.473	5974.06
193.548	5924.21
193.624	5937.84
193.699	5932.18
193.775	5979.5
193.85	5984.44
193.925	6008.72
194.001	6008.52
194.076	5992.36
194.152	5961.16
194.227	5940.24
194.302	5911.14
194.378	5923.85
194.453	5916.94
194.529	5954.46
194.604	5915.22
194.679	5904.66
194.755	5845.74
194.83	5881.12
194.905	5870.86
194.981	5896.28
195.056	5873.46
195.131	5892.02
195.207	5882.9
195.282	5853.07
195.357	5800.66
195.433	5840.86
195.508	5810.2
195.583	5836.68
195.659	5873.87
195.734	5889.9
195.809	5887.31
195.884	5911.18
195.96	5908.64
196.035	5948.31
196.11	5938.47
196.185	5971.95
196.261	5970.66
196.336	6060.03
196.411	6013.9
196.486	6028.1
196.561	6013.27
196.637	6045.31
196.712	6091.54
196.787	6099.22
196.862	6147.57
196.937	6171.6
197.013	6191.86
197.088	6219.45
197.163	6272.03
197.238	6313.78
197.313	6315.08
197.388	6355.2
197.464	6444.19
197.539	6478.17
197.614	6459.31
197.689	6486.92
197.764	6530.14
197.839	6589.23
197.914	6572.42
197.989	6641.9
198.065	6681.41
198.14	6819.16
198.215	6888.66
198.29	6919.27
198.365	6958.95
198.44	6991.51
198.515	7070.21
198.59	7101.77
198.665	7174.61
198.74	7194.89
198.815	7204.03
198.89	7268.89
198.965	7349.99
199.04	7329.42
199.115	7368
199.19	7487.12
199.265	7497.78
199.34	7519.27
199.415	7612.62
199.49	7671.44
199.565	7694.37
199.64	7760.28
199.715	7749.16
199.79	7762.05
199.865	7778.4
199.94	7770.62
200.015	7854.25
200.09	7866.28
200.165	7886.57
200.24	7903.16
200.315	8008.13
200.39	8046.66
200.464	8058.49
200.539	8060.94
200.614	8108.35
200.689	8176.56
200.764	8193.55
200.839	8241.1
200.914	8260.82
200.989	8231.75
201.063	8268.98
201.138	8221.59
201.213	8223.09
201.288	8171.33
201.363	8185.09
201.438	8184.41
201.512	8228.93
201.587	8180.43
201.662	8192.12
201.737	8229.74
201.812	8256.83
201.886	8167.93
201.961	8193.34
202.036	8161.85
202.111	8154.34
202.186	8073.3
202.26	8018.7
202.335	7959.24
202.41	7948.61
202.485	7899.91
202.559	7845.43
202.634	7773.54
202.709	7796.89
202.784	7741.35
202.858	7741.59
202.933	7691.4
203.008	7671.3
203.082	7615.59
203.157	7617.37
203.232	7501.23
203.306	7438.08
203.381	7348.12
203.456	7284.29
203.53	7215.93
203.605	7166.5
203.68	7100.59
203.754	7087.1
203.829	7050.71
203.904	6993.64
203.978	6958.65
204.053	6978.45
204.127	6946.75
204.202	6935.75
204.277	6883.87
204.351	6867.49
204.426	6846.06
204.5	6823.82
204.575	6724.97
204.65	6754.81
204.724	6729.24
204.799	6757.84
204.873	6747.31
204.948	6740.49
205.022	6710.73
205.097	6689.54
205.171	6722.29
205.246	6746.75
205.32	6740.46
205.395	6740.03
205.469	6717.14
205.544	6730.45
205.618	6674.3
205.693	6702.06
205.767	6672.24
205.842	6731.28
205.916	6711.21
205.991	6683.59
206.065	6698.09
206.14	6742.8
206.214	6732.56
206.289	6707.72
206.363	6733.9
206.438	6744.33
206.512	6765.66
206.586	6818.43
206.661	6846.02
206.735	6787.12
206.81	6787.84
206.884	6832.83
206.958	6793.61
207.033	6837.86
207.107	6854.21
207.181	6942.34
207.256	6927.74
207.33	6980.62
207.405	7014.81
207.479	7067.65
207.553	7087.77
207.628	7045.96
207.702	7081.69
207.776	7057.72
207.851	7068.24
207.925	7108.81
207.999	7094.4
208.073	7087.57
208.148	7095.98
208.222	7065.7
208.296	7156.12
208.371	7204.7
208.445	7236.43
208.519	7322.08
208.593	7359.52
208.668	7348.41
208.742	7353.03
208.816	7359.85
208.89	7398.66
208.965	7395.48
209.039	7417.46
209.113	7459.9
209.187	7516.03
209.261	7510.5
209.336	7567.56
209.41	7623.04
209.484	7622.99
209.558	7689.34
209.632	7722.84
209.707	7754.72
209.781	7812.51
209.855	7854.17
209.929	7894.27
210.003	7903.88
210.077	7893.45
210.151	8021.97
210.226	8122.1
210.3	8199.47
210.374	8268.22
210.448	8275.72
210.522	8300.65
210.596	8333.12
210.67	8359.87
210.744	8493.55
210.818	8583.44
210.892	8641.19
210.966	8626.28
211.041	8670.64
211.115	8661.93
211.189	8737.38
211.263	8783.33
211.337	8798.44
211.411	8838.11
211.485	8821.4
211.559	8859.46
211.633	8872.3
211.707	8787.79
211.781	8804.41
211.855	8704.68
211.929	8679.81
212.003	8634.08
212.077	8669.12
212.151	8692.85
212.225	8721.59
212.299	8694.47
212.373	8655.35
212.447	8638.74
212.52	8716.18
212.594	8726.04
212.668	8754.77
212.742	8706.26
212.816	8686.28
212.89	8671.94
212.964	8667.03
213.038	8674.83
213.112	8708.92
213.186	8746.35
213.26	8681.04
213.333	8549.97
213.407	8563.29
213.481	8571.47
213.555	8597.09
213.629	8559.06
213.703	8513.25
213.777	8503.09
213.85	8436.62
213.924	8527.08
213.998	8525.44
214.072	8504.35
214.146	8460.61
214.219	8447.76
214.293	8432.12
214.367	8435.45
214.441	8452.72
214.515	8407.43
214.588	8335.93
214.662	8224.22
214.736	8158.04
214.81	8178.27
214.883	8198.32
214.957	8162.5
215.031	8113.75
215.105	8041.53
215.178	7990.3
215.252	7959.81
215.326	7879.6
215.4	7815.48
215.473	7666.71
215.547	7593.08
215.621	7539.37
215.694	7538.03
215.768	7460.57
215.842	7410.19
215.915	7353.15
215.989	7263
216.063	7223.99
216.136	7208.32
216.21	7195.35
216.284	7205.59
216.357	7188.86
216.431	7152.68
216.504	7144.75
216.578	7189.79
216.652	7195.93
216.725	7176.37
216.799	7186.71
216.873	7172.44
216.946	7179.55
217.02	7148.73
217.093	7128.83
217.167	7048.93
217.24	6974.58
217.314	6939.48
217.387	6900.5
217.461	6861.49
217.535	6878.02
217.608	6817.3
217.682	6796.4
217.755	6805.19
217.829	6761.37
217.902	6742.68
217.976	6722.56
218.049	6682.27
218.123	6620.27
218.196	6620.32
218.27	6592.13
218.343	6533.89
218.417	6530.29
218.49	6512.23
218.563	6549.16
218.637	6561.84
218.71	6625.54
218.784	6655.71
218.857	6684.41
218.931	6704.33
219.004	6710.62
219.077	6728.89
219.151	6750.82
219.224	6745.16
219.298	6738.81
219.371	6774.03
219.444	6743.11
219.518	6755.64
219.591	6773.36
219.665	6859.46
219.738	6876.17
219.811	6861.77
219.885	6896.31
219.958	6924.65
220.031	6923.5
220.105	6936.62
220.178	6940.94
220.251	6916.96
220.325	6935.51
220.398	6947.95
220.471	6963.99
220.544	6992.48
220.618	6970.09
220.691	6994.63
220.764	7008.52
220.838	7031.77
220.911	7017.12
220.984	7084.75
221.057	7117.76
221.131	7141.58
221.204	7060.48
221.277	7115.71
221.35	7221.06
221.424	7217.02
221.497	7230.77
221.57	7253.48
221.643	7284.4
221.716	7316.13
221.79	7319.3
221.863	7325.31
221.936	7335.54
222.009	7348.03
222.082	7369.81
222.155	7378.46
222.229	7432.79
222.302	7457.69
222.375	7466.92
222.448	7500.95
222.521	7507.49
222.594	7505.47
222.667	7478.96
222.74	7527.26
222.814	7519.94
222.887	7500.85
222.96	7546.57
223.033	7576.82
223.106	7600.36
223.179	7619.85
223.252	7631.25
223.325	7653.65
223.398	7663.12
223.471	7684.08
223.544	7696.43
223.617	7712.59
223.69	7735.42
223.763	7702.04
223.837	7717
223.91	7736.09
223.983	7694.56
224.056	7666.05
224.129	7682.88
224.202	7733.48
224.275	7724.1
224.348	7698.14
224.42	7670.39
224.493	7623.52
224.566	7605.62
224.639	7620.43
224.712	7598.59
224.785	7587.87
224.858	7582.1
224.931	7565.56
225.004	7534.07
225.077	7539.36
225.15	7465.78
225.223	7460.25
225.296	7527.22
225.369	7480.84
225.442	7459.01
225.514	7480.77
225.587	7501.54
225.66	7516.11
225.733	7515.44
225.806	7516.93
225.879	7514.09
225.952	7487.08
226.025	7526.6
226.097	7565.47
226.17	7552.4
226.243	7496.41
226.316	7488.47
226.389	7491.93
226.461	7510.93
226.534	7527.22
226.607	7520.39
226.68	7587.1
226.753	7581.19
226.825	7507.68
226.898	7555.5
226.971	7555.46
227.044	7568.77
227.117	7567.38
227.189	7577.96
227.262	7607.68
227.335	7627.74
227.407	7624.47
227.48	7654.84
227.553	7660.42
227.626	7645.55
227.698	7660.12
227.771	7697.02
227.844	7684.66
227.916	7701.54
227.989	7671.25
228.062	7673.32
228.134	7749.17
228.207	7746.09
228.28	7742.59
228.352	7759.99
228.425	7766.48
228.498	7810.88
228.57	7791.98
228.643	7841.67
228.716	7842.97
228.788	7830.71
228.861	7829.65
228.934	7878.31
229.006	7883.6
229.079	7882.83
229.151	7873.83
229.224	7841.19
229.296	7864.51
229.369	7951.79
229.442	7990.86
229.514	7980.96
229.587	8018.52
229.659	7951.89
229.732	7967.67
229.804	8005.99
229.877	8068.98
229.949	8097.13
230.022	8128.36
230.094	8139.04
230.167	8129.8
230.239	8089.21
230.312	8076.61
230.384	8131.76
230.457	8136.42
230.529	8144.6
230.602	8152.2
230.674	8161.63
230.747	8192.15
230.819	8216.83
230.892	8115.57
230.964	8113.35
231.037	8138.01
231.109	8132.86
231.181	8166.24
231.254	8135.26
231.326	8119.44
231.399	8100.62
231.471	8072.23
231.544	8009.73
231.616	8044.35
231.688	8051.28
231.761	8048.11
231.833	8041.91
231.905	7967.67
231.978	7967.38
232.05	7958.92
232.122	7957.95
232.195	7936.69
232.267	7971.52
232.339	7947.37
232.412	8001.37
232.484	7981.92
232.556	7955.59
232.629	8010.79
232.701	8024.02
232.773	8031.28
232.846	8023.97
232.918	8027.29
232.99	8042.3
233.062	8074.72
233.135	8079.82
233.207	8053.51
233.279	8088.08
233.351	8120.06
233.424	8127.18
233.496	8100.72
233.568	8164.13
233.64	8136.96
233.713	8147.88
233.785	8145.61
233.857	8160.19
233.929	8114.12
234.001	8169.24
234.074	8231.22
234.146	8172.07
234.218	8168.51
234.29	8170.72
234.362	8165.29
234.434	8122.51
234.507	8098.9
234.579	8055.32
234.651	8041.75
234.723	8058.73
234.795	8071.67
234.867	8066.96
234.939	8114.92
235.012	8127.28
235.084	8129.16
235.156	8159.8
235.228	8152.25
235.3	8139.4
235.372	8150.95
235.444	8210.35
235.516	8143.88
235.588	8144.65
235.66	8153.74
235.732	8133.54
235.804	8299.76
235.876	8332.41
235.948	8397.62
236.02	8404.59
236.092	8423.59
236.164	8431.09
236.236	8434.56
236.308	8437.01
236.38	8459.63
236.452	8445.38
236.524	8460.73
236.596	8521.79
236.668	8549.08
236.74	8562.5
236.812	8580.88
236.884	8606.92
236.956	8613.66
237.028	8606.2
237.1	8594.9
237.172	8657.71
237.244	8723.07
237.316	8620.26
237.388	8599.58
237.46	8573.1
237.532	8627.82
237.604	8619.55
237.675	8683.23
237.747	8716.83
237.819	8704.85
237.891	8709.71
237.963	8703.16
238.035	8707.45
238.107	8610.67
238.178	8662.96
238.25	8669.89
238.322	8749.44
238.394	8719.02
238.466	8716.71
238.538	8749.18
238.609	8782.15
238.681	8741.13
238.753	8723.8
238.825	8740.7
238.897	8776.2
238.968	8842.55
239.04	8831.48
239.112	8926.68
239.184	8892.07
239.255	8890.72
239.327	8921.42
239.399	8931.09
239.471	8971.76
239.542	9002.52
239.614	9057.73
239.686	8996
239.758	9040.14
239.829	9006.57
239.901	9053.55
239.973	9065.97
240.044	9098.89
240.116	9107.89
240.188	9113.24
240.259	9124.07
240.331	9118.1
240.403	9150.59
240.474	9108.3
240.546	9089.63
240.618	9039.51
240.689	9042.59
240.761	9062.28
240.833	9120.26
240.904	9122.9
240.976	9116.45
241.048	9130.03
241.119	9165.91
241.191	9201.49
241.262	9255.63
241.334	9264.58
241.405	9267.43
241.477	9277.05
241.549	9289.28
241.62	9315.38
241.692	9355.25
241.763	9407.26
241.835	9427.2
241.906	9443.96
241.978	9426.72
242.049	9486.76
242.121	9530.04
242.192	9584.12
242.264	9553.74
242.335	9510.59
242.407	9549.79
242.478	9560.57
242.55	9576.61
242.621	9562.64
242.693	9566.01
242.764	9560.37
242.836	9560.13
242.907	9594.38
242.979	9620.09
243.05	9637.14
243.122	9661.56
243.193	9662
243.264	9603.1
243.336	9599.53
243.407	9626.12
243.479	9694.31
243.55	9710.02
243.622	9732.32
243.693	9727.35
243.764	9791.5
243.836	9775.66
243.907	9767.52
243.978	9771.13
244.05	9794.3
244.121	9756.21
244.192	9785.26
244.264	9742.1
244.335	9757.17
244.407	9713.35
244.478	9726.98
244.549	9718.64
244.62	9674.63
244.692	9666.63
244.763	9704.58
244.834	9697.98
244.906	9678.9
244.977	9692.97
245.048	9737.06
245.119	9722.51
245.191	9711.82
245.262	9660.82
245.333	9721.49
245.405	9739.26
245.476	9769.8
245.547	9784.88
245.618	9828.65
245.689	9839.06
245.761	9868.05
245.832	9871.71
245.903	9913.47
245.974	9934.86
246.045	9950.13
246.117	10024.83
246.188	10022.09
246.259	10009.47
246.33	10029.41
246.401	10043.43
246.473	10007.3
246.544	10002
246.615	10045.74
246.686	10055.32
246.757	10118.95
246.828	10105.03
246.899	10157.64
246.97	10127.16
247.042	10115.35
247.113	10156.16
247.184	10236.06
247.255	10241.26
247.326	10260.63
247.397	10262.22
247.468	10265.45
247.539	10278.02
247.61	10240.01
247.681	10280.28
247.752	10324.35
247.823	10299.4
247.894	10311.26
247.965	10294.06
248.037	10276.33
248.108	10231.91
248.179	10229.55
248.25	10218.37
248.321	10240.82
248.392	10206.03
248.463	10278.96
248.534	10278.34
248.605	10290.05
248.675	10259.54
248.746	10271.05
248.817	10285.94
248.888	10300.05
248.959	10259.59
249.03	10274.62
249.101	10283.53
249.172	10257.96
249.243	10200.4
249.314	10255.6
249.385	10261.82
249.456	10289.61
249.527	10285.51
249.598	10307.09
249.669	10307.52
249.739	10321.21
249.81	10330.6
249.881	10296.64
249.952	10287.1
250.023	10280.02
250.094	10239.06
250.165	10213.52
250.235	10214.2
250.306	10221.28
250.377	10200.47
250.448	10222.96
250.519	10179.99
250.59	10225.57
250.66	10233.61
250.731	10291.95
250.802	10294.16
250.873	10311.17
250.944	10331.5
251.014	10326.59
251.085	10403.11
251.156	10428.93
251.227	10470.13
251.297	10517.21
251.368	10562.88
251.439	10597.1
251.51	10647.54
251.58	10637.72
251.651	10635.6
251.722	10676.56
251.792	10634.59
251.863	10637.43
251.934	10689.09
252.005	10782.46
252.075	10787.91
252.146	10834.06
252.217	10872.28
252.287	10901.53
252.358	10906.93
252.429	10964.85
252.499	10960.08
252.57	10967.26
252.641	11006.73
252.711	11010.2
252.782	10974.54
252.852	11036.47
252.923	11034.06
252.994	11050.44
253.064	11092.89
253.135	11079.25
253.205	11060.36
253.276	11118.76
253.347	11170.37
253.417	11148.97
253.488	11129.06
253.558	11128.1
253.629	11122.7
253.699	11129.79
253.77	11160.78
253.841	11148.44
253.911	11158.13
253.982	11172.63
254.052	11196.69
254.123	11203.87
254.193	11203.05
254.264	11314.77
254.334	11287.15
254.405	11261.32
254.475	11229.32
254.546	11227.54
254.616	11276.31
254.687	11303.73
254.757	11322.77
254.827	11325.71
254.898	11353.42
254.968	11358.91
255.039	11339.25
255.109	11368.5
255.18	11351.25
255.25	11293.61
255.321	11333.99
255.391	11295.53
255.461	11369.41
255.532	11301.16
255.602	11292.97
255.673	11257.4
255.743	11232.96
255.813	11172.4
255.884	11217.17
255.954	11248.44
256.024	11308.01
256.095	11310.62
256.165	11281.94
256.235	11308.93
256.306	11297.66
256.376	11334.19
256.446	11366.97
256.517	11395.64
256.587	11432.61
256.657	11450.3
256.728	11469.14
256.798	11470.34
256.868	11474.87
256.938	11446.68
257.009	11492.27
257.079	11517.72
257.149	11592.76
257.219	11546.97
257.29	11578.33
257.36	11523.1
257.43	11554.24
257.5	11500.31
257.571	11497.13
257.641	11535.15
257.711	11498.95
257.781	11524.88
257.852	11536.36
257.922	11484.74
257.992	11489.99
258.062	11485.12
258.132	11513.7
258.202	11511.39
258.273	11521.03
258.343	11582.48
258.413	11570.82
258.483	11567.25
258.553	11550.34
258.623	11531.73
258.693	11543.15
258.764	11602.05
258.834	11668.6
258.904	11679.26
258.974	11668.94
259.044	11673.72
259.114	11691.79
259.184	11720.81
259.254	11722.64
259.324	11681.57
259.394	11729
259.464	11789.59
259.535	11792.67
259.605	11797.3
259.675	11792.48
259.745	11825.93
259.815	11807.47
259.885	11807.32
259.955	11905.61
260.025	11901.37
260.095	11918.58
260.165	11949
260.235	12004.14
260.305	11989.88
260.375	11972.43
260.445	12051.08
260.515	12110.13
260.585	12149.47
260.655	12152.45
260.725	12189.13
260.795	12223.65
260.865	12280.14
260.934	12255.85
261.004	12285.25
261.074	12286.5
261.144	12342.27
261.214	12367.14
261.284	12366.85
261.354	12406.71
261.424	12366.7
261.494	12415.43
261.564	12417.6
261.634	12435.53
261.703	12373.01
261.773	12392.24
261.843	12419.28
261.913	12414.56
261.983	12370.5
262.053	12390.65
262.123	12392.77
262.192	12360.29
262.262	12389.79
262.332	12341.29
262.402	12370.5
262.472	12379.33
262.541	12327.61
262.611	12362.75
262.681	12341.06
262.751	12372.58
262.821	12372.01
262.89	12340.14
262.96	12372.49
263.03	12431.06
263.1	12453.18
263.169	12475.98
263.239	12508.13
263.309	12556.97
263.379	12579.53
263.448	12594.81
263.518	12608.02
263.588	12620.89
263.657	12681.38
263.727	12710.4
263.797	12725.3
