Data from 20250626_urea_1M_exp2_MAYP1162681_21-53-59-279.txt Node
Date: Thu Jun 26 21:53:59 BST 2025
User: adleo
Spectrometer: MAYP116268
Trigger mode: 0
Integration Time (sec): 3.000000E0
Scans to average: 1
Electric dark correction enabled: true
Nonlinearity correction enabled: true
Boxcar width: 10
XAxis mode: Wavelengths
Number of Pixels in Spectrum: 2068
>>>>>Begin Spectral Data<<<<<
179.565	2952.33
179.642	3101.74
179.718	3213.86
179.795	3327.55
179.871	3413.08
179.948	3462.44
180.024	3518.21
180.101	3580.07
180.177	3617.23
180.254	3674.43
180.33	3735.57
180.407	3939.89
180.483	4169.24
180.56	4395.79
180.636	4610.64
180.712	4583.3
180.789	4605.13
180.865	4635.83
180.942	4663.35
181.018	4688.48
181.095	4725.45
181.171	4737.18
181.248	4740.62
181.324	4781.95
181.4	4791.39
181.477	4821.51
181.553	4850.88
181.63	4905.19
181.706	4943.41
181.782	4970.26
181.859	4975.28
181.935	4990.66
182.011	4982.28
182.088	5024.91
182.164	5079.06
182.24	5111.48
182.317	5132.3
182.393	5123.97
182.469	5161.24
182.546	5191.04
182.622	5204.93
182.698	5192.37
182.775	5224.76
182.851	5263.09
182.927	5245.27
183.003	5233.58
183.08	5221.89
183.156	5249.29
183.232	5240.62
183.308	5212.07
183.385	5230.12
183.461	5271.14
183.537	5270.42
183.613	5300.71
183.69	5277.9
183.766	5247.98
183.842	5269.55
183.918	5289.48
183.995	5324.41
184.071	5335.43
184.147	5323.02
184.223	5294.67
184.299	5326.21
184.375	5296.36
184.452	5312.72
184.528	5418.19
184.604	5450.28
184.68	5480.04
184.756	5500.75
184.832	5514.18
184.908	5529.07
184.985	5530.08
185.061	5491.64
185.137	5514.75
185.213	5484.94
185.289	5487.34
185.365	5473.54
185.441	5464.38
185.517	5495.99
185.593	5487.12
185.669	5472.79
185.745	5495.37
185.822	5535.6
185.898	5515.03
185.974	5539.51
186.05	5515.63
186.126	5449.85
186.202	5428.1
186.278	5414.44
186.354	5389.08
186.43	5402.79
186.506	5398.29
186.582	5395.27
186.658	5413.09
186.734	5364.51
186.81	5369.25
186.886	5377.54
186.962	5407.1
187.038	5396.18
187.114	5372.96
187.19	5391.66
187.266	5371.92
187.341	5378.63
187.417	5356.26
187.493	5354.77
187.569	5362.82
187.645	5348.93
187.721	5318.82
187.797	5342.3
187.873	5353.23
187.949	5338.61
188.025	5326.67
188.101	5334.72
188.176	5343.39
188.252	5328.78
188.328	5346.69
188.404	5346.69
188.48	5335.82
188.556	5311.57
188.632	5318.08
188.707	5320.53
188.783	5311.56
188.859	5299.93
188.935	5266.99
189.011	5292.3
189.086	5278.07
189.162	5254.92
189.238	5245.05
189.314	5241.07
189.39	5229.24
189.465	5213.47
189.541	5257.33
189.617	5213.97
189.693	5201.46
189.768	5213.78
189.844	5276.4
189.92	5254.19
189.996	5281.22
190.071	5309.68
190.147	5314.33
190.223	5337.1
190.298	5317.64
190.374	5285.25
190.45	5318.64
190.526	5343.47
190.601	5331
190.677	5335.08
190.753	5412.79
190.828	5427.69
190.904	5464.74
190.98	5500.51
191.055	5526.25
191.131	5502.47
191.207	5557.34
191.282	5583.93
191.358	5557.72
191.433	5524.71
191.509	5558.43
191.585	5542.37
191.66	5545.82
191.736	5570.13
191.811	5543.57
191.887	5591.38
191.963	5654.42
192.038	5664.11
192.114	5665.5
192.189	5670.91
192.265	5657.41
192.34	5592.35
192.416	5586.64
192.491	5574.85
192.567	5581.61
192.642	5590.48
192.718	5590.96
192.793	5558.65
192.869	5543.36
192.944	5548.49
193.02	5564.31
193.095	5574.52
193.171	5595.28
193.246	5589.05
193.322	5575.34
193.397	5579.07
193.473	5538.3
193.548	5492.17
193.624	5509.05
193.699	5507.47
193.775	5551.26
193.85	5565.97
193.925	5592.77
194.001	5588.27
194.076	5570.63
194.152	5539.84
194.227	5520.7
194.302	5494.93
194.378	5506.14
194.453	5500.92
194.529	5538.84
194.604	5500.3
194.679	5488.84
194.755	5443.42
194.83	5476.09
194.905	5470.29
194.981	5489.71
195.056	5471.21
195.131	5489.23
195.207	5485.25
195.282	5457.07
195.357	5407.91
195.433	5442.57
195.508	5407.96
195.583	5436.81
195.659	5472.96
195.734	5495.74
195.809	5493.58
195.884	5517.97
195.96	5517.2
196.035	5555.31
196.11	5542.98
196.185	5575.72
196.261	5584.11
196.336	5662.4
196.411	5624.79
196.486	5642.63
196.561	5626.61
196.637	5653.35
196.712	5687.94
196.787	5689.43
196.862	5727.11
196.937	5751.08
197.013	5767.2
197.088	5795
197.163	5847.79
197.238	5894.66
197.313	5888.9
197.388	5922.86
197.464	6002
197.539	6033.65
197.614	6013.99
197.689	6045.52
197.764	6088.18
197.839	6141.3
197.914	6122.92
197.989	6185.54
198.065	6216.34
198.14	6348.56
198.215	6411.39
198.29	6447.99
198.365	6487.4
198.44	6515.85
198.515	6590.28
198.59	6629.95
198.665	6697.26
198.74	6714.03
198.815	6713.98
198.89	6781.24
198.965	6856.19
199.04	6845
199.115	6883.17
199.19	6993.28
199.265	7001.34
199.34	7027.48
199.415	7108.91
199.49	7167.21
199.565	7188.88
199.64	7256.39
199.715	7246.91
199.79	7267.91
199.865	7280.98
199.94	7273.92
200.015	7362.32
200.09	7376.45
200.165	7392.26
200.24	7412.16
200.315	7514.24
200.39	7551.16
200.464	7563.95
200.539	7569.48
200.614	7611.68
200.689	7668.36
200.764	7691.59
200.839	7737.62
200.914	7750.45
200.989	7723.32
201.063	7767.71
201.138	7726.06
201.213	7723.61
201.288	7676.11
201.363	7685.78
201.438	7686.11
201.512	7731.09
201.587	7683.86
201.662	7693.82
201.737	7718.2
201.812	7740.37
201.886	7660.06
201.961	7689.16
202.036	7654.95
202.111	7645.24
202.186	7568.42
202.26	7526.59
202.335	7468.32
202.41	7450.19
202.485	7403.97
202.559	7357.4
202.634	7278.91
202.709	7303.93
202.784	7250.21
202.858	7249.68
202.933	7200.38
203.008	7181.06
203.082	7128.74
203.157	7122.68
203.232	7007.25
203.306	6948.37
203.381	6856.93
203.456	6795.53
203.53	6732.87
203.605	6685.69
203.68	6625.77
203.754	6608.22
203.829	6570.41
203.904	6515.25
203.978	6484.17
204.053	6496.47
204.127	6463.15
204.202	6455.32
204.277	6406.74
204.351	6392.77
204.426	6366.26
204.5	6350.03
204.575	6259.07
204.65	6283.08
204.724	6261.75
204.799	6291.15
204.873	6288.75
204.948	6282.22
205.022	6252.05
205.097	6228.84
205.171	6265.75
205.246	6283.47
205.32	6284.57
205.395	6282.94
205.469	6260.79
205.544	6277.55
205.618	6229.93
205.693	6253.45
205.767	6222.5
205.842	6272.05
205.916	6258.27
205.991	6236.39
206.065	6251.46
206.14	6294.08
206.214	6276.55
206.289	6259.69
206.363	6287.3
206.438	6291.57
206.512	6318.26
206.586	6366.82
206.661	6392.67
206.735	6328.82
206.81	6332.28
206.884	6370.1
206.958	6331.57
207.033	6374.07
207.107	6386.03
207.181	6471.95
207.256	6461.29
207.33	6511.35
207.405	6545.86
207.479	6595.79
207.553	6617.44
207.628	6572.72
207.702	6604.35
207.776	6590
207.851	6599.98
207.925	6636.02
207.999	6626.89
208.073	6618.49
208.148	6626.9
208.222	6590.01
208.296	6676.38
208.371	6722.96
208.445	6747.93
208.519	6828.15
208.593	6858.12
208.668	6852.02
208.742	6855.29
208.816	6860.47
208.89	6898.29
208.965	6889.64
209.039	6910.64
209.113	6952.53
209.187	7009.35
209.261	7004.26
209.336	7060.37
209.41	7110.49
209.484	7117.36
209.558	7183.49
209.632	7221.24
209.707	7245.41
209.781	7305.81
209.855	7347.92
209.929	7387.18
210.003	7404.62
210.077	7405.54
210.151	7532.83
210.226	7622.91
210.3	7695.48
210.374	7756.64
210.448	7768.09
210.522	7802.09
210.596	7832.19
210.67	7855.32
210.744	7980.86
210.818	8056.37
210.892	8107.84
210.966	8088.27
211.041	8119.68
211.115	8104.29
211.189	8167.05
211.263	8214.85
211.337	8230.15
211.411	8268.78
211.485	8250.45
211.559	8287.05
211.633	8297.04
211.707	8217.87
211.781	8235.29
211.855	8147.73
211.929	8123.65
212.003	8074.77
212.077	8101.86
212.151	8125.53
212.225	8154.92
212.299	8120.5
212.373	8093.67
212.447	8082.84
212.52	8161.44
212.594	8172.45
212.668	8203.23
212.742	8162.35
212.816	8147.43
212.89	8131.8
212.964	8125.5
213.038	8136.47
213.112	8158.99
213.186	8190.68
213.26	8131.71
213.333	8006.38
213.407	8013.01
213.481	8023.54
213.555	8051.27
213.629	8013.73
213.703	7968.03
213.777	7958.75
213.85	7901.89
213.924	7987.78
213.998	7981.29
214.072	7964.73
214.146	7921.59
214.219	7910.04
214.293	7895.19
214.367	7896.24
214.441	7915.87
214.515	7873.82
214.588	7800.82
214.662	7708.12
214.736	7646.06
214.81	7661.52
214.883	7682.47
214.957	7646.95
215.031	7605.2
215.105	7531.54
215.178	7483.71
215.252	7458.09
215.326	7382.38
215.4	7320.94
215.473	7179.37
215.547	7112.02
215.621	7054.16
215.694	7056.04
215.768	6979.2
215.842	6929.19
215.915	6874.24
215.989	6788.42
216.063	6749.97
216.136	6741.22
216.21	6720.43
216.284	6730.62
216.357	6711.12
216.431	6677.5
216.504	6674.67
216.578	6718.82
216.652	6734.99
216.725	6716.45
216.799	6723.47
216.873	6707.86
216.946	6712.57
217.02	6680.95
217.093	6663.18
217.167	6589.72
217.24	6528.8
217.314	6501.74
217.387	6472.57
217.461	6438.86
217.535	6454.03
217.608	6404.78
217.682	6384.42
217.755	6398.44
217.829	6355.41
217.902	6342.35
217.976	6330.16
218.049	6288.6
218.123	6223.18
218.196	6217.51
218.27	6192.12
218.343	6130.42
218.417	6134.74
218.49	6119.24
218.563	6158.06
218.637	6163.15
218.71	6222.14
218.784	6237.99
218.857	6262.31
218.931	6278.38
219.004	6278.53
219.077	6300.38
219.151	6313.96
219.224	6308.54
219.298	6299.17
219.371	6334.27
219.444	6303.66
219.518	6311.82
219.591	6328.85
219.665	6417.64
219.738	6434.11
219.811	6421.15
219.885	6457.3
219.958	6482.18
220.031	6483.76
220.105	6498.6
220.178	6507.05
220.251	6482.6
220.325	6501.09
220.398	6511.03
220.471	6520.29
220.544	6553.86
220.618	6529.12
220.691	6550.87
220.764	6564.6
220.838	6590.87
220.911	6576.02
220.984	6641.12
221.057	6672.43
221.131	6695.18
221.204	6615.13
221.277	6673.69
221.35	6774.03
221.424	6769.52
221.497	6776.05
221.57	6799.67
221.643	6826.14
221.716	6857.23
221.79	6868.66
221.863	6879.52
221.936	6889.36
222.009	6908.9
222.082	6927.88
222.155	6937.44
222.229	6989.44
222.302	7011.72
222.375	7013.79
222.448	7049.1
222.521	7057.46
222.594	7053.14
222.667	7032.45
222.74	7079.62
222.814	7066.35
222.887	7052.31
222.96	7093.39
223.033	7121.8
223.106	7138.03
223.179	7159.09
223.252	7163.41
223.325	7178.35
223.398	7187.97
223.471	7211.41
223.544	7220.97
223.617	7235.15
223.69	7252.88
223.763	7225.09
223.837	7242.64
223.91	7271.09
223.983	7229.44
224.056	7200.32
224.129	7218.53
224.202	7258.63
224.275	7245.32
224.348	7223.74
224.42	7197.07
224.493	7156.71
224.566	7139.02
224.639	7152.52
224.712	7126.7
224.785	7122.85
224.858	7120.69
224.931	7110.12
225.004	7079.04
225.077	7082.45
225.15	7004.97
225.223	7001.42
225.296	7063.55
225.369	7018.1
225.442	6986.38
225.514	7004.05
225.587	7018.13
225.66	7020.58
225.733	7023.51
225.806	7037.59
225.879	7030.53
225.952	7004.06
226.025	7041.01
226.097	7084.77
226.17	7080.73
226.243	7031.69
226.316	7026.94
226.389	7032.56
226.461	7045.82
226.534	7064.46
226.607	7059.51
226.68	7128.19
226.753	7126.12
226.825	7060.87
226.898	7107.23
226.971	7114.72
227.044	7132.5
227.117	7141.58
227.189	7158.31
227.262	7184.75
227.335	7198.07
227.407	7196.63
227.48	7226.5
227.553	7237.85
227.626	7221.73
227.698	7230
227.771	7266.74
227.844	7252.95
227.916	7269.86
227.989	7242.52
228.062	7242.14
228.134	7311.08
228.207	7310.4
228.28	7305.89
228.352	7313.82
228.425	7327.57
228.498	7362.32
228.57	7346.66
228.643	7393.29
228.716	7398.78
228.788	7393.58
228.861	7386.71
228.934	7433.9
229.006	7435.97
229.079	7435.78
229.151	7425.53
229.224	7400.89
229.296	7417.56
229.369	7501.72
229.442	7532.89
229.514	7520.69
229.587	7552.6
229.659	7489.86
229.732	7500.63
229.804	7530.76
229.877	7593.18
229.949	7611.12
230.022	7651.49
230.094	7652.64
230.167	7641.82
230.239	7606.39
230.312	7591.59
230.384	7645.12
230.457	7644.45
230.529	7651.32
230.602	7653.25
230.674	7655.31
230.747	7685.34
230.819	7709.58
230.892	7611.87
230.964	7613.51
231.037	7634.55
231.109	7636.18
231.181	7669.87
231.254	7644.93
231.326	7634.16
231.399	7620.16
231.471	7592.74
231.544	7527.14
231.616	7561.84
231.688	7570.64
231.761	7560.51
231.833	7555.41
231.905	7481.31
231.978	7480.97
232.05	7466.94
232.122	7464.63
232.195	7448.38
232.267	7478.77
232.339	7465.83
232.412	7521.15
232.484	7503.12
232.556	7484.72
232.629	7534.08
232.701	7543.4
232.773	7549.51
232.846	7543.4
232.918	7542.39
232.99	7557.92
233.062	7592.59
233.135	7599.23
233.207	7564.32
233.279	7600.93
233.351	7628.96
233.424	7643.38
233.496	7623.09
233.568	7689.06
233.64	7664.02
233.713	7681.37
233.785	7678.29
233.857	7682.81
233.929	7644.93
234.001	7692.13
234.074	7745.86
234.146	7691.65
234.218	7693.67
234.29	7695.4
234.362	7688
234.434	7651.88
234.507	7629.96
234.579	7589.14
234.651	7574.19
234.723	7599.09
234.795	7612.6
234.867	7604
234.939	7645.4
235.012	7655.21
235.084	7657.13
235.156	7687.08
235.228	7665.01
235.3	7650.83
235.372	7658.67
235.444	7708.38
235.516	7647.48
235.588	7652.96
235.66	7660.65
235.732	7636.9
235.804	7790.35
235.876	7827.6
235.948	7882.77
236.02	7890.18
236.092	7907.19
236.164	7914.31
236.236	7915.89
236.308	7913.34
236.38	7938.93
236.452	7928.3
236.524	7946.52
236.596	8000.05
236.668	8030.74
236.74	8050.6
236.812	8072.72
236.884	8105.92
236.956	8107.94
237.028	8106.88
237.1	8084.09
237.172	8141.92
237.244	8206.09
237.316	8118.82
237.388	8100.65
237.46	8076.74
237.532	8127.96
237.604	8122.24
237.675	8183.63
237.747	8218.37
237.819	8211.35
237.891	8216.59
237.963	8203.37
238.035	8201.59
238.107	8113.66
238.178	8156.07
238.25	8171.36
238.322	8238.85
238.394	8201.61
238.466	8201.51
238.538	8229.31
238.609	8265.38
238.681	8226.3
238.753	8213.31
238.825	8226.26
238.897	8257.23
238.968	8324.56
239.04	8303.92
239.112	8387.59
239.184	8360.3
239.255	8359
239.327	8387.66
239.399	8401.33
239.471	8445.01
239.542	8474.21
239.614	8527.8
239.686	8467.45
239.758	8500.32
239.829	8472.68
239.901	8522.24
239.973	8535.47
240.044	8569.73
240.116	8579.93
240.188	8584.79
240.259	8586.13
240.331	8575.59
240.403	8598.64
240.474	8556.99
240.546	8550.4
240.618	8499.73
240.689	8497.71
240.761	8516
240.833	8566.82
240.904	8566.25
240.976	8560.52
241.048	8573.22
241.119	8600.43
241.191	8634.59
241.262	8696.08
241.334	8705.47
241.405	8710.52
241.477	8715.91
241.549	8716.1
241.62	8740.79
241.692	8780.11
241.763	8835.04
241.835	8849.68
241.906	8866.23
241.978	8845.64
242.049	8902.81
242.121	8956.72
242.192	9011.01
242.264	8979.49
242.335	8939.92
242.407	8971.5
242.478	8976.6
242.55	8995.71
242.621	8983.63
242.693	8984.73
242.764	8976.79
242.836	8977.8
242.907	8995.18
242.979	9017.22
243.05	9037.01
243.122	9051.36
243.193	9049.57
243.264	8994.55
243.336	8998.45
243.407	9024.54
243.479	9090.2
243.55	9097.81
243.622	9112.64
243.693	9108.6
243.764	9167.66
243.836	9150
243.907	9139.94
243.978	9145.91
244.05	9163.2
244.121	9127.87
244.192	9160.89
244.264	9115.01
244.335	9115.87
244.407	9077.03
244.478	9088.15
244.549	9082.37
244.62	9049.49
244.692	9046.12
244.763	9078.18
244.834	9068.89
244.906	9054.01
244.977	9069.04
245.048	9118.02
245.119	9101.84
245.191	9089.13
245.262	9037.29
245.333	9098.89
245.405	9117.57
245.476	9143.62
245.547	9152.09
245.618	9199.22
245.689	9208.13
245.761	9241.54
245.832	9251.85
245.903	9298.59
245.974	9324.55
246.045	9339.28
246.117	9409.68
246.188	9402.31
246.259	9391.38
246.33	9404.96
246.401	9410.74
246.473	9385.16
246.544	9369.7
246.615	9413.57
246.686	9411.02
246.757	9469.56
246.828	9452.62
246.899	9504.73
246.97	9474.65
247.042	9471.18
247.113	9499.69
247.184	9561.84
247.255	9557.79
247.326	9576.96
247.397	9575.66
247.468	9576.58
247.539	9584.81
247.61	9553.55
247.681	9593.03
247.752	9635.22
247.823	9619.04
247.894	9633.39
247.965	9611.24
248.037	9598.24
248.108	9554.12
248.179	9559.08
248.25	9550.99
248.321	9576.7
248.392	9546.4
248.463	9615.31
248.534	9610.25
248.605	9623.45
248.675	9607.26
248.746	9619.16
248.817	9633.7
248.888	9648.73
248.959	9605.01
249.03	9620.32
249.101	9617.77
249.172	9596.49
249.243	9541.79
249.314	9593.36
249.385	9602.9
249.456	9624.27
249.527	9622.01
249.598	9641.66
249.669	9637.85
249.739	9654.28
249.81	9660.54
249.881	9628.32
249.952	9620.28
250.023	9620.23
250.094	9583.33
250.165	9555.92
250.235	9553.17
250.306	9555.73
250.377	9530.54
250.448	9558.8
250.519	9514.6
250.59	9559.39
250.66	9566.04
250.731	9620.88
250.802	9618.57
250.873	9632.58
250.944	9650.06
251.014	9641.01
251.085	9711.98
251.156	9740.96
251.227	9779.79
251.297	9825.94
251.368	9863.99
251.439	9896.89
251.51	9942.9
251.58	9935.96
251.651	9933.31
251.722	9973.29
251.792	9939.19
251.863	9948.05
251.934	9991.02
252.005	10074.49
252.075	10083.98
252.146	10118.23
252.217	10153.97
252.287	10185.05
252.358	10185.82
252.429	10246.04
252.499	10246.42
252.57	10255.29
252.641	10287.47
252.711	10283.52
252.782	10243.77
252.852	10307.66
252.923	10308.39
252.994	10316.48
253.064	10353.04
253.135	10338.78
253.205	10322.74
253.276	10376.78
253.347	10425.63
253.417	10411.94
253.488	10401.34
253.558	10393.64
253.629	10395.13
253.699	10403.56
253.77	10437.97
253.841	10435.66
253.911	10444.04
253.982	10456.66
254.052	10480.13
254.123	10493.33
254.193	10499.6
254.264	10610
254.334	10579.2
254.405	10550.73
254.475	10530.59
254.546	10535.55
254.616	10587.29
254.687	10611.29
254.757	10634.22
254.827	10629.89
254.898	10647.23
254.968	10650.6
255.039	10640.34
255.109	10668.96
255.18	10640.68
255.25	10572.69
255.321	10598.61
255.391	10567.1
255.461	10644.34
255.532	10577.16
255.602	10570.46
255.673	10532.16
255.743	10506.86
255.813	10453.24
255.884	10489.42
255.954	10520.69
256.024	10570.76
256.095	10578.13
256.165	10563.68
256.235	10576.26
256.306	10570.62
256.376	10613.12
256.446	10647.48
256.517	10672.44
256.587	10705.01
256.657	10733.39
256.728	10755.5
256.798	10760.27
256.868	10754.59
256.938	10723.79
257.009	10763.4
257.079	10785.04
257.149	10856.45
257.219	10807.29
257.29	10840.43
257.36	10801.93
257.43	10821.93
257.5	10770.18
257.571	10759.44
257.641	10781.31
257.711	10755.34
257.781	10777.36
257.852	10783.19
257.922	10732.06
257.992	10737.75
258.062	10733.17
258.132	10760.93
258.202	10767.87
258.273	10786.37
258.343	10849.07
258.413	10835.62
258.483	10838.37
258.553	10824.73
258.623	10809.31
258.693	10830.51
258.764	10879.37
258.834	10930.11
258.904	10943.22
258.974	10934.45
259.044	10943.7
259.114	10966.64
259.184	10993.1
259.254	11004.9
259.324	10968.32
259.394	11008.32
259.464	11063.79
259.535	11071.5
259.605	11069.19
259.675	11058.92
259.745	11084.85
259.815	11061.04
259.885	11065.28
259.955	11149.59
260.025	11141.59
260.095	11157.01
260.165	11187.81
260.235	11234.37
260.305	11229.36
260.375	11213.07
260.445	11292.24
260.515	11343.61
260.585	11375.38
260.655	11379.57
260.725	11413.59
260.795	11441.5
260.865	11496.59
260.934	11478.9
261.004	11507.96
261.074	11515.19
261.144	11570.8
261.214	11593.36
261.284	11595.24
261.354	11621.93
261.424	11591.8
261.494	11647.37
261.564	11642.69
261.634	11660.67
261.703	11614.69
261.773	11635.17
261.843	11657.39
261.913	11652.76
261.983	11606.4
262.053	11624.09
262.123	11622.64
262.192	11590.4
262.262	11625.39
262.332	11581.72
262.402	11600.72
262.472	11600.91
262.541	11552.38
262.611	11591.57
262.681	11576.43
262.751	11612.34
262.821	11624.92
262.89	11598.41
262.96	11617.01
263.03	11687.05
263.1	11704.98
263.169	11715.68
263.239	11741.23
263.309	11796.47
263.379	11817.14
263.448	11839.17
263.518	11863.42
263.588	11879.95
263.657	11939.42
263.727	11969.98
263.797	11990.13
263.867	11996.06
263.936	11963.38
264.006	12013.93
264.076	11997.54
264.145	11994.99
