Data from 20250626_urea_1M_exp2_MAYP1162681_12-54-00-906.txt Node
Date: Fri Jun 27 12:54:00 BST 2025
User: adleo
Spectrometer: MAYP116268
Trigger mode: 0
Integration Time (sec): 3.000000E0
Scans to average: 1
Electric dark correction enabled: true
Nonlinearity correction enabled: true
Boxcar width: 10
XAxis mode: Wavelengths
Number of Pixels in Spectrum: 2068
>>>>>Begin Spectral Data<<<<<
179.565	3148.02
179.642	3312.74
179.718	3435.88
179.795	3554.42
179.871	3644.83
179.948	3699.49
180.024	3761.85
180.101	3826.45
180.177	3863.45
180.254	3927.52
180.33	3988.98
180.407	4207.53
180.483	4452.01
180.56	4697.87
180.636	4927.31
180.712	4896.21
180.789	4918.15
180.865	4949.98
180.942	4971.18
181.018	4994.32
181.095	5037.97
181.171	5052.68
181.248	5057.13
181.324	5100.12
181.4	5111.09
181.477	5143.05
181.553	5174.75
181.63	5227.65
181.706	5269.44
181.782	5295.48
181.859	5297.02
181.935	5314.41
182.011	5307.94
182.088	5350.94
182.164	5403.21
182.24	5437.17
182.317	5463.81
182.393	5456.63
182.469	5496.5
182.546	5536.43
182.622	5546.78
182.698	5533.45
182.775	5568.02
182.851	5603.78
182.927	5585.04
183.003	5573.25
183.08	5558.97
183.156	5588.16
183.232	5580.44
183.308	5549.23
183.385	5573.1
183.461	5619.22
183.537	5622.68
183.613	5654.71
183.69	5631.12
183.766	5608.13
183.842	5630.34
183.918	5644.2
183.995	5683.17
184.071	5685.47
184.147	5668.36
184.223	5642
184.299	5670.78
184.375	5639.04
184.452	5653.82
184.528	5754.83
184.604	5791.74
184.68	5823.67
184.756	5842.77
184.832	5854.95
184.908	5873.73
184.985	5871.72
185.061	5824.83
185.137	5847.61
185.213	5813.86
185.289	5814.81
185.365	5787.83
185.441	5780.49
185.517	5818.64
185.593	5810.44
185.669	5807.89
185.745	5838.93
185.822	5881.24
185.898	5861.86
185.974	5885.64
186.05	5868.22
186.126	5807.98
186.202	5783.91
186.278	5773.55
186.354	5746.45
186.43	5762.34
186.506	5756.39
186.582	5755.67
186.658	5776.28
186.734	5721.63
186.81	5730.93
186.886	5746.65
186.962	5781.75
187.038	5770.38
187.114	5747.01
187.19	5767.63
187.266	5745.72
187.341	5745.1
187.417	5725.4
187.493	5726.74
187.569	5736.19
187.645	5716.77
187.721	5684.24
187.797	5709.41
187.873	5722.08
187.949	5703.67
188.025	5692.11
188.101	5700.83
188.176	5711.38
188.252	5698.77
188.328	5718.75
188.404	5714.72
188.48	5697.7
188.556	5678.57
188.632	5684.75
188.707	5684.08
188.783	5674.2
188.859	5659.97
188.935	5631.96
189.011	5655.4
189.086	5635.8
189.162	5609.85
189.238	5604.92
189.314	5598.11
189.39	5584.78
189.465	5558.5
189.541	5606.02
189.617	5558.23
189.693	5541.4
189.768	5554.45
189.844	5619.17
189.92	5596.32
189.996	5627.54
190.071	5655.97
190.147	5650.03
190.223	5672.34
190.298	5652.76
190.374	5614.36
190.45	5649.01
190.526	5672.13
190.601	5658.18
190.677	5659.18
190.753	5739.53
190.828	5751.32
190.904	5792.76
190.98	5827.59
191.055	5861.07
191.131	5844.61
191.207	5901.62
191.282	5927.79
191.358	5899.31
191.433	5861.34
191.509	5898.34
191.585	5887.35
191.66	5892.34
191.736	5924.14
191.811	5897.71
191.887	5939.5
191.963	6006.8
192.038	6018.36
192.114	6024.07
192.189	6030.88
192.265	6030.11
192.34	5968.33
192.416	5965.35
192.491	5953.6
192.567	5965.84
192.642	5971.93
192.718	5968
192.793	5938.74
192.869	5930.35
192.944	5936.15
193.02	5960.33
193.095	5970.21
193.171	5983.6
193.246	5978.46
193.322	5959.42
193.397	5958.65
193.473	5920.69
193.548	5870.74
193.624	5888.07
193.699	5876.26
193.775	5921.67
193.85	5928.95
193.925	5952.13
194.001	5943.98
194.076	5921
194.152	5887.21
194.227	5871.09
194.302	5845.73
194.378	5855.23
194.453	5842.86
194.529	5884.26
194.604	5840.13
194.679	5830.92
194.755	5776.41
194.83	5815.97
194.905	5817.26
194.981	5840.53
195.056	5825.76
195.131	5846.24
195.207	5839.42
195.282	5815.88
195.357	5764.01
195.433	5800.94
195.508	5769.61
195.583	5796.46
195.659	5840.46
195.734	5857.69
195.809	5851.36
195.884	5876.48
195.96	5880.41
196.035	5928.04
196.11	5913.69
196.185	5946.83
196.261	5949.42
196.336	6038.68
196.411	5992.65
196.486	6003.4
196.561	5987.14
196.637	6012.74
196.712	6050.52
196.787	6057.19
196.862	6100.8
196.937	6128.04
197.013	6139.27
197.088	6167.48
197.163	6221.31
197.238	6266.23
197.313	6267.33
197.388	6304.62
197.464	6382.94
197.539	6409.1
197.614	6385.34
197.689	6411.36
197.764	6455.92
197.839	6514.63
197.914	6499.99
197.989	6566.1
198.065	6606.42
198.14	6746.6
198.215	6821.14
198.29	6856.27
198.365	6898.2
198.44	6925.86
198.515	7002.68
198.59	7045.15
198.665	7114.57
198.74	7135.38
198.815	7134.23
198.89	7200.58
198.965	7279.94
199.04	7272.92
199.115	7317.6
199.19	7437.96
199.265	7451.02
199.34	7479.19
199.415	7569.23
199.49	7628.19
199.565	7652.22
199.64	7714.91
199.715	7708.32
199.79	7716.68
199.865	7729.86
199.94	7723.37
200.015	7813.25
200.09	7827.73
200.165	7848.5
200.24	7867.74
200.315	7978.77
200.39	8027.59
200.464	8039.56
200.539	8047.07
200.614	8085.34
200.689	8148.07
200.764	8163.95
200.839	8210.77
200.914	8223.65
200.989	8194.59
201.063	8237.89
201.138	8189.73
201.213	8190.4
201.288	8136.44
201.363	8152.36
201.438	8153.27
201.512	8196.3
201.587	8146.51
201.662	8158.58
201.737	8197.36
201.812	8219.78
201.886	8131.16
201.961	8156.81
202.036	8125.51
202.111	8120.08
202.186	8042.07
202.26	7994.88
202.335	7933.59
202.41	7919.65
202.485	7874.94
202.559	7819.16
202.634	7737.32
202.709	7761.77
202.784	7713.64
202.858	7716.19
202.933	7667.58
203.008	7654.7
203.082	7596.58
203.157	7593.07
203.232	7471.51
203.306	7408.94
203.381	7316.63
203.456	7251.74
203.53	7181.45
203.605	7127.23
203.68	7057.33
203.754	7039.91
203.829	6996.6
203.904	6941.22
203.978	6910.89
204.053	6923.67
204.127	6890.39
204.202	6884.58
204.277	6834.82
204.351	6811.24
204.426	6789.03
204.5	6768.9
204.575	6669.43
204.65	6696.58
204.724	6668.55
204.799	6696.62
204.873	6681.58
204.948	6682.78
205.022	6652.73
205.097	6627.6
205.171	6671.1
205.246	6693.59
205.32	6690.8
205.395	6688.98
205.469	6667.15
205.544	6680.12
205.618	6629.69
205.693	6657.4
205.767	6624.47
205.842	6685.52
205.916	6670.63
205.991	6639.85
206.065	6649.79
206.14	6690.66
206.214	6677.01
206.289	6660.1
206.363	6687.81
206.438	6698.62
206.512	6718.32
206.586	6771.91
206.661	6803.24
206.735	6737.63
206.81	6746.28
206.884	6785.07
206.958	6754.97
207.033	6803.3
207.107	6819.41
207.181	6908.16
207.256	6899.66
207.33	6949.89
207.405	6982.02
207.479	7036.01
207.553	7057
207.628	7015.09
207.702	7048.13
207.776	7029.83
207.851	7041.5
207.925	7084.38
207.999	7071.5
208.073	7059.49
208.148	7063.19
208.222	7027.86
208.296	7111.88
208.371	7151.13
208.445	7186.55
208.519	7262.16
208.593	7293.26
208.668	7282.15
208.742	7285.13
208.816	7287.63
208.89	7324.89
208.965	7325.28
209.039	7351.24
209.113	7396.09
209.187	7456.49
209.261	7449.38
209.336	7507.06
209.41	7562.59
209.484	7564.32
209.558	7631.3
209.632	7676.09
209.707	7708.78
209.781	7768.4
209.855	7817.89
209.929	7863.81
210.003	7877.7
210.077	7875.88
210.151	8010.7
210.226	8108.13
210.3	8184.86
210.374	8252.12
210.448	8266.22
210.522	8294.75
210.596	8316.02
210.67	8347.43
210.744	8478.56
210.818	8566.66
210.892	8624.55
210.966	8608.2
211.041	8650.59
211.115	8637.6
211.189	8699.38
211.263	8748.08
211.337	8764.19
211.411	8796.64
211.485	8777.09
211.559	8813.46
211.633	8815.72
211.707	8722.89
211.781	8742.25
211.855	8643.68
211.929	8618.04
212.003	8569.28
212.077	8594.22
212.151	8626.56
212.225	8646.06
212.299	8608.4
212.373	8575.19
212.447	8564.22
212.52	8640.4
212.594	8649.4
212.668	8678.75
212.742	8633.95
212.816	8614.84
212.89	8602.57
212.964	8599.3
213.038	8607.48
213.112	8636.51
213.186	8678.55
213.26	8622.63
213.333	8488.3
213.407	8498.78
213.481	8502.05
213.555	8527.43
213.629	8495.13
213.703	8446.14
213.777	8443.2
213.85	8381.27
213.924	8469.8
213.998	8462.14
214.072	8435.08
214.146	8388.31
214.219	8376.38
214.293	8364.4
214.367	8363.1
214.441	8380.61
214.515	8342.93
214.588	8266.39
214.662	8163.01
214.736	8096.45
214.81	8105
214.883	8127.49
214.957	8090.76
215.031	8051.59
215.105	7978.75
215.178	7918.39
215.252	7886.84
215.326	7804.7
215.4	7754.09
215.473	7605.28
215.547	7533.42
215.621	7482.18
215.694	7489.93
215.768	7413.86
215.842	7358.4
215.915	7300.45
215.989	7209.05
216.063	7163.36
216.136	7151.78
216.21	7130.5
216.284	7142.13
216.357	7127.28
216.431	7090.47
216.504	7090.28
216.578	7135.76
216.652	7145.31
216.725	7128.44
216.799	7134.55
216.873	7120.28
216.946	7113.13
217.02	7082.93
217.093	7064.38
217.167	6986.08
217.24	6912.54
217.314	6877.63
217.387	6840
217.461	6803.92
217.535	6825.01
217.608	6775.11
217.682	6759.78
217.755	6771.21
217.829	6725.91
217.902	6705.73
217.976	6693.82
218.049	6654.06
218.123	6585
218.196	6584.57
218.27	6558.68
218.343	6501.84
218.417	6494.35
218.49	6479.9
218.563	6517.78
218.637	6521.58
218.71	6588.25
218.784	6607.7
218.857	6633.29
218.931	6656.56
219.004	6661.84
219.077	6672.22
219.151	6681.44
219.224	6669
219.298	6664.97
219.371	6700.52
219.444	6672.72
219.518	6679.2
219.591	6690.2
219.665	6778.45
219.738	6783.01
219.811	6768.33
219.885	6807.28
219.958	6831.87
220.031	6834.9
220.105	6847.82
220.178	6852.15
220.251	6822.16
220.325	6837.87
220.398	6857.23
220.471	6871.54
220.544	6902.91
220.618	6883.6
220.691	6911.74
220.764	6924.71
220.838	6945.66
220.911	6937.58
220.984	7000.45
221.057	7034.51
221.131	7058.62
221.204	6978.2
221.277	7042.79
221.35	7143.7
221.424	7136.25
221.497	7148.26
221.57	7171.36
221.643	7193.38
221.716	7229.34
221.79	7238.7
221.863	7252.84
221.936	7255.14
222.009	7271.14
222.082	7289.26
222.155	7298.78
222.229	7353.59
222.302	7378.14
222.375	7380.26
222.448	7407.9
222.521	7419.15
222.594	7416.6
222.667	7394.12
222.74	7436.55
222.814	7431.5
222.887	7415.82
222.96	7460.34
223.033	7493.8
223.106	7510
223.179	7542.08
223.252	7550.3
223.325	7572.55
223.398	7582.32
223.471	7607.46
223.544	7623.94
223.617	7634.33
223.69	7657.93
223.763	7624.46
223.837	7648.83
223.91	7679.94
223.983	7645.19
224.056	7612.66
224.129	7629.14
224.202	7668.68
224.275	7673.83
224.348	7646.52
224.42	7622.62
224.493	7580.56
224.566	7562.48
224.639	7583.43
224.712	7554.96
224.785	7543.37
224.858	7531.11
224.931	7512.02
225.004	7474.82
225.077	7472.23
225.15	7399.29
225.223	7390.29
225.296	7454.81
225.369	7398.72
225.442	7363.33
225.514	7370.59
225.587	7392.84
225.66	7399.33
225.733	7402.88
225.806	7399.61
225.879	7386.69
225.952	7353.63
226.025	7388.15
226.097	7426.2
226.17	7412.21
226.243	7355.89
226.316	7352.91
226.389	7364.15
226.461	7379.69
226.534	7400.3
226.607	7389.1
226.68	7459.45
226.753	7455.07
226.825	7388.69
226.898	7441.55
226.971	7447.18
227.044	7472.99
227.117	7481.21
227.189	7492.75
227.262	7522.09
227.335	7538.92
227.407	7545.07
227.48	7573.75
227.553	7579.47
227.626	7565.95
227.698	7575.71
227.771	7612.37
227.844	7594.58
227.916	7610.21
227.989	7586.65
228.062	7581.94
228.134	7653.64
228.207	7649.12
228.28	7643.16
228.352	7650.66
228.425	7659.71
228.498	7701.3
228.57	7678.47
228.643	7721.81
228.716	7722.72
228.788	7713.39
228.861	7706.46
228.934	7754.16
229.006	7761.27
229.079	7759.64
229.151	7748.76
229.224	7717.72
229.296	7734.69
229.369	7817.52
229.442	7855.77
229.514	7843.28
229.587	7884.39
229.659	7822.92
229.732	7837.54
229.804	7871.1
229.877	7935.62
229.949	7954.43
230.022	7995.53
230.094	7996.59
230.167	7984.03
230.239	7951.57
230.312	7942.63
230.384	7995.22
230.457	7991.47
230.529	8006.13
230.602	8010.22
230.674	8018.16
230.747	8047.76
230.819	8077.63
230.892	7984.17
230.964	7986.58
231.037	8007.2
231.109	7998.97
231.181	8029.7
231.254	8001.42
231.326	7984.16
231.399	7966.69
231.471	7944.56
231.544	7876.04
231.616	7914.98
231.688	7919.27
231.761	7905.19
231.833	7896.96
231.905	7828.85
231.978	7829.37
232.05	7810.67
232.122	7815.19
232.195	7796.82
232.267	7830.29
232.339	7809.27
232.412	7858.75
232.484	7830.4
232.556	7808.78
232.629	7863.3
232.701	7882.16
232.773	7887.11
232.846	7885.9
232.918	7889.03
232.99	7900.72
233.062	7935.93
233.135	7938.53
233.207	7912.02
233.279	7955.1
233.351	7979.62
233.424	7983.37
233.496	7960.67
233.568	8025.23
233.64	7995.41
233.713	8011.81
233.785	8014.12
233.857	8029.9
233.929	7990.13
234.001	8045.92
234.074	8100.77
234.146	8042.84
234.218	8038.12
234.29	8037.55
234.362	8026.49
234.434	7984.15
234.507	7957.17
234.579	7917.35
234.651	7904.99
234.723	7932.07
234.795	7941.74
234.867	7934.04
234.939	7980.46
235.012	8001.52
235.084	8006.38
235.156	8032.4
235.228	8015.08
235.3	7994.69
235.372	7999.4
235.444	8054.56
235.516	7990.03
235.588	7991.33
235.66	8001.04
235.732	7979.2
235.804	8142.61
235.876	8178.48
235.948	8234.05
236.02	8244.29
236.092	8257.27
236.164	8270.45
236.236	8268.72
236.308	8263.91
236.38	8293.79
236.452	8280.55
236.524	8297.34
236.596	8349.25
236.668	8377.59
236.74	8395.29
236.812	8420.88
236.884	8444.37
236.956	8448.7
237.028	8438.02
237.1	8424.89
237.172	8486.35
237.244	8552.37
237.316	8458.83
237.388	8446.27
237.46	8428.61
237.532	8476.53
237.604	8464.42
237.675	8524.43
237.747	8562.41
237.819	8558.08
237.891	8552.3
237.963	8546.24
238.035	8535.08
238.107	8447.85
238.178	8503.99
238.25	8509.86
238.322	8582.56
238.394	8555.52
238.466	8551.04
238.538	8590.73
238.609	8624.26
238.681	8578.63
238.753	8559.76
238.825	8570.11
238.897	8592.62
238.968	8659.21
239.04	8647.47
239.112	8744.72
239.184	8709.87
239.255	8704.62
239.327	8732.29
239.399	8752.84
239.471	8789.79
239.542	8830.55
239.614	8880.12
239.686	8810.89
239.758	8851.85
239.829	8820.74
239.901	8868.48
239.973	8883.31
240.044	8907.95
240.116	8920.47
240.188	8930.47
240.259	8940.73
240.331	8932.59
240.403	8961.56
240.474	8925.54
240.546	8912.64
240.618	8862.09
240.689	8865.27
240.761	8879.38
240.833	8935.37
240.904	8932.19
240.976	8930.51
241.048	8936.43
241.119	8968.74
241.191	9009.8
241.262	9063.93
241.334	9067.06
241.405	9067.88
241.477	9072.35
241.549	9078.95
241.62	9095.22
241.692	9137.92
241.763	9188.59
241.835	9207.17
241.906	9222.82
241.978	9191
242.049	9254.02
242.121	9299.75
242.192	9356.28
242.264	9325.85
242.335	9281.56
242.407	9318.87
242.478	9316.32
242.55	9335.87
242.621	9323.3
242.693	9316.22
242.764	9312.22
242.836	9312.37
242.907	9341.94
242.979	9367.93
243.05	9383.39
243.122	9408.24
243.193	9406.6
243.264	9342.61
243.336	9343.91
243.407	9372.22
243.479	9445.07
243.55	9452.35
243.622	9471.9
243.693	9461.93
243.764	9519.37
243.836	9504.45
243.907	9496.03
243.978	9506.66
244.05	9523.18
244.121	9485.73
244.192	9515.05
244.264	9476.57
244.335	9491.21
244.407	9446.33
244.478	9463.52
244.549	9458.8
244.62	9425.34
244.692	9420.71
244.763	9457.64
244.834	9451.19
244.906	9436.16
244.977	9445.12
245.048	9489.68
245.119	9464.79
245.191	9451.11
245.262	9402.67
245.333	9462.75
245.405	9480.18
245.476	9511.44
245.547	9524.06
245.618	9563.63
245.689	9581.26
245.761	9603.94
245.832	9603.27
245.903	9643.38
245.974	9664.77
246.045	9674.45
246.117	9737.64
246.188	9717.85
246.259	9707.78
246.33	9721.32
246.401	9728.78
246.473	9703.78
246.544	9689.66
246.615	9731.95
246.686	9738.5
246.757	9800.38
246.828	9779.14
246.899	9833.73
246.97	9800.89
247.042	9794.68
247.113	9836.83
247.184	9910.07
247.255	9910.12
247.326	9930.44
247.397	9934.59
247.468	9936.42
247.539	9949.95
247.61	9911.8
247.681	9955.43
247.752	9993.57
247.823	9970.99
247.894	9981.25
247.965	9960.68
248.037	9948.88
248.108	9915.4
248.179	9916.94
248.25	9906.59
248.321	9937.26
248.392	9895.68
248.463	9966.05
248.534	9964.85
248.605	9973.86
248.675	9941.9
248.746	9960.45
248.817	9977.26
248.888	9997.59
248.959	9951.55
249.03	9972.7
249.101	9981.12
249.172	9968.75
249.243	9911.63
249.314	9968.66
249.385	9981.86
249.456	10009.98
249.527	10005.94
249.598	10020
249.669	10026.36
249.739	10037
249.81	10046.54
249.881	10022.75
249.952	10012.24
250.023	10011.43
250.094	9973.7
250.165	9957.56
250.235	9946.77
250.306	9951.11
250.377	9921.53
250.448	9946.14
250.519	9895.61
250.59	9940.61
250.66	9935.17
250.731	9997.44
250.802	9995.32
250.873	10010.78
250.944	10023.11
251.014	10019.98
251.085	10101.7
251.156	10118.46
251.227	10158.65
251.297	10199.99
251.368	10234.28
251.439	10269.75
251.51	10307.23
251.58	10298.03
251.651	10290.03
251.722	10342.07
251.792	10305.12
251.863	10314.27
251.934	10360.23
252.005	10447.62
252.075	10457.98
252.146	10500.7
252.217	10540.74
252.287	10581.41
252.358	10581.17
252.429	10640.15
252.499	10631.53
252.57	10639.34
252.641	10671.33
252.711	10682.27
252.782	10642.76
252.852	10709.88
252.923	10714.94
252.994	10732.44
253.064	10771.84
253.135	10752.38
253.205	10729.63
253.276	10789.28
253.347	10838.57
253.417	10828.11
253.488	10812.45
253.558	10806.18
253.629	10808.3
253.699	10821.7
253.77	10836.93
253.841	10833.17
253.911	10841.03
253.982	10855.34
254.052	10880.16
254.123	10892.64
254.193	10889.99
254.264	11002.13
254.334	10972.06
254.405	10940.45
254.475	10910.19
254.546	10913.18
254.616	10969.65
254.687	10996.78
254.757	11015.81
254.827	11018.22
254.898	11034.46
254.968	11048.1
255.039	11035.38
255.109	11067.08
255.18	11038.7
255.25	10984
255.321	11011.33
255.391	10977.3
255.461	11050.31
255.532	10977.96
255.602	10975.36
255.673	10933.1
255.743	10905.05
255.813	10845.07
255.884	10882.41
255.954	10913.64
256.024	10971.42
256.095	10976.1
256.165	10945.69
256.235	10962.56
256.306	10947.38
256.376	10992.34
256.446	11020.54
256.517	11043.19
256.587	11077.69
256.657	11095.28
256.728	11114.03
256.798	11117.01
256.868	11111.71
256.938	11088.39
257.009	11133.59
257.079	11155.95
257.149	11239.08
257.219	11194.36
257.29	11224.13
257.36	11179.89
257.43	11209.77
257.5	11147.61
257.571	11137.82
257.641	11169.48
257.711	11137.14
257.781	11160.75
257.852	11164.51
257.922	11112.13
257.992	11110.3
258.062	11102.11
258.132	11139.89
258.202	11147.89
258.273	11161.24
258.343	11224.52
258.413	11216.95
258.483	11212.76
258.553	11190.74
258.623	11169.63
258.693	11194.88
258.764	11260.27
258.834	11312.27
258.904	11321.71
258.974	11315.16
259.044	11312.46
259.114	11335.5
259.184	11360.56
259.254	11368.32
259.324	11325.67
259.394	11368.51
259.464	11435.07
259.535	11446.35
259.605	11434.64
259.675	11428.76
259.745	11450.93
259.815	11429.48
259.885	11424.52
259.955	11514.51
260.025	11504.15
260.095	11515.53
260.165	11540.98
260.235	11583.35
260.305	11576.36
260.375	11551.58
260.445	11628.45
260.515	11687.68
260.585	11728.61
260.655	11735.07
260.725	11772.28
260.795	11805.29
260.865	11857.64
260.934	11832.91
261.004	11856.57
261.074	11862.7
261.144	11911.71
261.214	11947.86
261.284	11946.08
261.354	11981.93
261.424	11947.18
261.494	12008.67
261.564	12012.34
261.634	12028.2
261.703	11975.94
261.773	12001.01
261.843	12039.33
261.913	12037.16
261.983	11996.86
262.053	12011.32
262.123	12009.49
262.192	11979.46
262.262	12017.11
262.332	11982.31
262.402	12004.19
262.472	12010.75
262.541	11960.24
262.611	11992.25
262.681	11971.04
262.751	12014.08
262.821	12015.62
262.89	11980.39
262.96	12005.5
263.03	12077.47
263.1	12094.2
263.169	12112.56
263.239	12129.19
263.309	12184.58
263.379	12204.34
263.448	12216.34
263.518	12236.11
263.588	12252.16
263.657	12311.3
263.727	12339.64
263.797	12350.92
263.867	12358.25
263.936	12324.27
264.006	12382.15
264.076	12374.73
264.145	12367.93
