Data from 20250626_urea_1M_exp2_MAYP1162681_05-34-00-025.txt Node
Date: Fri Jun 27 05:34:00 BST 2025
User: adleo
Spectrometer: MAYP116268
Trigger mode: 0
Integration Time (sec): 3.000000E0
Scans to average: 1
Electric dark correction enabled: true
Nonlinearity correction enabled: true
Boxcar width: 10
XAxis mode: Wavelengths
Number of Pixels in Spectrum: 2068
>>>>>Begin Spectral Data<<<<<
179.565	2695.27
179.642	2835.06
179.718	2933.57
179.795	3034.22
179.871	3116.56
179.948	3166.21
180.024	3218.7
180.101	3271.48
180.177	3308.84
180.254	3361.43
180.33	3419.06
180.407	3604.12
180.483	3813.48
180.56	4026.3
180.636	4221.01
180.712	4197.85
180.789	4217.99
180.865	4249.39
180.942	4271.57
181.018	4299.84
181.095	4332.28
181.171	4344.52
181.248	4346.53
181.324	4392.18
181.4	4405.2
181.477	4432.14
181.553	4459.96
181.63	4510.54
181.706	4553.61
181.782	4577.24
181.859	4581.49
181.935	4594.27
182.011	4583.94
182.088	4627.68
182.164	4673.85
182.24	4706.9
182.317	4726.76
182.393	4723.17
182.469	4757.01
182.546	4792.91
182.622	4801.1
182.698	4794.87
182.775	4825.22
182.851	4860.6
182.927	4839.53
183.003	4832.07
183.08	4818.76
183.156	4844.8
183.232	4839.1
183.308	4810.14
183.385	4824.31
183.461	4868.5
183.537	4868.41
183.613	4902.26
183.69	4875.97
183.766	4853.89
183.842	4873.47
183.918	4885.97
183.995	4917.13
184.071	4921.25
184.147	4908.37
184.223	4881.58
184.299	4908.31
184.375	4881.64
184.452	4899.71
184.528	4997.18
184.604	5024.37
184.68	5050.99
184.756	5066.23
184.832	5074.85
184.908	5089.02
184.985	5091.5
185.061	5050.99
185.137	5075.52
185.213	5044.63
185.289	5049.51
185.365	5026.92
185.441	5022.37
185.517	5059.41
185.593	5048.25
185.669	5043.27
185.745	5068.71
185.822	5110.01
185.898	5093
185.974	5117.51
186.05	5097.15
186.126	5035.54
186.202	5016.15
186.278	5009.78
186.354	4987.55
186.43	5003.32
186.506	4999.54
186.582	5000.21
186.658	5016.48
186.734	4965.07
186.81	4970.19
186.886	4981.15
186.962	5013.66
187.038	5005.14
187.114	4983.95
187.19	5005.07
187.266	4982.76
187.341	4979.12
187.417	4964.04
187.493	4964.37
187.569	4972.61
187.645	4952.45
187.721	4924.91
187.797	4946.55
187.873	4955.99
187.949	4938.33
188.025	4922.7
188.101	4929.45
188.176	4934.29
188.252	4923.14
188.328	4941.94
188.404	4945.86
188.48	4928.34
188.556	4909.14
188.632	4910.1
188.707	4910.43
188.783	4906.31
188.859	4896.65
188.935	4873.08
189.011	4891.66
189.086	4875.77
189.162	4850.34
189.238	4846.41
189.314	4844.21
189.39	4827.17
189.465	4807.15
189.541	4852.07
189.617	4814.54
189.693	4800.47
189.768	4810.57
189.844	4869.46
189.92	4850.37
189.996	4868.28
190.071	4895.86
190.147	4895.05
190.223	4912.05
190.298	4892.84
190.374	4859.71
190.45	4886.12
190.526	4910.07
190.601	4896.76
190.677	4901.74
190.753	4979.49
190.828	4988.96
190.904	5026.57
190.98	5068.2
191.055	5092.96
191.131	5066.8
191.207	5120.96
191.282	5143.61
191.358	5121.63
191.433	5086.82
191.509	5118.74
191.585	5110.17
191.66	5114.39
191.736	5140.78
191.811	5125.02
191.887	5163.69
191.963	5219.98
192.038	5235.88
192.114	5231.71
192.189	5244.12
192.265	5233.83
192.34	5170.97
192.416	5171.54
192.491	5159.46
192.567	5166.56
192.642	5180.56
192.718	5185.01
192.793	5150.95
192.869	5144.63
192.944	5153.2
193.02	5171.69
193.095	5182.37
193.171	5196.6
193.246	5193.78
193.322	5177.44
193.397	5172.6
193.473	5137.67
193.548	5096.89
193.624	5109.3
193.699	5104.46
193.775	5139.93
193.85	5145.39
193.925	5171.98
194.001	5166.81
194.076	5146.5
194.152	5114.1
194.227	5092.44
194.302	5071.09
194.378	5084.83
194.453	5073.59
194.529	5100.03
194.604	5066.59
194.679	5055.43
194.755	5012.29
194.83	5046.67
194.905	5044.75
194.981	5069.33
195.056	5056.54
195.131	5067.94
195.207	5062
195.282	5037.77
195.357	4992.24
195.433	5031.33
195.508	4997.21
195.583	5019.1
195.659	5059.78
195.734	5077.03
195.809	5076.17
195.884	5096.7
195.96	5092.39
196.035	5131.19
196.11	5126.44
196.185	5152.79
196.261	5152.74
196.336	5230.93
196.411	5190.71
196.486	5201.11
196.561	5184.05
196.637	5206.41
196.712	5249.9
196.787	5253.97
196.862	5299.33
196.937	5321.46
197.013	5336.23
197.088	5362.91
197.163	5412.35
197.238	5448.19
197.313	5448.86
197.388	5483.18
197.464	5560.16
197.539	5591.88
197.614	5574.92
197.689	5602.01
197.764	5641.15
197.839	5695.79
197.914	5676.7
197.989	5733.86
198.065	5767.94
198.14	5892.88
198.215	5954.03
198.29	5978.75
198.365	6018.66
198.44	6039.14
198.515	6110.68
198.59	6145.23
198.665	6207.27
198.74	6230.65
198.815	6233.1
198.89	6288.7
198.965	6359.62
199.04	6347.28
199.115	6385.38
199.19	6490.76
199.265	6500.74
199.34	6522.25
199.415	6599.44
199.49	6650.26
199.565	6675.08
199.64	6739.09
199.715	6735.82
199.79	6751.43
199.865	6767.18
199.94	6760.94
200.015	6840.82
200.09	6847.69
200.165	6858.16
200.24	6878.48
200.315	6969.2
200.39	7007.3
200.464	7022.43
200.539	7022.24
200.614	7059.6
200.689	7109.14
200.764	7126.69
200.839	7164.13
200.914	7175.42
200.989	7152.35
201.063	7190.88
201.138	7148.93
201.213	7146.91
201.288	7095.12
201.363	7106.99
201.438	7105.4
201.512	7140.07
201.587	7098.64
201.662	7115.27
201.737	7147.08
201.812	7165.58
201.886	7085.23
201.961	7113.17
202.036	7082.43
202.111	7070.56
202.186	7000.24
202.26	6962.9
202.335	6908.12
202.41	6897.6
202.485	6858.86
202.559	6809.49
202.634	6738.84
202.709	6756.93
202.784	6708.33
202.858	6712.7
202.933	6663.92
203.008	6649.12
203.082	6604.86
203.157	6602.51
203.232	6491.22
203.306	6438.53
203.381	6357.94
203.456	6305.24
203.53	6242.71
203.605	6193.32
203.68	6141.7
203.754	6128.86
203.829	6095.16
203.904	6048.09
203.978	6014.49
204.053	6026.63
204.127	5996.99
204.202	5993.97
204.277	5952.48
204.351	5934.92
204.426	5908.28
204.5	5894.04
204.575	5809.22
204.65	5832.49
204.724	5810.46
204.799	5834.41
204.873	5827.46
204.948	5822.66
205.022	5797.4
205.097	5773.44
205.171	5810.84
205.246	5825.38
205.32	5819.97
205.395	5816.13
205.469	5794.95
205.544	5811.07
205.618	5764.98
205.693	5796.73
205.767	5770.41
205.842	5825.34
205.916	5813.97
205.991	5792.58
206.065	5804.24
206.14	5844.15
206.214	5834.4
206.289	5815.83
206.363	5844.37
206.438	5849.51
206.512	5866.82
206.586	5909.6
206.661	5935.52
206.735	5881.88
206.81	5886.2
206.884	5920.1
206.958	5887.26
207.033	5921.87
207.107	5936.61
207.181	6015.5
207.256	5997.12
207.33	6043.41
207.405	6076.61
207.479	6121.32
207.553	6144.2
207.628	6103.12
207.702	6128.78
207.776	6112.08
207.851	6120
207.925	6156.29
207.999	6143.19
208.073	6139.6
208.148	6147.61
208.222	6115.98
208.296	6188.81
208.371	6233.53
208.445	6260.55
208.519	6331.8
208.593	6362.99
208.668	6354.68
208.742	6360.31
208.816	6367.02
208.89	6399.97
208.965	6389.25
209.039	6404.91
209.113	6436.83
209.187	6491.83
209.261	6485.11
209.336	6531.39
209.41	6581.18
209.484	6584.98
209.558	6645.19
209.632	6677.5
209.707	6701.99
209.781	6757.98
209.855	6806.02
209.929	6844.39
210.003	6861.1
210.077	6858.65
210.151	6977.22
210.226	7061.43
210.3	7128.08
210.374	7185.37
210.448	7193.25
210.522	7220.55
210.596	7249.14
210.67	7276.67
210.744	7389.25
210.818	7468.79
210.892	7524.46
210.966	7508.56
211.041	7542.15
211.115	7534.85
211.189	7598.68
211.263	7641.55
211.337	7653.86
211.411	7688
211.485	7675.73
211.559	7706.44
211.633	7712.5
211.707	7632.79
211.781	7653.62
211.855	7563.86
211.929	7542.58
212.003	7492.25
212.077	7517.02
212.151	7546.64
212.225	7567.94
212.299	7541.33
212.373	7504.75
212.447	7487.34
212.52	7563.5
212.594	7568.69
212.668	7592.14
212.742	7551.23
212.816	7536.81
212.89	7522.1
212.964	7513.73
213.038	7520.56
213.112	7544.75
213.186	7580.65
213.26	7525.61
213.333	7405.3
213.407	7425.62
213.481	7439.75
213.555	7473.5
213.629	7436.91
213.703	7392.39
213.777	7382.43
213.85	7327.44
213.924	7413.08
213.998	7418.08
214.072	7394.08
214.146	7361.15
214.219	7351.82
214.293	7339.33
214.367	7342.22
214.441	7364.47
214.515	7330.62
214.588	7263.53
214.662	7178.52
214.736	7121.01
214.81	7137.33
214.883	7154.66
214.957	7108.85
215.031	7060.69
215.105	6992.84
215.178	6951.96
215.252	6919.78
215.326	6858.24
215.4	6801.79
215.473	6666.85
215.547	6597.61
215.621	6551.99
215.694	6549.74
215.768	6475.4
215.842	6432.29
215.915	6374.02
215.989	6291.42
216.063	6249
216.136	6237.05
216.21	6217.76
216.284	6229.38
216.357	6212.96
216.431	6180.14
216.504	6178.22
216.578	6223.11
216.652	6232.32
216.725	6219.5
216.799	6226.65
216.873	6208.42
216.946	6215.62
217.02	6189.77
217.093	6170.39
217.167	6099.9
217.24	6038.16
217.314	6015.39
217.387	5977.13
217.461	5951.8
217.535	5968.92
217.608	5922.35
217.682	5904.93
217.755	5914.24
217.829	5873.64
217.902	5859.34
217.976	5851.76
218.049	5822.94
218.123	5762.51
218.196	5762.65
218.27	5729.51
218.343	5683.87
218.417	5686.42
218.49	5668.38
218.563	5704.78
218.637	5712.84
218.71	5766.62
218.784	5790.94
218.857	5819.52
218.931	5838.69
219.004	5842.63
219.077	5855.97
219.151	5871.93
219.224	5863.78
219.298	5856.58
219.371	5890.41
219.444	5868.07
219.518	5876.03
219.591	5890.51
219.665	5971.17
219.738	5978.61
219.811	5969.5
219.885	6005.58
219.958	6030.44
220.031	6033.27
220.105	6043.54
220.178	6048.67
220.251	6027.41
220.325	6041.23
220.398	6046.75
220.471	6058.98
220.544	6086.09
220.618	6066.41
220.691	6090.26
220.764	6106.47
220.838	6133.54
220.911	6121.59
220.984	6177.52
221.057	6204.97
221.131	6220.41
221.204	6145.94
221.277	6204.79
221.35	6293.73
221.424	6283.74
221.497	6286.67
221.57	6306.1
221.643	6330.78
221.716	6357.47
221.79	6363.61
221.863	6371.73
221.936	6382.05
222.009	6394.81
222.082	6414.02
222.155	6423.95
222.229	6464.1
222.302	6484.07
222.375	6484.35
222.448	6514.27
222.521	6518.64
222.594	6524.54
222.667	6507.32
222.74	6548.6
222.814	6536.59
222.887	6528.27
222.96	6567.22
223.033	6598.34
223.106	6620.08
223.179	6641.85
223.252	6653.81
223.325	6668.6
223.398	6682.33
223.471	6704.37
223.544	6719.11
223.617	6730.01
223.69	6750.71
223.763	6726.88
223.837	6744.03
223.91	6769.82
223.983	6731.12
224.056	6711.06
224.129	6722.44
224.202	6759.96
224.275	6749.78
224.348	6728.85
224.42	6704.69
224.493	6667.33
224.566	6652.44
224.639	6661.22
224.712	6635.85
224.785	6624.23
224.858	6623.08
224.931	6600.69
225.004	6569.34
225.077	6569.92
225.15	6504.83
225.223	6503.1
225.296	6564.66
225.369	6521.89
225.442	6497.97
225.514	6508.96
225.587	6522.78
225.66	6527.63
225.733	6534.11
225.806	6542.52
225.879	6542.81
225.952	6517.32
226.025	6556.94
226.097	6592.21
226.17	6592.69
226.243	6550.69
226.316	6548.24
226.389	6550.88
226.461	6572.88
226.534	6585.36
226.607	6578.35
226.68	6636.48
226.753	6628.6
226.825	6569.49
226.898	6605.59
226.971	6608.13
227.044	6625.32
227.117	6632.19
227.189	6645.69
227.262	6669.71
227.335	6686.9
227.407	6681.48
227.48	6706.63
227.553	6707.4
227.626	6692.06
227.698	6696.48
227.771	6726.04
227.844	6715.77
227.916	6731.18
227.989	6703.86
228.062	6706.69
228.134	6774.43
228.207	6775.25
228.28	6770.93
228.352	6779.33
228.425	6792.69
228.498	6821.46
228.57	6809.31
228.643	6852.13
228.716	6855.59
228.788	6847.8
228.861	6842.47
228.934	6893.91
229.006	6897.51
229.079	6905.87
229.151	6897.32
229.224	6872.07
229.296	6891.47
229.369	6964.14
229.442	7005.09
229.514	6993.52
229.587	7029.3
229.659	6969.48
229.732	6983.99
229.804	7011.03
229.877	7067.27
229.949	7091.4
230.022	7135.44
230.094	7133.23
230.167	7124.96
230.239	7090.62
230.312	7083.89
230.384	7136.82
230.457	7129.27
230.529	7142.1
230.602	7133.11
230.674	7141.91
230.747	7168.89
230.819	7189.02
230.892	7102.67
230.964	7099.31
231.037	7115.2
231.109	7109
231.181	7141.61
231.254	7114.85
231.326	7109.71
231.399	7093.55
231.471	7066.78
231.544	7005.4
231.616	7048.53
231.688	7052.42
231.761	7043.2
231.833	7035.18
231.905	6969.72
231.978	6966.21
232.05	6950.7
232.122	6961.61
232.195	6945.13
232.267	6972.23
232.339	6955.31
232.412	7005.79
232.484	6982
232.556	6963.76
232.629	7015.68
232.701	7027.94
232.773	7035
232.846	7021.21
232.918	7026.6
232.99	7045.96
233.062	7079.89
233.135	7076.43
233.207	7050.67
233.279	7085.25
233.351	7104.18
233.424	7111.53
233.496	7096.58
233.568	7162.57
233.64	7131.1
233.713	7139.03
233.785	7141.53
233.857	7154.21
233.929	7116.02
234.001	7162.66
234.074	7218.09
234.146	7164.34
234.218	7163.28
234.29	7160.88
234.362	7160.3
234.434	7119.83
234.507	7091.29
234.579	7044.11
234.651	7037.09
234.723	7057.75
234.795	7065.34
234.867	7066.45
234.939	7111.58
235.012	7125.85
235.084	7124.98
235.156	7151.88
235.228	7133.77
235.3	7118.06
235.372	7129.35
235.444	7174.61
235.516	7123.88
235.588	7121.87
235.66	7128.55
235.732	7107.4
235.804	7251.39
235.876	7282.32
235.948	7330.97
236.02	7340.96
236.092	7358.97
236.164	7364.54
236.236	7368.39
236.308	7374.06
236.38	7394.01
236.452	7375.98
236.524	7393.33
236.596	7445.88
236.668	7472.17
236.74	7497.54
236.812	7513.78
236.884	7534.94
236.956	7543.16
237.028	7532.49
237.1	7518.94
237.172	7572.17
237.244	7626.35
237.316	7540.67
237.388	7529.28
237.46	7514.71
237.532	7562.45
237.604	7552.51
237.675	7607.52
237.747	7635.26
237.819	7622.62
237.891	7624.07
237.963	7614.41
238.035	7607.15
238.107	7515.28
238.178	7558.04
238.25	7556.99
238.322	7625.05
238.394	7595.58
238.466	7590.82
238.538	7626.48
238.609	7657.96
238.681	7622.09
238.753	7604.53
238.825	7613.09
238.897	7635.01
238.968	7695.34
239.04	7680.43
239.112	7768.56
239.184	7742.1
239.255	7739.89
239.327	7765.22
239.399	7780.75
239.471	7816.38
239.542	7846.52
239.614	7905.76
239.686	7841.22
239.758	7887.62
239.829	7863.94
239.901	7907.75
239.973	7920.54
240.044	7945.02
240.116	7952.28
240.188	7965.74
240.259	7979.59
240.331	7976.51
240.403	8003.49
240.474	7970.04
240.546	7961.34
240.618	7919.73
240.689	7919.34
240.761	7937.53
240.833	7987.41
240.904	7987.41
240.976	7987.36
241.048	7994.82
241.119	8017.1
241.191	8058.02
241.262	8105.04
241.334	8108.07
241.405	8108.7
241.477	8110.72
241.549	8118.42
241.62	8139.39
241.692	8168.3
241.763	8206.12
241.835	8224.83
241.906	8237.49
241.978	8212.43
242.049	8261.73
242.121	8296.37
242.192	8342.26
242.264	8313.3
242.335	8278.95
242.407	8307.82
242.478	8311.52
242.55	8327.3
242.621	8320.76
242.693	8316.72
242.764	8308.77
242.836	8310.26
242.907	8336.15
242.979	8361.22
243.05	8375.75
243.122	8395.72
243.193	8395.72
243.264	8348.47
243.336	8349
243.407	8372.87
243.479	8433.06
243.55	8442.35
243.622	8457.79
243.693	8456.4
243.764	8510.19
243.836	8498.17
243.907	8490.76
243.978	8493.59
244.05	8513.9
244.121	8475.13
244.192	8509
244.264	8474.21
244.335	8479.69
244.407	8444.18
244.478	8450.53
244.549	8438.94
244.62	8409.01
244.692	8408.09
244.763	8442.06
244.834	8433.4
244.906	8418.19
244.977	8434.94
245.048	8479.62
245.119	8466.53
245.191	8449.5
245.262	8398.69
245.333	8449.59
245.405	8460.41
245.476	8485.67
245.547	8497.08
245.618	8532.97
245.689	8536.2
245.761	8556.55
245.832	8564.59
245.903	8597.21
245.974	8625.9
246.045	8635.48
246.117	8699.2
246.188	8680.44
246.259	8669.61
246.33	8685.78
246.401	8690.16
246.473	8659.64
246.544	8649.67
246.615	8685.53
246.686	8692.75
246.757	8749.24
246.828	8730.56
246.899	8786.41
246.97	8762.5
247.042	8755.47
247.113	8786.42
247.184	8852.93
247.255	8855.67
247.326	8874.83
247.397	8883.02
247.468	8889.18
247.539	8904.24
247.61	8867.75
247.681	8911.44
247.752	8950.96
247.823	8931.95
247.894	8948.41
247.965	8934.12
248.037	8913.85
248.108	8882.56
248.179	8890.79
248.25	8886.36
248.321	8908.88
248.392	8876.76
248.463	8931.63
248.534	8927.68
248.605	8941.98
248.675	8923.2
248.746	8935.66
248.817	8946.26
248.888	8959.25
248.959	8918
249.03	8933.84
249.101	8937.89
249.172	8922.29
249.243	8868.39
249.314	8912.48
249.385	8920.71
249.456	8942.75
249.527	8944.29
249.598	8952.86
249.669	8946.36
249.739	8956.04
249.81	8962.15
249.881	8935.54
249.952	8930.96
250.023	8928.03
250.094	8893.02
250.165	8870.2
250.235	8867.93
250.306	8875.83
250.377	8851.66
250.448	8872.98
250.519	8826.49
250.59	8869.73
250.66	8866.93
250.731	8914.77
250.802	8916.98
250.873	8931.96
250.944	8942.83
251.014	8934.17
251.085	9006.84
251.156	9026.91
251.227	9064.47
251.297	9113.39
251.368	9140.98
251.439	9174.78
251.51	9214.6
251.58	9200.02
251.651	9195.78
251.722	9235.94
251.792	9197.18
251.863	9199.83
251.934	9243.26
252.005	9332.81
252.075	9334.45
252.146	9372.43
252.217	9408.78
252.287	9443.17
252.358	9440.91
252.429	9497.54
252.499	9490.23
252.57	9496.73
252.641	9531.45
252.711	9537.81
252.782	9496.87
252.852	9561.65
252.923	9555.78
252.994	9572.44
253.064	9617.98
253.135	9607
253.205	9584.9
253.276	9635.89
253.347	9680.52
253.417	9666.46
253.488	9644.78
253.558	9642.09
253.629	9641.31
253.699	9655.67
253.77	9671.61
253.841	9663.38
253.911	9663.53
253.982	9682.59
254.052	9702.87
254.123	9711.69
254.193	9713.61
254.264	9819.16
254.334	9793.34
254.405	9773.35
254.475	9743.78
254.546	9742
254.616	9783.37
254.687	9810
254.757	9826.81
254.827	9827.58
254.898	9842.17
254.968	9844.44
255.039	9831.05
255.109	9855.32
255.18	9832.16
255.25	9779.42
255.321	9809.61
255.391	9784.27
255.461	9853.54
255.532	9793.46
255.602	9792.07
255.673	9752.29
255.743	9720.29
255.813	9661.4
255.884	9704.22
255.954	9732.3
256.024	9784.03
256.095	9789.33
256.165	9767.03
256.235	9788.04
256.306	9780.04
256.376	9817.76
256.446	9850.57
256.517	9876.33
256.587	9911.21
256.657	9928.36
256.728	9945.74
256.798	9948.2
256.868	9941.21
256.938	9911.63
257.009	9946.51
257.079	9966.69
257.149	10038.27
257.219	10000.26
257.29	10028.85
257.36	9983.19
257.43	10009.5
257.5	9959.79
257.571	9959.35
257.641	9986.42
257.711	9956.12
257.781	9978.9
257.852	9988.2
257.922	9946.82
257.992	9947.5
258.062	9942.34
258.132	9973.03
258.202	9977.17
258.273	9991.91
258.343	10058.15
258.413	10046.93
258.483	10051.7
258.553	10026.02
258.623	10009.21
258.693	10029.49
258.764	10088.64
258.834	10140.13
258.904	10149.71
258.974	10136.38
259.044	10135.94
259.114	10158.87
259.184	10183.4
259.254	10186.91
259.324	10145.58
259.394	10182.57
259.464	10243.04
259.535	10251.03
259.605	10246.94
259.675	10237.5
259.745	10267.42
259.815	10248.58
259.885	10255.03
259.955	10340.14
260.025	10345.1
260.095	10350.02
260.165	10377.43
260.235	10421.19
260.305	10410.83
260.375	10397.58
260.445	10469.21
260.515	10519.22
260.585	10549.15
260.655	10562.3
260.725	10596.84
260.795	10628.06
260.865	10678.71
260.934	10658.47
261.004	10677.64
261.074	10681.64
261.144	10727.74
261.214	10746.25
261.284	10745.91
261.354	10772.89
261.424	10739.53
261.494	10786.22
261.564	10793.39
261.634	10810.89
261.703	10760.39
261.773	10780.43
261.843	10801.1
261.913	10798.59
261.983	10766.98
262.053	10779.9
262.123	10768.14
262.192	10737.26
262.262	10766.12
262.332	10727.86
262.402	10749.26
262.472	10756.1
262.541	10712.74
262.611	10749.22
262.681	10737.41
262.751	10768.64
262.821	10775.29
262.89	10748.06
262.96	10769.26
263.03	10832.25
263.1	10850.62
263.169	10869.07
263.239	10896.87
263.309	10945.65
263.379	10972.44
263.448	10985.5
263.518	11012.58
263.588	11030.36
263.657	11093.83
263.727	11122.5
263.797	11137.68
263.867	11136.43
263.936	11112.33
264.006	11160.56
264.076	11165.09
264.145	11166.63
264.215	11147.64
264.285	11176.6
264.354	11143.4
264.424	11130.39
264.494	11088.94
264.563	11085.62
