Data from 20250626_urea_1M_exp2_MAYP1162681_16-34-00-806.txt Node
Date: Thu Jun 26 16:34:00 BST 2025
User: adleo
Spectrometer: MAYP116268
Trigger mode: 0
Integration Time (sec): 3.000000E0
Scans to average: 1
Electric dark correction enabled: true
Nonlinearity correction enabled: true
Boxcar width: 10
XAxis mode: Wavelengths
Number of Pixels in Spectrum: 2068
>>>>>Begin Spectral Data<<<<<
179.565	3357.46
179.642	3530.92
179.718	3663.99
179.795	3791.64
179.871	3891.33
179.948	3952.41
180.024	4016.77
180.101	4087.56
180.177	4135.55
180.254	4203.94
180.33	4272.1
180.407	4505.8
180.483	4766.34
180.56	5029.3
180.636	5272.82
180.712	5235.14
180.789	5261.36
180.865	5297.27
180.942	5324.63
181.018	5351.94
181.095	5395.01
181.171	5406.89
181.248	5415.14
181.324	5458.35
181.4	5472.54
181.477	5502.45
181.553	5534.6
181.63	5600.01
181.706	5643.41
181.782	5668.14
181.859	5673.31
181.935	5686.45
182.011	5683.43
182.088	5726.55
182.164	5781.39
182.24	5819.98
182.317	5854.4
182.393	5846.64
182.469	5882.13
182.546	5919.59
182.622	5933.64
182.698	5918.91
182.775	5956.47
182.851	5989.14
182.927	5971.39
183.003	5961.99
183.08	5950.67
183.156	5982.52
183.232	5971.48
183.308	5940.68
183.385	5962.84
183.461	6004.44
183.537	6010.29
183.613	6052.86
183.69	6030.79
183.766	6001.27
183.842	6021.9
183.918	6029.91
183.995	6070.11
184.071	6086.04
184.147	6071.46
184.223	6039.62
184.299	6073.94
184.375	6039.59
184.452	6062.98
184.528	6174.67
184.604	6203.3
184.68	6238.62
184.756	6257.19
184.832	6267.27
184.908	6280.99
184.985	6274.94
185.061	6230.95
185.137	6252.26
185.213	6210.08
185.289	6218.09
185.365	6198.28
185.441	6195.4
185.517	6242.98
185.593	6234.01
185.669	6224.65
185.745	6250.23
185.822	6299.19
185.898	6276.87
185.974	6308.72
186.05	6279.72
186.126	6208.92
186.202	6192.94
186.278	6171.73
186.354	6143.27
186.43	6165.07
186.506	6159.7
186.582	6158.31
186.658	6179.94
186.734	6118.83
186.81	6123.2
186.886	6129.91
186.962	6166.67
187.038	6151.21
187.114	6123.55
187.19	6142.99
187.266	6115.74
187.341	6121.79
187.417	6099.72
187.493	6098.71
187.569	6105.72
187.645	6091.13
187.721	6060.27
187.797	6084.64
187.873	6103.36
187.949	6086.33
188.025	6062.37
188.101	6073.93
188.176	6090.34
188.252	6079.07
188.328	6109.41
188.404	6109.65
188.48	6095.07
188.556	6070.4
188.632	6070.21
188.707	6069.2
188.783	6064.59
188.859	6052.89
188.935	6019.87
189.011	6042.28
189.086	6027.12
189.162	6004.37
189.238	6002.46
189.314	5999.29
189.39	5982.54
189.465	5963.06
189.541	6013.49
189.617	5975.07
189.693	5959.67
189.768	5975.75
189.844	6041
189.92	6013.67
189.996	6039.97
190.071	6070.48
190.147	6070.29
190.223	6095.73
190.298	6081.23
190.374	6046.35
190.45	6078.63
190.526	6104.35
190.601	6094.27
190.677	6097.24
190.753	6183.32
190.828	6188.93
190.904	6227.62
190.98	6270.68
191.055	6298.33
191.131	6268.51
191.207	6322.21
191.282	6347.1
191.358	6314.14
191.433	6277.49
191.509	6317.14
191.585	6304.09
191.66	6310
191.736	6335.29
191.811	6311.43
191.887	6354.17
191.963	6417.97
192.038	6433.28
192.114	6435.34
192.189	6442.59
192.265	6433.96
192.34	6366.41
192.416	6362.28
192.491	6347.68
192.567	6352.54
192.642	6361.28
192.718	6366.89
192.793	6336.17
192.869	6320.62
192.944	6325.85
193.02	6345.92
193.095	6361.14
193.171	6382.69
193.246	6378.56
193.322	6370.16
193.397	6373.95
193.473	6335.92
193.548	6284.16
193.624	6303.7
193.699	6300.05
193.775	6344.33
193.85	6347.69
193.925	6367.71
194.001	6367.9
194.076	6346.69
194.152	6311.11
194.227	6286.05
194.302	6262.44
194.378	6275.26
194.453	6269.55
194.529	6311.12
194.604	6266.96
194.679	6246.71
194.755	6190.72
194.83	6228.62
194.905	6220.75
194.981	6241.68
195.056	6215.58
195.131	6237.18
195.207	6230.26
195.282	6199.93
195.357	6148.6
195.433	6193.28
195.508	6160.69
195.583	6183.53
195.659	6227.55
195.734	6250.84
195.809	6257.17
195.884	6274.1
195.96	6270.36
196.035	6319.17
196.11	6304.04
196.185	6336.77
196.261	6348
196.336	6439.3
196.411	6390.45
196.486	6405.19
196.561	6390.84
196.637	6423.03
196.712	6465.06
196.787	6471.07
196.862	6517.62
196.937	6539.8
197.013	6559.64
197.088	6586.52
197.163	6648.35
197.238	6696.9
197.313	6695.27
197.388	6728.41
197.464	6820.6
197.539	6858.92
197.614	6838.9
197.689	6872.91
197.764	6919.42
197.839	6973.94
197.914	6964.28
197.989	7036.19
198.065	7078.03
198.14	7224.2
198.215	7298.98
198.29	7334.46
198.365	7377.48
198.44	7399.96
198.515	7483.6
198.59	7522.78
198.665	7600.17
198.74	7622.39
198.815	7621.19
198.89	7686.89
198.965	7773.8
199.04	7761.83
199.115	7802.45
199.19	7924.75
199.265	7940.09
199.34	7969.57
199.415	8066.37
199.49	8121.72
199.565	8145.24
199.64	8215.42
199.715	8205.79
199.79	8214.54
199.865	8230.66
199.94	8217.87
200.015	8314.57
200.09	8331.17
200.165	8349.74
200.24	8369.08
200.315	8481.27
200.39	8534.68
200.464	8548.1
200.539	8551.52
200.614	8599.54
200.689	8668.5
200.764	8684.34
200.839	8726.9
200.914	8744.56
200.989	8716.01
201.063	8754.32
201.138	8704.56
201.213	8703.16
201.288	8647.48
201.363	8668.9
201.438	8671.59
201.512	8722.58
201.587	8671.56
201.662	8688.84
201.737	8725.71
201.812	8745.63
201.886	8652.84
201.961	8671.71
202.036	8644.01
202.111	8634.09
202.186	8547.14
202.26	8493.43
202.335	8434.19
202.41	8418.36
202.485	8364.1
202.559	8306.28
202.634	8226.03
202.709	8251.41
202.784	8189.6
202.858	8185.56
202.933	8134.38
203.008	8113.12
203.082	8053.33
203.157	8050.74
203.232	7918.09
203.306	7849.82
203.381	7759
203.456	7689.13
203.53	7621.03
203.605	7561.58
203.68	7494.49
203.754	7479.79
203.829	7438.77
203.904	7380.56
203.978	7346.66
204.053	7364.79
204.127	7329.7
204.202	7329.22
204.277	7283.47
204.351	7264.25
204.426	7245.02
204.5	7216.81
204.575	7115.06
204.65	7141.69
204.724	7121.59
204.799	7155.64
204.873	7144.19
204.948	7137.13
205.022	7109.75
205.097	7088.59
205.171	7128.23
205.246	7148.18
205.32	7141.36
205.395	7139.39
205.469	7110.1
205.544	7131.21
205.618	7074.55
205.693	7109.88
205.767	7075.04
205.842	7131.13
205.916	7118.02
205.991	7086.5
206.065	7105.1
206.14	7149.5
206.214	7137.28
206.289	7114.88
206.363	7138.72
206.438	7145.45
206.512	7170.39
206.586	7221.13
206.661	7242.62
206.735	7177.26
206.81	7186.01
206.884	7230.55
206.958	7189.43
207.033	7235.58
207.107	7248.32
207.181	7343.61
207.256	7326.98
207.33	7377.48
207.405	7411.98
207.479	7468.12
207.553	7495.36
207.628	7445.6
207.702	7479.77
207.776	7459.63
207.851	7467.08
207.925	7513.88
207.999	7505.99
208.073	7502.24
208.148	7509.41
208.222	7476.42
208.296	7570.73
208.371	7619.76
208.445	7655.59
208.519	7739.93
208.593	7783.2
208.668	7771.8
208.742	7777.63
208.816	7780.66
208.89	7819.57
208.965	7819.52
209.039	7844.73
209.113	7892.15
209.187	7958.79
209.261	7949.61
209.336	8011.55
209.41	8070.32
209.484	8074.41
209.558	8142.96
209.632	8177.87
209.707	8208.08
209.781	8272.1
209.855	8320.08
209.929	8364.23
210.003	8376.6
210.077	8373.9
210.151	8513.79
210.226	8616.46
210.3	8690.91
210.374	8760.32
210.448	8775.38
210.522	8801.09
210.596	8826.26
210.67	8853.79
210.744	8992.39
210.818	9082.45
210.892	9141.33
210.966	9130.26
211.041	9172.96
211.115	9160.55
211.189	9230.63
211.263	9283.01
211.337	9300.43
211.411	9338.91
211.485	9319.98
211.559	9357.81
211.633	9370.46
211.707	9272.59
211.781	9289.55
211.855	9190.46
211.929	9165
212.003	9114.39
212.077	9146.08
212.151	9180.8
212.225	9208.24
212.299	9173.65
212.373	9141.3
212.447	9127.87
212.52	9205.91
212.594	9212.27
212.668	9244.38
212.742	9202.39
212.816	9185.01
212.89	9172.59
212.964	9168.93
213.038	9179.43
213.112	9205.38
213.186	9242.01
213.26	9181.59
213.333	9047.29
213.407	9058.26
213.481	9064.99
213.555	9095.49
213.629	9058.03
213.703	9009.98
213.777	8996.2
213.85	8934.82
213.924	9030.17
213.998	9024
214.072	8997.85
214.146	8950.91
214.219	8936.71
214.293	8917.6
214.367	8919.53
214.441	8935.08
214.515	8890.88
214.588	8809.96
214.662	8707.31
214.736	8644.8
214.81	8650.57
214.883	8668.98
214.957	8630.36
215.031	8587.51
215.105	8504.48
215.178	8448.81
215.252	8413.97
215.326	8336.17
215.4	8265.57
215.473	8106.16
215.547	8031.77
215.621	7981.7
215.694	7986.23
215.768	7905.03
215.842	7852.71
215.915	7786.55
215.989	7691.07
216.063	7642.47
216.136	7629.54
216.21	7612.71
216.284	7618.1
216.357	7608.77
216.431	7573.29
216.504	7570.02
216.578	7619.56
216.652	7632.48
216.725	7615.41
216.799	7624.79
216.873	7603.02
216.946	7610.23
217.02	7580.64
217.093	7560.73
217.167	7474.39
217.24	7394.85
217.314	7364.4
217.387	7321.89
217.461	7286.08
217.535	7306.94
217.608	7258.3
217.682	7237.53
217.755	7242.15
217.829	7197.34
217.902	7177.49
217.976	7164.95
218.049	7131.17
218.123	7059.23
218.196	7055.05
218.27	7023.05
218.343	6961.08
218.417	6962.81
218.49	6939.55
218.563	6975.97
218.637	6980.58
218.71	7044.26
218.784	7075.6
218.857	7102.94
218.931	7129.83
219.004	7136.46
219.077	7152.13
219.151	7167.31
219.224	7160.44
219.298	7160.11
219.371	7199.57
219.444	7167.1
219.518	7175.17
219.591	7185.17
219.665	7280.06
219.738	7297.84
219.811	7281.56
219.885	7320.63
219.958	7347.75
220.031	7355.09
220.105	7373.56
220.178	7378.41
220.251	7354.37
220.325	7373.61
220.398	7392.5
220.471	7404.03
220.544	7438.45
220.618	7419.41
220.691	7443.15
220.764	7459.92
220.838	7478.58
220.911	7465.02
220.984	7541.58
221.057	7573.88
221.131	7596.18
221.204	7511.13
221.277	7574.09
221.35	7688.23
221.424	7681.98
221.497	7690.3
221.57	7709.62
221.643	7746.13
221.716	7790.09
221.79	7798.41
221.863	7808.9
221.936	7818.23
222.009	7829.38
222.082	7850.54
222.155	7864.39
222.229	7922.21
222.302	7949.81
222.375	7961.02
222.448	7995.99
222.521	8003.92
222.594	8006.09
222.667	7983.45
222.74	8029.8
222.814	8016.28
222.887	7994.63
222.96	8038.45
223.033	8080.74
223.106	8099.39
223.179	8116.19
223.252	8116.24
223.325	8138.17
223.398	8151.54
223.471	8176.41
223.544	8195.69
223.617	8214.22
223.69	8229.66
223.763	8195.83
223.837	8213.34
223.91	8238.89
223.983	8199.26
224.056	8171.89
224.129	8191.18
224.202	8244.88
224.275	8242.29
224.348	8222.23
224.42	8200.43
224.493	8159.69
224.566	8135.48
224.639	8159.53
224.712	8136.48
224.785	8133.69
224.858	8135.42
224.931	8115.21
225.004	8078.52
225.077	8083.18
225.15	8002.35
225.223	8003.74
225.296	8075.65
225.369	8025.2
225.442	7998.4
225.514	8019.46
225.587	8035.19
225.66	8051.55
225.733	8050.2
225.806	8056.46
225.879	8049.72
225.952	8022.12
226.025	8060.03
226.097	8107.49
226.17	8102.48
226.243	8054.49
226.316	8048.66
226.389	8052.13
226.461	8069.11
226.534	8088.83
226.607	8079.5
226.68	8153.45
226.753	8151.1
226.825	8077.65
226.898	8126.85
226.971	8131.66
227.044	8147.1
227.117	8155.76
227.189	8163.65
227.262	8190.5
227.335	8207.92
227.407	8210.76
227.48	8238.6
227.553	8251.54
227.626	8241.53
227.698	8245.47
227.771	8279.9
227.844	8265.76
227.916	8280.58
227.989	8252.1
228.062	8252.39
228.134	8333.91
228.207	8340.45
228.28	8334.73
228.352	8353.73
228.425	8366.87
228.498	8407.87
228.57	8395.31
228.643	8444.55
228.716	8451.43
228.788	8451.05
228.861	8445.23
228.934	8507.2
229.006	8522.11
229.079	8525.96
229.151	8513.69
229.224	8488.63
229.296	8508.07
229.369	8601.98
229.442	8647.28
229.514	8645.26
229.587	8684.86
229.659	8621.91
229.732	8629.61
229.804	8668
229.877	8739.4
229.949	8766.36
230.022	8811
230.094	8810.71
230.167	8803.92
230.239	8763.84
230.312	8748.87
230.384	8821.14
230.457	8807.57
230.529	8818.25
230.602	8815.84
230.674	8825.91
230.747	8868.04
230.819	8898.32
230.892	8796.9
230.964	8794.35
231.037	8813.16
231.109	8809.98
231.181	8846.17
231.254	8817.58
231.326	8808.63
231.399	8784.26
231.471	8754.42
231.544	8688.36
231.616	8729.89
231.688	8729.17
231.761	8723.92
231.833	8718.97
231.905	8640.2
231.978	8653.29
232.05	8633.08
232.122	8643.19
232.195	8618.45
232.267	8650.75
232.339	8630.05
232.412	8690.54
232.484	8667.43
232.556	8645.64
232.629	8707.71
232.701	8717.09
232.773	8725.66
232.846	8718.15
232.918	8724.99
232.99	8752.14
233.062	8786.03
233.135	8793.68
233.207	8780.01
233.279	8818.26
233.351	8850.26
233.424	8854.83
233.496	8824.94
233.568	8905
233.64	8873.43
233.713	8896.53
233.785	8892.44
233.857	8910.25
233.929	8871.79
234.001	8937.68
234.074	8998.59
234.146	8937.49
234.218	8941.48
234.29	8944.08
234.362	8936.34
234.434	8898.69
234.507	8871.54
234.579	8828.89
234.651	8816.28
234.723	8841.89
234.795	8864.86
234.867	8862.45
234.939	8916.7
235.012	8938.17
235.084	8942.41
235.156	8977.4
235.228	8961.85
235.3	8950.2
235.372	8963.39
235.444	9016.53
235.516	8952.67
235.588	8957.48
235.66	8969.95
235.732	8946.22
235.804	9121.13
235.876	9163.48
235.948	9226.09
236.02	9239.18
236.092	9264.39
236.164	9276.09
236.236	9276.04
236.308	9272.72
236.38	9300.93
236.452	9287.21
236.524	9306.56
236.596	9357.97
236.668	9390.72
236.74	9417.96
236.812	9446.32
236.884	9474.5
236.956	9482.15
237.028	9472.57
237.1	9466.36
237.172	9532.3
237.244	9604.48
237.316	9511.42
237.388	9499
237.46	9479.44
237.532	9531.5
237.604	9525.82
237.675	9592.48
237.747	9631.68
237.819	9620.42
237.891	9622.87
237.963	9616.47
238.035	9612.33
238.107	9522.3
238.178	9577.22
238.25	9583.29
238.322	9658.83
238.394	9625.12
238.466	9627.09
238.538	9674.9
238.609	9713.81
238.681	9674.84
238.753	9657.65
238.825	9677.93
238.897	9704.94
238.968	9776.53
239.04	9760.98
239.112	9853.73
239.184	9834.7
239.255	9830.03
239.327	9868.5
239.399	9891.28
239.471	9931.98
239.542	9974.26
239.614	10036.01
239.686	9965.1
239.758	10018.47
239.829	9985.51
239.901	10044.9
239.973	10059.93
240.044	10079.92
240.116	10089.84
240.188	10100.19
240.259	10118.55
240.331	10106.45
240.403	10142.77
240.474	10102.01
240.546	10096.23
240.618	10048.15
240.689	10039.38
240.761	10067.47
240.833	10127.98
240.904	10128.99
240.976	10129.86
241.048	10142.58
241.119	10177.95
241.191	10229.05
241.262	10286.21
241.334	10303.07
241.405	10305.24
241.477	10311.36
241.549	10336.03
241.62	10364.45
241.692	10415.13
241.763	10474.31
241.835	10492.04
241.906	10510.2
241.978	10493.53
242.049	10562.38
242.121	10624.28
242.192	10691.78
242.264	10660.28
242.335	10617.73
242.407	10662.73
242.478	10679.35
242.55	10704.36
242.621	10694.82
242.693	10699.06
242.764	10690.63
242.836	10689.71
242.907	10723.92
242.979	10764.06
243.05	10780.97
243.122	10799.33
243.193	10799.28
243.264	10739.53
243.336	10751.29
243.407	10785.07
243.479	10854.31
243.55	10871.52
243.622	10889.2
243.693	10887.51
243.764	10953.86
243.836	10941.1
243.907	10936.14
243.978	10943.8
244.05	10964.13
244.121	10936.91
244.192	10972.62
244.264	10932.52
244.335	10954.16
244.407	10914.5
244.478	10927.75
244.549	10923.37
244.62	10895.57
244.692	10897.4
244.763	10938.64
244.834	10931.41
244.906	10918.59
244.977	10940.04
245.048	10992.29
245.119	10978.36
245.191	10965.64
245.262	10914.51
245.333	10979.13
245.405	10992.86
245.476	11024.66
245.547	11053.92
245.618	11095.55
245.689	11106.11
245.761	11141.72
245.832	11151.17
245.903	11199.93
245.974	11233.82
246.045	11248.56
246.117	11331.07
246.188	11317.14
246.259	11307.79
246.33	11328.23
246.401	11339.75
246.473	11317.72
246.544	11313.81
246.615	11368.13
246.686	11377.19
246.757	11450.83
246.828	11438.01
246.899	11510.26
246.97	11481.78
247.042	11471.37
247.113	11514.94
247.184	11592.74
247.255	11598.76
247.326	11624.26
247.397	11627.78
247.468	11633.42
247.539	11649.76
247.61	11605.95
247.681	11652.64
247.752	11704.89
247.823	11686.96
247.894	11711.11
247.965	11686.05
248.037	11668.07
248.108	11622.23
248.179	11628.35
248.25	11625.36
248.321	11663.1
248.392	11622.7
248.463	11700.2
248.534	11697.94
248.605	11717.94
248.675	11702.03
248.746	11716.25
248.817	11731.1
248.888	11750.67
248.959	11706.23
249.03	11726.47
249.101	11732.64
249.172	11722.67
249.243	11663.92
249.314	11726.43
249.385	11733.61
249.456	11762.09
249.527	11757.7
249.598	11780.16
249.669	11784.74
249.739	11787.3
249.81	11795.83
249.881	11767.44
249.952	11761.51
250.023	11761.56
250.094	11708.88
250.165	11683.71
250.235	11682.99
250.306	11690.99
250.377	11670.07
250.448	11698.22
250.519	11643.66
250.59	11700.44
250.66	11698.61
250.731	11763.1
250.802	11762.47
250.873	11776.11
250.944	11800.55
251.014	11799.15
251.085	11879.22
251.156	11901.19
251.227	11949.3
251.297	11998.66
251.368	12044.21
251.439	12079.59
251.51	12135.99
251.58	12139.8
251.651	12141.96
251.722	12191.23
251.792	12158.31
251.863	12164.91
251.934	12215.52
252.005	12324.02
252.075	12331.88
252.146	12379.69
252.217	12415.99
252.287	12452.38
252.358	12465.16
252.429	12527.68
252.499	12527.63
252.57	12537.03
252.641	12585.38
252.711	12596.37
252.782	12554.87
252.852	12626.84
252.923	12633.92
252.994	12641.49
253.064	12684.54
253.135	12667.04
253.205	12650.31
253.276	12710.86
253.347	12766.58
253.417	12749.75
253.488	12729.22
253.558	12727.1
253.629	12732.93
253.699	12744.31
253.77	12773.62
253.841	12768.12
253.911	12777.67
253.982	12794.05
254.052	12826.79
254.123	12838.16
254.193	12844.38
254.264	12969.57
254.334	12939.92
254.405	12911.15
254.475	12880.87
254.546	12890.61
254.616	12946
254.687	12975.98
254.757	12997.87
254.827	13005.58
254.898	13041.25
254.968	13049.54
255.039	13034.65
255.109	13063.14
255.18	13045.01
255.25	12981.14
255.321	13009.53
255.391	12977.91
255.461	13054.17
255.532	12980.22
255.602	12967.88
255.673	12921.94
255.743	12891.09
255.813	12822.98
255.884	12868.34
255.954	12912.98
256.024	12972.18
256.095	12975.79
256.165	12944.22
256.235	12960.22
256.306	12952.56
256.376	12988.13
256.446	13027.32
256.517	13061.74
256.587	13106.86
256.657	13126.2
256.728	13154.49
256.798	13164.52
256.868	13164.33
256.938	13136.37
257.009	13176.91
257.079	13208.96
257.149	13302.29
257.219	13257.94
257.29	13300.36
257.36	13254.03
257.43	13290.43
257.5	13238.27
257.571	13245.31
257.641	13281.85
257.711	13264.83
257.781	13287.05
257.852	13308.51
257.922	13258.18
257.992	13262.23
258.062	13255.38
258.132	13295.25
258.202	13303.44
258.273	13318.58
258.343	13382.84
258.413	13382.21
258.483	13395.18
258.553	13381.15
258.623	13356.23
258.693	13379.61
258.764	13445.22
258.834	13509.43
258.904	13514.49
258.974	13506.97
259.044	13506.97
259.114	13539.32
259.184	13558.65
259.254	13577.06
259.324	13529.39
259.394	13570.6
259.464	13641.85
259.535	13655.25
259.605	13654.43
259.675	13651.35
259.745	13685.86
259.815	13677.14
259.885	13677.81
259.955	13776.63
260.025	13779.91
260.095	13795.72
260.165	13828.41
260.235	13876.95
260.305	13869.19
260.375	13854.53
260.445	13930.89
260.515	13991.53
260.585	14032.65
260.655	14046.39
260.725	14082.21
260.795	14122.17
260.865	14185.76
260.934	14157.41
261.004	14181.32
261.074	14188.26
261.144	14239.79
261.214	14271.71
261.284	14267.56
261.354	14299.52
261.424	14261.2
261.494	14313.51
261.564	14321.94
261.634	14351.97
261.703	14296.59
261.773	14315.14
261.843	14342.28
261.913	14334.72
261.983	14291.09
262.053	14312.88
262.123	14311.14
262.192	14270.94
262.262	14297.84
262.332	14258.6
262.402	14289.06
262.472	14294.51
262.541	14241.97
262.611	14282.8
262.681	14263.37
262.751	14304.15
262.821	14315.43
262.89	14288.15
262.96	14308.06
263.03	14371.69
263.1	14381.86
263.169	14398.73
263.239	14427.22
263.309	14485.45
263.379	14514.52
263.448	14534.52
263.518	14550.43
