Data from 20250626_urea_1M_exp2_MAYP1162681_03-34-00-609.txt Node
Date: Fri Jun 27 03:34:00 BST 2025
User: adleo
Spectrometer: MAYP116268
Trigger mode: 0
Integration Time (sec): 3.000000E0
Scans to average: 1
Electric dark correction enabled: true
Nonlinearity correction enabled: true
Boxcar width: 10
XAxis mode: Wavelengths
Number of Pixels in Spectrum: 2068
>>>>>Begin Spectral Data<<<<<
179.565	2725.07
179.642	2866.37
179.718	2970.17
179.795	3071.26
179.871	3156.27
179.948	3208.56
180.024	3263.43
180.101	3323.26
180.177	3354.12
180.254	3410.66
180.33	3469.57
180.407	3656.97
180.483	3873.5
180.56	4086.12
180.636	4285.95
180.712	4259.25
180.789	4283.5
180.865	4308.83
180.942	4331.02
181.018	4358.95
181.095	4398.53
181.171	4409.53
181.248	4412.59
181.324	4451.5
181.4	4468.77
181.477	4493.56
181.553	4519.39
181.63	4566.14
181.706	4602.95
181.782	4628.96
181.859	4630.59
181.935	4647.58
182.011	4639.69
182.088	4677.46
182.164	4731.68
182.24	4760.67
182.317	4781.96
182.393	4778.47
182.469	4816.28
182.546	4850.17
182.622	4857.55
182.698	4847.97
182.775	4878.61
182.851	4909.63
182.927	4893.97
183.003	4881.15
183.08	4867.65
183.156	4893.55
183.232	4889.09
183.308	4862.33
183.385	4884.68
183.461	4924.33
183.537	4921.22
183.613	4951.29
183.69	4929.98
183.766	4902.19
183.842	4925.8
183.918	4941.32
183.995	4972.92
184.071	4978.38
184.147	4962.81
184.223	4939.7
184.299	4965.38
184.375	4942.01
184.452	4964.25
184.528	5067.45
184.604	5098.28
184.68	5125.05
184.756	5141.39
184.832	5151.78
184.908	5164.18
184.985	5160.2
185.061	5122.85
185.137	5142.78
185.213	5112.71
185.289	5116.82
185.365	5097.1
185.441	5088.43
185.517	5120.59
185.593	5111.44
185.669	5106.65
185.745	5136.92
185.822	5178.76
185.898	5158.64
185.974	5177.74
186.05	5154.35
186.126	5091.82
186.202	5071.28
186.278	5065.72
186.354	5042.3
186.43	5060.27
186.506	5056.68
186.582	5056.3
186.658	5072.19
186.734	5024.69
186.81	5034.03
186.886	5041.07
186.962	5070.47
187.038	5065.34
187.114	5043.91
187.19	5057.86
187.266	5035.69
187.341	5035.83
187.417	5016.53
187.493	5016.15
187.569	5022.23
187.645	5008.44
187.721	4981.51
187.797	5006.79
187.873	5019.11
187.949	5003.64
188.025	4984.95
188.101	4993.95
188.176	5005.16
188.252	4997.11
188.328	5015.97
188.404	5016.01
188.48	5003.09
188.556	4982.11
188.632	4980.34
188.707	4983.64
188.783	4983.26
188.859	4970.01
188.935	4944.62
189.011	4963.25
189.086	4948.12
189.162	4928.96
189.238	4925.47
189.314	4915.99
189.39	4895.73
189.465	4875.52
189.541	4917.33
189.617	4879.94
189.693	4863.33
189.768	4876.21
189.844	4932.95
189.92	4913.24
189.996	4933.74
190.071	4964.2
190.147	4965.39
190.223	4992.32
190.298	4972.68
190.374	4940.88
190.45	4974.39
190.526	4992.4
190.601	4980.42
190.677	4985.69
190.753	5063.31
190.828	5074.08
190.904	5112.89
190.98	5150.45
191.055	5172.91
191.131	5153.12
191.207	5204.27
191.282	5225.53
191.358	5202.2
191.433	5166.77
191.509	5199.89
191.585	5189.16
191.66	5188.35
191.736	5208.13
191.811	5180.34
191.887	5220.55
191.963	5275.55
192.038	5286.33
192.114	5287.53
192.189	5298.3
192.265	5288.73
192.34	5228.11
192.416	5222.8
192.491	5209.47
192.567	5217
192.642	5230.28
192.718	5234.06
192.793	5206.61
192.869	5198.66
192.944	5201.44
193.02	5223.44
193.095	5228.75
193.171	5247.1
193.246	5248.44
193.322	5243.7
193.397	5242.12
193.473	5211.11
193.548	5169.42
193.624	5184.56
193.699	5181.4
193.775	5217.4
193.85	5224.01
193.925	5241.35
194.001	5235.8
194.076	5215.3
194.152	5189.56
194.227	5165.07
194.302	5136.92
194.378	5142.85
194.453	5136.54
194.529	5165.33
194.604	5126.23
194.679	5117.66
194.755	5068.77
194.83	5096.1
194.905	5087.81
194.981	5111.39
195.056	5089.79
195.131	5102.58
195.207	5097.06
195.282	5070.34
195.357	5022.65
195.433	5059.58
195.508	5037.06
195.583	5059.28
195.659	5100.4
195.734	5119
195.809	5120.67
195.884	5140.49
195.96	5142.74
196.035	5181.5
196.11	5178.76
196.185	5208.08
196.261	5212.77
196.336	5289.24
196.411	5251.7
196.486	5265.78
196.561	5245.09
196.637	5272.86
196.712	5313.04
196.787	5318.32
196.862	5359.13
196.937	5385.09
197.013	5400.63
197.088	5422.1
197.163	5473.26
197.238	5514.1
197.313	5509.12
197.388	5544.54
197.464	5621.85
197.539	5653.15
197.614	5635.85
197.689	5661.36
197.764	5701.12
197.839	5746.62
197.914	5735.54
197.989	5795.15
198.065	5830.96
198.14	5962.09
198.215	6023.54
198.29	6051.72
198.365	6088.04
198.44	6115.57
198.515	6183.47
198.59	6220.61
198.665	6282.9
198.74	6304.65
198.815	6303.11
198.89	6359.97
198.965	6430.7
199.04	6423.36
199.115	6457.43
199.19	6564.31
199.265	6572.18
199.34	6601.47
199.415	6689.72
199.49	6738.82
199.565	6759.23
199.64	6819.79
199.715	6815.89
199.79	6829.48
199.865	6846.34
199.94	6838.9
200.015	6916.01
200.09	6924.17
200.165	6938.1
200.24	6959.05
200.315	7053.53
200.39	7091.3
200.464	7107.68
200.539	7105.32
200.614	7141.59
200.689	7196.31
200.764	7212.76
200.839	7254.77
200.914	7263.95
200.989	7236.64
201.063	7276.43
201.138	7232.03
201.213	7230.93
201.288	7177.98
201.363	7187.68
201.438	7184.7
201.512	7227.25
201.587	7182.41
201.662	7197.02
201.737	7231
201.812	7254.12
201.886	7177.51
201.961	7205.11
202.036	7175.09
202.111	7173.69
202.186	7098.66
202.26	7066.12
202.335	7010.62
202.41	6996.06
202.485	6951.65
202.559	6902.17
202.634	6833.77
202.709	6861.12
202.784	6812.32
202.858	6818.61
202.933	6778.85
203.008	6763.96
203.082	6714.36
203.157	6712.73
203.232	6608
203.306	6552.85
203.381	6465.63
203.456	6406.62
203.53	6339.96
203.605	6292.76
203.68	6231.34
203.754	6218.16
203.829	6172.6
203.904	6124.28
203.978	6094.42
204.053	6107.76
204.127	6081.42
204.202	6072.6
204.277	6025.3
204.351	6007.59
204.426	5984.88
204.5	5964.64
204.575	5880.39
204.65	5903.38
204.724	5882.54
204.799	5901.9
204.873	5887.6
204.948	5885.44
205.022	5857.2
205.097	5840.35
205.171	5873.3
205.246	5894.7
205.32	5893.5
205.395	5893.65
205.469	5871.22
205.544	5888.02
205.618	5844.75
205.693	5869.98
205.767	5842.7
205.842	5895.28
205.916	5877.34
205.991	5846.93
206.065	5857.97
206.14	5899.51
206.214	5884.34
206.289	5873.21
206.363	5901.89
206.438	5914.08
206.512	5931.74
206.586	5979.55
206.661	6003.75
206.735	5948.29
206.81	5954.53
206.884	5991.55
206.958	5959.71
207.033	5998.59
207.107	6009.44
207.181	6086.76
207.256	6075.15
207.33	6120.34
207.405	6148.15
207.479	6198.34
207.553	6222.8
207.628	6185.01
207.702	6209.09
207.776	6196.48
207.851	6195.37
207.925	6230.71
207.999	6218.71
208.073	6211.8
208.148	6214.15
208.222	6184.77
208.296	6262.99
208.371	6299.45
208.445	6326.48
208.519	6398.45
208.593	6428.69
208.668	6426.34
208.742	6438.69
208.816	6437.68
208.89	6472.07
208.965	6470.34
209.039	6493.64
209.113	6528.92
209.187	6577.88
209.261	6568.72
209.336	6620.24
209.41	6671.47
209.484	6675.65
209.558	6737.52
209.632	6772.75
209.707	6802.34
209.781	6856.07
209.855	6900.32
209.929	6944.23
210.003	6960.23
210.077	6958.98
210.151	7080.45
210.226	7162.12
210.3	7222.01
210.374	7284.63
210.448	7292.32
210.522	7321.49
210.596	7341.15
210.67	7368.63
210.744	7487.76
210.818	7567.3
210.892	7614.32
210.966	7604.66
211.041	7638.36
211.115	7627.45
211.189	7684.07
211.263	7722.81
211.337	7740.6
211.411	7773.97
211.485	7755.55
211.559	7783.52
211.633	7790.34
211.707	7706.92
211.781	7724.68
211.855	7639.47
211.929	7614.68
212.003	7571.54
212.077	7592.56
212.151	7623.63
212.225	7643.92
212.299	7616.1
212.373	7589.52
212.447	7577.5
212.52	7647.46
212.594	7656.07
212.668	7679.76
212.742	7647.6
212.816	7640.14
212.89	7625.82
212.964	7618.03
213.038	7627.89
213.112	7660.16
213.186	7694.09
213.26	7643.66
213.333	7524.45
213.407	7533.04
213.481	7542.56
213.555	7568.97
213.629	7539.05
213.703	7495.35
213.777	7487.56
213.85	7432.03
213.924	7511.72
213.998	7506
214.072	7481.95
214.146	7448.2
214.219	7438.53
214.293	7424.65
214.367	7418.11
214.441	7438.01
214.515	7402.62
214.588	7335.09
214.662	7242.09
214.736	7181.89
214.81	7198.64
214.883	7215.25
214.957	7179.52
215.031	7137.32
215.105	7073.25
215.178	7028.52
215.252	7001.66
215.326	6935.56
215.4	6883.61
215.473	6754.31
215.547	6695.45
215.621	6649.21
215.694	6644.6
215.768	6570.64
215.842	6525.07
215.915	6477.27
215.989	6392.97
216.063	6356.08
216.136	6341.67
216.21	6324.21
216.284	6331.41
216.357	6308.51
216.431	6285.23
216.504	6286.28
216.578	6329.64
216.652	6336.35
216.725	6319.79
216.799	6326.52
216.873	6309.39
216.946	6315.34
217.02	6283.11
217.093	6263.14
217.167	6191.16
217.24	6133.07
217.314	6109.29
217.387	6069.01
217.461	6035.85
217.535	6049.19
217.608	5998.34
217.682	5983.17
217.755	5993.15
217.829	5956.73
217.902	5946.7
217.976	5928.09
218.049	5889.57
218.123	5831.77
218.196	5829.61
218.27	5798
218.343	5747.51
218.417	5749.53
218.49	5727.37
218.563	5760.46
218.637	5770.39
218.71	5824.65
218.784	5842.21
218.857	5868.2
218.931	5888.57
219.004	5895.91
219.077	5911.42
219.151	5925.32
219.224	5917.79
219.298	5912.27
219.371	5944.61
219.444	5916.52
219.518	5919.2
219.591	5935.5
219.665	6017.86
219.738	6028.99
219.811	6022.8
219.885	6054.71
219.958	6080.1
220.031	6083.36
220.105	6097.61
220.178	6102.17
220.251	6084.65
220.325	6104.48
220.398	6112.2
220.471	6124.05
220.544	6150.2
220.618	6131.72
220.691	6153.7
220.764	6167.94
220.838	6192.71
220.911	6189.59
220.984	6254.36
221.057	6289.2
221.131	6309.26
221.204	6231.17
221.277	6289.46
221.35	6386.67
221.424	6379.91
221.497	6388.84
221.57	6412.87
221.643	6436.74
221.716	6463.58
221.79	6469.05
221.863	6479.91
221.936	6490.22
222.009	6505.82
222.082	6526.23
222.155	6537.84
222.229	6592.07
222.302	6611.46
222.375	6616.51
222.448	6638.02
222.521	6640.09
222.594	6635.77
222.667	6612.74
222.74	6661.36
222.814	6652.86
222.887	6629.93
222.96	6670.56
223.033	6700.54
223.106	6716.57
223.179	6742.04
223.252	6750.4
223.325	6773.45
223.398	6783.92
223.471	6805.24
223.544	6817.87
223.617	6829.16
223.69	6847.89
223.763	6816.85
223.837	6836.64
223.91	6856.86
223.983	6823.54
224.056	6798.05
224.129	6815.38
224.202	6860.35
224.275	6851.47
224.348	6827.55
224.42	6804.93
224.493	6767.47
224.566	6748.39
224.639	6765.01
224.712	6738.05
224.785	6732.09
224.858	6727.34
224.931	6708.79
225.004	6677.59
225.077	6674.66
225.15	6604.19
225.223	6597.37
225.296	6657.78
225.369	6611.59
225.442	6583.06
225.514	6593.05
225.587	6609.99
225.66	6625.08
225.733	6623.73
225.806	6634.2
225.879	6631.08
225.952	6608.62
226.025	6646.9
226.097	6684.91
226.17	6674.54
226.243	6631.76
226.316	6627.63
226.389	6624.22
226.461	6641.71
226.534	6660.34
226.607	6657.93
226.68	6721.25
226.753	6718.32
226.825	6658.86
226.898	6704.91
226.971	6710.48
227.044	6726.37
227.117	6734.68
227.189	6741.36
227.262	6768.26
227.335	6777.05
227.407	6774.89
227.48	6803.36
227.553	6802.78
227.626	6787.16
227.698	6795.66
227.771	6824.84
227.844	6810.43
227.916	6827.73
227.989	6802.32
228.062	6799.72
228.134	6866.9
228.207	6866.61
228.28	6863.05
228.352	6874.77
228.425	6884.91
228.498	6922.87
228.57	6911.49
228.643	6952.67
228.716	6958.1
228.788	6945.99
228.861	6940.76
228.934	6993.21
229.006	6996.91
229.079	7001.57
229.151	6989.85
229.224	6965.02
229.296	6985.1
229.369	7065.95
229.442	7104.59
229.514	7096.14
229.587	7137.27
229.659	7084.26
229.732	7099.06
229.804	7127.45
229.877	7181.34
229.949	7200.09
230.022	7234.9
230.094	7238.22
230.167	7226.2
230.239	7195.11
230.312	7188.77
230.384	7241.56
230.457	7231.61
230.529	7238.77
230.602	7236.94
230.674	7244.68
230.747	7273.68
230.819	7295.6
230.892	7207.31
230.964	7204.66
231.037	7224.06
231.109	7210.46
231.181	7242.36
231.254	7214.21
231.326	7208.49
231.399	7190.65
231.471	7173.58
231.544	7116.71
231.616	7148.84
231.688	7153.51
231.761	7137.09
231.833	7135.55
231.905	7068.93
231.978	7072.05
232.05	7059.71
232.122	7063.31
232.195	7048.46
232.267	7075.37
232.339	7056.01
232.412	7103.61
232.484	7086.59
232.556	7059.13
232.629	7117.02
232.701	7123.27
232.773	7131.39
232.846	7125.72
232.918	7128.08
232.99	7139.76
233.062	7167.25
233.135	7177.05
233.207	7150.72
233.279	7186.73
233.351	7207.25
233.424	7212.34
233.496	7192.31
233.568	7257.86
233.64	7236.77
233.713	7249.99
233.785	7243.02
233.857	7255.85
233.929	7215.44
234.001	7257.19
234.074	7310.4
234.146	7250.59
234.218	7244.96
234.29	7251.88
234.362	7239.44
234.434	7208.25
234.507	7184.79
234.579	7146.3
234.651	7128.18
234.723	7155.63
234.795	7171.2
234.867	7165.53
234.939	7209.36
235.012	7224.01
235.084	7224.2
235.156	7252.12
235.228	7235.83
235.3	7226.65
235.372	7231.27
235.444	7283.16
235.516	7225.08
235.588	7228.11
235.66	7236.28
235.732	7221.28
235.804	7361.69
235.876	7398.3
235.948	7444.94
236.02	7451.28
236.092	7465.16
236.164	7477.32
236.236	7475.3
236.308	7473.19
236.38	7496.36
236.452	7481.07
236.524	7492.79
236.596	7543.9
236.668	7563.95
236.74	7586.44
236.812	7605.09
236.884	7633.6
236.956	7641.2
237.028	7638.32
237.1	7625.29
237.172	7681.61
237.244	7741.8
237.316	7652.17
237.388	7635.06
237.46	7615.72
237.532	7664.82
237.604	7663.71
237.675	7719.93
237.747	7748.35
237.819	7737.44
237.891	7738.31
237.963	7735.42
238.035	7734.94
238.107	7647.68
238.178	7693.77
238.25	7696.17
238.322	7763.33
238.394	7733.71
238.466	7727.37
238.538	7759.28
238.609	7792.64
238.681	7752.24
238.753	7733.14
238.825	7747.82
238.897	7774.88
238.968	7837.33
239.04	7817.13
239.112	7892
239.184	7865.44
239.255	7866.6
239.327	7887.89
239.399	7904.48
239.471	7936.17
239.542	7968.24
239.614	8020.42
239.686	7960.58
239.758	7999.58
239.829	7976.24
239.901	8023.08
239.973	8036.93
240.044	8063.82
240.116	8074.25
240.188	8089.01
240.259	8095.8
240.331	8088.63
240.403	8112.91
240.474	8078.6
240.546	8071.82
240.618	8030.21
240.689	8029.01
240.761	8046.37
240.833	8102.08
240.904	8101.26
240.976	8104.63
241.048	8113.92
241.119	8139.86
241.191	8178.38
241.262	8228.49
241.334	8235.13
241.405	8241.67
241.477	8242.83
241.549	8251.1
241.62	8267.51
241.692	8295.75
241.763	8347.82
241.835	8362.97
241.906	8376.11
241.978	8349.17
242.049	8403.24
242.121	8452.32
242.192	8498.31
242.264	8469.55
242.335	8431.54
242.407	8467.72
242.478	8470.7
242.55	8484.75
242.621	8468.24
242.693	8464.35
242.764	8454.19
242.836	8451.78
242.907	8467.57
242.979	8495.23
243.05	8514.67
243.122	8529.5
243.193	8529.3
243.264	8470.31
243.336	8471.08
243.407	8495.96
243.479	8561.45
243.55	8568.47
243.622	8578.49
243.693	8578.63
243.764	8634.69
243.836	8620.84
243.907	8608.52
243.978	8609.67
244.05	8630.13
244.121	8599.1
244.192	8629.51
244.264	8594.09
244.335	8601.5
244.407	8563.53
244.478	8576
244.549	8568.25
244.62	8544.05
244.692	8547.94
244.763	8584.27
244.834	8575.22
244.906	8558.57
244.977	8572.63
245.048	8614.38
245.119	8596.33
245.191	8578.28
245.262	8529.53
245.333	8587.36
245.405	8602.04
245.476	8628.55
245.547	8633.99
245.618	8682.74
245.689	8694.05
245.761	8724.18
245.832	8728.46
245.903	8763.83
245.974	8783.57
246.045	8791.27
246.117	8854.23
246.188	8839.31
246.259	8828.1
246.33	8847.97
246.401	8858.32
246.473	8830.21
246.544	8820.67
246.615	8863.47
246.686	8866.93
246.757	8926.37
246.828	8907.74
246.899	8958.49
246.97	8934.96
247.042	8934.14
247.113	8956.44
247.184	9016.83
247.255	9011.15
247.326	9036.91
247.397	9043.6
247.468	9047.36
247.539	9056.69
247.61	9020.73
247.681	9055.14
247.752	9094.27
247.823	9073.77
247.894	9088.36
247.965	9068.48
248.037	9056.3
248.108	9017.74
248.179	9021.63
248.25	9015.57
248.321	9037.85
248.392	9004.67
248.463	9064.7
248.534	9063.78
248.605	9078.61
248.675	9058.33
248.746	9076.82
248.817	9089.44
248.888	9103.2
248.959	9062.63
249.03	9081.16
249.101	9086.75
249.172	9074.09
249.243	9017.73
249.314	9067.12
249.385	9072.41
249.456	9098.79
249.527	9097.87
249.598	9114.82
249.669	9119.97
249.739	9120.83
249.81	9127.91
249.881	9096.38
249.952	9088.92
250.023	9081.7
250.094	9042.45
250.165	9019.82
250.235	9009.71
250.306	9008.7
250.377	8988.28
250.448	9014.13
250.519	8968.45
250.59	9013.57
250.66	9012.94
250.731	9068.33
250.802	9067.37
250.873	9082.97
250.944	9094.24
251.014	9086.01
251.085	9149
251.156	9168.21
251.227	9208.32
251.297	9247.14
251.368	9284.25
251.439	9320.52
251.51	9359.18
251.58	9353.22
251.651	9352.59
251.722	9396.51
251.792	9365.74
251.863	9366.8
251.934	9407.59
252.005	9487.51
252.075	9491.95
252.146	9531.13
252.217	9565.18
252.287	9592.54
252.358	9595.04
252.429	9657.95
252.499	9656.79
252.57	9671.49
252.641	9707.27
252.711	9714.54
252.782	9683.09
252.852	9741.38
252.923	9734.87
252.994	9747.78
253.064	9786.11
253.135	9775.47
253.205	9757.07
253.276	9808.74
253.347	9857.85
253.417	9843.79
253.488	9834.06
253.558	9826.45
253.629	9826.98
253.699	9838.73
253.77	9861.76
253.841	9854.34
253.911	9855.6
253.982	9865.37
254.052	9885.99
254.123	9894.09
254.193	9894.81
254.264	9999.83
254.334	9972.52
254.405	9952.96
254.475	9929.36
254.546	9934.08
254.616	9978.3
254.687	10007.49
254.757	10022.85
254.827	10023.09
254.898	10036.77
254.968	10040.67
255.039	10022.04
255.109	10051.8
255.18	10031.43
255.25	9977.14
255.321	10005.8
255.391	9973.09
255.461	10037.64
255.532	9977.89
255.602	9969.66
255.673	9933.87
255.743	9902.69
255.813	9850.88
255.884	9881.51
255.954	9904.2
256.024	9950.88
256.095	9951.21
256.165	9922.89
256.235	9941.2
256.306	9929.06
256.376	9965.87
256.446	9997.04
256.517	10022.81
256.587	10052.24
256.657	10068.24
256.728	10087.4
256.798	10093.91
256.868	10092.22
256.938	10067.31
257.009	10108.21
257.079	10133.55
257.149	10208.85
257.219	10175.51
257.29	10209.21
257.36	10173.66
257.43	10209.9
257.5	10165.29
257.571	10158.45
257.641	10190.81
257.711	10167.21
257.781	10192.78
257.852	10202.42
257.922	10159.45
257.992	10163.93
258.062	10154.97
258.132	10187.1
258.202	10194.47
258.273	10199.43
258.343	10260.24
258.413	10250.12
258.483	10243.47
258.553	10219.91
258.623	10196.25
258.693	10213.07
258.764	10261.77
258.834	10314.28
258.904	10322.71
258.974	10312.4
259.044	10324.54
259.114	10340.92
259.184	10359.81
259.254	10368.72
259.324	10337.98
259.394	10378.83
259.464	10439.11
259.535	10449.47
259.605	10447.54
259.675	10442.82
259.745	10472.07
259.815	10453.81
259.885	10458.05
259.955	10546.63
260.025	10544.89
260.095	10554.58
260.165	10577.8
260.235	10619.44
260.305	10604.17
260.375	10589.13
260.445	10663.08
260.515	10711.7
260.585	10747.17
260.655	10756.86
260.725	10790.06
260.795	10814.92
260.865	10859.93
260.934	10839.45
261.004	10858.34
261.074	10860.99
261.144	10904.25
261.214	10933.31
261.284	10939.04
261.354	10969.97
261.424	10937.24
261.494	10987.88
261.564	10997.23
261.634	11015.59
261.703	10970.97
261.773	10993.95
261.843	11014.72
261.913	11005.42
261.983	10965.9
262.053	10986.1
262.123	10988.51
262.192	10956.7
262.262	10986.2
262.332	10952.9
262.402	10975.02
262.472	10986.73
262.541	10947.03
262.611	10981.2
262.681	10965.77
262.751	10984.86
262.821	10993.39
262.89	10965.53
262.96	10990.11
263.03	11051.7
263.1	11070.88
263.169	11090.64
263.239	11116.13
263.309	11165.58
263.379	11189.78
263.448	11208.62
263.518	11231.46
263.588	11243.85
263.657	11300.33
263.727	11333.82
263.797	11348.18
263.867	11357.73
263.936	11322.79
264.006	11367.84
264.076	11368.56
264.145	11362.54
264.215	11357.19
264.285	11387.07
264.354	11356.56
264.424	11342.68
