Data from 20250704_urea_0.1M_MAYP1162681_11-19-57-691.txt Node
Date: Fri Jul 04 11:19:57 BST 2025
User: adleo
Spectrometer: MAYP116268
Trigger mode: 0
Integration Time (sec): 1.000000E0
Scans to average: 1
Electric dark correction enabled: true
Nonlinearity correction enabled: true
Boxcar width: 10
XAxis mode: Wavelengths
Number of Pixels in Spectrum: 2068
>>>>>Begin Spectral Data<<<<<
179.565	1247.79
179.642	1303.87
179.718	1350.56
179.795	1390.65
179.871	1427.72
179.948	1447.25
180.024	1467.88
180.101	1490.27
180.177	1503.79
180.254	1527.23
180.33	1549.73
180.407	1605.9
180.483	1704.15
180.56	1798.75
180.636	1886.68
180.712	1874.88
180.789	1882.25
180.865	1894.94
180.942	1901.88
181.018	1912.86
181.095	1926.61
181.171	1930.5
181.248	1932.36
181.324	1947.25
181.4	1953.66
181.477	1963.56
181.553	1976.39
181.63	1997.08
181.706	2010.87
181.782	2021.75
181.859	2021.18
181.935	2025.27
182.011	2024.08
182.088	2042.02
182.164	2059.86
182.24	2072.17
182.317	2081.16
182.393	2082.82
182.469	2095.71
182.546	2112.98
182.622	2118.07
182.698	2111.03
182.775	2122.73
182.851	2138.9
182.927	2129.72
183.003	2127.3
183.08	2121.44
183.156	2130.58
183.232	2128.58
183.308	2119.92
183.385	2128.72
183.461	2146.18
183.537	2147.89
183.613	2158.64
183.69	2148.99
183.766	2138.61
183.842	2145.03
183.918	2149.84
183.995	2161.97
184.071	2166.3
184.147	2157.74
184.223	2147.61
184.299	2161.17
184.375	2150.7
184.452	2157.75
184.528	2208.37
184.604	2218.93
184.68	2230.54
184.756	2241.25
184.832	2246.01
184.908	2252.57
184.985	2248.81
185.061	2233.35
185.137	2243.96
185.213	2233.02
185.289	2233.54
185.365	2226.79
185.441	2227.41
185.517	2240.21
185.593	2236.64
185.669	2234.31
185.745	2246.73
185.822	2262.19
185.898	2254.62
185.974	2265.85
186.05	2255.04
186.126	2219.36
186.202	2214.55
186.278	2209.89
186.354	2196.52
186.43	2203.04
186.506	2200.56
186.582	2202.04
186.658	2207.65
186.734	2184.63
186.81	2188.77
186.886	2192.48
186.962	2204.7
187.038	2200.66
187.114	2191.9
187.19	2198.18
187.266	2187.81
187.341	2186.29
187.417	2180.06
187.493	2180.96
187.569	2182.48
187.645	2178.72
187.721	2168.49
187.797	2172.01
187.873	2175.58
187.949	2170.68
188.025	2162.97
188.101	2162.88
188.176	2169.16
188.252	2165.97
188.328	2175.1
188.404	2174.86
188.48	2166.92
188.556	2160.83
188.632	2160.49
188.707	2162.87
188.783	2159.35
188.859	2153.03
188.935	2142.8
189.011	2151.6
189.086	2145.32
189.162	2138.52
189.238	2132.48
189.314	2132
189.39	2127.48
189.465	2124.06
189.541	2141.04
189.617	2127.3
189.693	2121.83
189.768	2123.4
189.844	2150.34
189.92	2143.92
189.996	2148.58
190.071	2163.42
190.147	2162.04
190.223	2171.51
190.298	2161.19
190.374	2151.24
190.45	2162.8
190.526	2173.13
190.601	2164.47
190.677	2162.56
190.753	2188.27
190.828	2195.26
190.904	2209.01
190.98	2225.29
191.055	2234.47
191.131	2224.34
191.207	2242.94
191.282	2254.88
191.358	2243.89
191.433	2226.79
191.509	2240.68
191.585	2239.78
191.66	2239.59
191.736	2246.68
191.811	2235.88
191.887	2255.2
191.963	2275.61
192.038	2283.66
192.114	2280.99
192.189	2287.17
192.265	2286.18
192.34	2265.51
192.416	2263.61
192.491	2260.23
192.567	2262.47
192.642	2265.09
192.718	2265.37
192.793	2256.28
192.869	2253.71
192.944	2259.99
193.02	2268.89
193.095	2272.89
193.171	2279.7
193.246	2276.6
193.322	2275.75
193.397	2279.08
193.473	2265.42
193.548	2249.19
193.624	2252.19
193.699	2252.9
193.775	2268.66
193.85	2272.56
193.925	2282.6
194.001	2281.79
194.076	2273.56
194.152	2261.66
194.227	2255.42
194.302	2249.81
194.378	2250.52
194.453	2248.19
194.529	2256.19
194.604	2240.2
194.679	2232.3
194.755	2212.94
194.83	2227.55
194.905	2223.55
194.981	2229.88
195.056	2222.18
195.131	2229.79
195.207	2227.55
195.282	2217.8
195.357	2199.33
195.433	2212.27
195.508	2198.61
195.583	2208.32
195.659	2223.17
195.734	2231.78
195.809	2229.17
195.884	2234.64
195.96	2238.3
196.035	2251.72
196.11	2251.77
196.185	2262.9
196.261	2267.52
196.336	2301.78
196.411	2288.69
196.486	2295.83
196.561	2290.88
196.637	2299.78
196.712	2315.25
196.787	2320.11
196.862	2338.95
196.937	2348.66
197.013	2354.75
197.088	2367.5
197.163	2386.31
197.238	2403.22
197.313	2403.22
197.388	2417.55
197.464	2446.93
197.539	2457.36
197.614	2452.31
197.689	2463.74
197.764	2482.26
197.839	2503.55
197.914	2494.45
197.989	2517.35
198.065	2528.92
198.14	2580.91
198.215	2606.05
198.29	2618.25
198.365	2633.45
198.44	2644.45
198.515	2671.98
198.59	2689.37
198.665	2714.24
198.74	2724.34
198.815	2726.58
198.89	2749.78
198.965	2779.47
199.04	2776.38
199.115	2791.67
199.19	2833.26
199.265	2836.4
199.34	2848.6
199.415	2883.65
199.49	2908.38
199.565	2918.39
199.64	2942.89
199.715	2939.12
199.79	2948.6
199.865	2954.66
199.94	2955.75
200.015	2985.65
200.09	2991.99
200.165	2998.09
200.24	3006.96
200.315	3049.14
200.39	3063.31
200.464	3069.74
200.539	3071.84
200.614	3090.43
200.689	3116.57
200.764	3127.21
200.839	3145.89
200.914	3149.23
200.989	3139.87
201.063	3152.99
201.138	3133.79
201.213	3136.89
201.288	3121.2
201.363	3129.35
201.438	3129.78
201.512	3142.03
201.587	3124.1
201.662	3126.77
201.737	3140.03
201.812	3149.24
201.886	3113.39
201.961	3125.18
202.036	3114.4
202.111	3111.07
202.186	3082.71
202.26	3065.63
202.335	3042.93
202.41	3037.4
202.485	3022.24
202.559	3001.5
202.634	2978.9
202.709	2995.29
202.784	2980.75
202.858	2979.41
202.933	2964.35
203.008	2965.78
203.082	2953.76
203.157	2961.34
203.232	2929.61
203.306	2919.26
203.381	2897.22
203.456	2887.21
203.53	2877.24
203.605	2870.66
203.68	2858.7
203.754	2872.46
203.829	2876.52
203.904	2877.04
203.978	2887.91
204.053	2913.04
204.127	2924.81
204.202	2950.23
204.277	2961.29
204.351	2983.95
204.426	3010.47
204.5	3034.12
204.575	3036.93
204.65	3084.89
204.724	3120.92
204.799	3173.76
204.873	3213.57
204.948	3260.14
205.022	3299.26
205.097	3347.07
205.171	3420.1
205.246	3498.76
205.32	3561.58
205.395	3629.94
205.469	3690.38
205.544	3770.71
205.618	3832.74
205.693	3929.38
205.767	3997.87
205.842	4104.35
205.916	4193.3
205.991	4283.98
206.065	4392.1
206.14	4510.85
206.214	4619.26
206.289	4724.17
206.363	4852.88
206.438	4978.29
206.512	5108.16
206.586	5253.74
206.661	5394.18
206.735	5502.52
206.81	5637.74
206.884	5786.57
206.958	5915.97
207.033	6078.03
207.107	6235.73
207.181	6418.52
207.256	6564.86
207.33	6742.6
207.405	6914.04
207.479	7092.65
207.553	7261.82
207.628	7406.73
207.702	7587.75
207.776	7748
207.851	7923.57
207.925	8112.04
207.999	8273.42
208.073	8452.54
208.148	8633.09
208.222	8790.9
208.296	9009.86
208.371	9211.22
208.445	9404.61
208.519	9621.81
208.593	9822.13
208.668	10003.81
208.742	10195.3
208.816	10384.41
208.89	10586.12
208.965	10780.88
209.039	10978.92
209.113	11185.54
209.187	11398.4
209.261	11580.08
209.336	11788.32
209.41	12007.13
209.484	12195.06
209.558	12415.18
209.632	12622.82
209.707	12830.62
209.781	13046.99
209.855	13244.53
209.929	13440.72
210.003	13641.49
210.077	13825.53
210.151	14063.7
210.226	14285.39
210.3	14493.72
210.374	14710.35
210.448	14903.88
210.522	15086.67
210.596	15281.74
210.67	15468.67
210.744	15703.93
210.818	15924.88
210.892	16131.37
210.966	16293.7
211.041	16481.67
211.115	16653.59
211.189	16845.99
211.263	17033.33
211.337	17202.49
211.411	17380.86
211.485	17550.7
211.559	17729.93
211.633	17891.96
211.707	18016.53
211.781	18187.18
211.855	18318.79
211.929	18458.11
212.003	18584.42
212.077	18754.15
212.151	18909.71
212.225	19070.91
212.299	19201.26
212.373	19335.33
212.447	19469.88
212.52	19643.95
212.594	19802.74
212.668	19949.97
212.742	20072.32
212.816	20197.96
212.89	20328.18
212.964	20472.66
213.038	20601.83
213.112	20745.64
213.186	20902.91
213.26	21014.33
213.333	21093.95
213.407	21220.95
213.481	21341.87
213.555	21475.71
213.629	21585.76
213.703	21700.33
213.777	21812.69
213.85	21901.68
213.924	22038.78
213.998	22151.68
214.072	22257.06
214.146	22341.14
214.219	22451.11
214.293	22552.3
214.367	22660.19
214.441	22772.86
214.515	22862.06
214.588	22934.82
214.662	22991.13
214.736	23053.14
214.81	23150.72
214.883	23245.71
214.957	23323.97
215.031	23409.99
215.105	23486.36
215.178	23553.1
215.252	23622.84
215.326	23685.96
215.4	23745.37
215.473	23780.05
215.547	23836.39
215.621	23891.9
215.694	23977.14
215.768	24025.18
215.842	24081.32
215.915	24135.3
215.989	24184.79
216.063	24243.98
216.136	24307.99
216.21	24370.93
216.284	24450.05
216.357	24509.34
216.431	24559.31
216.504	24621.84
216.578	24698.4
216.652	24765.7
216.725	24826.35
216.799	24895.01
216.873	24947.79
216.946	25026.19
217.02	25064.79
217.093	25107.83
217.167	25130.65
217.24	25164.39
217.314	25204.96
217.387	25244.53
217.461	25279.03
217.535	25325.46
217.608	25346.74
217.682	25387.95
217.755	25438.57
217.829	25467.29
217.902	25514.93
217.976	25562.7
218.049	25591.9
218.123	25617.53
218.196	25649
218.27	25677.91
218.343	25689.98
218.417	25731.54
218.49	25754.61
218.563	25810.41
218.637	25854.14
218.71	25910.62
218.784	25944.94
218.857	25986.26
218.931	26033.66
219.004	26075.51
219.077	26123.16
219.151	26154.3
219.224	26182.06
219.298	26214.84
219.371	26256.07
219.444	26271.81
219.518	26301.31
219.591	26331.14
219.665	26378.51
219.738	26393.67
219.811	26400.53
219.885	26439.15
219.958	26461.07
220.031	26491.97
220.105	26512.01
220.178	26535.14
220.251	26555.09
220.325	26580.63
220.398	26609.27
220.471	26623.27
220.544	26653.79
220.618	26660.02
220.691	26683.1
220.764	26701.54
220.838	26724.14
220.911	26732.55
220.984	26762.58
221.057	26782.82
221.131	26805.47
221.204	26796.14
221.277	26839.12
221.35	26882.44
221.424	26893.01
221.497	26907.5
221.57	26910.64
221.643	26921.41
221.716	26926.1
221.79	26919.67
221.863	26920.69
221.936	26918.47
222.009	26924.84
222.082	26909.34
222.155	26905.38
222.229	26925.13
222.302	26937.35
222.375	26927.25
222.448	26923.25
222.521	26921.51
222.594	26918.51
222.667	26907.89
222.74	26918.71
222.814	26914.6
222.887	26914.89
222.96	26920.35
223.033	26928.85
223.106	26936.14
223.179	26946.53
223.252	26947.59
223.325	26948.99
223.398	26937.59
223.471	26937.11
223.544	26930.44
223.617	26944.11
223.69	26951.16
223.763	26921.61
223.837	26910.89
223.91	26902.53
223.983	26882.88
224.056	26865.4
224.129	26858.35
224.202	26860.61
224.275	26838.21
224.348	26802.66
224.42	26772.48
224.493	26739.21
224.566	26712.4
224.639	26690
224.712	26663.68
224.785	26641.56
224.858	26627.12
224.931	26609.98
225.004	26581.59
225.077	26566.86
225.15	26519.44
225.223	26484.58
225.296	26495.3
225.369	26462.28
225.442	26441.56
225.514	26417.62
225.587	26392.61
225.66	26367.4
225.733	26336.98
225.806	26314.44
225.879	26301.11
225.952	26275.67
226.025	26268.57
226.097	26265.53
226.17	26234.63
226.243	26191.81
226.316	26156.28
226.389	26127.89
226.461	26103.03
226.534	26077.88
226.607	26043.41
226.68	26039.65
226.753	26023.24
226.825	25974.04
226.898	25953.77
226.971	25922.05
227.044	25904.43
227.117	25886.14
227.189	25865.77
227.262	25847.47
227.335	25818.56
227.407	25783.91
227.48	25752.53
227.553	25715.27
227.626	25664.2
227.698	25639.97
227.771	25606.72
227.844	25582.92
227.916	25558.26
227.989	25517.72
228.062	25478.3
228.134	25470.62
228.207	25430.95
228.28	25395.38
228.352	25365.56
228.425	25333.66
228.498	25317.69
228.57	25280.62
228.643	25259.63
228.716	25221.7
228.788	25190.09
228.861	25159.64
228.934	25148.01
229.006	25120.51
229.079	25089.14
229.151	25050.92
229.224	24995.68
229.296	24970.89
229.369	24957.42
229.442	24937.88
229.514	24898.8
229.587	24882.3
229.659	24830.43
229.732	24803.17
229.804	24773.94
229.877	24762.5
229.949	24747.21
230.022	24733.16
230.094	24707.84
230.167	24675.61
230.239	24635.47
230.312	24586.26
230.384	24567.4
230.457	24536.52
230.529	24508.44
230.602	24472.36
230.674	24449.01
230.747	24441.83
230.819	24421.13
230.892	24361.36
230.964	24332.18
231.037	24308.45
231.109	24274.06
231.181	24246.85
231.254	24212.41
231.326	24183.52
231.399	24139.91
231.471	24095.73
231.544	24023.28
231.616	23983.44
231.688	23952.04
231.761	23908.54
231.833	23881.53
231.905	23829.49
231.978	23790.56
232.05	23752.37
232.122	23714.46
232.195	23678
232.267	23659.19
232.339	23619.55
232.412	23598.38
232.484	23545.91
232.556	23511.48
232.629	23497.35
232.701	23466.87
232.773	23423.71
232.846	23379.44
232.918	23341.68
232.99	23304.89
233.062	23284.54
233.135	23257.15
233.207	23199.62
233.279	23169.92
233.351	23139.5
233.424	23095.38
233.496	23046.73
233.568	23017.8
233.64	22958.3
233.713	22919.83
233.785	22877.15
233.857	22842.63
233.929	22787.38
234.001	22768.38
234.074	22737.67
234.146	22684.39
234.218	22638.3
234.29	22590.38
234.362	22545.4
234.434	22493.09
234.507	22443
234.579	22381.39
234.651	22340.75
234.723	22315.64
234.795	22286.86
234.867	22240.72
234.939	22210.98
235.012	22172.41
235.084	22154.48
235.156	22136.6
235.228	22082.85
235.3	22031.85
235.372	21994.78
235.444	21962.24
235.516	21895.57
235.588	21854.98
235.66	21811.74
235.732	21765.23
235.804	21790.25
235.876	21758.58
235.948	21743.11
236.02	21699.92
236.092	21666.62
236.164	21625.5
236.236	21572.96
236.308	21519.8
236.38	21474.44
236.452	21425.28
236.524	21383.2
236.596	21346.09
236.668	21303.33
236.74	21263.52
236.812	21228.1
236.884	21190.26
236.956	21160.86
237.028	21116.62
237.1	21060.91
237.172	21033
237.244	21011.7
237.316	20932.02
237.388	20888.55
237.46	20831.34
237.532	20802.18
237.604	20753.41
237.675	20722.95
237.747	20695
237.819	20654.03
237.891	20612.78
237.963	20571.24
238.035	20519.58
238.107	20430.8
238.178	20407.19
238.25	20366.32
238.322	20337.65
238.394	20273.45
238.466	20222.13
238.538	20184.06
238.609	20150.95
238.681	20091.58
238.753	20039.48
238.825	19989.94
238.897	19943.92
238.968	19911.58
239.04	19861.56
239.112	19846.76
239.184	19787.2
239.255	19731.2
239.327	19683.69
239.399	19644.89
239.471	19609.52
239.542	19574.44
239.614	19559.4
239.686	19492.32
239.758	19461
239.829	19407.32
239.901	19377.05
239.973	19333.34
240.044	19302.07
240.116	19262.12
240.188	19216.77
240.259	19175.14
240.331	19132.1
240.403	19098.61
240.474	19043.58
240.546	18995.87
240.618	18928.55
240.689	18879.59
240.761	18843.06
240.833	18819.83
240.904	18779.45
240.976	18740.95
241.048	18696.23
241.119	18653.87
241.191	18618.98
241.262	18599.27
241.334	18549.63
241.405	18509.35
241.477	18464
241.549	18408.92
241.62	18374.22
241.692	18332.01
241.763	18298.13
241.835	18258.18
241.906	18210.76
241.978	18161.32
242.049	18148.16
242.121	18128.3
242.192	18111.97
242.264	18057.75
242.335	18003.73
242.407	17969.56
242.478	17923.93
242.55	17902.77
242.621	17853.42
242.693	17809.23
242.764	17754.1
242.836	17713.57
242.907	17677.91
242.979	17651.79
243.05	17618.25
243.122	17572.99
243.193	17534.1
243.264	17472.99
243.336	17421.77
243.407	17398.15
243.479	17379.74
243.55	17339.45
243.622	17299.45
243.693	17248.22
243.764	17229.14
243.836	17176.85
243.907	17127.74
243.978	17080.99
244.05	17043.21
244.121	16992.65
244.192	16967.68
244.264	16916.79
244.335	16882.38
244.407	16833.85
244.478	16794.71
244.549	16756.98
244.62	16712.68
244.692	16681.36
244.763	16660.01
244.834	16630.37
244.906	16581.4
244.977	16542.46
245.048	16519.18
245.119	16474.93
245.191	16432.86
245.262	16372.56
245.333	16355.98
245.405	16327.21
245.476	16306
245.547	16262.72
245.618	16235.01
245.689	16193.7
245.761	16160.45
245.832	16120.39
245.903	16091.76
245.974	16061.45
246.045	16019.95
246.117	16002.35
246.188	15952.61
246.259	15902.48
246.33	15858.96
246.401	15819.24
246.473	15768.54
246.544	15714.65
246.615	15691.23
246.686	15650.79
246.757	15632.52
246.828	15589.33
246.899	15571.5
246.97	15514.96
247.042	15474.13
247.113	15446.08
247.184	15433.69
247.255	15395.9
247.326	15364.47
247.397	15329.81
247.468	15297.66
247.539	15267.54
247.61	15215.58
247.681	15196.68
247.752	15174.7
247.823	15135.17
247.894	15108.71
247.965	15066.77
248.037	15030.67
248.108	14976.87
248.179	14948.92
248.25	14905.63
248.321	14880.8
248.392	14829.42
248.463	14821.71
248.534	14790.66
248.605	14769.65
248.675	14738.17
248.746	14712.48
248.817	14693.48
248.888	14664.61
248.959	14608.6
249.03	14586.52
249.101	14558.51
249.172	14519.03
249.243	14463.45
249.314	14445.23
249.385	14415
249.456	14390.52
249.527	14354.94
249.598	14338.07
249.669	14301.72
249.739	14285.28
249.81	14258.67
249.881	14219.14
249.952	14186.46
250.023	14157.97
250.094	14106.83
250.165	14057.8
250.235	14022.32
250.306	13988.72
250.377	13949.67
250.448	13929.62
250.519	13872.88
250.59	13861.84
250.66	13829.26
250.731	13822.46
250.802	13795.41
250.873	13766.25
250.944	13747.55
251.014	13713.08
251.085	13707
251.156	13689.55
251.227	13677.4
251.297	13659.42
251.368	13646.41
251.439	13635.13
251.51	13620.67
251.58	13585.57
251.651	13560.94
251.722	13559.44
251.792	13511.86
251.863	13489.98
251.934	13482.84
252.005	13492.82
252.075	13465.59
252.146	13446.88
252.217	13439.02
252.287	13423.98
252.358	13401.71
252.429	13394.24
252.499	13368.74
252.57	13344.1
252.641	13329.26
252.711	13300.67
252.782	13268.76
252.852	13258.15
252.923	13231.74
252.994	13206.28
253.064	13201.56
253.135	13164.1
253.205	13121.05
253.276	13120.47
253.347	13107.22
253.417	13069.23
253.488	13044.5
253.558	13012.98
253.629	12992.49
253.699	12961.25
253.77	12942.59
253.841	12909.38
253.911	12887.98
253.982	12867.92
254.052	12851.29
254.123	12829.65
254.193	12803.91
254.264	12812.73
254.334	12783.9
254.405	12746.45
254.475	12711.98
254.546	12690.14
254.616	12682.19
254.687	12669.27
254.757	12653.99
254.827	12634.51
254.898	12616.29
254.968	12588.14
255.039	12561.05
255.109	12549.77
255.18	12526.63
255.25	12484.84
255.321	12480.21
255.391	12442.08
255.461	12443
255.532	12390.5
255.602	12362.83
255.673	12313.33
255.743	12280.41
255.813	12238.52
255.884	12229.99
255.954	12211.38
256.024	12206.56
256.095	12185.54
256.165	12151.27
256.235	12139.65
256.306	12112.47
256.376	12108.03
256.446	12097.48
256.517	12086.29
256.587	12072.31
256.657	12048.89
256.728	12033.56
256.798	12009.94
256.868	11992.64
256.938	11960.68
257.009	11956.34
257.079	11948.39
257.149	11961.35
257.219	11918.89
257.29	11903.32
257.36	11859.12
257.43	11852.28
257.5	11801.81
257.571	11777.38
257.641	11769.57
257.711	11730.24
257.781	11708.64
257.852	11694.09
257.922	11655.58
257.992	11629.98
258.062	11606.46
258.132	11596.15
258.202	11579.47
258.273	11557.06
258.343	11553.35
258.413	11525.4
258.483	11502.31
258.553	11468.81
258.623	11441.29
258.693	11428.28
258.764	11422.93
258.834	11426.83
258.904	11407.6
258.974	11389.24
259.044	11376.42
259.114	11362.68
259.184	11350.68
259.254	11335.12
259.324	11293.67
259.394	11284.22
259.464	11284.9
259.535	11262.68
259.605	11241.81
259.675	11214.87
259.745	11202.83
259.815	11162.25
259.885	11145.38
259.955	11154.68
260.025	11128.76
260.095	11112.23
260.165	11102.59
260.235	11102.06
260.305	11070.4
260.375	11042.4
260.445	11049.96
260.515	11045.14
260.585	11034.06
260.655	11007.7
260.725	11001.68
260.795	10991.7
260.865	10991.8
260.934	10972.33
261.004	10964.23
261.074	10949.82
261.144	10946.64
261.214	10942.4
261.284	10933.63
261.354	10928.14
261.424	10899.08
261.494	10902.59
261.564	10887.32
261.634	10875.13
261.703	10838.41
261.773	10829.2
261.843	10821.35
261.913	10799.18
