Data from 20250704_urea_0.1M_MAYP1162681_11-20-57-683.txt Node
Date: Fri Jul 04 11:20:57 BST 2025
User: adleo
Spectrometer: MAYP116268
Trigger mode: 0
Integration Time (sec): 1.000000E0
Scans to average: 1
Electric dark correction enabled: true
Nonlinearity correction enabled: true
Boxcar width: 10
XAxis mode: Wavelengths
Number of Pixels in Spectrum: 2068
>>>>>Begin Spectral Data<<<<<
179.565	1243.38
179.642	1304.12
179.718	1347.91
179.795	1390
179.871	1426.55
179.948	1445.56
180.024	1468.79
180.101	1492.04
180.177	1506.49
180.254	1531.02
180.33	1555.31
180.407	1609.39
180.483	1707.97
180.56	1801.1
180.636	1886.94
180.712	1875.38
180.789	1887.55
180.865	1899.1
180.942	1907.37
181.018	1918.16
181.095	1931.24
181.171	1934.05
181.248	1931.86
181.324	1947.89
181.4	1953.97
181.477	1963.63
181.553	1976.37
181.63	1997.25
181.706	2013.37
181.782	2020.4
181.859	2019.5
181.935	2024.59
182.011	2024.78
182.088	2040.24
182.164	2058.84
182.24	2072.63
182.317	2082.28
182.393	2079.76
182.469	2093.98
182.546	2109.77
182.622	2114.05
182.698	2105.92
182.775	2118.95
182.851	2134.45
182.927	2127.75
183.003	2124.47
183.08	2120.09
183.156	2127.84
183.232	2124.89
183.308	2112.19
183.385	2124.41
183.461	2141.78
183.537	2139.97
183.613	2151.29
183.69	2144.06
183.766	2134.78
183.842	2143.44
183.918	2150.62
183.995	2165.23
184.071	2170.94
184.147	2163.19
184.223	2151.2
184.299	2165.81
184.375	2155.53
184.452	2160.96
184.528	2211.02
184.604	2221.29
184.68	2232.99
184.756	2242.8
184.832	2245.03
184.908	2253.02
184.985	2250.07
185.061	2231.71
185.137	2244.04
185.213	2233
185.289	2232.76
185.365	2224.1
185.441	2225.68
185.517	2238.1
185.593	2232.96
185.669	2228.68
185.745	2238.19
185.822	2254.88
185.898	2247.27
185.974	2258.83
186.05	2251.83
186.126	2218.38
186.202	2209.11
186.278	2204.06
186.354	2196.93
186.43	2203.02
186.506	2198.74
186.582	2197.6
186.658	2210.72
186.734	2186.8
186.81	2187.84
186.886	2189.13
186.962	2201.73
187.038	2195.02
187.114	2184.79
187.19	2190.26
187.266	2180.94
187.341	2184.65
187.417	2178.32
187.493	2178.7
187.569	2179.51
187.645	2174.47
187.721	2159.53
187.797	2169.99
187.873	2175.7
187.949	2168.24
188.025	2161.91
188.101	2164.05
188.176	2168.85
188.252	2160.53
188.328	2171.65
188.404	2171.75
188.48	2167.66
188.556	2160.76
188.632	2157.62
188.707	2160.76
188.783	2159.28
188.859	2156.86
188.935	2145.2
189.011	2154.34
189.086	2146.92
189.162	2137.64
189.238	2134.45
189.314	2132.64
189.39	2127.6
189.465	2117.61
189.541	2131.69
189.617	2116.61
189.693	2112.91
189.768	2117.62
189.844	2142.65
189.92	2133.33
189.996	2145.51
190.071	2158.35
190.147	2156.55
190.223	2167.39
190.298	2159.31
190.374	2147.93
190.45	2157.64
190.526	2169.72
190.601	2164.3
190.677	2165.25
190.753	2195.91
190.828	2200
190.904	2216.41
190.98	2227.69
191.055	2240.16
191.131	2232.26
191.207	2252.86
191.282	2263.61
191.358	2253.43
191.433	2237.76
191.509	2250.13
191.585	2244.8
191.66	2246.13
191.736	2256.65
191.811	2247.99
191.887	2262.74
191.963	2284.11
192.038	2291.2
192.114	2287.2
192.189	2290.91
192.265	2288.44
192.34	2264.3
192.416	2264.2
192.491	2262.73
192.567	2267.39
192.642	2269.11
192.718	2269.77
192.793	2258.12
192.869	2253.02
192.944	2258.26
193.02	2267.02
193.095	2272.3
193.171	2276.25
193.246	2274.25
193.322	2270.58
193.397	2273.39
193.473	2260.35
193.548	2243.12
193.624	2250.78
193.699	2251.88
193.775	2269.25
193.85	2270.35
193.925	2278.58
194.001	2278.06
194.076	2266.16
194.152	2256.31
194.227	2248.79
194.302	2241.23
194.378	2246.65
194.453	2242.8
194.529	2252.27
194.604	2234.42
194.679	2228.52
194.755	2210.97
194.83	2224.25
194.905	2224.16
194.981	2232.2
195.056	2227.44
195.131	2231.96
195.207	2227.2
195.282	2216.12
195.357	2193.27
195.433	2212.44
195.508	2201.55
195.583	2208.83
195.659	2225.2
195.734	2233.53
195.809	2233.81
195.884	2240.19
195.96	2238.38
196.035	2255.6
196.11	2252.03
196.185	2268.45
196.261	2272.11
196.336	2303.42
196.411	2289.05
196.486	2290.66
196.561	2284.1
196.637	2290.85
196.712	2306.7
196.787	2310.23
196.862	2327.07
196.937	2338.26
197.013	2340.83
197.088	2348.39
197.163	2372.58
197.238	2393.16
197.313	2393.16
197.388	2407.06
197.464	2437.63
197.539	2450.68
197.614	2447.25
197.689	2460.39
197.764	2474.53
197.839	2496.48
197.914	2490.67
197.989	2513.2
198.065	2529.53
198.14	2579.65
198.215	2605.46
198.29	2617.8
198.365	2629.66
198.44	2639.76
198.515	2670.01
198.59	2687.16
198.665	2717.93
198.74	2722.88
198.815	2720.64
198.89	2745.61
198.965	2774.35
199.04	2768.72
199.115	2786.4
199.19	2826.09
199.265	2828.61
199.34	2837.38
199.415	2871.71
199.49	2896.73
199.565	2908.07
199.64	2931.33
199.715	2928.23
199.79	2938.05
199.865	2944.2
199.94	2942.05
200.015	2971.99
200.09	2977.14
200.165	2984.39
200.24	2989.58
200.315	3032.48
200.39	3047.26
200.464	3052.27
200.539	3055.47
200.614	3073.72
200.689	3094.08
200.764	3101.34
200.839	3121.59
200.914	3129.51
200.989	3117.2
201.063	3129.83
201.138	3112.63
201.213	3115.45
201.288	3097.52
201.363	3102.05
201.438	3105.24
201.512	3126.07
201.587	3106.57
201.662	3112.2
201.737	3126.03
201.812	3136.71
201.886	3102.39
201.961	3112.51
202.036	3102.55
202.111	3100.3
202.186	3076.81
202.26	3064.26
202.335	3042.95
202.41	3037.08
202.485	3021.54
202.559	3007.48
202.634	2983.16
202.709	2997.46
202.784	2981.58
202.858	2987.25
202.933	2977.1
203.008	2973.09
203.082	2958.12
203.157	2970.47
203.232	2935.87
203.306	2923.9
203.381	2900.39
203.456	2887.47
203.53	2877.64
203.605	2866.59
203.68	2858.29
203.754	2867.48
203.829	2869.92
203.904	2870.77
203.978	2882.46
204.053	2908.3
204.127	2916.79
204.202	2942.53
204.277	2952.4
204.351	2974.62
204.426	2999.67
204.5	3021.8
204.575	3026.85
204.65	3075.23
204.724	3109.36
204.799	3159.71
204.873	3201.72
204.948	3250.1
205.022	3293.85
205.097	3342.85
205.171	3417.02
205.246	3487.42
205.32	3547.27
205.395	3611.61
205.469	3677.73
205.544	3759.42
205.618	3823.35
205.693	3919.85
205.767	3993.7
205.842	4106.84
205.916	4194.29
205.991	4278.66
206.065	4384.96
206.14	4503.55
206.214	4604.47
206.289	4707.37
206.363	4833.72
206.438	4951.99
206.512	5081.85
206.586	5229.22
206.661	5364.75
206.735	5474.53
206.81	5607.24
206.884	5761.66
206.958	5890.75
207.033	6048.56
207.107	6201.26
207.181	6383.83
207.256	6524.06
207.33	6692.82
207.405	6853.74
207.479	7037.54
207.553	7205.29
207.628	7352.6
207.702	7530.57
207.776	7699.37
207.851	7872.33
207.925	8061.41
207.999	8239.59
208.073	8416.15
208.148	8589.33
208.222	8753.78
208.296	8969.95
208.371	9170.95
208.445	9368.3
208.519	9577.96
208.593	9777.13
208.668	9956.1
208.742	10143.94
208.816	10333.27
208.89	10539.17
208.965	10731.27
209.039	10925.65
209.113	11135.44
209.187	11353.75
209.261	11544.24
209.336	11763.62
209.41	11972.4
209.484	12155.65
209.558	12365.6
209.632	12565.77
209.707	12781.18
209.781	12997.03
209.855	13205.03
209.929	13412.06
210.003	13604.49
210.077	13791.43
210.151	14022.75
210.226	14249.21
210.3	14461.69
210.374	14678.27
210.448	14863.9
210.522	15056.08
210.596	15241.81
210.67	15434.66
210.744	15652.29
210.818	15860.32
210.892	16047.86
210.966	16221.04
211.041	16422.61
211.115	16584.07
211.189	16783.27
211.263	16957.26
211.337	17127.58
211.411	17305.95
211.485	17467.44
211.559	17638.34
211.633	17802.34
211.707	17935.74
211.781	18102.43
211.855	18230.91
211.929	18377.7
212.003	18513.94
212.077	18685.6
212.151	18860.53
212.225	19016.86
212.299	19154.88
212.373	19289.72
212.447	19422.34
212.52	19589.51
212.594	19729.8
212.668	19878.81
212.742	19996.88
212.816	20124.87
212.89	20257.26
212.964	20385.74
213.038	20516.21
213.112	20660.16
213.186	20806.43
213.26	20909.23
213.333	20982.05
213.407	21111.36
213.481	21239.28
213.555	21384.01
213.629	21486.59
213.703	21585.59
213.777	21702
213.85	21802.17
213.924	21946.21
213.998	22066.82
214.072	22169.11
214.146	22267.99
214.219	22379.3
214.293	22483.04
214.367	22592.77
214.441	22702.21
214.515	22792.51
214.588	22863.82
214.662	22928.96
214.736	22996.41
214.81	23097.89
214.883	23201.6
214.957	23259.07
215.031	23327.97
215.105	23388.58
215.178	23453.64
215.252	23532.24
215.326	23586.4
215.4	23643.4
215.473	23677.26
215.547	23729.01
215.621	23797.26
215.694	23868.54
215.768	23922.47
215.842	23985.27
215.915	24031.33
215.989	24069.92
216.063	24118.25
216.136	24187.56
216.21	24252.63
216.284	24330.44
216.357	24389.43
216.431	24444.52
216.504	24520.93
216.578	24610.72
216.652	24669.33
216.725	24729
216.799	24785.89
216.873	24841.57
216.946	24898.59
217.02	24934.68
217.093	24990.21
217.167	25013.71
217.24	25036.54
217.314	25067.12
217.387	25086.33
217.461	25135.16
217.535	25204.79
217.608	25228.34
217.682	25262.26
217.755	25313.85
217.829	25363.32
217.902	25407
217.976	25454.58
218.049	25484.7
218.123	25493.87
218.196	25539.14
218.27	25559.7
218.343	25583.78
218.417	25618
218.49	25662.26
218.563	25730.9
218.637	25766.09
218.71	25818.17
218.784	25868.03
218.857	25918.47
218.931	25968.66
219.004	25995.84
219.077	26022.2
219.151	26059.8
219.224	26099.19
219.298	26128.74
219.371	26165.53
219.444	26183.2
219.518	26197.68
219.591	26228.87
219.665	26289.27
219.738	26312.73
219.811	26333.83
219.885	26371.01
219.958	26400.99
220.031	26410.21
220.105	26417.11
220.178	26433.53
220.251	26450.43
220.325	26482.93
220.398	26512.58
220.471	26545.75
220.544	26577.76
220.618	26587.27
220.691	26630.29
220.764	26643.72
220.838	26661.05
220.911	26659.27
220.984	26696.84
221.057	26714.9
221.131	26738.7
221.204	26721.36
221.277	26764.64
221.35	26825.19
221.424	26824.37
221.497	26837.9
221.57	26859.77
221.643	26884.88
221.716	26905.89
221.79	26909.13
221.863	26900.24
221.936	26892.32
222.009	26897.73
222.082	26902.85
222.155	26896.57
222.229	26911.64
222.302	26919.75
222.375	26920.86
222.448	26933.03
222.521	26936.8
222.594	26940.23
222.667	26921.45
222.74	26929.85
222.814	26905.22
222.887	26879.18
222.96	26886.42
223.033	26888.5
223.106	26878.07
223.179	26877.1
223.252	26868.41
223.325	26871.02
223.398	26869.72
223.471	26857.64
223.544	26841.32
223.617	26832.97
223.69	26839.1
223.763	26808.09
223.837	26800.8
223.91	26798.87
223.983	26763.71
224.056	26735.56
224.129	26725.61
224.202	26726.05
224.275	26713.1
224.348	26691.81
224.42	26671.19
224.493	26633.38
224.566	26611.36
224.639	26599.43
224.712	26569.69
224.785	26547.91
224.858	26528.83
224.931	26503.05
225.004	26492.04
225.077	26468.05
225.15	26429.61
225.223	26401.95
225.296	26407.94
225.369	26370.08
225.442	26334.16
225.514	26317.21
225.587	26298.05
225.66	26275.31
225.733	26249.38
225.806	26222.73
225.879	26200.33
225.952	26158.23
226.025	26162.72
226.097	26166.3
226.17	26146.07
226.243	26109.53
226.316	26094.17
226.389	26072.06
226.461	26056.37
226.534	26034.79
226.607	26016.55
226.68	26014.96
226.753	25988.21
226.825	25936.12
226.898	25926.42
226.971	25897.75
227.044	25883.12
227.117	25850.98
227.189	25827.95
227.262	25817.09
227.335	25786.49
227.407	25758.55
227.48	25750.1
227.553	25704.15
227.626	25647.33
227.698	25620.06
227.771	25602.16
227.844	25562.1
227.916	25529.23
227.989	25486.32
228.062	25454.91
228.134	25452.69
228.207	25403.6
228.28	25364.23
228.352	25330.21
228.425	25295.9
228.498	25280.69
228.57	25239.77
228.643	25232.24
228.716	25205.27
228.788	25152.33
228.861	25120.53
228.934	25097.9
229.006	25050.47
229.079	25020.51
229.151	24989.1
229.224	24940.03
229.296	24908.72
229.369	24894.96
229.442	24874.79
229.514	24840.73
229.587	24813.33
229.659	24748.14
229.732	24730.39
229.804	24718.23
229.877	24709.31
229.949	24700.33
230.022	24686.15
230.094	24655.27
230.167	24623.09
230.239	24579.19
230.312	24570.55
230.384	24564.14
230.457	24542.33
230.529	24526.89
230.602	24502.1
230.674	24473.35
230.747	24459.84
230.819	24443.63
230.892	24381.55
230.964	24347.78
231.037	24314.74
231.109	24282.23
231.181	24261.45
231.254	24217.46
231.326	24184.03
231.399	24140.04
231.471	24089.63
231.544	24025.72
231.616	24003.92
231.688	23960.99
231.761	23912.47
231.833	23860.43
231.905	23792.91
231.978	23742.65
232.05	23702.53
232.122	23666.45
232.195	23627.53
232.267	23594.02
232.339	23549.55
232.412	23530.64
232.484	23495.63
232.556	23452.62
232.629	23436.27
232.701	23411.48
232.773	23380.91
232.846	23336.84
232.918	23304.34
232.99	23263.01
233.062	23236.44
233.135	23200.32
233.207	23152.97
233.279	23132.82
233.351	23106.35
233.424	23070.52
233.496	23027.8
233.568	23008.18
233.64	22957.6
233.713	22917.63
233.785	22881.28
233.857	22839.43
233.929	22785.19
234.001	22753.7
234.074	22735.43
234.146	22678.83
234.218	22632.25
234.29	22581.25
234.362	22527.16
234.434	22478.9
234.507	22435.41
234.579	22375.1
234.651	22329.64
234.723	22283.7
234.795	22243.54
234.867	22196.78
234.939	22167.57
235.012	22135.61
235.084	22101.53
235.156	22075.01
235.228	22037.89
235.3	21992.53
235.372	21953.01
235.444	21921.34
235.516	21854.33
235.588	21818.95
235.66	21775.23
235.732	21727.46
235.804	21758.17
235.876	21732.43
235.948	21708.09
236.02	21659.94
236.092	21615.45
236.164	21572.6
236.236	21536.79
236.308	21487.92
236.38	21449.02
236.452	21387.13
236.524	21347.9
236.596	21322.11
236.668	21274.44
236.74	21229.14
236.812	21195.74
236.884	21158.34
236.956	21115.87
237.028	21064.59
237.1	21011.29
237.172	20975.91
237.244	20941.17
237.316	20848.91
237.388	20796.43
237.46	20733.14
237.532	20711.55
237.604	20669.72
237.675	20638.25
237.747	20608.76
237.819	20571.94
237.891	20530.49
237.963	20500.18
238.035	20448.18
238.107	20363.89
238.178	20342.15
238.25	20290.59
238.322	20262.01
238.394	20197.19
238.466	20154.06
238.538	20125.48
238.609	20089.05
238.681	20032.28
238.753	19991.75
238.825	19955.03
238.897	19913.68
238.968	19882.74
239.04	19823.51
239.112	19813.34
239.184	19754.99
239.255	19704.82
239.327	19662.89
239.399	19613.69
239.471	19584.05
239.542	19547.77
239.614	19517.65
239.686	19452.11
239.758	19427.53
239.829	19370.23
239.901	19344.21
239.973	19303.39
240.044	19271.4
240.116	19232.03
240.188	19189.43
240.259	19137.53
240.331	19087.22
240.403	19056.61
240.474	19006.83
240.546	18963.03
240.618	18891.37
240.689	18858.94
240.761	18821.88
240.833	18801.31
240.904	18763.91
240.976	18717.17
241.048	18679.72
241.119	18648.21
241.191	18619.24
241.262	18586.86
241.334	18540.41
241.405	18507.64
241.477	18466.29
241.549	18422.44
241.62	18376.08
241.692	18337.81
241.763	18319.69
241.835	18278.59
241.906	18235.12
241.978	18186.83
242.049	18159.51
242.121	18136.23
242.192	18112.52
242.264	18060.57
242.335	17998.89
242.407	17965.15
242.478	17919.42
242.55	17874.94
242.621	17824.48
242.693	17772.44
242.764	17735.91
242.836	17692.34
242.907	17657.07
242.979	17619.96
243.05	17572.1
243.122	17542.18
243.193	17506.32
243.264	17441.45
243.336	17399.81
243.407	17372.3
243.479	17352.01
243.55	17313.45
243.622	17268.54
243.693	17215.28
243.764	17189.88
243.836	17137.69
243.907	17091.18
243.978	17050.12
244.05	17018.26
244.121	16962.02
244.192	16940.57
244.264	16885.15
244.335	16854.5
244.407	16793.39
244.478	16753.92
244.549	16720.61
244.62	16665.48
244.692	16625.86
244.763	16597.47
244.834	16555.11
244.906	16504.31
244.977	16478.38
245.048	16468.84
245.119	16430.13
245.191	16381.5
245.262	16318.75
245.333	16301.88
245.405	16267.85
245.476	16234.4
245.547	16205.39
245.618	16176.42
245.689	16130.87
245.761	16090.77
245.832	16054.48
245.903	16027.59
245.974	15999.49
246.045	15960.83
246.117	15951.05
246.188	15906.7
246.259	15859.22
246.33	15823.65
246.401	15791.41
246.473	15731.06
246.544	15671.87
246.615	15645.89
246.686	15604.49
246.757	15589.79
246.828	15541.44
246.899	15525.87
246.97	15474.63
247.042	15427.59
247.113	15410.82
247.184	15401.85
247.255	15366.81
247.326	15329.21
247.397	15290.79
247.468	15258.16
247.539	15229.48
247.61	15169.08
247.681	15144.84
247.752	15127.34
247.823	15088.73
247.894	15059.76
247.965	15019.89
248.037	14980.42
248.108	14927.73
248.179	14901.89
248.25	14863.47
248.321	14843.32
248.392	14795.36
248.463	14795.89
248.534	14763.84
248.605	14736.94
248.675	14686.71
248.746	14661.84
248.817	14638.07
248.888	14613.54
248.959	14564.8
249.03	14543.35
249.101	14518.96
249.172	14485.02
249.243	14430.02
249.314	14420.62
249.385	14396.28
249.456	14374.05
249.527	14348.6
249.598	14340.99
249.669	14311.82
249.739	14288.2
249.81	14262.27
249.881	14216.52
249.952	14178.97
250.023	14144.55
250.094	14093.93
250.165	14061.54
250.235	14028.85
250.306	13997.76
250.377	13961.46
250.448	13943.87
250.519	13889.3
250.59	13877.53
250.66	13842.29
250.731	13837.38
250.802	13801.46
250.873	13768.83
250.944	13746.75
251.014	13712.23
251.085	13704.95
251.156	13675.55
251.227	13655.4
251.297	13648.36
251.368	13642.48
251.439	13626.28
251.51	13614.76
251.58	13580.15
251.651	13549.3
251.722	13539.7
251.792	13497.23
251.863	13467.92
251.934	13454.76
252.005	13455.49
252.075	13430.23
252.146	13422.03
252.217	13406.94
252.287	13388.67
252.358	13367.99
252.429	13353.19
252.499	13324.65
252.57	13300.55
252.641	13294.81
252.711	13277.17
252.782	13235.66
252.852	13225.59
252.923	13201.24
252.994	13180.47
253.064	13173.48
253.135	13136.17
253.205	13107.34
253.276	13106.42
253.347	13095.48
253.417	13056.19
253.488	13026.01
253.558	12994.68
253.629	12967.25
253.699	12947.82
253.77	12931.24
253.841	12903.28
253.911	12889.35
253.982	12863.42
254.052	12845.68
254.123	12827.6
254.193	12803.3
254.264	12813.76
254.334	12779.83
254.405	12743.67
254.475	12704.39
254.546	12681.01
254.616	12685.44
254.687	12663.99
254.757	12642.54
254.827	12621.86
254.898	12602.82
254.968	12583.83
255.039	12555.87
255.109	12548.59
255.18	12513.4
255.25	12467.9
255.321	12453.96
255.391	12421.38
255.461	12426.97
255.532	12375.58
255.602	12345.65
255.673	12306.75
255.743	12268.57
255.813	12221.96
255.884	12216.03
255.954	12209.57
256.024	12209.67
256.095	12181.66
256.165	12146.23
256.235	12132.16
256.306	12107.77
256.376	12101.79
256.446	12093.02
256.517	12084.1
256.587	12066.6
256.657	12049.73
256.728	12035.37
256.798	12007.85
256.868	11976.66
256.938	11947.59
257.009	11939.59
257.079	11924.46
257.149	11925.18
257.219	11885.95
257.29	11874.52
257.36	11832.49
257.43	11821.02
257.5	11770.75
257.571	11747.52
257.641	11739.03
257.711	11707.7
257.781	11694.83
257.852	11681.63
257.922	11642.54
257.992	11619.36
258.062	11598.05
258.132	11587.98
258.202	11568.7
258.273	11558.24
258.343	11559.88
258.413	11526.48
258.483	11508.31
258.553	11475.97
258.623	11445.6
258.693	11427.48
258.764	11423.77
258.834	11424.11
258.904	11404.3
258.974	11380.11
259.044	11359.87
259.114	11348.11
259.184	11332.73
259.254	11310.8
259.324	11271.67
259.394	11259.14
259.464	11260.44
259.535	11236.49
259.605	11210.17
259.675	11184.39
259.745	11170.51
259.815	11135.57
259.885	11114.37
259.955	11126.61
260.025	11105.5
260.095	11093.6
260.165	11088.78
260.235	11095.14
260.305	11063.24
260.375	11032.16
260.445	11037.75
260.515	11038.66
260.585	11033.03
260.655	11009.99
260.725	11005.27
260.795	10993.9
260.865	10998.47
260.934	10968.35
261.004	10964.21
261.074	10950.96
261.144	10950.96
261.214	10937.56
261.284	10922.62
261.354	10926.57
261.424	10893.95
261.494	10900.74
261.564	10881.47
261.634	10869.66
261.703	10823.54
261.773	10813.81
261.843	10810.05
