Data from 20250704_urea_0.5M_MAYP1162681_11-08-03-749.txt Node
Date: Fri Jul 04 11:08:03 BST 2025
User: adleo
Spectrometer: MAYP116268
Trigger mode: 0
Integration Time (sec): 1.000000E0
Scans to average: 1
Electric dark correction enabled: true
Nonlinearity correction enabled: true
Boxcar width: 10
XAxis mode: Wavelengths
Number of Pixels in Spectrum: 2068
>>>>>Begin Spectral Data<<<<<
179.565	1233.19
179.642	1294.64
179.718	1341.56
179.795	1381.57
179.871	1416.44
179.948	1436.29
180.024	1458.32
180.101	1482.95
180.177	1496.21
180.254	1518.83
180.33	1541.67
180.407	1596.99
180.483	1692.81
180.56	1786.08
180.636	1873.72
180.712	1860.22
180.789	1874
180.865	1886.88
180.942	1896.77
181.018	1908.47
181.095	1921.16
181.171	1927.96
181.248	1927.87
181.324	1942.51
181.4	1949.6
181.477	1961.2
181.553	1974.04
181.63	1994.39
181.706	2011.61
181.782	2020.88
181.859	2022.59
181.935	2028.01
182.011	2024.16
182.088	2041.99
182.164	2061.07
182.24	2072.34
182.317	2082.23
182.393	2080.52
182.469	2095.21
182.546	2108.77
182.622	2111.72
182.698	2108.15
182.775	2119.9
182.851	2133.03
182.927	2127.27
183.003	2124.18
183.08	2116.29
183.156	2124.99
183.232	2120.57
183.308	2106.15
183.385	2114.71
183.461	2131.55
183.537	2131.65
183.613	2147.2
183.69	2137.93
183.766	2126.41
183.842	2136.93
183.918	2142.54
183.995	2155.19
184.071	2160.47
184.147	2152.58
184.223	2140.4
184.299	2155.3
184.375	2144.83
184.452	2155.64
184.528	2203.46
184.604	2213.73
184.68	2226.72
184.756	2236
184.832	2241.28
184.908	2247.08
184.985	2247.75
185.061	2230.62
185.137	2242.9
185.213	2230.05
185.289	2232.95
185.365	2226.29
185.441	2222.01
185.517	2229.72
185.593	2224.72
185.669	2221.63
185.745	2232.53
185.822	2250.08
185.898	2238.56
185.974	2250.4
186.05	2236.98
186.126	2204.72
186.202	2196.97
186.278	2196.21
186.354	2185.12
186.43	2190.74
186.506	2189.88
186.582	2187.27
186.658	2195.59
186.734	2171.52
186.81	2174.13
186.886	2176.51
186.962	2191.31
187.038	2193.26
187.114	2189.07
187.19	2197.26
187.266	2185.93
187.341	2187.27
187.417	2178.61
187.493	2181.37
187.569	2182.65
187.645	2178.89
187.721	2167.76
187.797	2176.84
187.873	2178.75
187.949	2173.71
188.025	2167.85
188.101	2170.09
188.176	2176.18
188.252	2172.09
188.328	2182.07
188.404	2182.59
188.48	2175.89
188.556	2165.94
188.632	2161.8
188.707	2165.18
188.783	2162.85
188.859	2159.67
188.935	2150.34
189.011	2160.47
189.086	2151.67
189.162	2140.3
189.238	2137.45
189.314	2135.17
189.39	2129.08
189.465	2120.7
189.541	2136.02
189.617	2121.66
189.693	2118.19
189.768	2121.71
189.844	2146.79
189.92	2136.76
189.996	2144.8
190.071	2158.88
190.147	2160.4
190.223	2168.97
190.298	2162.02
190.374	2150.69
190.45	2161.11
190.526	2169.06
190.601	2161.68
190.677	2166.39
190.753	2194.38
190.828	2198.18
190.904	2209.22
190.98	2225.54
191.055	2235.97
191.131	2227.59
191.207	2248.43
191.282	2258.08
191.358	2249.04
191.433	2231.24
191.509	2246.03
191.585	2243.79
191.66	2244.6
191.736	2250.65
191.811	2240.32
191.887	2254.65
191.963	2276.59
192.038	2284.72
192.114	2284.06
192.189	2289.48
192.265	2284.96
192.34	2263.97
192.416	2262.45
192.491	2259.88
192.567	2261.87
192.642	2266.35
192.718	2266.35
192.793	2256.07
192.869	2249.22
192.944	2251.5
193.02	2259.88
193.095	2264.73
193.171	2269.44
193.246	2268.82
193.322	2264.26
193.397	2266.59
193.473	2252.93
193.548	2235.13
193.624	2239.93
193.699	2242.22
193.775	2257.31
193.85	2261.4
193.925	2270.01
194.001	2267.92
194.076	2261.97
194.152	2249.83
194.227	2238.89
194.302	2230.47
194.378	2231.47
194.453	2229.57
194.529	2243.22
194.604	2227.14
194.679	2218.67
194.755	2200.64
194.83	2212.97
194.905	2211.59
194.981	2220.3
195.056	2211.55
195.131	2218.02
195.207	2214.35
195.282	2201.41
195.357	2182.52
195.433	2194.98
195.508	2184.66
195.583	2190.51
195.659	2203.36
195.734	2211.64
195.809	2213.12
195.884	2221.82
195.96	2224.15
196.035	2241.23
196.11	2235.57
196.185	2249.41
196.261	2256.12
196.336	2285.82
196.411	2267.96
196.486	2275.39
196.561	2268.25
196.637	2278
196.712	2292
196.787	2293
196.862	2309.08
196.937	2318.79
197.013	2324.45
197.088	2335.78
197.163	2363.73
197.238	2380.45
197.313	2379.31
197.388	2393.68
197.464	2423.68
197.539	2435.58
197.614	2429.2
197.689	2443.77
197.764	2462.39
197.839	2480.72
197.914	2475.67
197.989	2503.58
198.065	2516.14
198.14	2564.36
198.215	2592.03
198.29	2604.27
198.365	2619.18
198.44	2632.08
198.515	2659.99
198.59	2673.95
198.665	2700.96
198.74	2707.97
198.815	2707.06
198.89	2732.45
198.965	2759.24
199.04	2754.61
199.115	2770.29
199.19	2810.73
199.265	2811.12
199.34	2817.79
199.415	2852.97
199.49	2876.13
199.565	2881.7
199.64	2907.49
199.715	2907.11
199.79	2916.21
199.865	2923.6
199.94	2924.08
200.015	2954.83
200.09	2959.6
200.165	2969.99
200.24	2975.85
200.315	3016.46
200.39	3033.1
200.464	3038.68
200.539	3045.83
200.614	3063.28
200.689	3084.88
200.764	3092.75
200.839	3111.67
200.914	3118.82
200.989	3108.85
201.063	3123.11
201.138	3108.1
201.213	3109.48
201.288	3094.08
201.363	3096.27
201.438	3095.85
201.512	3113.53
201.587	3097.46
201.662	3101.65
201.737	3116.1
201.812	3124.45
201.886	3089.56
201.961	3100.2
202.036	3088.95
202.111	3085.66
202.186	3055.97
202.26	3039.95
202.335	3018.35
202.41	3012.34
202.485	2993.85
202.559	2972.35
202.634	2943.22
202.709	2952.85
202.784	2932.59
202.858	2930.44
202.933	2911.28
203.008	2904.37
203.082	2882.87
203.157	2881.25
203.232	2838.71
203.306	2815.54
203.381	2782.93
203.456	2759.15
203.53	2736.93
203.605	2717.3
203.68	2691.85
203.754	2688.14
203.829	2672.98
203.904	2650.84
203.978	2639.59
204.053	2646.16
204.127	2634.11
204.202	2636.4
204.277	2621.25
204.351	2611.97
204.426	2603.29
204.5	2596.06
204.575	2562.58
204.65	2569.68
204.724	2561.58
204.799	2571.05
204.873	2567.38
204.948	2567.29
205.022	2556.15
205.097	2547.47
205.171	2560.09
205.246	2568.57
205.32	2565.62
205.395	2567.15
205.469	2561.91
205.544	2568.15
205.618	2550.77
205.693	2563.39
205.767	2549.34
205.842	2564.77
205.916	2562.25
205.991	2554.3
206.065	2562.39
206.14	2578.86
206.214	2578.29
206.289	2572.9
206.363	2584.62
206.438	2584.57
206.512	2592.62
206.586	2614.72
206.661	2623.58
206.735	2602.11
206.81	2603.78
206.884	2621.54
206.958	2608.73
207.033	2627.49
207.107	2637.36
207.181	2672.76
207.256	2669.1
207.33	2692.25
207.405	2713.03
207.479	2738.19
207.553	2753.77
207.628	2744.1
207.702	2762.2
207.776	2762.11
207.851	2771.78
207.925	2797.86
207.999	2807.43
208.073	2817.06
208.148	2833.89
208.222	2836.37
208.296	2887.64
208.371	2923.13
208.445	2958.56
208.519	3013.05
208.593	3048.05
208.668	3070.28
208.742	3097.63
208.816	3129.96
208.89	3174.09
208.965	3204.65
209.039	3248.66
209.113	3303.97
209.187	3366.07
209.261	3404.76
209.336	3470.87
209.41	3542.06
209.484	3592.21
209.558	3673.37
209.632	3745.87
209.707	3815.43
209.781	3903.53
209.855	3985.38
209.929	4072.59
210.003	4150.92
210.077	4226.53
210.151	4356.1
210.226	4474.03
210.3	4590.63
210.374	4704.44
210.448	4805.94
210.522	4915.03
210.596	5026.3
210.67	5144.53
210.744	5300.47
210.818	5450.9
210.892	5595.21
210.966	5711.32
211.041	5857.49
211.115	5982.73
211.189	6139.38
211.263	6293.65
211.337	6439.6
211.411	6600.17
211.485	6745.43
211.559	6906.41
211.633	7064.99
211.707	7189.24
211.781	7355.44
211.855	7485.57
211.929	7641.62
212.003	7795.88
212.077	7980.61
212.151	8163.97
212.225	8347.79
212.299	8518.27
212.373	8683.94
212.447	8861.13
212.52	9077.15
212.594	9265.01
212.668	9464.28
212.742	9633.73
212.816	9816.53
212.89	9998.48
212.964	10181.77
213.038	10373.36
213.112	10575.9
213.186	10780.07
213.26	10953.51
213.333	11105.1
213.407	11302.9
213.481	11500.07
213.555	11702.61
213.629	11887.68
213.703	12061.58
213.777	12255.2
213.85	12427.52
213.924	12657.87
213.998	12847.64
214.072	13025.56
214.146	13204.54
214.219	13385.74
214.293	13577.59
214.367	13771.95
214.441	13975.81
214.515	14149.73
214.588	14317.29
214.662	14460.41
214.736	14619.77
214.81	14802.03
214.883	14989.11
214.957	15151.55
215.031	15316.74
215.105	15463.81
215.178	15617.09
215.252	15788.44
215.326	15925.38
215.4	16074.94
215.473	16186.9
215.547	16323.88
215.621	16479.65
215.694	16646.46
215.768	16772.87
215.842	16909.75
215.915	17040.26
215.989	17157.28
216.063	17298.19
216.136	17431.59
216.21	17575.16
216.284	17726.49
216.357	17867.88
216.431	17990.73
216.504	18130.43
216.578	18290.96
216.652	18432.88
216.725	18563.05
216.799	18690.75
216.873	18813.98
216.946	18932.19
217.02	19050.01
217.093	19168.08
217.167	19254.19
217.24	19339.54
217.314	19452.11
217.387	19549.89
217.461	19643.67
217.535	19769.3
217.608	19850.17
217.682	19948.38
217.755	20059.17
217.829	20147.03
217.902	20245
217.976	20343.61
218.049	20425.63
218.123	20483.65
218.196	20575.37
218.27	20645.63
218.343	20715.52
218.417	20808.39
218.49	20884.82
218.563	20968.3
218.637	21045.27
218.71	21132.65
218.784	21207.45
218.857	21289.34
218.931	21363.46
219.004	21434.65
219.077	21499.82
219.151	21580.65
219.224	21649.92
219.298	21719.52
219.371	21793.85
219.444	21837.91
219.518	21895.7
219.591	21961.74
219.665	22058.44
219.738	22112.82
219.811	22155.14
219.885	22219.16
219.958	22275.27
220.031	22322.8
220.105	22372.07
220.178	22431.27
220.251	22472.59
220.325	22536.85
220.398	22590.56
220.471	22640.36
220.544	22700.77
220.618	22720.82
220.691	22754.71
220.764	22794.01
220.838	22827.47
220.911	22848.25
220.984	22908.18
221.057	22944.68
221.131	22975.25
221.204	22961.31
221.277	23005.48
221.35	23070.33
221.424	23087.97
221.497	23108.71
221.57	23141.06
221.643	23180.07
221.716	23197.91
221.79	23216.14
221.863	23229.83
221.936	23252.54
222.009	23271.49
222.082	23287.65
222.155	23303.95
222.229	23337.65
222.302	23352.36
222.375	23360.65
222.448	23374.25
222.521	23377.87
222.594	23379.41
222.667	23370.1
222.74	23400.34
222.814	23398.27
222.887	23401.88
222.96	23420.01
223.033	23436.84
223.106	23441.52
223.179	23446.87
223.252	23449.24
223.325	23462.64
223.398	23469.68
223.471	23461
223.544	23459.51
223.617	23460.23
223.69	23464.14
223.763	23452.52
223.837	23456.42
223.91	23470.55
223.983	23466.21
224.056	23453.43
224.129	23465.1
224.202	23479.38
224.275	23467.03
224.348	23454.25
224.42	23435.93
224.493	23406.18
224.566	23387.22
224.639	23388.43
224.712	23376.76
224.785	23359.49
224.858	23345.85
224.931	23313.83
225.004	23288.75
225.077	23278.87
225.15	23241.4
225.223	23233.11
225.296	23244.73
225.369	23212.76
225.442	23177.85
225.514	23157.41
225.587	23146.94
225.66	23137.11
225.733	23128.33
225.806	23106.73
225.879	23091.35
225.952	23059.91
226.025	23067.48
226.097	23059.19
226.17	23036.81
226.243	22989.85
226.316	22967.82
226.389	22947.57
226.461	22940.24
226.534	22939.56
226.607	22925.39
226.68	22930.74
226.753	22904.17
226.825	22853.21
226.898	22845.25
226.971	22823.56
227.044	22817.96
227.117	22796.85
227.189	22768.49
227.262	22749.26
227.335	22736.05
227.407	22704.57
227.48	22695.5
227.553	22666.57
227.626	22628.05
227.698	22600.72
227.771	22591.36
227.844	22567.11
227.916	22540.26
227.989	22497.89
228.062	22459.41
228.134	22450.06
228.207	22429.14
228.28	22412.31
228.352	22391.58
228.425	22366.03
228.498	22346.36
228.57	22299.41
228.643	22278.29
228.716	22253.08
228.788	22223.77
228.861	22196
228.934	22194.46
229.006	22158.79
229.079	22135.55
229.151	22110.77
229.224	22082.33
229.296	22069.75
229.369	22071.15
229.442	22065.41
229.514	22042.52
229.587	22039.96
229.659	21998.12
229.732	21967.99
229.804	21948.71
229.877	21945.91
229.949	21939.26
230.022	21940.81
230.094	21922.1
230.167	21895.01
230.239	21860.26
230.312	21832.4
230.384	21835.58
230.457	21806.66
230.529	21797.36
230.602	21775.18
230.674	21762.22
230.747	21746.6
230.819	21722.64
230.892	21664.95
230.964	21634.19
231.037	21620.17
231.109	21584.36
231.181	21559.39
231.254	21520.35
231.326	21481.02
231.399	21441.4
231.471	21396.76
231.544	21351.02
231.616	21335.89
231.688	21316.32
231.761	21285.33
231.833	21263.11
231.905	21201.94
231.978	21181.6
232.05	21149.07
232.122	21121.12
232.195	21077.59
232.267	21058.51
232.339	21024.58
232.412	21010.41
232.484	20982.02
232.556	20940.28
232.629	20934.21
232.701	20917.05
232.773	20893.29
232.846	20862.35
232.918	20841.63
232.99	20817.1
233.062	20785.72
233.135	20759.21
233.207	20714.54
233.279	20695.07
233.351	20659.79
233.424	20630.39
233.496	20582.63
233.568	20570.3
233.64	20529.33
233.713	20500.27
233.785	20468.51
233.857	20433.52
233.929	20392.08
234.001	20374.49
234.074	20356.61
234.146	20299.02
234.218	20261.67
234.29	20221.52
234.362	20185.04
234.434	20125.09
234.507	20078.78
234.579	20029.53
234.651	19992.08
234.723	19980.47
234.795	19950.3
234.867	19913.1
234.939	19899.8
235.012	19873.34
235.084	19843.08
235.156	19814.93
235.228	19778.07
235.3	19736.19
235.372	19708.63
235.444	19688.67
235.516	19627.09
235.588	19597.93
235.66	19569.69
235.732	19525.89
235.804	19553.26
235.876	19537.45
235.948	19531
236.02	19496.59
236.092	19469.31
236.164	19437.12
236.236	19387.82
236.308	19351.1
236.38	19322.96
236.452	19279.88
236.524	19247.4
236.596	19225.28
236.668	19197.14
236.74	19162.44
236.812	19133.82
236.884	19100.81
236.956	19065.1
237.028	19025.97
237.1	18982.79
237.172	18963.66
237.244	18952.33
237.316	18877.4
237.388	18831.04
237.46	18782.08
237.532	18774.85
237.604	18726.71
237.675	18698.61
237.747	18680.59
237.819	18631.92
237.891	18593.17
237.963	18545.66
238.035	18500.41
238.107	18420.02
238.178	18396.17
238.25	18366.34
238.322	18355.93
238.394	18302.68
238.466	18257.57
238.538	18236.66
238.609	18210.64
238.681	18149.58
238.753	18094.16
238.825	18059.99
238.897	18026.4
238.968	18010.79
239.04	17952.34
239.112	17950.55
239.184	17901.06
239.255	17853.25
239.327	17827.91
239.399	17797.45
239.471	17771.23
239.542	17744.82
239.614	17742.08
239.686	17675.86
239.758	17647.09
239.829	17591.62
239.901	17573.12
239.973	17548.97
240.044	17521.12
240.116	17489.6
240.188	17457.45
240.259	17437.02
240.331	17398.61
240.403	17375.53
240.474	17325.5
240.546	17288.78
240.618	17234.75
240.689	17199.52
240.761	17172.78
240.833	17156.92
240.904	17123.38
240.976	17089.54
241.048	17057.06
241.119	17021.98
241.191	16999.9
241.262	16988
241.334	16957.01
241.405	16920.53
241.477	16877.39
241.549	16826.84
241.62	16793.58
241.692	16764.52
241.763	16734.93
241.835	16696.85
241.906	16659.94
241.978	16623.26
242.049	16605.47
242.121	16581.33
242.192	16563.83
242.264	16512.12
242.335	16464.64
242.407	16440.26
242.478	16406.9
242.55	16383
242.621	16341.31
242.693	16305.64
242.764	16265.11
242.836	16215.22
242.907	16197.29
242.979	16174.01
243.05	16152.37
243.122	16128.27
243.193	16097.96
243.264	16039.01
243.336	16011.49
243.407	15989.32
243.479	15973.03
243.55	15950.13
243.622	15924.2
243.693	15891.67
243.764	15879.86
243.836	15835.85
243.907	15796.62
243.978	15757.91
244.05	15730.05
244.121	15674.14
244.192	15650.28
244.264	15603.67
244.335	15585.64
244.407	15528.72
244.478	15506.35
244.549	15474.83
244.62	15421.71
244.692	15380.98
244.763	15366.42
244.834	15335.52
244.906	15295.47
244.977	15262.45
245.048	15240.04
245.119	15203.16
245.191	15167.73
245.262	15114.86
245.333	15102.32
245.405	15074.94
245.476	15060.92
245.547	15023.46
245.618	15017.44
245.689	14990.93
245.761	14954.39
245.832	14917.27
245.903	14897.17
245.974	14862.75
246.045	14827.37
246.117	14815.75
246.188	14778.59
246.259	14737.28
246.33	14702.14
246.401	14671.04
246.473	14625.68
246.544	14584.71
246.615	14561.43
246.686	14523.83
246.757	14513.95
246.828	14468.15
246.899	14453.88
246.97	14401.34
247.042	14374.92
247.113	14351.59
247.184	14337.71
247.255	14308.64
247.326	14288.97
247.397	14259.18
247.468	14234.21
247.539	14210.45
247.61	14174.48
247.681	14173.13
247.752	14159.49
247.823	14120.93
247.894	14100.1
247.965	14062.89
248.037	14030.97
248.108	13985.95
248.179	13964.55
248.25	13939.62
248.321	13925.4
248.392	13886.21
248.463	13886.07
248.534	13850.78
248.605	13828.22
248.675	13798.86
248.746	13787.53
248.817	13776.11
248.888	13762.22
248.959	13716.28
249.03	13697.77
249.101	13670.63
249.172	13636.89
249.243	13592.97
249.314	13587.38
249.385	13563.28
249.456	13547.51
249.527	13522.11
249.598	13515.79
249.669	13492.22
249.739	13466.77
249.81	13452.21
249.881	13412.97
249.952	13390.46
250.023	13364.52
250.094	13326.53
250.165	13291.73
250.235	13263.33
250.306	13230.75
250.377	13193.1
250.448	13182.25
250.519	13140.02
250.59	13132.26
250.66	13098.13
250.731	13094.32
250.802	13068.73
250.873	13045.59
250.944	13031.75
251.014	12999.21
251.085	12995.26
251.156	12968.12
251.227	12955.78
251.297	12939.34
251.368	12932.45
251.439	12917.89
251.51	12910.03
251.58	12877.83
251.651	12857.92
251.722	12844.81
251.792	12807.21
251.863	12781.71
251.934	12776.84
252.005	12781.76
252.075	12755.68
252.146	12748.45
252.217	12737.65
252.287	12729.74
252.358	12705.45
252.429	12699.76
252.499	12675.51
252.57	12651.26
252.641	12645.38
252.711	12621.76
252.782	12589.66
252.852	12589.08
252.923	12558.71
252.994	12537.69
253.064	12527.57
253.135	12495.9
253.205	12471.36
253.276	12462.93
253.347	12462.64
253.417	12426.44
253.488	12400.12
253.558	12372.06
253.629	12354.42
253.699	12338.56
253.77	12325.21
253.841	12306.27
253.911	12288.09
253.982	12279.42
254.052	12269.49
254.123	12258.83
254.193	12236.9
254.264	12252.13
254.334	12225.24
254.405	12199.11
254.475	12171.39
254.546	12161.37
254.616	12162.72
254.687	12146.76
254.757	12131.39
254.827	12112.44
254.898	12099.67
254.968	12081.98
255.039	12062.7
255.109	12047.95
255.18	12020.33
255.25	11971.02
255.321	11953.72
255.391	11922.15
255.461	11918.53
255.532	11870.91
255.602	11842.47
255.673	11804.83
255.743	11773.21
255.813	11727.75
255.884	11726.6
255.954	11711.7
256.024	11706.93
256.095	11686.69
256.165	11653.67
256.235	11648.9
256.306	11624.51
256.376	11617.86
256.446	11604.32
256.517	11595.3
256.587	11584.89
256.657	11561.04
256.728	11550.87
256.798	11535.06
256.868	11517.37
256.938	11490.43
257.009	11485.7
257.079	11479.39
257.149	11492.84
257.219	11452.5
257.29	11441.03
257.36	11394.76
257.43	11394.62
257.5	11353.07
257.571	11325.26
257.641	11327.67
257.711	11297.89
257.781	11289.41
257.852	11269.65
257.922	11230.37
257.992	11208.01
258.062	11191.52
258.132	11190.03
258.202	11171.14
258.273	11157.74
258.343	11157.69
258.413	11132.01
258.483	11111.38
258.553	11080.83
258.623	11055.72
258.693	11051.62
258.764	11053.84
258.834	11055.43
258.904	11040.63
258.974	11018.52
259.044	10998.86
259.114	10977.41
259.184	10965.89
259.254	10943.63
259.324	10910.24
259.394	10905.71
259.464	10907.01
259.535	10882.14
259.605	10859.59
259.675	10838.72
259.745	10825.42
259.815	10794
259.885	10778.1
259.955	10784.71
260.025	10756.28
260.095	10733.92
260.165	10723.51
260.235	10716.33
260.305	10696.05
260.375	10663.81
260.445	10673.25
260.515	10677.25
260.585	10679.04
260.655	10657.3
260.725	10654.27
260.795	10650.12
260.865	10655.52
260.934	10633.16
261.004	10630.75
261.074	10620.3
261.144	10627.72
261.214	10627.81
261.284	10615.62
261.354	10609.75
261.424	10585.12
261.494	10593.89
261.564	10582.95
261.634	10569.56
261.703	10542.58
261.773	10535.2
261.843	10524.8
261.913	10503.65
261.983	10478.3
