Data from 20250704_urea_0.1M_MAYP1162681_11-26-27-655.txt Node
Date: Fri Jul 04 11:26:27 BST 2025
User: adleo
Spectrometer: MAYP116268
Trigger mode: 0
Integration Time (sec): 1.000000E0
Scans to average: 1
Electric dark correction enabled: true
Nonlinearity correction enabled: true
Boxcar width: 10
XAxis mode: Wavelengths
Number of Pixels in Spectrum: 2068
>>>>>Begin Spectral Data<<<<<
179.565	1251.69
179.642	1309.94
179.718	1356.47
179.795	1395.21
179.871	1429.52
179.948	1449.74
180.024	1470.29
180.101	1494.59
180.177	1508.62
180.254	1531.52
180.33	1554.77
180.407	1611.51
180.483	1710.85
180.56	1805.4
180.636	1891.43
180.712	1876.83
180.789	1889.1
180.865	1900.88
180.942	1910.49
181.018	1922.8
181.095	1933.21
181.171	1936.4
181.248	1937.83
181.324	1949.34
181.4	1959.99
181.477	1969.5
181.553	1982.43
181.63	2006.83
181.706	2021.81
181.782	2030.08
181.859	2029.32
181.935	2035.03
182.011	2032.12
182.088	2048.15
182.164	2068.04
182.24	2081.31
182.317	2094.67
182.393	2093.05
182.469	2104.66
182.546	2119.31
182.622	2122.92
182.698	2116.12
182.775	2128.68
182.851	2143.14
182.927	2136.34
183.003	2129.54
183.08	2125.59
183.156	2135.06
183.232	2127.01
183.308	2115.08
183.385	2125.35
183.461	2144.61
183.537	2144.66
183.613	2157.65
183.69	2150.37
183.766	2138.95
183.842	2147.27
183.918	2151.94
183.995	2163.16
184.071	2170.59
184.147	2164.64
184.223	2152.84
184.299	2170.26
184.375	2160.5
184.452	2164.6
184.528	2217.08
184.604	2228.73
184.68	2241.01
184.756	2247.67
184.832	2255.33
184.908	2262.42
184.985	2262.47
185.061	2246.76
185.137	2257.33
185.213	2245.58
185.289	2244.15
185.365	2233.88
185.441	2235.21
185.517	2247.68
185.593	2245.78
185.669	2243.4
185.745	2254.15
185.822	2271.56
185.898	2262.8
185.974	2270.27
186.05	2263.7
186.126	2228.11
186.202	2220.55
186.278	2218.26
186.354	2212.36
186.43	2218.74
186.506	2216.74
186.582	2214.79
186.658	2223.4
186.734	2200.85
186.81	2203.8
186.886	2207.51
186.962	2223.97
187.038	2219.41
187.114	2209.69
187.19	2217.12
187.266	2205.56
187.341	2205.32
187.417	2197.33
187.493	2198.56
187.569	2202.75
187.645	2200.09
187.721	2190.29
187.797	2197.94
187.873	2201.61
187.949	2194.42
188.025	2186.95
188.101	2189.33
188.176	2193.61
188.252	2185.86
188.328	2196.6
188.404	2196.56
188.48	2193.08
188.556	2182.57
188.632	2182.81
188.707	2184.9
188.783	2182.81
188.859	2178.1
188.935	2167.2
189.011	2176.39
189.086	2168.58
189.162	2159.02
189.238	2153.69
189.314	2149.7
189.39	2143.08
189.465	2134.09
189.541	2149.08
189.617	2133.62
189.693	2130.34
189.768	2133.62
189.844	2159.08
189.92	2149.86
189.996	2159.57
190.071	2170.51
190.147	2172.17
190.223	2180.17
190.298	2173.89
190.374	2158.76
190.45	2170.98
190.526	2181.26
190.601	2173.41
190.677	2172.98
190.753	2201.16
190.828	2205.97
190.904	2225
190.98	2241.28
191.055	2252.74
191.131	2241.85
191.207	2265.35
191.282	2273.29
191.358	2263.64
191.433	2247.88
191.509	2261.43
191.585	2258.44
191.66	2258.44
191.736	2268.33
191.811	2259.05
191.887	2276
191.963	2299.27
192.038	2303.84
192.114	2301.93
192.189	2307.12
192.265	2305.88
192.34	2282.7
192.416	2280.27
192.491	2273.22
192.567	2273.84
192.642	2275.03
192.718	2276.65
192.793	2263.47
192.869	2258.57
192.944	2264.13
193.02	2271.56
193.095	2275.51
193.171	2279.89
193.246	2278.74
193.322	2274.17
193.397	2274.03
193.473	2259.08
193.548	2241.52
193.624	2244.85
193.699	2244
193.775	2260.76
193.85	2262.09
193.925	2272.22
194.001	2271.65
194.076	2265.04
194.152	2256.42
194.227	2250.52
194.302	2241.77
194.378	2244.2
194.453	2241.1
194.529	2252.1
194.604	2239.11
194.679	2231.59
194.755	2211.51
194.83	2225.94
194.905	2223.47
194.981	2234.41
195.056	2227.56
195.131	2233.94
195.207	2233.84
195.282	2225.28
195.357	2207.33
195.433	2223.22
195.508	2208.09
195.583	2216.8
195.659	2232.46
195.734	2241.79
195.809	2238.69
195.884	2245.88
195.96	2247.16
196.035	2264.86
196.11	2258.34
196.185	2271.14
196.261	2275.04
196.336	2309.59
196.411	2291.88
196.486	2295.4
196.561	2288.6
196.637	2295.16
196.712	2312.78
196.787	2318.35
196.862	2334.62
196.937	2342.1
197.013	2345.86
197.088	2360.18
197.163	2382.94
197.238	2398.04
197.313	2394.09
197.388	2406.8
197.464	2440.04
197.539	2453.03
197.614	2443.94
197.689	2458.65
197.764	2475.37
197.839	2496.56
197.914	2490.27
197.989	2516.32
198.065	2532.17
198.14	2584.64
198.215	2615.93
198.29	2630.94
198.365	2642.75
198.44	2653.37
198.515	2682.05
198.59	2698.91
198.665	2724.01
198.74	2729.88
198.815	2729.26
198.89	2753.88
198.965	2786.43
199.04	2779.66
199.115	2793.24
199.19	2838.88
199.265	2840.03
199.34	2849.27
199.415	2887.09
199.49	2908.96
199.565	2918.44
199.64	2944.42
199.715	2941.08
199.79	2947.47
199.865	2951.28
199.94	2949.95
200.015	2979.94
200.09	2987.04
200.165	2995.24
200.24	3004.49
200.315	3045.96
200.39	3065.51
200.464	3073.66
200.539	3077
200.614	3097.16
200.689	3120.29
200.764	3127.26
200.839	3148.32
200.914	3155.24
200.989	3140.06
201.063	3154.51
201.138	3136.22
201.213	3141.27
201.288	3122.39
201.363	3127.87
201.438	3131.02
201.512	3150.75
201.587	3135.54
201.662	3140.83
201.737	3154.09
201.812	3160.63
201.886	3128.89
201.961	3138
202.036	3127.56
202.111	3127.32
202.186	3097.39
202.26	3082.51
202.335	3062.15
202.41	3057.81
202.485	3043.41
202.559	3024.72
202.634	2999.41
202.709	3015.27
202.784	2997.06
202.858	3000.54
202.933	2986.85
203.008	2983.32
203.082	2966.16
203.157	2974.13
203.232	2938.19
203.306	2926.22
203.381	2905.57
203.456	2892.7
203.53	2879.86
203.605	2869.72
203.68	2858.94
203.754	2867.37
203.829	2867.37
203.904	2866.46
203.978	2878.77
204.053	2903.85
204.127	2915.81
204.202	2940.56
204.277	2948.76
204.351	2965.83
204.426	2990.44
204.5	3016.06
204.575	3015.91
204.65	3069.5
204.724	3100.48
204.799	3150.3
204.873	3191.3
204.948	3239.92
205.022	3280.38
205.097	3326.37
205.171	3403.79
205.246	3470.65
205.32	3538.9
205.395	3611.35
205.469	3670.22
205.544	3744.87
205.618	3799.15
205.693	3891.61
205.767	3961.43
205.842	4064.99
205.916	4152.04
205.991	4233.11
206.065	4333.65
206.14	4452.72
206.214	4546.89
206.289	4646.61
206.363	4767.48
206.438	4888.53
206.512	5012.02
206.586	5147.18
206.661	5281.34
206.735	5385.04
206.81	5515.66
206.884	5659.11
206.958	5776.64
207.033	5935.89
207.107	6084.15
207.181	6265.95
207.256	6410.44
207.33	6580.48
207.405	6748.47
207.479	6923.16
207.553	7093.01
207.628	7241.51
207.702	7414.7
207.776	7575.83
207.851	7741.83
207.925	7930.02
207.999	8094.91
208.073	8265.63
208.148	8446.52
208.222	8610.52
208.296	8816.22
208.371	9012.92
208.445	9203.79
208.519	9417.04
208.593	9608.48
208.668	9787.78
208.742	9975.4
208.816	10162.75
208.89	10358.48
208.965	10539.92
209.039	10732.55
209.113	10934.04
209.187	11142.61
209.261	11323.26
209.336	11534.48
209.41	11750.52
209.484	11932.52
209.558	12148.82
209.632	12352.27
209.707	12546.42
209.781	12760.43
209.855	12959.94
209.929	13163.07
210.003	13352.99
210.077	13532.07
210.151	13763.06
210.226	13986.29
210.3	14192.12
210.374	14395.58
210.448	14588.5
210.522	14777.16
210.596	14964.77
210.67	15146.01
210.744	15367.74
210.818	15571.49
210.892	15759.08
210.966	15925.23
211.041	16111.09
211.115	16263.25
211.189	16447.27
211.263	16628.3
211.337	16781.85
211.411	16964.18
211.485	17114.26
211.559	17294.31
211.633	17460.87
211.707	17593.07
211.781	17747.52
211.855	17862.41
211.929	18007.09
212.003	18131.9
212.077	18291.9
212.151	18457.63
212.225	18617.67
212.299	18749.57
212.373	18887.88
212.447	19023.2
212.52	19194.23
212.594	19344.29
212.668	19498.79
212.742	19624.43
212.816	19758.45
212.89	19891.21
212.964	20014.83
213.038	20152.37
213.112	20289.77
213.186	20438.73
213.26	20542.44
213.333	20627.89
213.407	20766.64
213.481	20888.91
213.555	21024.34
213.629	21127.48
213.703	21220.4
213.777	21329.52
213.85	21421.01
213.924	21564.26
213.998	21676.24
214.072	21778.19
214.146	21871.51
214.219	21972.55
214.293	22072.14
214.367	22181.81
214.441	22294.85
214.515	22390.06
214.588	22459.96
214.662	22509.96
214.736	22570.56
214.81	22657.33
214.883	22747.82
214.957	22816.23
215.031	22888.59
215.105	22943.02
215.178	23019.73
215.252	23103
215.326	23167.9
215.4	23227.6
215.473	23257.64
215.547	23317.82
215.621	23370.1
215.694	23440.03
215.768	23494.33
215.842	23556.25
215.915	23593.14
215.989	23637.99
216.063	23684.54
216.136	23749.84
216.21	23810.36
216.284	23881.45
216.357	23951.62
216.431	24011.96
216.504	24068.82
216.578	24151.26
216.652	24226.88
216.725	24282.74
216.799	24343.62
216.873	24397.8
216.946	24458.38
217.02	24496.29
217.093	24542.61
217.167	24577.77
217.24	24611.35
217.314	24649.27
217.387	24696.74
217.461	24754.2
217.535	24810.94
217.608	24836.27
217.682	24876.85
217.755	24933.78
217.829	24968.61
217.902	25009.63
217.976	25049.19
218.049	25087.7
218.123	25109.07
218.196	25151.2
218.27	25180.3
218.343	25197.86
218.417	25224.55
218.49	25253.84
218.563	25313.58
218.637	25340.17
218.71	25389.06
218.784	25433.17
218.857	25484.86
218.931	25502.23
219.004	25525.16
219.077	25563.38
219.151	25617.77
219.224	25659.38
219.298	25689.06
219.371	25734.58
219.444	25746.45
219.518	25775.22
219.591	25809.92
219.665	25868.43
219.738	25898.26
219.811	25922.2
219.885	25962.56
219.958	26007.89
220.031	26035.45
220.105	26064.9
220.178	26098.69
220.251	26108
220.325	26129.54
220.398	26144.5
220.471	26171.1
220.544	26203.93
220.618	26208.32
220.691	26227.24
220.764	26234.78
220.838	26255.78
220.911	26259.11
220.984	26297.1
221.057	26332.73
221.131	26347.75
221.204	26320.03
221.277	26345.67
221.35	26393.14
221.424	26397.48
221.497	26396.13
221.57	26408.54
221.643	26419.06
221.716	26434.47
221.79	26442.14
221.863	26447.94
221.936	26452.76
222.009	26461.99
222.082	26468.99
222.155	26470
222.229	26483.33
222.302	26488.06
222.375	26489.03
222.448	26495.98
222.521	26494.82
222.594	26472.41
222.667	26462.95
222.74	26483.38
222.814	26482.6
222.887	26468.21
222.96	26474.2
223.033	26486.41
223.106	26479.99
223.179	26477.68
223.252	26470.24
223.325	26476.66
223.398	26476.37
223.471	26477
223.544	26475.36
223.617	26473.38
223.69	26477.14
223.763	26457.69
223.837	26462.37
223.91	26463
223.983	26438.28
224.056	26422.25
224.129	26424.95
224.202	26427.12
224.275	26409.45
224.348	26381.5
224.42	26354.27
224.493	26317.19
224.566	26294.69
224.639	26291.41
224.712	26269.29
224.785	26257.8
224.858	26237.09
224.931	26213.29
225.004	26180.32
225.077	26160.76
225.15	26110.9
225.223	26088.79
225.296	26090.91
225.369	26058.81
225.442	26021.25
225.514	26011.69
225.587	25990.94
225.66	25969.4
225.733	25949.37
225.806	25922
225.879	25909.5
225.952	25873.06
226.025	25867.7
226.097	25861.91
226.17	25845.11
226.243	25799.59
226.316	25765.8
226.389	25739.3
226.461	25722.36
226.534	25712.13
226.607	25686.16
226.68	25683.8
226.753	25662.13
226.825	25615.07
226.898	25595.95
226.971	25579.16
227.044	25550.15
227.117	25530.51
227.189	25509.66
227.262	25497.54
227.335	25484.47
227.407	25444.7
227.48	25427.28
227.553	25398.52
227.626	25359.32
227.698	25313
227.771	25295.87
227.844	25264.36
227.916	25238.3
227.989	25189.08
228.062	25145.36
228.134	25140.49
228.207	25108.59
228.28	25071.92
228.352	25048.28
228.425	25012.23
228.498	24990.66
228.57	24958.15
228.643	24939.09
228.716	24901.16
228.788	24855.13
228.861	24815.71
228.934	24805
229.006	24776.58
229.079	24751.01
229.151	24713.62
229.224	24677.19
229.296	24653.46
229.369	24648.2
229.442	24632.52
229.514	24600.83
229.587	24588.24
229.659	24541.44
229.732	24519.87
229.804	24504.24
229.877	24491.51
229.949	24476.89
230.022	24467.77
230.094	24445.34
230.167	24418.23
230.239	24383.26
230.312	24358.41
230.384	24355.57
230.457	24324.12
230.529	24291.7
230.602	24271.3
230.674	24246.12
230.747	24232.9
230.819	24213.9
230.892	24155.29
230.964	24129.05
231.037	24111.02
231.109	24075.23
231.181	24051.11
231.254	24007.66
231.326	23958.99
231.399	23916.84
231.471	23872.42
231.544	23812.7
231.616	23784.54
231.688	23751.5
231.761	23708.1
231.833	23658.72
231.905	23593.08
231.978	23550.3
232.05	23517.61
232.122	23470.39
232.195	23425.26
232.267	23400.9
232.339	23355.04
232.412	23329.73
232.484	23281.45
232.556	23237.09
232.629	23222.87
232.701	23187.76
232.773	23152.08
232.846	23113.99
232.918	23079.75
232.99	23049.18
233.062	23020.88
233.135	22980.23
233.207	22921.94
233.279	22901.3
233.351	22869.15
233.424	22831.97
233.496	22780.92
233.568	22758.55
233.64	22707.78
233.713	22673.89
233.785	22629.43
233.857	22594.48
233.929	22544.2
234.001	22523.61
234.074	22498.25
234.146	22429.75
234.218	22386.21
234.29	22341.43
234.362	22306.91
234.434	22255.67
234.507	22207.02
234.579	22159.93
234.651	22116.25
234.723	22083.38
234.795	22044.14
234.867	22004.46
234.939	21983.54
235.012	21955.54
235.084	21926.03
235.156	21897.21
235.228	21847.95
235.3	21804.71
235.372	21774.53
235.444	21744.31
235.516	21673.98
235.588	21636.72
235.66	21605.83
235.732	21552.32
235.804	21566.16
235.876	21534.44
235.948	21513.57
236.02	21467.35
236.092	21416.65
236.164	21378.09
236.236	21332.54
236.308	21285.4
236.38	21256.05
236.452	21200.87
236.524	21165.1
236.596	21142.21
236.668	21106.54
236.74	21071.02
236.812	21037.43
236.884	20994.97
236.956	20963.01
237.028	20922.92
237.1	20872.94
237.172	20837.47
237.244	20814.24
237.316	20741.75
237.388	20691.72
237.46	20627.33
237.532	20598.08
237.604	20547.96
237.675	20516.35
237.747	20480.49
237.819	20428.35
237.891	20385.02
237.963	20334.52
238.035	20281.26
238.107	20196.78
238.178	20172.64
238.25	20128.44
238.322	20100.88
238.394	20045.65
238.466	19996.4
238.538	19955.63
238.609	19915.39
238.681	19859.87
238.753	19810.19
238.825	19770.19
238.897	19732.22
238.968	19713.85
239.04	19666.72
239.112	19660.89
239.184	19604.27
239.255	19569.04
239.327	19528.61
239.399	19487.5
239.471	19455.84
239.542	19422.35
239.614	19390.35
239.686	19311.9
239.758	19285.49
239.829	19233.11
239.901	19200.24
239.973	19155.57
240.044	19132.06
240.116	19089.36
240.188	19049.89
240.259	19004.16
240.331	18947.1
240.403	18912.94
240.474	18854.92
240.546	18814.82
240.618	18749.09
240.689	18714.11
240.761	18679.12
240.833	18666.49
240.904	18623.51
240.976	18580.23
241.048	18537.73
241.119	18516.72
241.191	18488.77
241.262	18465.3
241.334	18413.3
241.405	18374.22
241.477	18331.91
241.549	18277.02
241.62	18240.3
241.692	18207.43
241.763	18186.28
241.835	18153.32
241.906	18106.43
241.978	18055.01
242.049	18024.4
242.121	17998.72
242.192	17966.82
242.264	17905.76
242.335	17840.36
242.407	17810.82
242.478	17771.01
242.55	17737.33
242.621	17682.97
242.693	17638.73
242.764	17585.81
242.836	17550.83
242.907	17510.54
242.979	17477.38
243.05	17438.54
243.122	17402.63
243.193	17363.6
243.264	17296.56
243.336	17247.4
243.407	17215.98
243.479	17192.85
243.55	17160.7
243.622	17128.61
243.693	17085.23
243.764	17057.38
243.836	17008.26
243.907	16963.59
243.978	16924.6
244.05	16883.49
244.121	16822.76
244.192	16795.87
244.264	16738.32
244.335	16702.47
244.407	16654.37
244.478	16617.3
244.549	16587.66
244.62	16536.72
244.692	16496.24
244.763	16471.37
244.834	16435.7
244.906	16397.24
244.977	16365.96
245.048	16340.46
245.119	16288.65
245.191	16246.19
245.262	16197.99
245.333	16182.18
245.405	16149.46
245.476	16115.62
245.547	16082.22
245.618	16063.42
245.689	16036.05
245.761	16013.44
245.832	15977.77
245.903	15947.07
245.974	15917.81
246.045	15870.87
246.117	15862.29
246.188	15819.1
246.259	15770.9
246.33	15739.18
246.401	15694.45
246.473	15650.11
246.544	15605.77
246.615	15583.59
246.686	15546.19
246.757	15522.04
246.828	15476.44
246.899	15457.89
246.97	15417.78
247.042	15377.24
247.113	15347.84
247.184	15327.6
247.255	15287.4
247.326	15259.68
247.397	15223.82
247.468	15191.23
247.539	15164.91
247.61	15110.49
247.681	15084.13
247.752	15071.45
247.823	15031.25
247.894	15004.3
247.965	14951.47
248.037	14912.57
248.108	14865.76
248.179	14829.47
248.25	14795.05
248.321	14777.45
248.392	14722.45
248.463	14709.63
248.534	14681.67
248.605	14655.64
248.675	14618.96
248.746	14588.3
248.817	14562.37
248.888	14539.76
248.959	14489.87
249.03	14458.44
249.101	14428.17
249.172	14393.31
249.243	14345.69
249.314	14330.93
249.385	14304.52
249.456	14294.3
249.527	14260.07
249.598	14239.59
249.669	14213.07
249.739	14194.95
249.81	14164.62
249.881	14127.36
249.952	14092.75
250.023	14057.51
250.094	14012.73
250.165	13977.68
250.235	13955.27
250.306	13923.93
250.377	13885.9
250.448	13863.1
250.519	13822.75
250.59	13819.28
250.66	13788.04
250.731	13775.6
250.802	13746.53
250.873	13720.31
250.944	13690.52
251.014	13655.95
251.085	13647.9
251.156	13630.84
251.227	13608.57
251.297	13596.9
251.368	13583.98
251.439	13569.28
251.51	13557.47
251.58	13525.26
251.651	13488.68
251.722	13471.03
251.792	13419.4
251.863	13396.94
251.934	13390.53
252.005	13388.5
252.075	13354.23
252.146	13345.07
252.217	13327.33
252.287	13306.74
252.358	13279.31
252.429	13276.52
252.499	13251.31
252.57	13228.6
252.641	13211.63
252.711	13189.94
252.782	13150.8
252.852	13144.72
252.923	13116.67
252.994	13090.54
253.064	13081.62
253.135	13048.45
253.205	13018.42
253.276	13017.07
253.347	13013.26
253.417	12981.69
253.488	12953.68
253.558	12923.55
253.629	12895.98
253.699	12875.73
253.77	12860.64
253.841	12842.81
253.911	12818.42
253.982	12803.57
254.052	12788.38
254.123	12765.29
254.193	12738.97
254.264	12753.29
254.334	12715.98
254.405	12679.92
254.475	12651.91
254.546	12622.08
254.616	12623.86
254.687	12598.99
254.757	12582.89
254.827	12549.72
254.898	12535.74
254.968	12511.5
255.039	12487.63
255.109	12475.05
255.18	12444.4
255.25	12400.1
255.321	12386.5
255.391	12347.36
255.461	12345.82
255.532	12293.18
255.602	12271.2
255.673	12232.78
255.743	12198.85
255.813	12154.21
255.884	12153.78
255.954	12143.37
256.024	12147.75
256.095	12123.7
256.165	12095.36
256.235	12088.32
256.306	12061.81
256.376	12044.31
256.446	12036.69
256.517	12017.9
256.587	12010.18
256.657	11995.43
256.728	11983.96
256.798	11954.46
256.868	11937.3
256.938	11900.09
257.009	11894.6
257.079	11881.29
257.149	11885.25
257.219	11846.16
257.29	11837.77
257.36	11792.42
257.43	11780.65
257.5	11735.15
257.571	11704.02
257.641	11693.61
257.711	11656.44
257.781	11643.77
257.852	11638.66
257.922	11602.46
257.992	11586.22
258.062	11557.64
258.132	11543.03
258.202	11519.42
258.273	11501.73
258.343	11495.18
258.413	11473.39
258.483	11450.74
258.553	11416.42
258.623	11391.07
258.693	11377.48
258.764	11380.52
258.834	11375.79
258.904	11349.04
258.974	11321.62
259.044	11300.03
259.114	11281.72
259.184	11263.6
259.254	11239.98
259.324	11192.22
259.394	11178.83
259.464	11177.19
259.535	11161.28
259.605	11139.31
259.675	11115.36
259.745	11101.43
259.815	11073.67
259.885	11050.06
259.955	11061.38
260.025	11041.34
260.095	11024.42
260.165	11015.84
260.235	11003.12
260.305	10979.07
260.375	10954.69
260.445	10966.64
260.515	10971.17
260.585	10966.98
260.655	10950.93
260.725	10942.31
260.795	10932.52
260.865	10931.66
260.934	10901.01
261.004	10887.8
261.074	10875.32
261.144	10870.17
261.214	10868.19
261.284	10850.12
261.354	10848.34
261.424	10814.65
261.494	10817.4
261.564	10794.12
261.634	10779.76
261.703	10748.49
261.773	10741.46
261.843	10733.6
261.913	10709.03
