Data from 20250704_urea_1M_MAYP1162681_11-40-50-617.txt Node
Date: Fri Jul 04 11:40:50 BST 2025
User: adleo
Spectrometer: MAYP116268
Trigger mode: 0
Integration Time (sec): 1.000000E0
Scans to average: 1
Electric dark correction enabled: true
Nonlinearity correction enabled: true
Boxcar width: 10
XAxis mode: Wavelengths
Number of Pixels in Spectrum: 2068
>>>>>Begin Spectral Data<<<<<
179.565	1269.5
179.642	1325.25
179.718	1370.04
179.795	1411.78
179.871	1447.62
179.948	1466.25
180.024	1487.28
180.101	1510.57
180.177	1523.58
180.254	1550.36
180.33	1573.78
180.407	1631.24
180.483	1730.72
180.56	1826.23
180.636	1912.97
180.712	1897.84
180.789	1907.26
180.865	1916.72
180.942	1926.46
181.018	1935.59
181.095	1946.29
181.171	1951.38
181.248	1952.57
181.324	1967.02
181.4	1973.4
181.477	1982.58
181.553	1996.55
181.63	2015.53
181.706	2031.03
181.782	2040.59
181.859	2035.4
181.935	2042.35
182.011	2039.02
182.088	2054.9
182.164	2073.13
182.24	2086.96
182.317	2097.24
182.393	2098.28
182.469	2115.74
182.546	2127.53
182.622	2129.77
182.698	2125.2
182.775	2137.48
182.851	2154.7
182.927	2148.56
183.003	2145.28
183.08	2140.14
183.156	2151.08
183.232	2149.89
183.308	2138.76
183.385	2149.8
183.461	2170.68
183.537	2170.35
183.613	2183.67
183.69	2173.35
183.766	2164.88
183.842	2175.11
183.918	2181.53
183.995	2193.14
184.071	2195.37
184.147	2189.47
184.223	2181.06
184.299	2196.9
184.375	2185.3
184.452	2191.91
184.528	2245.79
184.604	2257.63
184.68	2270
184.756	2276.95
184.832	2280.14
184.908	2282.66
184.985	2280.66
185.061	2262.2
185.137	2272.34
185.213	2261.06
185.289	2265.39
185.365	2256.83
185.441	2253.5
185.517	2265.21
185.593	2260.73
185.669	2257.54
185.745	2268.49
185.822	2285.56
185.898	2275.28
185.974	2284.61
186.05	2273.71
186.126	2234.63
186.202	2224.64
186.278	2222.26
186.354	2209.79
186.43	2219.69
186.506	2219.03
186.582	2219.22
186.658	2224.92
186.734	2202.47
186.81	2203.23
186.886	2205.51
186.962	2218.88
187.038	2216.08
187.114	2209.17
187.19	2217.93
187.266	2209.37
187.341	2211.22
187.417	2205.32
187.493	2202.33
187.569	2204.94
187.645	2201.14
187.721	2190.24
187.797	2201.32
187.873	2205.65
187.949	2200.38
188.025	2194
188.101	2200.66
188.176	2202.32
188.252	2200.8
188.328	2209.12
188.404	2209.55
188.48	2203.7
188.556	2196.27
188.632	2197.04
188.707	2198.23
188.783	2194.04
188.859	2188.76
188.935	2176.29
189.011	2183.1
189.086	2179.62
189.162	2171.2
189.238	2166.25
189.314	2164.92
189.39	2155.93
189.465	2147.89
189.541	2163.92
189.617	2145.94
189.693	2137.28
189.768	2142.85
189.844	2166.55
189.92	2160.18
189.996	2170.6
190.071	2183.35
190.147	2181.26
190.223	2188.45
190.298	2182.26
190.374	2171.27
190.45	2181.83
190.526	2193.53
190.601	2186.78
190.677	2189.58
190.753	2217.62
190.828	2222.28
190.904	2238.32
190.98	2254.55
191.055	2263.5
191.131	2255.45
191.207	2277.72
191.282	2291.51
191.358	2281.28
191.433	2264.91
191.509	2276.28
191.585	2274.66
191.66	2276.23
191.736	2284.98
191.811	2274.66
191.887	2288.89
191.963	2311.78
192.038	2318.83
192.114	2316.49
192.189	2322.87
192.265	2320.3
192.34	2302.4
192.416	2301.21
192.491	2296.78
192.567	2298.83
192.642	2302.63
192.718	2303.3
192.793	2289.6
192.869	2283.65
192.944	2284.79
193.02	2293.93
193.095	2297.88
193.171	2302.59
193.246	2302.07
193.322	2298.88
193.397	2301.11
193.473	2287.74
193.548	2269.41
193.624	2274.27
193.699	2273.27
193.775	2286.55
193.85	2287.03
193.925	2292.45
194.001	2290.5
194.076	2282.08
194.152	2273.13
194.227	2265.37
194.302	2255.29
194.378	2262.9
194.453	2261.28
194.529	2275.75
194.604	2261.09
194.679	2255.19
194.755	2234.31
194.83	2247.78
194.905	2244.93
194.981	2255.3
195.056	2247.31
195.131	2253.73
195.207	2252.4
195.282	2243.22
195.357	2224.8
195.433	2241.31
195.508	2229.22
195.583	2239.5
195.659	2253.16
195.734	2262.63
195.809	2261.34
195.884	2271.29
195.96	2270.76
196.035	2284.47
196.11	2280.8
196.185	2294.6
196.261	2297.93
196.336	2330.39
196.411	2313.49
196.486	2319.82
196.561	2313.15
196.637	2323.76
196.712	2341.52
196.787	2346.47
196.862	2362.89
196.937	2374.31
197.013	2377.74
197.088	2388.78
197.163	2410.21
197.238	2427.36
197.313	2425.31
197.388	2440.17
197.464	2471.03
197.539	2480.45
197.614	2475.74
197.689	2488.12
197.764	2503.45
197.839	2524.31
197.914	2516.74
197.989	2540.21
198.065	2552.93
198.14	2604.15
198.215	2632.59
198.29	2644.41
198.365	2655.65
198.44	2666.98
198.515	2700.15
198.59	2720.4
198.665	2746.6
198.74	2756.03
198.815	2756.56
198.89	2779.67
198.965	2808.31
199.04	2803.69
199.115	2819.55
199.19	2865.49
199.265	2869.82
199.34	2877.07
199.415	2914.17
199.49	2938.08
199.565	2948.28
199.64	2974.31
199.715	2969.2
199.79	2975.93
199.865	2979.17
199.94	2978.98
200.015	3009.82
200.09	3012.26
200.165	3019.41
200.24	3027.42
200.315	3066.84
200.39	3084.15
200.464	3089.92
200.539	3092.44
200.614	3109.85
200.689	3135.5
200.764	3138.56
200.839	3155.57
200.914	3165.63
200.989	3152.41
201.063	3168.25
201.138	3150.19
201.213	3151.24
201.288	3134.79
201.363	3138.46
201.438	3141.56
201.512	3157.96
201.587	3141.83
201.662	3144.6
201.737	3153.04
201.812	3158.77
201.886	3126.84
201.961	3135.66
202.036	3126.27
202.111	3122.55
202.186	3091.91
202.26	3072.69
202.335	3051.08
202.41	3044.74
202.485	3024.82
202.559	3006.32
202.634	2979.71
202.709	2991.38
202.784	2972.46
202.858	2970.17
202.933	2952.82
203.008	2945.28
203.082	2924.65
203.157	2923.41
203.232	2878.52
203.306	2859.3
203.381	2829.32
203.456	2805.82
203.53	2784.26
203.605	2764.45
203.68	2742.14
203.754	2737
203.829	2721.56
203.904	2701.07
203.978	2689.54
204.053	2695.64
204.127	2678.49
204.202	2674.96
204.277	2658.34
204.351	2649.19
204.426	2643.95
204.5	2630.99
204.575	2596.76
204.65	2602.76
204.724	2594.56
204.799	2601.22
204.873	2597.41
204.948	2598.08
205.022	2585.37
205.097	2577.22
205.171	2589.84
205.246	2599.8
205.32	2596.32
205.395	2597.56
205.469	2587.75
205.544	2591.8
205.618	2572.04
205.693	2584.51
205.767	2571.8
205.842	2592.76
205.916	2590.43
205.991	2580.05
206.065	2587.38
206.14	2601.42
206.214	2603.37
206.289	2596.37
206.363	2613.52
206.438	2616.47
206.512	2619.28
206.586	2640.86
206.661	2645.57
206.735	2621.44
206.81	2618.67
206.884	2636.67
206.958	2625.24
207.033	2643.05
207.107	2651.25
207.181	2686.79
207.256	2683.17
207.33	2702.75
207.405	2712.76
207.479	2730.2
207.553	2736.58
207.628	2722.2
207.702	2736.06
207.776	2727.34
207.851	2729.49
207.925	2740.93
207.999	2734.87
208.073	2731.54
208.148	2733.73
208.222	2724.49
208.296	2758.87
208.371	2774.27
208.445	2785.47
208.519	2815.3
208.593	2829.93
208.668	2828.12
208.742	2829.74
208.816	2833.64
208.89	2848.14
208.965	2851.52
209.039	2861.11
209.113	2882.56
209.187	2906.99
209.261	2902.13
209.336	2924.58
209.41	2951.13
209.484	2957.33
209.558	2984.13
209.632	3006.15
209.707	3022.5
209.781	3049.73
209.855	3074.29
209.929	3100.83
210.003	3115.66
210.077	3125.63
210.151	3185.16
210.226	3231.7
210.3	3272.47
210.374	3310.67
210.448	3330.71
210.522	3355.35
210.596	3385.94
210.67	3416.01
210.744	3486.91
210.818	3547.27
210.892	3594.4
210.966	3615.4
211.041	3666.6
211.115	3697.39
211.189	3756.38
211.263	3813.22
211.337	3861.61
211.411	3917.24
211.485	3959.55
211.559	4017.31
211.633	4067.33
211.707	4087.42
211.781	4155.8
211.855	4178.22
211.929	4230.85
212.003	4279.94
212.077	4352.37
212.151	4435.92
212.225	4519.91
212.299	4579.53
212.373	4652.04
212.447	4730.81
212.52	4849.98
212.594	4939.23
212.668	5042.96
212.742	5126.56
212.816	5220.34
212.89	5317.8
212.964	5426.03
213.038	5537.04
213.112	5666.57
213.186	5803.57
213.26	5906.76
213.333	5979.01
213.407	6115.33
213.481	6250.04
213.555	6392.91
213.629	6522.89
213.703	6643.48
213.777	6788.57
213.85	6916.49
213.924	7095.01
213.998	7251.7
214.072	7394.54
214.146	7533.37
214.219	7687.95
214.293	7847.86
214.367	8008.07
214.441	8180.7
214.515	8331.97
214.588	8477.23
214.662	8610.04
214.736	8757.4
214.81	8930.78
214.883	9113.6
214.957	9272.36
215.031	9437.43
215.105	9588.11
215.178	9747.37
215.252	9916.36
215.326	10057.64
215.4	10212.53
215.473	10332.11
215.547	10478.96
215.621	10638.4
215.694	10817.69
215.768	10970.59
215.842	11121.7
215.915	11277.36
215.989	11421.6
216.063	11574
216.136	11736.22
216.21	11896.37
216.284	12073.21
216.357	12234.92
216.431	12395.77
216.504	12573.54
216.578	12757.72
216.652	12931.58
216.725	13086.94
216.799	13257.78
216.873	13415.7
216.946	13575.21
217.02	13724.06
217.093	13871.43
217.167	14003.41
217.24	14127.4
217.314	14263.87
217.387	14402.89
217.461	14539.84
217.535	14701.27
217.608	14831.38
217.682	14974.68
217.755	15120.59
217.829	15239.85
217.902	15376.64
217.976	15503.8
218.049	15621.12
218.123	15731.01
218.196	15863.8
218.27	15991.05
218.343	16097.28
218.417	16230.78
218.49	16352.29
218.563	16489.42
218.637	16615.98
218.71	16748.57
218.784	16881.39
218.857	17009.69
218.931	17136.88
219.004	17253.56
219.077	17362.62
219.151	17479.49
219.224	17573.9
219.298	17679.87
219.371	17796.74
219.444	17883.73
219.518	17978.71
219.591	18080.25
219.665	18202.75
219.738	18302.65
219.811	18383.61
219.885	18487.66
219.958	18568.09
220.031	18656.56
220.105	18744.9
220.178	18832.84
220.251	18914
220.325	19001.94
220.398	19082.47
220.471	19160.58
220.544	19249.25
220.618	19314.89
220.691	19394.5
220.764	19471.56
220.838	19552.18
220.911	19610.34
220.984	19701.95
221.057	19785.28
221.131	19854.19
221.204	19898.33
221.277	19981.08
221.35	20071.72
221.424	20122.76
221.497	20195.82
221.57	20251.43
221.643	20315.72
221.716	20393.21
221.79	20436.01
221.863	20486.61
221.936	20536.54
222.009	20580.59
222.082	20617.7
222.155	20662.76
222.229	20720.2
222.302	20770.09
222.375	20806.81
222.448	20849.85
222.521	20887.15
222.594	20918.33
222.667	20942.52
222.74	20979.59
222.814	20998.19
222.887	21028.51
222.96	21078.05
223.033	21109.91
223.106	21146.2
223.179	21170.54
223.252	21182.54
223.325	21210.11
223.398	21233.44
223.471	21256.77
223.544	21291.13
223.617	21322.65
223.69	21343.52
223.763	21350.61
223.837	21381.21
223.91	21404.35
223.983	21412.59
224.056	21419.34
224.129	21438.14
224.202	21463.49
224.275	21463.3
224.348	21464.98
224.42	21458.91
224.493	21440.88
224.566	21440.88
224.639	21452.74
224.712	21462.09
224.785	21457.37
224.858	21468.16
224.931	21462.57
225.004	21469.08
225.077	21474.14
225.15	21451.2
225.223	21456.11
225.296	21481.08
225.369	21453.27
225.442	21450.48
225.514	21452.07
225.587	21453.8
225.66	21446.38
225.733	21445.03
225.806	21444.74
225.879	21434.86
225.952	21428.45
226.025	21444.88
226.097	21460.74
226.17	21463.63
226.243	21440.64
226.316	21437.85
226.389	21432.26
226.461	21437.8
226.534	21430.81
226.607	21416.26
226.68	21439.87
226.753	21427.82
226.825	21388.54
226.898	21403.53
226.971	21401.75
227.044	21408.69
227.117	21412.3
227.189	21421.56
227.262	21415.1
227.335	21427.68
227.407	21420.25
227.48	21422.81
227.553	21408.64
227.626	21388.3
227.698	21377.16
227.771	21373.55
227.844	21354.41
227.916	21341.55
227.989	21314.31
228.062	21303.76
228.134	21312.87
228.207	21296.34
228.28	21281.54
228.352	21275.9
228.425	21261.78
228.498	21256.19
228.57	21223.9
228.643	21208.81
228.716	21187.99
228.788	21167.99
228.861	21131.45
228.934	21126.34
229.006	21104.61
229.079	21089.18
229.151	21067.78
229.224	21025.57
229.296	21009.37
229.369	21022.43
229.442	21027.2
229.514	21000.84
229.587	20995.83
229.659	20959.39
229.732	20944.93
229.804	20946.14
229.877	20953.71
229.949	20954.09
230.022	20943.92
230.094	20936.02
230.167	20931.49
230.239	20905.75
230.312	20896.5
230.384	20914.81
230.457	20902.57
230.529	20889.99
230.602	20865.51
230.674	20846.04
230.747	20847
230.819	20841.22
230.892	20794.9
230.964	20775.72
231.037	20767.48
231.109	20737.17
231.181	20727.24
231.254	20694.52
231.326	20660.64
231.399	20629.79
231.471	20595.19
231.544	20554.7
231.616	20544.73
231.688	20515.04
231.761	20486.99
231.833	20450.03
231.905	20398.61
231.978	20374.85
232.05	20346.61
232.122	20332.68
232.195	20314.99
232.267	20309.3
232.339	20282.08
232.412	20276.39
232.484	20244.29
232.556	20222.51
232.629	20220.1
232.701	20210.56
232.773	20188.54
232.846	20164.39
232.918	20146.75
232.99	20128.68
233.062	20118.85
233.135	20093.07
233.207	20064.54
233.279	20051.82
233.351	20044.01
233.424	20024.3
233.496	19993.07
233.568	19992.69
233.64	19953.7
233.713	19924.25
233.785	19900.4
233.857	19876.69
233.929	19832.74
234.001	19826.57
234.074	19814.72
234.146	19773.66
234.218	19738.43
234.29	19711.69
234.362	19680.55
234.434	19629.33
234.507	19587.07
234.579	19533.86
234.651	19503.21
234.723	19479.65
234.795	19464.18
234.867	19424.91
234.939	19400.38
235.012	19381.15
235.084	19351.99
235.156	19334.21
235.228	19300.72
235.3	19259.95
235.372	19240.05
235.444	19227.71
235.516	19178.8
235.588	19148.78
235.66	19125.6
235.732	19087
235.804	19118.27
235.876	19095.34
235.948	19092.4
236.02	19062.23
236.092	19040.01
236.164	19006.96
236.236	18980.88
236.308	18937.66
236.38	18918.05
236.452	18882.87
236.524	18854.68
236.596	18837.86
236.668	18816.94
236.74	18784.51
236.812	18760.61
236.884	18740.37
236.956	18707.02
237.028	18664.18
237.1	18625.39
237.172	18609.92
237.244	18590.02
237.316	18511.85
237.388	18479.03
237.46	18436.48
237.532	18425.3
237.604	18390.65
237.675	18378.37
237.747	18354.46
237.819	18313.93
237.891	18279.48
237.963	18241.17
238.035	18196.69
238.107	18130.42
238.178	18113.9
238.25	18086.19
238.322	18070.76
238.394	18003.44
238.466	17962.82
238.538	17939.88
238.609	17914.53
238.681	17858.19
238.753	17823.06
238.825	17796.56
238.897	17765.33
238.968	17759.45
239.04	17716.22
239.112	17706.92
239.184	17665.76
239.255	17625.38
239.327	17601.33
239.399	17572.99
239.471	17554.97
239.542	17536.71
239.614	17527.02
239.686	17467.26
239.758	17453.57
239.829	17412.32
239.901	17404.75
239.973	17382.63
240.044	17361.48
240.116	17328.18
240.188	17295.89
240.259	17264.27
240.331	17238.83
240.403	17221.33
240.474	17166.92
240.546	17135.88
240.618	17091.02
240.689	17051.4
240.761	17017.18
240.833	17011.01
240.904	16978.1
240.976	16935.39
241.048	16910.62
241.119	16883.97
241.191	16862.91
241.262	16845.08
241.334	16813.56
241.405	16785.27
241.477	16748.54
241.549	16711.72
241.62	16687.58
241.692	16669.07
241.763	16655
241.835	16606.85
241.906	16576.1
241.978	16526.75
242.049	16510.79
242.121	16491.66
242.192	16481.44
242.264	16440.81
242.335	16386.97
242.407	16366.15
242.478	16336.65
242.55	16304.6
242.621	16259.39
242.693	16225.51
242.764	16187.34
242.836	16156.3
242.907	16134.95
242.979	16110.75
243.05	16081.79
243.122	16052.1
243.193	16017.63
243.264	15953.43
243.336	15932.13
243.407	15910.1
243.479	15907.21
243.55	15874.15
243.622	15850.77
243.693	15823.3
243.764	15807.87
243.836	15770.95
243.907	15742.51
243.978	15714.65
244.05	15682.65
244.121	15647.7
244.192	15625.53
244.264	15576.6
244.335	15544.99
244.407	15488.11
244.478	15462.03
244.549	15432.39
244.62	15395.42
244.692	15362.98
244.763	15355.99
244.834	15316.61
244.906	15278
244.977	15249.46
245.048	15236.78
245.119	15193.4
245.191	15148.33
245.262	15095.74
245.333	15086.63
245.405	15045.47
245.476	15029.08
245.547	15007.1
245.618	14976.63
245.689	14951.81
245.761	14934.7
245.832	14899.22
245.903	14879.12
245.974	14850.39
246.045	14817.95
246.117	14804.21
246.188	14765.74
246.259	14714.69
246.33	14679.21
246.401	14643.45
246.473	14594.86
246.544	14550.27
246.615	14532
246.686	14496.71
246.757	14485.77
246.828	14442.1
246.899	14440.79
246.97	14398.76
247.042	14366.17
247.113	14351.28
247.184	14342.94
247.255	14305.48
247.326	14288.8
247.397	14276.56
247.468	14260.6
247.539	14237.71
247.61	14195.81
247.681	14177.26
247.752	14170.36
247.823	14145.49
247.894	14128.71
247.965	14094.53
248.037	14067.2
248.108	14026.03
248.179	13999.62
248.25	13973.05
248.321	13952.57
248.392	13908.41
248.463	13903.49
248.534	13872.4
248.605	13858.32
248.675	13826.12
248.746	13798.31
248.817	13778.16
248.888	13745.57
248.959	13698.47
249.03	13675.09
249.101	13647.61
249.172	13616.86
249.243	13573.23
249.314	13567.06
249.385	13531.1
249.456	13522.03
249.527	13504.1
249.598	13488.48
249.669	13471.27
249.739	13454.5
249.81	13444.86
249.881	13411.59
249.952	13388.26
250.023	13366.62
250.094	13328.58
250.165	13296.91
250.235	13277.05
250.306	13250.73
250.377	13216.94
250.448	13199.77
250.519	13159.52
250.59	13157.21
250.66	13137.49
250.731	13136.48
250.802	13109.34
250.873	13094.06
250.944	13068.94
251.014	13033.61
251.085	13032.45
251.156	13017.41
251.227	13010.95
251.297	12994.51
251.368	12980.1
251.439	12964.29
251.51	12957.01
251.58	12921.58
251.651	12889.52
251.722	12889.13
251.792	12851.63
251.863	12832.44
251.934	12825.36
252.005	12831.09
252.075	12808.97
252.146	12795.23
252.217	12781.97
252.287	12776
252.358	12758.64
252.429	12758.79
252.499	12734.35
252.57	12718.49
252.641	12703.25
252.711	12672.88
252.782	12630.42
252.852	12629.31
252.923	12606.7
252.994	12587.22
253.064	12583.22
253.135	12562.59
253.205	12527.5
253.276	12522.34
253.347	12524.22
253.417	12493.18
253.488	12473.46
253.558	12446.95
253.629	12431.57
253.699	12413.59
253.77	12397.59
253.841	12380.09
253.911	12370.35
253.982	12353.24
254.052	12330.05
254.123	12314.48
254.193	12294.91
254.264	12318.63
254.334	12292.12
254.405	12253.84
254.475	12223
254.546	12206.22
254.616	12198.12
254.687	12190.89
254.757	12185.64
254.827	12158.64
254.898	12146.35
254.968	12123.6
255.039	12097
255.109	12083.02
255.18	12052.89
255.25	12009.99
255.321	11996.3
255.391	11956.29
255.461	11963.09
255.532	11922.6
255.602	11897.49
255.673	11858.83
255.743	11830.25
255.813	11788.61
255.884	11786.34
255.954	11770.58
256.024	11764.84
256.095	11744.79
256.165	11708.45
256.235	11693.89
256.306	11666.32
256.376	11660.93
256.446	11659.29
256.517	11655.82
256.587	11649.07
256.657	11633.55
256.728	11618.66
256.798	11600.97
256.868	11582.03
256.938	11553.45
257.009	11553.93
257.079	11545.49
257.149	11560.43
257.219	11522.26
257.29	11513.39
257.36	11479.95
257.43	11470.55
257.5	11428.71
257.571	11401.1
257.641	11389.92
257.711	11353.96
257.781	11346.06
257.852	11331.26
257.922	11284.95
257.992	11262.83
258.062	11238.01
258.132	11236.51
258.202	11213.09
258.273	11194.92
258.343	11192.13
258.413	11170.15
258.483	11148.85
258.553	11117.24
258.623	11089.28
258.693	11072.61
258.764	11071.02
258.834	11071.79
258.904	11054.63
258.974	11033.38
259.044	11013
259.114	11009.77
259.184	11000.9
259.254	10983.8
259.324	10943.8
259.394	10938.02
259.464	10932.81
259.535	10913.44
259.605	10885.68
259.675	10866.12
259.745	10851.76
259.815	10830.02
259.885	10802.85
259.955	10816.01
260.025	10792.59
260.095	10776.35
260.165	10774.66
260.235	10779.1
260.305	10753.08
260.375	10730.67
260.445	10739.63
260.515	10749.65
260.585	10748.5
260.655	10728.21
260.725	10720.36
260.795	10714.57
260.865	10721.8
260.934	10704.7
261.004	10698.34
261.074	10684.6
261.144	10687.59
261.214	10691.16
261.284	10670.39
261.354	10669.09
261.424	10640.27
261.494	10653.62
261.564	10639.98
261.634	10627.69
261.703	10583.51
261.773	10574.74
261.843	10564.33
261.913	10542.6
261.983	10509.99
262.053	10494.32
262.123	10482.09
262.192	10456.79
262.262	10457.03
262.332	10424.03
