Data from 20250704_urea_2M_MAYP1162681_12-10-59-458.txt Node
Date: Fri Jul 04 12:10:59 BST 2025
User: adleo
Spectrometer: MAYP116268
Trigger mode: 0
Integration Time (sec): 1.000000E0
Scans to average: 1
Electric dark correction enabled: true
Nonlinearity correction enabled: true
Boxcar width: 10
XAxis mode: Wavelengths
Number of Pixels in Spectrum: 2068
>>>>>Begin Spectral Data<<<<<
179.565	1272.68
179.642	1333.4
179.718	1386.47
179.795	1426.75
179.871	1463.79
179.948	1483.6
180.024	1507.48
180.101	1534.08
180.177	1550.95
180.254	1574.77
180.33	1599.98
180.407	1658.62
180.483	1759.16
180.56	1853.56
180.636	1944.01
180.712	1932.79
180.789	1945.96
180.865	1957.46
180.942	1965.21
181.018	1974.86
181.095	1986.7
181.171	1993.17
181.248	1995.21
181.324	2006.73
181.4	2013.86
181.477	2024.47
181.553	2036.59
181.63	2056.85
181.706	2071.74
181.782	2076.12
181.859	2075.02
181.935	2077.35
182.011	2074.12
182.088	2090.58
182.164	2112.61
182.24	2125.59
182.317	2134.82
182.393	2133.49
182.469	2149.56
182.546	2165.79
182.622	2173.21
182.698	2168.73
182.775	2181.53
182.851	2194.95
182.927	2185.43
183.003	2180.73
183.08	2173.31
183.156	2183.72
183.232	2181.01
183.308	2167.07
183.385	2178.53
183.461	2196.38
183.537	2199.42
183.613	2213.03
183.69	2205.04
183.766	2193.04
183.842	2199.94
183.918	2205.89
183.995	2220.11
184.071	2225.21
184.147	2217.88
184.223	2205.32
184.299	2220.27
184.375	2207.94
184.452	2215.42
184.528	2269.29
184.604	2282.61
184.68	2294.31
184.756	2303.74
184.832	2310.26
184.908	2317.16
184.985	2317.16
185.061	2300.45
185.137	2310.78
185.213	2296.7
185.289	2299.94
185.365	2294.94
185.441	2293.89
185.517	2308.51
185.593	2304.22
185.669	2298.75
185.745	2310.98
185.822	2326.49
185.898	2315.3
185.974	2325.44
186.05	2316.25
186.126	2282.46
186.202	2273.32
186.278	2268.33
186.354	2258.52
186.43	2265.43
186.506	2262.76
186.582	2260.72
186.658	2268.61
186.734	2244.63
186.81	2250.68
186.886	2252.39
186.962	2266.09
187.038	2262.48
187.114	2252.72
187.19	2260.71
187.266	2250.91
187.341	2252.05
187.417	2249.48
187.493	2250.44
187.569	2251.44
187.645	2251.1
187.721	2238.06
187.797	2246.96
187.873	2251.33
187.949	2245.48
188.025	2234.58
188.101	2238.39
188.176	2245.67
188.252	2240.39
188.328	2252.42
188.404	2252.28
188.48	2245.81
188.556	2236.53
188.632	2235.19
188.707	2237.14
188.783	2229.77
188.859	2224.3
188.935	2211.5
189.011	2215.54
189.086	2209.83
189.162	2201.17
189.238	2193.75
189.314	2191.7
189.39	2184.04
189.465	2179.05
189.541	2195.23
189.617	2179.96
189.693	2173.77
189.768	2176.25
189.844	2199.71
189.92	2189.77
189.996	2199.24
190.071	2212.85
190.147	2211.57
190.223	2223.94
190.298	2214.47
190.374	2207
190.45	2218.37
190.526	2228.03
190.601	2221.94
190.677	2224.17
190.753	2253.98
190.828	2256.5
190.904	2271.54
190.98	2287.43
191.055	2300.66
191.131	2288.53
191.207	2310.6
191.282	2322.16
191.358	2312.6
191.433	2300.55
191.509	2314.78
191.585	2310.45
191.66	2310.07
191.736	2320.01
191.811	2306.59
191.887	2324.92
191.963	2348.05
192.038	2353.67
192.114	2352.24
192.189	2358.47
192.265	2355.38
192.34	2332.14
192.416	2331.86
192.491	2326.81
192.567	2330.86
192.642	2333.34
192.718	2335.72
192.793	2323.1
192.869	2319.2
192.944	2321.67
193.02	2331.24
193.095	2335.91
193.171	2341.43
193.246	2342
193.322	2338.34
193.397	2341.05
193.473	2325.34
193.548	2305.77
193.624	2315.58
193.699	2315.72
193.775	2332.48
193.85	2332.96
193.925	2342.57
194.001	2340.72
194.076	2333.82
194.152	2321.91
194.227	2310.63
194.302	2302.35
194.378	2306.87
194.453	2302.93
194.529	2315.92
194.604	2298.5
194.679	2289.89
194.755	2270.33
194.83	2280.76
194.905	2279.19
194.981	2289.95
195.056	2284.09
195.131	2289.33
195.207	2283.76
195.282	2273.81
195.357	2251.44
195.433	2267.24
195.508	2255.57
195.583	2262.28
195.659	2275.14
195.734	2285.37
195.809	2287.56
195.884	2295.03
195.96	2297.17
196.035	2315.16
196.11	2309.59
196.185	2321.63
196.261	2325.49
196.336	2358.94
196.411	2345.61
196.486	2349.61
196.561	2342.85
196.637	2351.18
196.712	2372.37
196.787	2373.66
196.862	2390.07
196.937	2400.97
197.013	2406.4
197.088	2419.2
197.163	2445.54
197.238	2465.22
197.313	2464.07
197.388	2475.83
197.464	2506.89
197.539	2514.31
197.614	2507.65
197.689	2520.65
197.764	2539.22
197.839	2561.27
197.914	2552.98
197.989	2575.84
198.065	2592.13
198.14	2646.37
198.215	2672.61
198.29	2680.48
198.365	2697.72
198.44	2708.48
198.515	2737.59
198.59	2753.22
198.665	2779.28
198.74	2786.29
198.815	2788.39
198.89	2812.26
198.965	2842.77
199.04	2839.29
199.115	2858.77
199.19	2903.57
199.265	2906.48
199.34	2913.67
199.415	2948.39
199.49	2974.03
199.565	2983.56
199.64	3007.64
199.715	3003.49
199.79	3016.98
199.865	3024.42
199.94	3022.89
200.015	3054.55
200.09	3060.8
200.165	3071.29
200.24	3079.78
200.315	3123.21
200.39	3138.09
200.464	3146.34
200.539	3147.54
200.614	3169.81
200.689	3195.71
200.764	3203.77
200.839	3227.65
200.914	3233.52
200.989	3224.12
201.063	3238.38
201.138	3218.6
201.213	3217.65
201.288	3197.19
201.363	3198.1
201.438	3196.71
201.512	3212.49
201.587	3196.75
201.662	3203.33
201.737	3214.54
201.812	3221.7
201.886	3183.66
201.961	3193.77
202.036	3179.52
202.111	3179.23
202.186	3147.19
202.26	3126.63
202.335	3100.35
202.41	3088.71
202.485	3071.22
202.559	3052.48
202.634	3023.63
202.709	3036.73
202.784	3017.52
202.858	3018.33
202.933	2998.64
203.008	2994.3
203.082	2973.85
203.157	2971.99
203.232	2925.58
203.306	2901.73
203.381	2870.21
203.456	2847.1
203.53	2824.68
203.605	2803.62
203.68	2778.59
203.754	2770.26
203.829	2757.34
203.904	2739.43
203.978	2729.42
204.053	2736.42
204.127	2718.65
204.202	2718.56
204.277	2699.98
204.351	2689.36
204.426	2682.73
204.5	2673.44
204.575	2635.96
204.65	2645.3
204.724	2637.1
204.799	2646.05
204.873	2641.81
204.948	2639.81
205.022	2628.86
205.097	2619.04
205.171	2635.04
205.246	2645.48
205.32	2643.91
205.395	2640.19
205.469	2630.19
205.544	2636.05
205.618	2616.52
205.693	2630.77
205.767	2616.57
205.842	2636.72
205.916	2631.01
205.991	2618.43
206.065	2624.01
206.14	2643.67
206.214	2640.14
206.289	2632.33
206.363	2645.62
206.438	2650.24
206.512	2655.57
206.586	2674.39
206.661	2678.87
206.735	2652.3
206.81	2648.91
206.884	2665.49
206.958	2652.73
207.033	2666.63
207.107	2671.68
207.181	2704.18
207.256	2696.18
207.33	2714.8
207.405	2726.34
207.479	2749.35
207.553	2756.69
207.628	2742.26
207.702	2749.64
207.776	2743.73
207.851	2747.12
207.925	2759.99
207.999	2759.08
208.073	2759.46
208.148	2765.9
208.222	2757.75
208.296	2793.61
208.371	2808.77
208.445	2819.26
208.519	2849.84
208.593	2866.09
208.668	2863.95
208.742	2868.96
208.816	2872.01
208.89	2887.98
208.965	2889.08
209.039	2895.94
209.113	2913.05
209.187	2933.34
209.261	2933.1
209.336	2953.41
209.41	2973.77
209.484	2972.81
209.558	2996.75
209.632	3008.57
209.707	3015.44
209.781	3036.03
209.855	3052.92
209.929	3074.58
210.003	3080.31
210.077	3082.83
210.151	3133.72
210.226	3169.03
210.3	3196.1
210.374	3219.79
210.448	3224.42
210.522	3235.06
210.596	3247.84
210.67	3261.72
210.744	3311.87
210.818	3345.21
210.892	3368.07
210.966	3364.78
211.041	3386.05
211.115	3383.19
211.189	3407.48
211.263	3430.19
211.337	3438.2
211.411	3455.34
211.485	3453.34
211.559	3469.6
211.633	3474.09
211.707	3446.58
211.781	3459.95
211.855	3430.97
211.929	3435.27
212.003	3423.73
212.077	3445.07
212.151	3466.75
212.225	3483.65
212.299	3481.93
212.373	3484.5
212.447	3492.43
212.52	3536.64
212.594	3554.98
212.668	3582.39
212.742	3590.65
212.816	3604.97
212.89	3620.97
212.964	3639.6
213.038	3667.55
213.112	3711.89
213.186	3755.25
213.26	3764.7
213.333	3751.61
213.407	3792.78
213.481	3832.23
213.555	3887.28
213.629	3915.48
213.703	3943.64
213.777	3990.45
213.85	4023.44
213.924	4110.92
213.998	4167.6
214.072	4220.43
214.146	4266.82
214.219	4327.53
214.293	4391.72
214.367	4464.22
214.441	4547.33
214.515	4618.56
214.588	4672.84
214.662	4715.16
214.736	4782.23
214.81	4876.89
214.883	4982.82
214.957	5065.04
215.031	5146.49
215.105	5223.55
215.178	5315.27
215.252	5413.76
215.326	5498.76
215.4	5585.03
215.473	5644.8
215.547	5741.22
215.621	5845.26
215.694	5974.59
215.768	6075.74
215.842	6183.67
215.915	6294.09
215.989	6396.78
216.063	6513.92
216.136	6648.09
216.21	6782.01
216.284	6930.47
216.357	7067.15
216.431	7191.85
216.504	7330.92
216.578	7489.54
216.652	7639.16
216.725	7779.19
216.799	7932.33
216.873	8079.54
216.946	8235.85
217.02	8378.02
217.093	8522.08
217.167	8648.75
217.24	8776.83
217.314	8921.4
217.387	9057.7
217.461	9200.49
217.535	9371.99
217.608	9512.36
217.682	9661.41
217.755	9824.28
217.829	9952.12
217.902	10104.09
217.976	10258.33
218.049	10406.56
218.123	10550.19
218.196	10703.25
218.27	10844.14
218.343	10973.81
218.417	11123.97
218.49	11272.2
218.563	11444.24
218.637	11598.51
218.71	11768.31
218.784	11925.29
218.857	12083.9
218.931	12242.57
219.004	12393.97
219.077	12535.54
219.151	12682.99
219.224	12824.47
219.298	12962.38
219.371	13121.65
219.444	13244.09
219.518	13377.81
219.591	13520.64
219.665	13680.82
219.738	13816.33
219.811	13935.93
219.885	14080.35
219.958	14215.28
220.031	14341.48
220.105	14469.17
220.178	14591.85
220.251	14705.9
220.325	14831.23
220.398	14951.11
220.471	15070.47
220.544	15183.69
220.618	15296.39
220.691	15409.33
220.764	15521.64
220.838	15631.87
220.911	15731.55
220.984	15866.41
221.057	15984.7
221.131	16081.82
221.204	16148.09
221.277	16262.7
221.35	16399.25
221.424	16488.22
221.497	16580.37
221.57	16669.97
221.643	16755.62
221.716	16847.62
221.79	16926.23
221.863	17002.42
221.936	17083.73
222.009	17169.66
222.082	17256.07
222.155	17323.78
222.229	17412.85
222.302	17485.23
222.375	17555.79
222.448	17638.77
222.521	17698
222.594	17756.31
222.667	17818.14
222.74	17894.87
222.814	17953.9
222.887	18006.19
222.96	18075.29
223.033	18150.42
223.106	18214.08
223.179	18277.02
223.252	18343.86
223.325	18411.28
223.398	18472
223.471	18532.96
223.544	18593.87
223.617	18645.14
223.69	18702.01
223.763	18738.34
223.837	18794.2
223.91	18846
223.983	18861.52
224.056	18901.27
224.129	18943.2
224.202	18997.32
224.275	19036.11
224.348	19062.47
224.42	19088.73
224.493	19111.38
224.566	19128.01
224.639	19168.97
224.712	19197.11
224.785	19218.94
224.858	19240.87
224.931	19266.26
225.004	19280.19
225.077	19298.02
225.15	19297.11
225.223	19322.79
225.296	19377.29
225.369	19381.92
225.442	19394.06
225.514	19422.93
225.587	19443.75
225.66	19470.54
225.733	19490.97
225.806	19508.95
225.879	19528.13
225.952	19543.6
226.025	19573.62
226.097	19614.73
226.17	19622.44
226.243	19615.88
226.316	19617.28
226.389	19626.44
226.461	19637.91
226.534	19658.77
226.607	19665.13
226.68	19700.17
226.753	19710.72
226.825	19691.69
226.898	19712.89
226.971	19732.36
227.044	19751.92
227.117	19759.44
227.189	19773.61
227.262	19793.99
227.335	19803.63
227.407	19798.04
227.48	19809.95
227.553	19810.04
227.626	19799.2
227.698	19812.16
227.771	19823.73
227.844	19829.17
227.916	19838.47
227.989	19825.08
228.062	19817.7
228.134	19850.86
228.207	19864.59
228.28	19852.5
228.352	19852.64
228.425	19859.2
228.498	19862.91
228.57	19855.53
228.643	19868.21
228.716	19865.08
228.788	19850.76
228.861	19845.75
228.934	19870.57
229.006	19858.67
229.079	19851.87
229.151	19839.39
229.224	19814.43
229.296	19809.7
229.369	19840.16
229.442	19846.43
229.514	19841.8
229.587	19844.88
229.659	19808.16
229.732	19798.09
229.804	19809.17
229.877	19833.08
229.949	19837.41
230.022	19847.92
230.094	19836.69
230.167	19828.84
230.239	19810.77
230.312	19800.12
230.384	19803.92
230.457	19790.86
230.529	19798.43
230.602	19804.93
230.674	19797.56
230.747	19806.43
230.819	19818.62
230.892	19767.49
230.964	19767.15
231.037	19768.84
231.109	19763.15
231.181	19762.67
231.254	19740.94
231.326	19713.13
231.399	19687.98
231.471	19664.02
231.544	19615.06
231.616	19625.47
231.688	19618.05
231.761	19603.79
231.833	19588.66
231.905	19561.91
231.978	19559.98
232.05	19534.73
232.122	19513.91
232.195	19497.05
232.267	19499.07
232.339	19477.05
232.412	19486.83
232.484	19461.29
232.556	19437.43
232.629	19454.78
232.701	19446.64
232.773	19436.9
232.846	19426.93
232.918	19424.66
232.99	19415.99
233.062	19426.59
233.135	19412.91
233.207	19385.1
233.279	19381.53
233.351	19380.57
233.424	19365.29
233.496	19332
233.568	19341.78
233.64	19314.45
233.713	19304.48
233.785	19288.72
233.857	19275.9
233.929	19237.06
234.001	19238.31
234.074	19243.66
234.146	19195.33
234.218	19182.41
234.29	19160.15
234.362	19128.2
234.434	19078.23
234.507	19051.92
234.579	19021.94
234.651	18993.37
234.723	18981.85
234.795	18968.07
234.867	18938.77
234.939	18939.01
235.012	18930.09
235.084	18917.32
235.156	18915.64
235.228	18895.93
235.3	18861.52
235.372	18845.18
235.444	18836.8
235.516	18777.81
235.588	18754.2
235.66	18734.15
235.732	18705.72
235.804	18742.73
235.876	18741.77
235.948	18739.12
236.02	18714.2
236.092	18691.6
236.164	18667.55
236.236	18638.5
236.308	18605
236.38	18587.32
236.452	18551.18
236.524	18518.74
236.596	18503.18
236.668	18479.61
236.74	18451.61
236.812	18434.41
236.884	18411.47
236.956	18399.47
237.028	18373.59
237.1	18349.98
237.172	18340.1
237.244	18332.73
237.316	18272.25
237.388	18243.05
237.46	18213.02
237.532	18206.57
237.604	18167.19
237.675	18156.74
237.747	18142.18
237.819	18111.2
237.891	18094.52
237.963	18065.08
238.035	18036.5
238.107	17972.55
238.178	17957.56
238.25	17932.31
238.322	17929.18
238.394	17889.23
238.466	17857.62
238.538	17849.76
238.609	17811.74
238.681	17765.14
238.753	17726.63
238.825	17695.6
238.897	17686.25
238.968	17676.03
239.04	17640.08
239.112	17645.14
239.184	17606.87
239.255	17575.5
239.327	17552.22
239.399	17517.43
239.471	17490.87
239.542	17467.45
239.614	17461.28
239.686	17413.24
239.758	17394.92
239.829	17346.49
239.901	17335.69
239.973	17309.86
240.044	17286.3
240.116	17274.68
240.188	17248.42
240.259	17214.29
240.331	17184.7
240.403	17153.67
240.474	17106.05
240.546	17069.14
240.618	17021.66
240.689	16998.39
240.761	16975.54
240.833	16971.74
240.904	16943.78
240.976	16921.28
241.048	16905.37
241.119	16881.32
241.191	16856.16
241.262	16852.98
241.334	16830.14
241.405	16794.19
241.477	16751.68
241.549	16722.13
241.62	16686.47
241.692	16664.92
241.763	16661.45
241.835	16627.43
241.906	16594.94
241.978	16561.45
242.049	16546.36
242.121	16528.24
242.192	16511.8
242.264	16458.02
242.335	16401.48
242.407	16378.39
242.478	16346.63
242.55	16316.85
242.621	16278.34
242.693	16239.39
242.764	16193.8
242.836	16152.06
242.907	16129.45
242.979	16106.9
243.05	16081.93
243.122	16059.57
243.193	16030.36
243.264	15970.5
243.336	15946.49
243.407	15934.3
243.479	15922.44
243.55	15895.35
243.622	15865.13
243.693	15830.04
243.764	15828.16
243.836	15799.24
243.907	15766.13
243.978	15734.9
244.05	15710.22
244.121	15666.6
244.192	15658.98
244.264	15606.39
244.335	15585.67
244.407	15535.59
244.478	15516.31
244.549	15487.72
244.62	15446.9
244.692	15419.03
244.763	15403.95
244.834	15365.48
244.906	15319.35
244.977	15296.6
245.048	15285.47
245.119	15258.14
245.191	15217.6
245.262	15166.6
245.333	15160.34
245.405	15133.82
245.476	15107.12
245.547	15082.78
245.618	15068.61
245.689	15036.7
245.761	15022.67
245.832	14991.24
245.903	14977.98
245.974	14954.46
246.045	14924.67
246.117	14911.94
246.188	14869.09
246.259	14829.32
246.33	14801.22
246.401	14771.53
246.473	14727.03
246.544	14687.7
246.615	14661.48
246.686	14637.33
246.757	14620.31
246.828	14573.99
246.899	14559.48
246.97	14519.37
247.042	14481.67
247.113	14462.01
247.184	14466.63
247.255	14428.74
247.326	14412.31
247.397	14382.47
247.468	14355.37
247.539	14330.02
247.61	14287.65
247.681	14269.47
247.752	14262.72
247.823	14226.62
247.894	14207.58
247.965	14168.53
248.037	14129.63
248.108	14094.2
248.179	14066.33
248.25	14044.25
248.321	14024.25
248.392	13978.55
248.463	13977.83
248.534	13948.13
248.605	13926.39
248.675	13885.51
248.746	13876.3
248.817	13856.3
248.888	13840.87
248.959	13793.82
249.03	13776.95
249.101	13757.57
249.172	13730.19
249.243	13678.47
249.314	13680.63
249.385	13658.17
249.456	13648
249.527	13627.03
249.598	13606.3
249.669	13584.8
249.739	13567.3
249.81	13555.06
249.881	13526.28
249.952	13502.85
250.023	13481.44
250.094	13440.57
250.165	13414.49
250.235	13381.95
250.306	13352.69
250.377	13319.62
250.448	13302.65
250.519	13252.61
250.59	13246.73
250.66	13220.84
250.731	13213.13
250.802	13181.41
250.873	13156.82
250.944	13144
251.014	13116.81
251.085	13118.45
251.156	13097.62
251.227	13086.59
251.297	13072.94
251.368	13060.99
251.439	13041.99
251.51	13032.59
251.58	13001.12
251.651	12965.97
251.722	12961.97
251.792	12927.65
251.863	12898.58
251.934	12895.11
252.005	12908.37
252.075	12887.78
252.146	12880.07
252.217	12876.21
252.287	12865.03
252.358	12841.6
252.429	12831.38
252.499	12806.03
252.57	12787.37
252.641	12778.41
252.711	12752.42
252.782	12713.81
252.852	12720.56
252.923	12698.14
252.994	12674.96
253.064	12675.87
253.135	12650.76
253.205	12619.57
253.276	12614.36
253.347	12616.34
253.417	12591.66
253.488	12561.48
253.558	12536.42
253.629	12512.94
253.699	12492.65
253.77	12483.1
253.841	12460.69
253.911	12438.95
253.982	12423.47
254.052	12410.65
254.123	12391.27
254.193	12377.73
254.264	12399.32
254.334	12362.83
254.405	12334.83
254.475	12302.53
254.546	12274.86
254.616	12273.71
254.687	12257.75
254.757	12237.51
254.827	12210.32
254.898	12198.46
254.968	12179.32
255.039	12148.38
255.109	12140.43
255.18	12107.17
255.25	12064.85
255.321	12053.33
255.391	12018.14
255.461	12021.75
255.532	11977.55
255.602	11949.02
255.673	11902.17
255.743	11871.27
255.813	11826.39
255.884	11824.85
255.954	11820.85
256.024	11820.47
256.095	11794.15
256.165	11766.1
256.235	11759.73
256.306	11737.66
256.376	11724.31
256.446	11713.32
256.517	11709.37
256.587	11695.92
256.657	11680.64
256.728	11665.07
256.798	11649.12
256.868	11638.32
256.938	11604.44
257.009	11595.96
257.079	11591.14
257.149	11604.53
257.219	11569.11
257.29	11564.05
257.36	11521.06
257.43	11515.61
257.5	11474.6
257.571	11451.56
257.641	11442.16
257.711	11411.56
257.781	11399.03
257.852	11389.1
257.922	11350.44
257.992	11319.99
258.062	11302.59
258.132	11297.04
258.202	11282.78
258.273	11269.72
258.343	11269.72
258.413	11255.94
258.483	11238.15
258.553	11208.37
258.623	11180.94
258.693	11161.67
258.764	11162.25
258.834	11165.67
258.904	11145.62
258.974	11128.7
259.044	11113.67
259.114	11103.45
259.184	11089.28
259.254	11078.06
259.324	11036.85
259.394	11036.61
259.464	11045.77
259.535	11029.09
259.605	11010.25
259.675	10981
259.745	10972.28
259.815	10935.56
259.885	10906.74
259.955	10917.3
260.025	10887.86
260.095	10870.6
260.165	10862.89
260.235	10863.86
260.305	10837.26
260.375	10807.72
260.445	10812.78
260.515	10814.47
260.585	10810.42
260.655	10796.68
260.725	10788.3
260.795	10785.22
260.865	10782.37
260.934	10754.42
261.004	10744.93
261.074	10726.62
261.144	10736.55
261.214	10726.09
261.284	10711.25
261.354	10708.55
261.424	10679.59
261.494	10689.27
261.564	10676.55
261.634	10670.87
261.703	10637.52
261.773	10628.7
261.843	10619.69
261.913	10601.14
261.983	10569.68
262.053	10563.42
262.123	10547.71
262.192	10518.42
262.262	10512.01
262.332	10481.7
