Data from 20250704_urea_1M_MAYP1162681_11-35-50-640.txt Node
Date: Fri Jul 04 11:35:50 BST 2025
User: adleo
Spectrometer: MAYP116268
Trigger mode: 0
Integration Time (sec): 1.000000E0
Scans to average: 1
Electric dark correction enabled: true
Nonlinearity correction enabled: true
Boxcar width: 10
XAxis mode: Wavelengths
Number of Pixels in Spectrum: 2068
>>>>>Begin Spectral Data<<<<<
179.565	1260.91
179.642	1318.77
179.718	1365.58
179.795	1402.84
179.871	1433.68
179.948	1453.24
180.024	1472.02
180.101	1495.98
180.177	1509.28
180.254	1532.58
180.33	1555.18
180.407	1616.34
180.483	1715.73
180.56	1809.61
180.636	1896.83
180.712	1882.66
180.789	1895.87
180.865	1906.43
180.942	1915.36
181.018	1926.34
181.095	1938.28
181.171	1944.08
181.248	1945.27
181.324	1959.92
181.4	1969.57
181.477	1982.32
181.553	1994.53
181.63	2018.17
181.706	2034.34
181.782	2044.99
181.859	2044.99
181.935	2050.31
182.011	2043.04
182.088	2060.3
182.164	2079.05
182.24	2095.6
182.317	2104.49
182.393	2103.63
182.469	2115.71
182.546	2130.6
182.622	2135.55
182.698	2129.32
182.775	2136.74
182.851	2152.91
182.927	2142.64
183.003	2136.26
183.08	2131.75
183.156	2140.17
183.232	2138.26
183.308	2125.85
183.385	2136.55
183.461	2155.2
183.537	2156.77
183.613	2171.28
183.69	2160.91
183.766	2151.67
183.842	2157.91
183.918	2165.8
183.995	2177.6
184.071	2183.5
184.147	2177.03
184.223	2164
184.299	2180.51
184.375	2173.14
184.452	2179.71
184.528	2232.67
184.604	2245.27
184.68	2256.5
184.756	2266.54
184.832	2268.54
184.908	2274.68
184.985	2272.01
185.061	2254.6
185.137	2263.36
185.213	2251.08
185.289	2250.7
185.365	2243.71
185.441	2241.38
185.517	2256.9
185.593	2252.8
185.669	2251.71
185.745	2262.18
185.822	2278.82
185.898	2271.26
185.974	2280.91
186.05	2267.97
186.126	2234.09
186.202	2226.9
186.278	2224.71
186.354	2215.77
186.43	2225.14
186.506	2223.95
186.582	2225.19
186.658	2232.99
186.734	2214.68
186.81	2220.15
186.886	2225.81
186.962	2235.23
187.038	2229.23
187.114	2216.57
187.19	2222.61
187.266	2210.58
187.341	2211.86
187.417	2206.34
187.493	2204.82
187.569	2207.2
187.645	2204.3
187.721	2189.78
187.797	2197.49
187.873	2200.44
187.949	2194.16
188.025	2186.83
188.101	2190.87
188.176	2192.35
188.252	2185.78
188.328	2191.44
188.404	2189.16
188.48	2182.93
188.556	2177.41
188.632	2177.5
188.707	2177.5
188.783	2174.12
188.859	2169.08
188.935	2158.23
189.011	2165.8
189.086	2157.09
189.162	2151.53
189.238	2148.82
189.314	2149.01
189.39	2146.01
189.465	2138.78
189.541	2155.19
189.617	2140.21
189.693	2134.98
189.768	2140.02
189.844	2170.01
189.92	2162.21
189.996	2171.53
190.071	2183.24
190.147	2184.9
190.223	2194.32
190.298	2188.14
190.374	2175.53
190.45	2188.9
190.526	2197.65
190.601	2190.32
190.677	2194.41
190.753	2217.46
190.828	2220.83
190.904	2235.16
190.98	2246.96
191.055	2257.52
191.131	2246.29
191.207	2266.8
191.282	2275.79
191.358	2267.89
191.433	2250.04
191.509	2264.07
191.585	2258.93
191.66	2262.69
191.736	2269.35
191.811	2261.83
191.887	2279.87
191.963	2306.76
192.038	2311.8
192.114	2312.28
192.189	2318.18
192.265	2314.09
192.34	2293.81
192.416	2294
192.491	2293.24
192.567	2294.43
192.642	2296.47
192.718	2300.04
192.793	2287.81
192.869	2281.01
192.944	2280.72
193.02	2287.67
193.095	2290.91
193.171	2298
193.246	2295.71
193.322	2293.19
193.397	2292.48
193.473	2279
193.548	2258.39
193.624	2262.06
193.699	2259.25
193.775	2274.58
193.85	2277.58
193.925	2286.43
194.001	2283.81
194.076	2271.44
194.152	2263.82
194.227	2256.88
194.302	2245.17
194.378	2249.08
194.453	2247.46
194.529	2261.69
194.604	2247.84
194.679	2243.7
194.755	2221.53
194.83	2232.34
194.905	2228.01
194.981	2238.62
195.056	2226.87
195.131	2234.29
195.207	2234.58
195.282	2227.3
195.357	2208.59
195.433	2223.63
195.508	2212.25
195.583	2220.82
195.659	2238.76
195.734	2244.62
195.809	2245.47
195.884	2256.65
195.96	2257.08
196.035	2274.4
196.11	2270.64
196.185	2284.58
196.261	2288.1
196.336	2323.56
196.411	2311.08
196.486	2319.32
196.561	2313.42
196.637	2324.69
196.712	2340.4
196.787	2343.73
196.862	2359.06
196.937	2370.34
197.013	2374.58
197.088	2382.19
197.163	2406
197.238	2423.29
197.313	2424.82
197.388	2437.43
197.464	2468.77
197.539	2478.67
197.614	2473.01
197.689	2484.91
197.764	2501.1
197.839	2522.2
197.914	2515.72
197.989	2540.01
198.065	2555.1
198.14	2604.85
198.215	2630.14
198.29	2642.19
198.365	2655.15
198.44	2665.48
198.515	2691.97
198.59	2707.12
198.665	2736.65
198.74	2745.8
198.815	2745.09
198.89	2768.43
198.965	2798.89
199.04	2793.45
199.115	2809.17
199.19	2853.3
199.265	2855.92
199.34	2862.88
199.415	2896.45
199.49	2917.6
199.565	2928.61
199.64	2950.16
199.715	2950.4
199.79	2962.12
199.865	2973.14
199.94	2972.14
200.015	3005.23
200.09	3010.66
200.165	3019.24
200.24	3026.68
200.315	3063
200.39	3080.97
200.464	3086.69
200.539	3089.03
200.614	3105.15
200.689	3131.42
200.764	3136.34
200.839	3157.79
200.914	3164.51
200.989	3151.91
201.063	3166.51
201.138	3146.54
201.213	3151.5
201.288	3129.66
201.363	3133.66
201.438	3131.04
201.512	3147.34
201.587	3129.98
201.662	3135.66
201.737	3148.25
201.812	3154.59
201.886	3123.14
201.961	3132.3
202.036	3120.62
202.111	3116.57
202.186	3085.69
202.26	3067.95
202.335	3045.29
202.41	3032.56
202.485	3013.78
202.559	2995.57
202.634	2968.3
202.709	2981.02
202.784	2957.57
202.858	2957.38
202.933	2937.4
203.008	2931.25
203.082	2908.71
203.157	2904.99
203.232	2861.25
203.306	2837.51
203.381	2808.95
203.456	2785.55
203.53	2759.51
203.605	2740.26
203.68	2715.43
203.754	2710.24
203.829	2693.75
203.904	2674.36
203.978	2665.93
204.053	2672.6
204.127	2661.07
204.202	2661.5
204.277	2641.02
204.351	2631.59
204.426	2624.96
204.5	2617.91
204.575	2580.87
204.65	2592.49
204.724	2586.2
204.799	2592.82
204.873	2591.1
204.948	2588.39
205.022	2574.53
205.097	2566.14
205.171	2579.38
205.246	2587.39
205.32	2586.77
205.395	2587.96
205.469	2579.63
205.544	2585.06
205.618	2566.91
205.693	2575.72
205.767	2560.87
205.842	2584.21
205.916	2580.16
205.991	2570.07
206.065	2572.88
206.14	2591.15
206.214	2586.2
206.289	2577.43
206.363	2591.34
206.438	2591.58
206.512	2598.01
206.586	2619.58
206.661	2629.87
206.735	2606.78
206.81	2608.16
206.884	2621.5
206.958	2607.97
207.033	2622.21
207.107	2630.55
207.181	2662.52
207.256	2659.23
207.33	2680.48
207.405	2690.11
207.479	2709.78
207.553	2718.07
207.628	2702.45
207.702	2710.03
207.776	2706.17
207.851	2712.07
207.925	2725.52
207.999	2722.85
208.073	2721.85
208.148	2725.18
208.222	2713.46
208.296	2747.84
208.371	2765.25
208.445	2778.64
208.519	2805.93
208.593	2820.89
208.668	2816.99
208.742	2821.52
208.816	2823.8
208.89	2837.53
208.965	2837.77
209.039	2850.36
209.113	2871.38
209.187	2897.91
209.261	2899
209.336	2924.22
209.41	2949.97
209.484	2955.88
209.558	2985.53
209.632	3002.12
209.707	3018.9
209.781	3048.51
209.855	3071.88
209.929	3100
210.003	3111.64
210.077	3123.6
210.151	3181.94
210.226	3232.05
210.3	3273.74
210.374	3314.95
210.448	3335.51
210.522	3365.39
210.596	3393.74
210.67	3427.2
210.744	3497.15
210.818	3555.7
210.892	3600.4
210.966	3620.3
211.041	3671.31
211.115	3701.34
211.189	3762.9
211.263	3820.46
211.337	3862.97
211.411	3920.28
211.485	3958.57
211.559	4022.4
211.633	4073.74
211.707	4095.08
211.781	4156.66
211.855	4180.43
211.929	4231.82
212.003	4280.52
212.077	4357.51
212.151	4441.06
212.225	4520.22
212.299	4589.52
212.373	4659.11
212.447	4741.43
212.52	4862.43
212.594	4953.98
212.668	5061.07
212.742	5147.07
212.816	5241.86
212.89	5346.07
212.964	5454.06
213.038	5572.62
213.112	5704.47
213.186	5839.92
213.26	5947.23
213.333	6024.42
213.407	6157.54
213.481	6297.1
213.555	6440.99
213.629	6568.1
213.703	6691.96
213.777	6829.48
213.85	6955.13
213.924	7141.2
213.998	7288.52
214.072	7433.67
214.146	7574.63
214.219	7728.06
214.293	7877.45
214.367	8040.5
214.441	8215.3
214.515	8366.24
214.588	8507.42
214.662	8637.84
214.736	8785.72
214.81	8958.67
214.883	9143.04
214.957	9304.39
215.031	9460.95
215.105	9611.35
215.178	9769.6
215.252	9930.11
215.326	10081.35
215.4	10233.07
215.473	10350.83
215.547	10510.54
215.621	10665.36
215.694	10839.84
215.768	10989.36
215.842	11149.05
215.915	11304.9
215.989	11445.34
216.063	11602.99
216.136	11771.72
216.21	11932.65
216.284	12106.98
216.357	12276.55
216.431	12429.73
216.504	12604.03
216.578	12791.25
216.652	12959.23
216.725	13115.65
216.799	13291.64
216.873	13452.65
216.946	13618.47
217.02	13768.53
217.093	13909.63
217.167	14042.53
217.24	14169.94
217.314	14314.31
217.387	14452.9
217.461	14584.98
217.535	14745.89
217.608	14881.58
217.682	15012.31
217.755	15175.23
217.829	15308.22
217.902	15436.92
217.976	15576.65
218.049	15692.33
218.123	15804.59
218.196	15941.24
218.27	16064.87
218.343	16174.56
218.417	16311.59
218.49	16434.78
218.563	16572.67
218.637	16693.98
218.71	16836.45
218.784	16971.78
218.857	17101.52
218.931	17231.26
219.004	17354.4
219.077	17469.39
219.151	17582.98
219.224	17692.81
219.298	17785.44
219.371	17903.27
219.444	17997
219.518	18097.86
219.591	18205.04
219.665	18327.59
219.738	18426.67
219.811	18507.29
219.885	18615.1
219.958	18700.97
220.031	18787.33
220.105	18876.67
220.178	18970.98
220.251	19048.52
220.325	19139.31
220.398	19216.56
220.471	19298.38
220.544	19374.14
220.618	19434.23
220.691	19509.36
220.764	19584.15
220.838	19664.87
220.911	19719.52
220.984	19798.41
221.057	19875.85
221.131	19941.29
221.204	19977.29
221.277	20051.6
221.35	20150.3
221.424	20196.08
221.497	20253.53
221.57	20307.36
221.643	20367.21
221.716	20423.5
221.79	20456.13
221.863	20497.77
221.936	20546.01
222.009	20582.78
222.082	20636.85
222.155	20673.72
222.229	20733.53
222.302	20781.82
222.375	20814.54
222.448	20863.75
222.521	20903.03
222.594	20923.71
222.667	20951.13
222.74	20992.14
222.814	21021.73
222.887	21042.41
222.96	21085.02
223.033	21127.29
223.106	21156.64
223.179	21180.16
223.252	21219.63
223.325	21256.02
223.398	21289.66
223.471	21315.45
223.544	21347.98
223.617	21361.96
223.69	21394.54
223.763	21405.34
223.837	21423.85
223.91	21446.98
223.983	21443.13
224.056	21450.21
224.129	21472.82
224.202	21497.16
224.275	21499.13
224.348	21501.64
224.42	21500.82
224.493	21491.18
224.566	21486.94
224.639	21504.43
224.712	21514.51
224.785	21508.96
224.858	21512.58
224.931	21504.14
225.004	21500.34
225.077	21500.91
225.15	21489.59
225.223	21492.19
225.296	21509.59
225.369	21495.52
225.442	21474.98
225.514	21485.88
225.587	21486.17
225.66	21490.17
225.733	21488.91
225.806	21498.36
225.879	21495.32
225.952	21488.53
226.025	21503.62
226.097	21517.06
226.17	21510.32
226.243	21483.23
226.316	21472.91
226.389	21466.65
226.461	21461.63
226.534	21464.67
226.607	21458.69
226.68	21470.7
226.753	21453.92
226.825	21414.4
226.898	21428.28
226.971	21433.97
227.044	21424.09
227.117	21425.29
227.189	21416.66
227.262	21416.71
227.335	21407.26
227.407	21389.38
227.48	21389.24
227.553	21372.37
227.626	21351.79
227.698	21342.1
227.771	21342.34
227.844	21324.94
227.916	21319.2
227.989	21295.59
228.062	21275.92
228.134	21287.35
228.207	21277.51
228.28	21267.54
228.352	21265.03
228.425	21244.06
228.498	21233.7
228.57	21214.76
228.643	21206.62
228.716	21183.24
228.788	21167.86
228.861	21147.38
228.934	21145.98
229.006	21126.32
229.079	21109.21
229.151	21083.91
229.224	21047.57
229.296	21037.35
229.369	21048.43
229.442	21042.84
229.514	21021.49
229.587	21013.78
229.659	20972.96
229.732	20951.56
229.804	20955.32
229.877	20964.38
229.949	20955.75
230.022	20970.36
230.094	20949.92
230.167	20938.74
230.239	20919.32
230.312	20888.91
230.384	20898.84
230.457	20886.98
230.529	20864.57
230.602	20854.55
230.674	20843.65
230.747	20829.82
230.819	20820.47
230.892	20767.12
230.964	20750.59
231.037	20746.49
231.109	20726.93
231.181	20714.83
231.254	20688.37
231.326	20653.87
231.399	20617.53
231.471	20593.53
231.544	20539.06
231.616	20537.38
231.688	20519.5
231.761	20500.37
231.833	20482.1
231.905	20432.8
231.978	20401.76
232.05	20384.41
232.122	20359.21
232.195	20335.16
232.267	20337.28
232.339	20308.17
232.412	20303.83
232.484	20269.91
232.556	20235.45
232.629	20237.33
232.701	20225.43
232.773	20210.39
232.846	20185.38
232.918	20159.98
232.99	20137.77
233.062	20127.5
233.135	20109.91
233.207	20066.01
233.279	20053.57
233.351	20035.74
233.424	20007.94
233.496	19985.82
233.568	19990.16
233.64	19952.76
233.713	19922.4
233.785	19900.14
233.857	19873.05
233.929	19829.73
234.001	19824.14
234.074	19817.01
234.146	19765.97
234.218	19736.58
234.29	19712.58
234.362	19673.69
234.434	19636.15
234.507	19597.35
234.579	19550.95
234.651	19505.94
234.723	19488.2
234.795	19457.46
234.867	19425.36
234.939	19417.75
235.012	19401.36
235.084	19369.94
235.156	19356.07
235.228	19327.1
235.3	19292.89
235.372	19267.49
235.444	19256.7
235.516	19207.01
235.588	19180.17
235.66	19149.96
235.732	19103.74
235.804	19129.33
235.876	19111.65
235.948	19102.68
236.02	19067.17
236.092	19043.07
236.164	19019.56
236.236	18992.43
236.308	18954.69
236.38	18921.73
236.452	18887.37
236.524	18848.72
236.596	18831.18
236.668	18804.58
236.74	18770.66
236.812	18743.81
236.884	18721.65
236.956	18691.43
237.028	18656.49
237.1	18610.67
237.172	18593.85
237.244	18586.96
237.316	18523.78
237.388	18494.34
237.46	18453.08
237.532	18441.18
237.604	18403.79
237.675	18386.53
237.747	18360.8
237.819	18332.8
237.891	18308.22
237.963	18259.26
238.035	18218.88
238.107	18149.77
238.178	18133.34
238.25	18105.53
238.322	18091.7
238.394	18039.71
238.466	18001.92
238.538	17980.09
238.609	17963.37
238.681	17917.15
238.753	17867.37
238.825	17829.16
238.897	17798.17
238.968	17782.12
239.04	17746.85
239.112	17748.49
239.184	17711.09
239.255	17674.8
239.327	17640.49
239.399	17610.27
239.471	17588.01
239.542	17571.52
239.614	17565.69
239.686	17512.01
239.758	17494.71
239.829	17451.57
239.901	17442.61
239.973	17417.41
240.044	17391.77
240.116	17353.12
240.188	17324.73
240.259	17305.07
240.331	17267.04
240.403	17242.32
240.474	17190.75
240.546	17148.63
240.618	17084.82
240.689	17050.94
240.761	17022.94
240.833	17015.57
240.904	16981.64
240.976	16953.64
241.048	16919.03
241.119	16882.79
241.191	16860.86
241.262	16845.1
241.334	16811.51
241.405	16778.26
241.477	16747.75
241.549	16712.28
241.62	16691.17
241.692	16662.1
241.763	16641.96
241.835	16611.74
241.906	16587.45
241.978	16549.04
242.049	16530.38
242.121	16518.24
242.192	16497.8
242.264	16447.44
242.335	16388.44
242.407	16365.55
242.478	16332.34
242.55	16306.89
242.621	16269.68
242.693	16225.73
242.764	16186.54
242.836	16148.08
242.907	16120.03
242.979	16086.68
243.05	16054.77
243.122	16030.38
243.193	16002.14
243.264	15947.62
243.336	15907.67
243.407	15876.72
243.479	15868.58
243.55	15846.17
243.622	15814.64
243.693	15783.65
243.764	15768.52
243.836	15736.03
243.907	15703.49
243.978	15673.56
244.05	15654.43
244.121	15608.06
244.192	15584.87
244.264	15540.19
244.335	15517.39
244.407	15478.35
244.478	15457.52
244.549	15434.97
244.62	15385.51
244.692	15355.14
244.763	15332.49
244.834	15309.01
244.906	15271.61
244.977	15245.53
245.048	15236.04
245.119	15198.63
245.191	15156.79
245.262	15109.46
245.333	15102.76
245.405	15077.93
245.476	15052.58
245.547	15015.65
245.618	14997.58
245.689	14972.8
245.761	14947.93
245.832	14914.57
245.903	14887.34
245.974	14865.45
246.045	14827.95
246.117	14825.78
246.188	14786.69
246.259	14755.69
246.33	14719.68
246.401	14696.74
246.473	14650.08
246.544	14604.76
246.615	14589.39
246.686	14557.57
246.757	14558.73
246.828	14520.84
246.899	14511.97
246.97	14466.13
247.042	14436.96
247.113	14413.73
247.184	14409.97
247.255	14380.9
247.326	14357.13
247.397	14331.59
247.468	14295.91
247.539	14265.88
247.61	14215.31
247.681	14194.87
247.752	14173.9
247.823	14144.5
247.894	14112.83
247.965	14081.83
248.037	14051.41
248.108	14007.88
248.179	13987.83
248.25	13950.85
248.321	13926.17
248.392	13873.92
248.463	13873.58
248.534	13837.67
248.605	13822.77
248.675	13787.77
248.746	13766.66
248.817	13750.17
248.888	13730.79
248.959	13695.41
249.03	13683.55
249.101	13660.99
249.172	13633.13
249.243	13595.19
249.314	13586.99
249.385	13567.66
249.456	13550.74
249.527	13524.61
249.598	13509.77
249.669	13480.75
249.739	13461.42
249.81	13447.44
249.881	13414.7
249.952	13393.11
250.023	13375.8
250.094	13328.65
250.165	13293.51
250.235	13271.58
250.306	13246.08
250.377	13216.81
250.448	13198.01
250.519	13156.51
250.59	13145.57
250.66	13122.23
250.731	13114.71
250.802	13094.52
250.873	13073.3
250.944	13052.24
251.014	13018.59
251.085	13016.18
251.156	13000.42
251.227	12987.64
251.297	12976.22
251.368	12965.71
251.439	12954.28
251.51	12944.84
251.58	12927.48
251.651	12904.78
251.722	12893.74
251.792	12856.23
251.863	12821.14
251.934	12813.96
252.005	12826.68
252.075	12806.92
252.146	12801.47
252.217	12790.82
252.287	12773.75
252.358	12751.53
252.429	12751
252.499	12730.32
252.57	12715.04
252.641	12704.1
252.711	12686.5
252.782	12647.22
252.852	12651.84
252.923	12626.58
252.994	12604.99
253.064	12598
253.135	12569.32
253.205	12541.5
253.276	12547.33
253.347	12547.86
253.417	12521.79
253.488	12489.78
253.558	12462.06
253.629	12437.96
253.699	12417.76
253.77	12404.31
253.841	12383.2
253.911	12366.42
253.982	12355.72
254.052	12346.76
254.123	12327.38
254.193	12304.72
254.264	12329.02
254.334	12296.53
254.405	12262.74
254.475	12235.79
254.546	12214.3
254.616	12210.63
254.687	12202.29
254.757	12178.05
254.827	12157.56
254.898	12137.8
254.968	12120.16
255.039	12097.79
255.109	12086.51
255.18	12056.19
255.25	12009.15
255.321	11996.62
255.391	11963.26
255.461	11962.1
255.532	11907.73
255.602	11881.8
255.673	11844.25
255.743	11805.79
255.813	11762.22
255.884	11759.08
255.954	11744.82
256.024	11743.56
256.095	11721.68
256.165	11682.59
256.235	11673.82
256.306	11654.64
256.376	11650.44
256.446	11639.65
256.517	11624.37
256.587	11620.27
256.657	11608.94
256.728	11600.22
256.798	11582.87
256.868	11557.86
256.938	11531.25
257.009	11519.83
257.079	11507.59
257.149	11519.15
257.219	11484.74
257.29	11472.84
257.36	11435.25
257.43	11422.81
257.5	11386.13
257.571	11374.04
257.641	11373.8
257.711	11341.74
257.781	11327.05
257.852	11315.29
257.922	11278.08
257.992	11264.2
258.062	11237.6
258.132	11229.98
258.202	11210.75
258.273	11192.15
258.343	11196.54
258.413	11172.05
258.483	11164.73
258.553	11144.34
258.623	11114.9
258.693	11105.64
258.764	11112.05
258.834	11110.85
258.904	11096.15
258.974	11062.23
259.044	11040.25
259.114	11018.32
259.184	11002.42
259.254	10981.94
259.324	10943.24
259.394	10932.06
259.464	10933.22
259.535	10917.22
259.605	10896.64
259.675	10869.66
259.745	10865.85
259.815	10832.41
259.885	10808.51
259.955	10820.27
260.025	10791.65
260.095	10774.21
260.165	10764.09
260.235	10766.45
260.305	10743.03
260.375	10720.53
260.445	10735.61
260.515	10732.77
260.585	10734.16
260.655	10727.42
260.725	10727.75
260.795	10722.12
260.865	10728.72
260.934	10705.97
261.004	10698.94
261.074	10687.71
261.144	10696.09
261.214	10688.91
261.284	10679.04
261.354	10679.71
261.424	10650.75
261.494	10656
261.564	10648.53
261.634	10636
261.703	10592.64
261.773	10587.72
261.843	10575.68
261.913	10560.79
261.983	10533.33
262.053	10524.12
262.123	10500.18
262.192	10473.34
262.262	10470.4
