Data from 20250704_urea_1.5M_MAYP1162681_11-50-04-575.txt Node
Date: Fri Jul 04 11:50:04 BST 2025
User: adleo
Spectrometer: MAYP116268
Trigger mode: 0
Integration Time (sec): 1.000000E0
Scans to average: 1
Electric dark correction enabled: true
Nonlinearity correction enabled: true
Boxcar width: 10
XAxis mode: Wavelengths
Number of Pixels in Spectrum: 2068
>>>>>Begin Spectral Data<<<<<
179.565	1256.6
179.642	1316.43
179.718	1368.21
179.795	1411.73
179.871	1447.12
179.948	1469.16
180.024	1488.91
180.101	1513.23
180.177	1527.47
180.254	1550.57
180.33	1573.66
180.407	1630.88
180.483	1731.32
180.56	1824.92
180.636	1914.08
180.712	1901.62
180.789	1914.56
180.865	1930.52
180.942	1941.22
181.018	1951.54
181.095	1964.05
181.171	1973.7
181.248	1975.22
181.324	1987.78
181.4	1995.91
181.477	2007.9
181.553	2018.55
181.63	2039.95
181.706	2056.74
181.782	2067.39
181.859	2065.63
181.935	2071.48
182.011	2068.77
182.088	2083.8
182.164	2103.35
182.24	2117.71
182.317	2127.94
182.393	2124.23
182.469	2137.6
182.546	2150.92
182.622	2156.39
182.698	2149.11
182.775	2155.53
182.851	2171.23
182.927	2163.86
183.003	2158.1
183.08	2151.25
183.156	2160.05
183.232	2159.24
183.308	2144.97
183.385	2154.34
183.461	2177.84
183.537	2178.8
183.613	2192.93
183.69	2186.55
183.766	2178.98
183.842	2186.26
183.918	2193.26
183.995	2207.48
184.071	2212.19
184.147	2206.2
184.223	2194.45
184.299	2209.34
184.375	2198.64
184.452	2205.45
184.528	2258.51
184.604	2269.79
184.68	2283.59
184.756	2291.77
184.832	2293.96
184.908	2300.57
184.985	2297.15
185.061	2278.26
185.137	2287.2
185.213	2277.5
185.289	2276.64
185.365	2269.36
185.441	2267.17
185.517	2278.64
185.593	2274.22
185.669	2271.17
185.745	2280.31
185.822	2296.62
185.898	2289.91
185.974	2298.9
186.05	2290.62
186.126	2254.35
186.202	2248.21
186.278	2242.84
186.354	2233.94
186.43	2240.79
186.506	2241.36
186.582	2242.5
186.658	2246.83
186.734	2225.33
186.81	2226
186.886	2228.85
186.962	2242.93
187.038	2242.41
187.114	2235.41
187.19	2245.41
187.266	2235.04
187.341	2235.94
187.417	2230.33
187.493	2229.9
187.569	2236.61
187.645	2227.61
187.721	2215.38
187.797	2222.19
187.873	2226.71
187.949	2219.05
188.025	2216.1
188.101	2217.57
188.176	2222.28
188.252	2220.05
188.328	2228.89
188.404	2227.56
188.48	2223.28
188.556	2210.53
188.632	2207.24
188.707	2209.43
188.783	2204.1
188.859	2199.06
188.935	2189.83
189.011	2197.92
189.086	2190.45
189.162	2179.89
189.238	2180.93
189.314	2178.65
189.39	2170.8
189.465	2162.52
189.541	2181.17
189.617	2163.81
189.693	2158.91
189.768	2161.38
189.844	2184.75
189.92	2176.62
189.996	2184.99
190.071	2194.41
190.147	2194.98
190.223	2203.6
190.298	2192.98
190.374	2180.62
190.45	2193.6
190.526	2200.22
190.601	2193.65
190.677	2195.46
190.753	2224.69
190.828	2228.02
190.904	2242.82
190.98	2260.33
191.055	2273.13
191.131	2263.14
191.207	2284.22
191.282	2295.73
191.358	2286.21
191.433	2273.36
191.509	2285.39
191.585	2282.73
191.66	2285.73
191.736	2294
191.811	2286.2
191.887	2305.76
191.963	2327.18
192.038	2334.32
192.114	2334.51
192.189	2338.74
192.265	2337.03
192.34	2312.32
192.416	2311.03
192.491	2307.04
192.567	2306.75
192.642	2308.61
192.718	2309.08
192.793	2297.14
192.869	2288.67
192.944	2293.09
193.02	2301.61
193.095	2306.18
193.171	2311.61
193.246	2312.03
193.322	2309.42
193.397	2309.56
193.473	2294.56
193.548	2277.67
193.624	2281.81
193.699	2280.29
193.775	2297.24
193.85	2299
193.925	2308.04
194.001	2306.18
194.076	2293.81
194.152	2288.05
194.227	2277.82
194.302	2271.44
194.378	2273.54
194.453	2272.2
194.529	2282.91
194.604	2264.78
194.679	2258.02
194.755	2242.32
194.83	2254.85
194.905	2254.56
194.981	2263.32
195.056	2254.85
195.131	2261.75
195.207	2256.84
195.282	2249.8
195.357	2227.76
195.433	2244.85
195.508	2232.71
195.583	2239.8
195.659	2257.17
195.734	2262.17
195.809	2264.31
195.884	2272.54
195.96	2274.87
196.035	2293.29
196.11	2291.82
196.185	2307.81
196.261	2313.8
196.336	2342.36
196.411	2325.65
196.486	2329.93
196.561	2322.41
196.637	2334.16
196.712	2351.3
196.787	2357.63
196.862	2370.86
196.937	2381.71
197.013	2385
197.088	2395.71
197.163	2416.8
197.238	2437.76
197.313	2437.76
197.388	2452.05
197.464	2482.1
197.539	2492.81
197.614	2484.24
197.689	2494.81
197.764	2509.29
197.839	2531.39
197.914	2526.77
197.989	2551.24
198.065	2565.96
198.14	2617.04
198.215	2640.61
198.29	2651.76
198.365	2664.29
198.44	2679.06
198.515	2708.12
198.59	2724.27
198.665	2752.57
198.74	2761.05
198.815	2759.81
198.89	2778.77
198.965	2811.38
199.04	2804.32
199.115	2821.71
199.19	2865.88
199.265	2867.46
199.34	2876.75
199.415	2909.27
199.49	2933.24
199.565	2942.54
199.64	2965.99
199.715	2964.46
199.79	2975.62
199.865	2984.34
199.94	2983.2
200.015	3014.29
200.09	3020.34
200.165	3026.4
200.24	3034.79
200.315	3078.22
200.39	3092.33
200.464	3102.39
200.539	3102.63
200.614	3122.75
200.689	3145.35
200.764	3151.75
200.839	3171.96
200.914	3178.49
200.989	3167.28
201.063	3178.68
201.138	3161.71
201.213	3165.24
201.288	3145.55
201.363	3148.65
201.438	3147.98
201.512	3163.23
201.587	3145.58
201.662	3150.26
201.737	3161.32
201.812	3170.72
201.886	3137.74
201.961	3150.05
202.036	3138.94
202.111	3133.74
202.186	3102.28
202.26	3086.49
202.335	3062.65
202.41	3054.92
202.485	3035.14
202.559	3015.03
202.634	2987.52
202.709	2995.09
202.784	2973.83
202.858	2974.35
202.933	2953.38
203.008	2946.42
203.082	2928.54
203.157	2929.59
203.232	2887.61
203.306	2868.44
203.381	2832.92
203.456	2808.61
203.53	2782.76
203.605	2762.42
203.68	2740.06
203.754	2737.11
203.829	2720.72
203.904	2702.33
203.978	2693.7
204.053	2699.8
204.127	2684.08
204.202	2682.08
204.277	2666.89
204.351	2659.46
204.426	2647.97
204.5	2643.16
204.575	2608.49
204.65	2615.69
204.724	2608.25
204.799	2613.82
204.873	2608.44
204.948	2608.29
205.022	2594.49
205.097	2589.29
205.171	2601.29
205.246	2609.58
205.32	2605.44
205.395	2606.25
205.469	2597.54
205.544	2600.78
205.618	2582.63
205.693	2599.73
205.767	2586.16
205.842	2605.74
205.916	2601.45
205.991	2598.31
206.065	2599.5
206.14	2617.35
206.214	2612.3
206.289	2600.39
206.363	2613.72
206.438	2617.49
206.512	2627.25
206.586	2648.64
206.661	2655.41
206.735	2633.84
206.81	2632.08
206.884	2650.27
206.958	2636.31
207.033	2652.98
207.107	2662.32
207.181	2695.49
207.256	2688.34
207.33	2710.53
207.405	2726.51
207.479	2744.18
207.553	2750.76
207.628	2737.38
207.702	2748.53
207.776	2742.48
207.851	2747.62
207.925	2764.78
207.999	2761.16
208.073	2757.44
208.148	2760.3
208.222	2746.1
208.296	2778.58
208.371	2796.22
208.445	2803.61
208.519	2832.58
208.593	2845.68
208.668	2841.77
208.742	2847.26
208.816	2851.64
208.89	2864.89
208.965	2862.27
209.039	2871.9
209.113	2886.77
209.187	2908.68
209.261	2905.63
209.336	2929.99
209.41	2953.78
209.484	2952.39
209.558	2979
209.632	2991.25
209.707	3001.88
209.781	3029.91
209.855	3047.46
209.929	3062.25
210.003	3070.79
210.077	3071.93
210.151	3120.42
210.226	3152.96
210.3	3185.24
210.374	3211.08
210.448	3220.33
210.522	3230.97
210.596	3242.23
210.67	3257.54
210.744	3308.22
210.818	3345.27
210.892	3368.18
210.966	3365.41
211.041	3389.46
211.115	3388.65
211.189	3420.29
211.263	3445.96
211.337	3458.56
211.411	3483.72
211.485	3493.51
211.559	3516.51
211.633	3532.77
211.707	3515.2
211.781	3540.14
211.855	3514.4
211.929	3519.79
212.003	3517.07
212.077	3549.16
212.151	3582.98
212.225	3616.93
212.299	3628.79
212.373	3640.68
212.447	3664.04
212.52	3721.65
212.594	3751.41
212.668	3795.12
212.742	3811.98
212.816	3841.23
212.89	3877.68
212.964	3915.88
213.038	3959.82
213.112	4020.02
213.186	4080.52
213.26	4110.24
213.333	4113.21
213.407	4173.85
213.481	4236.04
213.555	4307.58
213.629	4357.54
213.703	4410.41
213.777	4473.55
213.85	4520.44
213.924	4625.29
213.998	4701.23
214.072	4775.86
214.146	4843.57
214.219	4923.98
214.293	5009.21
214.367	5101.91
214.441	5196.1
214.515	5277.63
214.588	5342.28
214.662	5404.83
214.736	5484.16
214.81	5588.8
214.883	5703.92
214.957	5797.89
215.031	5890.18
215.105	5977.49
215.178	6075.04
215.252	6174.57
215.326	6261.83
215.4	6361.06
215.473	6435.16
215.547	6533.23
215.621	6633.78
215.694	6757.28
215.768	6855.61
215.842	6965.38
215.915	7070.39
215.989	7163.81
216.063	7273.36
216.136	7407.22
216.21	7533.92
216.284	7679
216.357	7808.68
216.431	7932.03
216.504	8063.62
216.578	8220.79
216.652	8361.47
216.725	8488.93
216.799	8626.62
216.873	8763.48
216.946	8902.08
217.02	9027.46
217.093	9152
217.167	9264.76
217.24	9379.65
217.314	9510.13
217.387	9627.71
217.461	9752.68
217.535	9906.65
217.608	10025.96
217.682	10156.31
217.755	10289.17
217.829	10405.28
217.902	10535.85
217.976	10663.86
218.049	10785.47
218.123	10888.79
218.196	11014.46
218.27	11134.25
218.343	11245.39
218.417	11370.25
218.49	11497
218.563	11634.94
218.637	11770.66
218.71	11917.09
218.784	12058.17
218.857	12192.41
218.931	12330.84
219.004	12457.56
219.077	12577.63
219.151	12708.36
219.224	12821.3
219.298	12947.55
219.371	13078.43
219.444	13185.68
219.518	13303.02
219.591	13429.99
219.665	13577.3
219.738	13697.82
219.811	13805.22
219.885	13927.57
219.958	14046.44
220.031	14146.23
220.105	14260.76
220.178	14355
220.251	14454.11
220.325	14557.13
220.398	14657.54
220.471	14754.52
220.544	14861.73
220.618	14954.33
220.691	15054.93
220.764	15161.74
220.838	15256.46
220.911	15342.5
220.984	15454.52
221.057	15551.79
221.131	15631.47
221.204	15686.27
221.277	15798.19
221.35	15912.72
221.424	15990.17
221.497	16073.94
221.57	16164.8
221.643	16246.15
221.716	16343.32
221.79	16413.16
221.863	16487.19
221.936	16554.14
222.009	16626.82
222.082	16694.73
222.155	16760.47
222.229	16849.82
222.302	16912.43
222.375	16978.6
222.448	17045.78
222.521	17100.43
222.594	17161.45
222.667	17219.95
222.74	17294.37
222.814	17341.31
222.887	17391.91
222.96	17463.23
223.033	17523.18
223.106	17585.35
223.179	17647.62
223.252	17706.12
223.325	17763.81
223.398	17818.12
223.471	17875.9
223.544	17934.55
223.617	17980
223.69	18024.24
223.763	18047.46
223.837	18099.61
223.91	18147.36
223.983	18166.74
224.056	18203.46
224.129	18243.41
224.202	18295.21
224.275	18329.77
224.348	18349.24
224.42	18371.55
224.493	18384.9
224.566	18410.29
224.639	18442.29
224.712	18458.53
224.785	18476.75
224.858	18495.49
224.931	18510.62
225.004	18532.55
225.077	18559.58
225.15	18567.58
225.223	18599.58
225.296	18656.11
225.369	18661.89
225.442	18679.34
225.514	18714.13
225.587	18737.5
225.66	18762.42
225.733	18785.6
225.806	18807.04
225.879	18833.16
225.952	18845.88
226.025	18880.67
226.097	18911.03
226.17	18923.23
226.243	18926.02
226.316	18942.16
226.389	18961.63
226.461	18984.33
226.534	18999.65
226.607	19012.18
226.68	19056.47
226.753	19069.19
226.825	19049.63
226.898	19075.46
226.971	19078.16
227.044	19088.71
227.117	19109.14
227.189	19126.78
227.262	19141.19
227.335	19154.68
227.407	19159.45
227.48	19172.56
227.553	19178.29
227.626	19181.43
227.698	19189.91
227.771	19198.68
227.844	19187.06
227.916	19195.83
227.989	19188.17
228.062	19189.76
228.134	19213.57
228.207	19206.87
228.28	19201.42
228.352	19206.05
228.425	19205.86
228.498	19216.27
228.57	19199.06
228.643	19203.26
228.716	19192.75
228.788	19182.53
228.861	19165.33
228.934	19174.05
229.006	19167.69
229.079	19165.57
229.151	19159.31
229.224	19145.57
229.296	19154.44
229.369	19186.82
229.442	19201.33
229.514	19193.14
229.587	19206
229.659	19176.17
229.732	19171.35
229.804	19183.21
229.877	19201.91
229.949	19207.93
230.022	19225.62
230.094	19236.7
230.167	19237.52
230.239	19226.15
230.312	19222.1
230.384	19240.65
230.457	19239.16
230.529	19244.6
230.602	19244.22
230.674	19241.13
230.747	19247.59
230.819	19252.8
230.892	19212.07
230.964	19206
231.037	19209.04
231.109	19193.91
231.181	19199.98
231.254	19190.87
231.326	19174.29
231.399	19157.43
231.471	19136.9
231.544	19099.89
231.616	19099.36
231.688	19079.36
231.761	19061.39
231.833	19037.48
231.905	19012.76
231.978	18994.88
232.05	18977.1
232.122	18964.57
232.195	18940.09
232.267	18938.45
232.339	18912.24
232.412	18919.47
232.484	18889.83
232.556	18875.76
232.629	18879.04
232.701	18868.53
232.773	18849.74
232.846	18833.4
232.918	18825.79
232.99	18822.41
233.062	18828.58
233.135	18819.14
233.207	18795.62
233.279	18797.69
233.351	18802.08
233.424	18789.55
233.496	18766.75
233.568	18775.96
233.64	18744.1
233.713	18728.01
233.785	18706.95
233.857	18694.47
233.929	18659.63
234.001	18668.35
234.074	18656.98
234.146	18620.79
234.218	18599.68
234.29	18587.15
234.362	18558.72
234.434	18517.32
234.507	18484.02
234.579	18444.17
234.651	18420.75
234.723	18411.5
234.795	18389.76
234.867	18370.68
234.939	18361.81
235.012	18351.74
235.084	18338.1
235.156	18335.65
235.228	18318.01
235.3	18299.7
235.372	18286.25
235.444	18283.55
235.516	18239.36
235.588	18227.12
235.66	18212.71
235.732	18180.67
235.804	18215.7
235.876	18214.83
235.948	18212.33
236.02	18196.37
236.092	18183.22
236.164	18162.74
236.236	18138.64
236.308	18120.33
236.38	18101.1
236.452	18071.42
236.524	18049.97
236.596	18034.94
236.668	18013.92
236.74	17998.17
236.812	17972.43
236.884	17957.78
236.956	17941.16
237.028	17912.34
237.1	17879.81
237.172	17869.74
237.244	17875.18
237.316	17824.1
237.388	17791.52
237.46	17765.64
237.532	17750.85
237.604	17715.47
237.675	17713.16
237.747	17705.31
237.819	17673.93
237.891	17650.46
237.963	17612.82
238.035	17578.85
238.107	17517.74
238.178	17508.87
238.25	17477.69
238.322	17475.57
238.394	17430.61
238.466	17398.95
238.538	17381.79
238.609	17362.32
238.681	17322.8
238.753	17286.27
238.825	17253.07
238.897	17234.37
238.968	17226.9
239.04	17196.05
239.112	17203.23
239.184	17157.64
239.255	17121.02
239.327	17098.56
239.399	17069.93
239.471	17060.97
239.542	17049.01
239.614	17050.36
239.686	16995.47
239.758	16989.01
239.829	16956.77
239.901	16948
239.973	16923.61
240.044	16900.96
240.116	16871.95
240.188	16857.63
240.259	16834.74
240.331	16808.96
240.403	16787.36
240.474	16739.8
240.546	16710.2
240.618	16659.7
240.689	16632.9
240.761	16611.84
240.833	16613.96
240.904	16590.44
240.976	16562.77
241.048	16535.88
241.119	16504.41
241.191	16491.68
241.262	16476.31
241.334	16446.43
241.405	16410.62
241.477	16380.44
241.549	16348.54
241.62	16335.91
241.692	16311.57
241.763	16297.74
241.835	16268.15
241.906	16244.48
241.978	16205.15
242.049	16197.49
242.121	16181.24
242.192	16167.31
242.264	16127.5
242.335	16076.56
242.407	16061.66
242.478	16030.24
242.55	16005.27
242.621	15976.74
242.693	15940.92
242.764	15905.55
242.836	15872.92
242.907	15856.67
242.979	15838.69
243.05	15818.98
243.122	15786.3
243.193	15747.45
243.264	15694.87
243.336	15662.57
243.407	15646.04
243.479	15639.48
243.55	15614.85
243.622	15596.54
243.693	15565.4
243.764	15553.45
243.836	15509.97
243.907	15466.1
243.978	15442.34
244.05	15420.99
244.121	15384.16
244.192	15368.54
244.264	15332.78
244.335	15314.37
244.407	15271.85
244.478	15234.69
244.549	15207.98
244.62	15165.95
244.692	15146.72
244.763	15127.68
244.834	15100.83
244.906	15067.28
244.977	15057.06
245.048	15049.54
245.119	15007.7
245.191	14972.13
245.262	14921.03
245.333	14919.44
245.405	14903
245.476	14878.76
245.547	14856.2
245.618	14841.25
245.689	14811.99
245.761	14790.69
245.832	14759.36
245.903	14744.89
245.974	14735.59
246.045	14706.14
246.117	14705.08
246.188	14660.97
246.259	14621.25
246.33	14592.37
246.401	14555.88
246.473	14500.06
246.544	14457.93
246.615	14445.01
246.686	14420.81
246.757	14413.92
246.828	14378.49
246.899	14365.43
246.97	14321.51
247.042	14284.58
247.113	14259.9
247.184	14262.41
247.255	14226.64
247.326	14199.21
247.397	14169.47
247.468	14138.43
247.539	14114.03
247.61	14073.83
247.681	14065.73
247.752	14054.21
247.823	14021.91
247.894	14000.6
247.965	13968.74
248.037	13932.1
248.108	13883.61
248.179	13850.78
248.25	13834.68
248.321	13817.52
248.392	13780.11
248.463	13781.02
248.534	13758.17
248.605	13744.29
248.675	13713.83
248.746	13691.07
248.817	13676.22
248.888	13658.24
248.959	13621.9
249.03	13603.72
249.101	13576.29
249.172	13549.68
249.243	13510.25
249.314	13500.27
249.385	13477.95
249.456	13458.67
249.527	13432.11
249.598	13422.61
249.669	13400.72
249.739	13370.69
249.81	13352.9
249.881	13314.24
249.952	13291.34
250.023	13267.05
250.094	13215.8
250.165	13180.18
250.235	13154.53
250.306	13130.33
250.377	13092.01
250.448	13075.18
250.519	13031.9
250.59	13023.41
250.66	12989.14
250.731	12982.63
250.802	12967.3
250.873	12954.81
250.944	12936.93
251.014	12916.83
251.085	12916.54
251.156	12901.69
251.227	12894.07
251.297	12880.43
251.368	12877.64
251.439	12863.99
251.51	12852.57
251.58	12831.94
251.651	12800.89
251.722	12793.37
251.792	12753.41
251.863	12737.12
251.934	12734.23
252.005	12754.91
252.075	12734.03
252.146	12727.14
252.217	12721.55
252.287	12702.17
252.358	12676.76
252.429	12683.85
252.499	12649.96
252.57	12631.07
252.641	12618.24
252.711	12597.23
252.782	12562.18
252.852	12562.28
252.923	12546.08
252.994	12528.49
253.064	12514.36
253.135	12486.31
253.205	12455.55
253.276	12456.95
253.347	12453.77
253.417	12422.53
253.488	12386.82
253.558	12363.1
253.629	12343.14
253.699	12319.67
253.77	12306.51
253.841	12283.71
253.911	12262.59
253.982	12255.17
254.052	12247.8
254.123	12233.38
254.193	12215.55
254.264	12236.28
254.334	12202.05
254.405	12156.02
254.475	12119.19
254.546	12104.06
254.616	12102.08
254.687	12098.61
254.757	12084.34
254.827	12059.52
254.898	12044.77
254.968	12028.24
255.039	12003.75
255.109	11991.84
255.18	11967.74
255.25	11927.59
255.321	11917.09
255.391	11882.24
255.461	11881.8
255.532	11829.99
255.602	11801.16
255.673	11760.48
255.743	11727.66
255.813	11678.74
255.884	11677.58
255.954	11676.47
256.024	11679.46
256.095	11667.46
256.165	11628.51
256.235	11615.26
256.306	11589.38
256.376	11577.95
256.446	11566.53
256.517	11556.8
256.587	11547.4
256.657	11528.99
256.728	11512.6
256.798	11487.44
256.868	11461.9
256.938	11440.31
257.009	11434.67
257.079	11436.16
257.149	11445.99
257.219	11412.83
257.29	11407.72
257.36	11377.27
257.43	11371.19
257.5	11327.24
257.571	11293.41
257.641	11289.41
257.711	11263.67
257.781	11256.01
257.852	11243.53
257.922	11204.59
257.992	11186.56
258.062	11173.84
258.132	11162.03
258.202	11142.95
258.273	11136.78
258.343	11141.5
258.413	11115
258.483	11100.49
258.553	11064.1
258.623	11040.88
258.693	11022.27
258.764	11023.82
258.834	11023.62
258.904	10998.32
258.974	10971.24
259.044	10958.18
259.114	10948.79
259.184	10930.72
259.254	10915.3
259.324	10880.17
259.394	10871.68
259.464	10878.34
259.535	10849.08
259.605	10833.9
259.675	10809.24
259.745	10792.32
259.815	10765.09
259.885	10737.25
259.955	10747.51
260.025	10721.3
260.095	10705.25
260.165	10703.23
260.235	10699.04
260.305	10674.85
260.375	10645.5
260.445	10664.49
260.515	10668.73
260.585	10662.66
260.655	10647.19
260.725	10642.27
260.795	10637.5
260.865	10643.67
260.934	10614.09
261.004	10608.54
261.074	10598.52
261.144	10603.53
261.214	10604.4
261.284	10587.58
261.354	10585.08
261.424	10558.38
261.494	10570.52
261.564	10550
261.634	10535.93
261.703	10502.1
261.773	10495.89
261.843	10497.38
261.913	10473.49
261.983	10439.33
262.053	10426.08
262.123	10407.96
262.192	10374.82
262.262	10372.74
262.332	10341.04
