Data from 20250704_urea_1.5M_MAYP1162681_11-51-34-569.txt Node
Date: Fri Jul 04 11:51:34 BST 2025
User: adleo
Spectrometer: MAYP116268
Trigger mode: 0
Integration Time (sec): 1.000000E0
Scans to average: 1
Electric dark correction enabled: true
Nonlinearity correction enabled: true
Boxcar width: 10
XAxis mode: Wavelengths
Number of Pixels in Spectrum: 2068
>>>>>Begin Spectral Data<<<<<
179.565	1255.13
179.642	1316.6
179.718	1359.39
179.795	1400.49
179.871	1435.57
179.948	1453.48
180.024	1477.57
180.101	1502.36
180.177	1519.13
180.254	1545.4
180.33	1569.22
180.407	1626.72
180.483	1727.97
180.56	1823.47
180.636	1911.11
180.712	1899.03
180.789	1911.06
180.865	1924.28
180.942	1933.69
181.018	1945.86
181.095	1957.94
181.171	1966.59
181.248	1967.31
181.324	1987.28
181.4	1993.94
181.477	2006.02
181.553	2020.9
181.63	2043.92
181.706	2059.67
181.782	2069.84
181.859	2066.8
181.935	2073.26
182.011	2070.46
182.088	2086.49
182.164	2106.86
182.24	2121.88
182.317	2134.01
182.393	2133.11
182.469	2147.99
182.546	2162.98
182.622	2169.16
182.698	2163.55
182.775	2176.58
182.851	2191.57
182.927	2181.44
183.003	2178.49
183.08	2169.97
183.156	2180.49
183.232	2174.59
183.308	2161.03
183.385	2165.79
183.461	2185.05
183.537	2185.67
183.613	2199.56
183.69	2188.76
183.766	2178.96
183.842	2186
183.918	2190.57
183.995	2201.61
184.071	2205.41
184.147	2200.85
184.223	2188.96
184.299	2204.23
184.375	2191.24
184.452	2198.62
184.528	2254.4
184.604	2263.97
184.68	2279.62
184.756	2287.23
184.832	2291.42
184.908	2298.6
184.985	2302.69
185.061	2286.04
185.137	2296.23
185.213	2283.71
185.289	2288.61
185.365	2279.72
185.441	2280.19
185.517	2292.9
185.593	2289.9
185.669	2287.24
185.745	2296.8
185.822	2315.26
185.898	2305.17
185.974	2314.35
186.05	2305.12
186.126	2266.85
186.202	2260.95
186.278	2255.81
186.354	2246.19
186.43	2253.9
186.506	2252.91
186.582	2250.62
186.658	2259.66
186.734	2237.3
186.81	2240.34
186.886	2242.49
186.962	2256.14
187.038	2253.1
187.114	2245.95
187.19	2253.38
187.266	2241.72
187.341	2242.48
187.417	2234.54
187.493	2234.16
187.569	2238.44
187.645	2233.63
187.721	2223.07
187.797	2233.77
187.873	2238.39
187.949	2231.82
188.025	2223.59
188.101	2228.44
188.176	2232.3
188.252	2224.68
188.328	2232.96
188.404	2235.38
188.48	2228.06
188.556	2218.21
188.632	2217.3
188.707	2216.88
188.783	2215.54
188.859	2211.93
188.935	2201.65
189.011	2208.03
189.086	2202.13
189.162	2191.71
189.238	2188.38
189.314	2183
189.39	2172.44
189.465	2165.16
189.541	2181.72
189.617	2167.64
189.693	2159.64
189.768	2160.79
189.844	2188.25
189.92	2179.22
189.996	2186.35
190.071	2199.58
190.147	2203.72
190.223	2211.67
190.298	2202.39
190.374	2186.64
190.45	2198.39
190.526	2204.57
190.601	2197.82
190.677	2198.63
190.753	2229.24
190.828	2231.43
190.904	2246.61
190.98	2264.88
191.055	2273.54
191.131	2265.59
191.207	2289.62
191.282	2300.95
191.358	2294.33
191.433	2277.86
191.509	2294.17
191.585	2290.22
191.66	2291.94
191.736	2295.79
191.811	2287.61
191.887	2303.12
191.963	2329.01
192.038	2334.96
192.114	2334.87
192.189	2343.29
192.265	2341.77
192.34	2316.39
192.416	2316.91
192.491	2315.15
192.567	2315.58
192.642	2318.62
192.718	2318.67
192.793	2303.35
192.869	2296.92
192.944	2299.25
193.02	2306.68
193.095	2307.15
193.171	2312.96
193.246	2310.11
193.322	2307.87
193.397	2307.58
193.473	2296.25
193.548	2275.79
193.624	2281.26
193.699	2281.97
193.775	2296.73
193.85	2298.26
193.925	2308.78
194.001	2308.59
194.076	2299.45
194.152	2291.83
194.227	2286.17
194.302	2275.7
194.378	2277.56
194.453	2276.46
194.529	2288.65
194.604	2274.99
194.679	2270.94
194.755	2251.2
194.83	2265.91
194.905	2264.44
194.981	2270.15
195.056	2264.34
195.131	2269.77
195.207	2268.15
195.282	2257.97
195.357	2236.21
195.433	2251.49
195.508	2241.25
195.583	2246.06
195.659	2262.19
195.734	2267.86
195.809	2267.86
195.884	2276.28
195.96	2277.42
196.035	2293.79
196.11	2289.75
196.185	2300.07
196.261	2305.5
196.336	2338.76
196.411	2324.62
196.486	2328.1
196.561	2323.81
196.637	2331.24
196.712	2350.33
196.787	2350.8
196.862	2368.51
196.937	2377.64
197.013	2383.93
197.088	2391.35
197.163	2416.69
197.238	2432.7
197.313	2431.94
197.388	2446.6
197.464	2478.36
197.539	2492.6
197.614	2485.98
197.689	2499.03
197.764	2516.94
197.839	2534.6
197.914	2527.08
197.989	2547.27
198.065	2564.08
198.14	2617.16
198.215	2646.03
198.29	2659.94
198.365	2674.04
198.44	2683.56
198.515	2714.67
198.59	2732.02
198.665	2760.74
198.74	2769.99
198.815	2770.33
198.89	2797.39
198.965	2827.66
199.04	2825.89
199.115	2842.47
199.19	2883.21
199.265	2888.07
199.34	2902.56
199.415	2936.61
199.49	2958.48
199.565	2970.82
199.64	2993.27
199.715	2991.84
199.79	2999.38
199.865	3002.81
199.94	3004.76
200.015	3040.38
200.09	3047.63
200.165	3054.78
200.24	3060.27
200.315	3102.6
200.39	3120.2
200.464	3125.49
200.539	3127.16
200.614	3144
200.689	3169.23
200.764	3178.44
200.839	3197.31
200.914	3197.08
200.989	3186.39
201.063	3200.7
201.138	3181.97
201.213	3181.82
201.288	3161.6
201.363	3164.56
201.438	3165.42
201.512	3182.06
201.587	3162.45
201.662	3164.55
201.737	3174.8
201.812	3185.11
201.886	3146.49
201.961	3155.27
202.036	3141.01
202.111	3137.2
202.186	3104.12
202.26	3082.85
202.335	3058.71
202.41	3051.56
202.485	3035.16
202.559	3018.91
202.634	2993.92
202.709	3004.31
202.784	2987.34
202.858	2987.24
202.933	2968.94
203.008	2963.31
203.082	2941.62
203.157	2941.81
203.232	2900.36
203.306	2879.23
203.381	2845.1
203.456	2822.93
203.53	2801.75
203.605	2782.51
203.68	2759.72
203.754	2753.11
203.829	2741.19
203.904	2721.56
203.978	2708.79
204.053	2710.36
204.127	2693.26
204.202	2689.16
204.277	2671.4
204.351	2661.58
204.426	2653.72
204.5	2645.43
204.575	2610.24
204.65	2620.62
204.724	2607.18
204.799	2612.56
204.873	2607.65
204.948	2610.94
205.022	2599.13
205.097	2591.17
205.171	2606.6
205.246	2611.75
205.32	2610.84
205.395	2609.51
205.469	2602.99
205.544	2606.99
205.618	2592.7
205.693	2609.28
205.767	2598.09
205.842	2619.58
205.916	2613.67
205.991	2602.43
206.065	2606.57
206.14	2625.52
206.214	2618.94
206.289	2614.89
206.363	2628.9
206.438	2630.37
206.512	2635.04
206.586	2655.9
206.661	2661.19
206.735	2635.91
206.81	2636.72
206.884	2652.48
206.958	2637.34
207.033	2654.24
207.107	2661.82
207.181	2692.41
207.256	2684.98
207.33	2702.46
207.405	2715.72
207.479	2734.68
207.553	2743.77
207.628	2729.3
207.702	2736.11
207.776	2731.58
207.851	2732.3
207.925	2746.31
207.999	2745.69
208.073	2742.45
208.148	2742.6
208.222	2728.87
208.296	2765.26
208.371	2780.99
208.445	2794.15
208.519	2824.97
208.593	2838.03
208.668	2832.79
208.742	2837.13
208.816	2837.75
208.89	2852.86
208.965	2849.95
209.039	2858.19
209.113	2876.07
209.187	2898.88
209.261	2896.64
209.336	2915.18
209.41	2940.16
209.484	2944.79
209.558	2965.29
209.632	2980.21
209.707	2994.37
209.781	3019.01
209.855	3037.56
209.929	3059.23
210.003	3062.95
210.077	3064.09
210.151	3115.55
210.226	3155.01
210.3	3186.66
210.374	3214.22
210.448	3221.51
210.522	3233.44
210.596	3250.9
210.67	3265.02
210.744	3318.52
210.818	3352.95
210.892	3380.43
210.966	3377.14
211.041	3393.6
211.115	3397.18
211.189	3429.58
211.263	3455.16
211.337	3470.72
211.411	3490.72
211.485	3490.01
211.559	3516.97
211.633	3529.42
211.707	3507.73
211.781	3524.55
211.855	3501.96
211.929	3506.26
212.003	3504.92
212.077	3538.69
212.151	3571.69
212.225	3602.93
212.299	3611.39
212.373	3631.64
212.447	3654.76
212.52	3715.38
212.594	3753.65
212.668	3801.46
212.742	3820
212.816	3851.78
212.89	3886.56
212.964	3926.06
213.038	3977.98
213.112	4037.12
213.186	4105.71
213.26	4132.7
213.333	4142.55
213.407	4203.54
213.481	4266.81
213.555	4341.94
213.629	4385.48
213.703	4432.67
213.777	4498.72
213.85	4550.79
213.924	4653.83
213.998	4731.21
214.072	4801.63
214.146	4864.41
214.219	4942.43
214.293	5024.03
214.367	5112.57
214.441	5209.15
214.515	5289.92
214.588	5355.14
214.662	5412.23
214.736	5482.98
214.81	5590.16
214.883	5705.23
214.957	5800.6
215.031	5895.44
215.105	5975.03
215.178	6072.71
215.252	6178.47
215.326	6266.69
215.4	6364.16
215.473	6428.7
215.547	6523.31
215.621	6625.68
215.694	6750.87
215.768	6846.8
215.842	6955.12
215.915	7060.37
215.989	7162.36
216.063	7274.6
216.136	7401.39
216.21	7535.5
216.284	7678.06
216.357	7806.87
216.431	7926.77
216.504	8061.01
216.578	8211.39
216.652	8356.78
216.725	8492.56
216.799	8630.78
216.873	8763.27
216.946	8894.21
217.02	9022.42
217.093	9155.39
217.167	9259.95
217.24	9378.85
217.314	9509.52
217.387	9639.62
217.461	9763.83
217.535	9909.48
217.608	10029.6
217.682	10160.1
217.755	10293.34
217.829	10412.63
217.902	10541.8
217.976	10669.28
218.049	10792.2
218.123	10901.2
218.196	11037.18
218.27	11152.31
218.343	11266
218.417	11394.96
218.49	11522.53
218.563	11663.78
218.637	11789.1
218.71	11949.21
218.784	12083.74
218.857	12209.15
218.931	12335.25
219.004	12456.86
219.077	12579.92
219.151	12701.92
219.224	12820.65
219.298	12941.69
219.371	13069.34
219.444	13172.06
219.518	13291.95
219.591	13402.29
219.665	13550.57
219.738	13663.62
219.811	13769.81
219.885	13886.42
219.958	13999.27
220.031	14109.81
220.105	14218.17
220.178	14322.25
220.251	14414.46
220.325	14517.14
220.398	14632.73
220.471	14736.13
220.544	14849.12
220.618	14941.04
220.691	15042.27
220.764	15138.82
220.838	15241.64
220.911	15328.31
220.984	15446.4
221.057	15547.58
221.131	15648.99
221.204	15703.02
221.277	15802.6
221.35	15919.44
221.424	16000.46
221.497	16078.5
221.57	16161.59
221.643	16248.64
221.716	16342.53
221.79	16413.23
221.863	16484.23
221.936	16553.53
222.009	16630.41
222.082	16702.41
222.155	16761.94
222.229	16858.81
222.302	16929.99
222.375	16984.07
222.448	17054.48
222.521	17115.59
222.594	17157.62
222.667	17213.09
222.74	17294.82
222.814	17353.28
222.887	17407.59
222.96	17479.11
223.033	17544.8
223.106	17603.5
223.179	17658.39
223.252	17703.88
223.325	17764.89
223.398	17820.31
223.471	17874.48
223.544	17922.38
223.617	17976.41
223.69	18032.84
223.763	18057.7
223.837	18113.27
223.91	18171.34
223.983	18195.67
224.056	18225.89
224.129	18287.48
224.202	18332.06
224.275	18358.56
224.348	18377.64
224.42	18399.91
224.493	18414.61
224.566	18457.25
224.639	18496.38
224.712	18523.37
224.785	18560.91
224.858	18589.68
224.931	18610.26
225.004	18623.41
225.077	18654.06
225.15	18655.03
225.223	18685.53
225.296	18741.14
225.369	18745.28
225.442	18755.36
225.514	18782.58
225.587	18808.8
225.66	18822.39
225.733	18845.81
225.806	18867.3
225.879	18887.44
225.952	18894.82
226.025	18926.29
226.097	18951.92
226.17	18961.46
226.243	18959.25
226.316	18967.2
226.389	18975.63
226.461	18996.88
226.534	19021.8
226.607	19024.69
226.68	19061.46
226.753	19071.53
226.825	19053.07
226.898	19078.52
226.971	19094.03
227.044	19113.41
227.117	19121.98
227.189	19151.81
227.262	19172.29
227.335	19181.45
227.407	19186.94
227.48	19197.59
227.553	19197.93
227.626	19192.44
227.698	19205.26
227.771	19216.97
227.844	19199.52
227.916	19209.21
227.989	19195.71
228.062	19189.93
228.134	19217.35
228.207	19219.71
228.28	19207.67
228.352	19204.68
228.425	19208.68
228.498	19215.09
228.57	19188.77
228.643	19208.1
228.716	19194.94
228.788	19177.93
228.861	19170.66
228.934	19182.8
229.006	19182.94
229.079	19188.53
229.151	19187.18
229.224	19161.98
229.296	19164.39
229.369	19198.12
229.442	19190.9
229.514	19179.04
229.587	19191.96
229.659	19161.69
229.732	19149.16
229.804	19159.96
229.877	19186.32
229.949	19185.59
230.022	19193.79
230.094	19215.66
230.167	19205.21
230.239	19186.8
230.312	19185.26
230.384	19207.04
230.457	19200.15
230.529	19201.64
230.602	19193.93
230.674	19183.18
230.747	19193.02
230.819	19200.97
230.892	19168.15
230.964	19174.8
231.037	19187.47
231.109	19170.75
231.181	19174.32
231.254	19165.11
231.326	19156.01
231.399	19124.54
231.471	19111.38
231.544	19072.97
231.616	19066.66
231.688	19056.74
231.761	19038.81
231.833	19027.24
231.905	18992.74
231.978	18980.45
232.05	18963.83
232.122	18953.56
232.195	18934.09
232.267	18940.55
232.339	18922.53
232.412	18927.39
232.484	18910
232.556	18876.79
232.629	18894.29
232.701	18888.26
232.773	18868.89
232.846	18846.53
232.918	18846.1
232.99	18833.95
233.062	18836.22
233.135	18820.17
233.207	18796.51
233.279	18801.43
233.351	18784.27
233.424	18765.33
233.496	18744.51
233.568	18754.06
233.64	18722.49
233.713	18712.47
233.785	18689.34
233.857	18674.06
233.929	18645.29
234.001	18649.77
234.074	18661.1
234.146	18619.65
234.218	18606.4
234.29	18591.9
234.362	18573.44
234.434	18545.25
234.507	18518.79
234.579	18484.77
234.651	18468.05
234.723	18463.9
234.795	18447.18
234.867	18436
234.939	18430.89
235.012	18416.53
235.084	18402.8
235.156	18402.17
235.228	18376.53
235.3	18352.25
235.372	18337.26
235.444	18330.8
235.516	18284.4
235.588	18270.56
235.66	18251.82
235.732	18227.77
235.804	18262.9
235.876	18255.67
235.948	18249.02
236.02	18232.01
236.092	18219.67
236.164	18202.57
236.236	18171.77
236.308	18149.36
236.38	18131.39
236.452	18102.47
236.524	18081.03
236.596	18071.92
236.668	18058.81
236.74	18033.95
236.812	18021.27
236.884	18009.18
236.956	17981.27
237.028	17948.55
237.1	17914.87
237.172	17914.91
237.244	17910.34
237.316	17851.74
237.388	17815.4
237.46	17779.93
237.532	17760.46
237.604	17722.63
237.675	17718.73
237.747	17703.16
237.819	17669.18
237.891	17632.27
237.963	17601.91
238.035	17584.17
238.107	17524.08
238.178	17509.28
238.25	17491.07
238.322	17491.45
238.394	17442.34
238.466	17405.28
238.538	17393.76
238.609	17380.7
238.681	17335.6
238.753	17294.92
238.825	17273.81
238.897	17254.05
238.968	17247.69
239.04	17215.5
239.112	17218.54
239.184	17162.39
239.255	17140.94
239.327	17120.32
239.399	17106.44
239.471	17098.48
239.542	17082.92
239.614	17078.34
239.686	17021.23
239.758	17006.87
239.829	16959.16
239.901	16953.23
239.973	16941.13
240.044	16917.76
240.116	16890.14
240.188	16861.71
240.259	16833.9
240.331	16800.69
240.403	16788.83
240.474	16745.41
240.546	16724.83
240.618	16683.96
240.689	16661.07
240.761	16631.24
240.833	16634.99
240.904	16606.99
240.976	16577.5
241.048	16547.28
241.119	16527.47
241.191	16507.71
241.262	16493.68
241.334	16472.53
241.405	16443.03
241.477	16422.26
241.549	16393.92
241.62	16367.41
241.692	16348.32
241.763	16342.25
241.835	16324.66
241.906	16293.04
241.978	16256.5
242.049	16245.56
242.121	16227.49
242.192	16213.17
242.264	16171.48
242.335	16112.44
242.407	16092.73
242.478	16056.38
242.55	16034.31
242.621	15993.63
242.693	15965.77
242.764	15932.42
242.836	15895.69
242.907	15873.42
242.979	15842.82
243.05	15830.91
243.122	15809.32
243.193	15774.42
243.264	15722.8
243.336	15692.24
243.407	15675.32
243.479	15666.79
243.55	15637.97
243.622	15616.57
243.693	15590.78
243.764	15583.93
243.836	15552.22
243.907	15518.19
243.978	15492.16
244.05	15465.31
244.121	15418.65
244.192	15408.09
244.264	15369.87
244.335	15339.17
244.407	15291.64
244.478	15263.87
244.549	15226.32
244.62	15182.89
244.692	15157.68
244.763	15141.25
244.834	15102.39
244.906	15067.54
244.977	15043.11
245.048	15027.83
245.119	14996.01
245.191	14963.72
245.262	14918.26
245.333	14911.7
245.405	14889.34
245.476	14871.45
245.547	14850.15
245.618	14840.36
245.689	14811.3
245.761	14779.92
245.832	14756.49
245.903	14745.88
245.974	14725.11
246.045	14696.62
246.117	14685.48
246.188	14647.45
246.259	14608.26
246.33	14580.97
246.401	14546.03
246.473	14505.15
246.544	14473.04
246.615	14458.73
246.686	14428.94
246.757	14413.22
246.828	14371.14
246.899	14353.59
246.97	14306.45
247.042	14260.07
247.113	14234.38
247.184	14230.52
247.255	14202.66
247.326	14180.34
247.397	14152.33
247.468	14120.61
247.539	14098.73
247.61	14060.65
247.681	14050.71
247.752	14031.09
247.823	14000.63
247.894	13982.94
247.965	13952.81
248.037	13915.3
248.108	13865.02
248.179	13837.26
248.25	13805.83
248.321	13793.05
248.392	13762.92
248.463	13772.08
248.534	13747.3
248.605	13734.05
248.675	13698.33
248.746	13681.36
248.817	13661.3
248.888	13637.15
248.959	13603.31
249.03	13583.02
249.101	13564.36
249.172	13533.75
249.243	13498.08
249.314	13487.18
249.385	13464.52
249.456	13442.45
249.527	13416.51
249.598	13409.38
249.669	13385.66
249.739	13373.22
249.81	13355.63
249.881	13314.02
249.952	13285.73
250.023	13270.44
250.094	13224.5
250.165	13189.31
250.235	13165.79
250.306	13141.88
250.377	13114.21
250.448	13097.82
250.519	13054.77
250.59	13051.88
250.66	13031.39
250.731	13024.01
250.802	12994.37
250.873	12970.41
250.944	12954.65
251.014	12919.89
251.085	12918.78
251.156	12909.67
251.227	12900.61
251.297	12887.98
251.368	12881.61
251.439	12863.3
251.51	12858.09
251.58	12832.73
251.651	12813.26
251.722	12808.24
251.792	12769.54
251.863	12738.2
251.934	12737.19
252.005	12742.98
252.075	12714.29
252.146	12696.7
252.217	12683.2
252.287	12674.48
252.358	12650.61
252.429	12652.01
252.499	12630.56
252.57	12606.65
252.641	12581.59
252.711	12552.18
252.782	12518.39
252.852	12516.17
252.923	12499.25
252.994	12477.61
253.064	12476.59
253.135	12443.62
253.205	12411.95
253.276	12414.7
253.347	12413.06
253.417	12380.38
253.488	12350.97
253.558	12325.91
253.629	12304.65
253.699	12291.2
253.77	12281.9
253.841	12272.31
253.911	12250.66
253.982	12241.5
254.052	12233.45
254.123	12224.87
254.193	12208.82
254.264	12229.26
254.334	12199.04
254.405	12166.98
254.475	12129.14
254.546	12104.22
254.616	12104.61
254.687	12092.85
254.757	12077.09
254.827	12063.25
254.898	12052.22
254.968	12029.71
255.039	12000.45
255.109	11994.91
255.18	11960.25
255.25	11923.86
255.321	11912.63
255.391	11879.56
255.461	11884.04
255.532	11834.97
255.602	11810.54
255.673	11771.35
255.743	11736.21
255.813	11698.76
255.884	11692.69
255.954	11684.64
256.024	11687.34
256.095	11666.57
256.165	11634.71
256.235	11621.6
256.306	11589.5
256.376	11581.35
256.446	11582.03
256.517	11570.89
256.587	11562.17
256.657	11552.92
256.728	11536.14
256.798	11512
256.868	11495.27
256.938	11467.27
257.009	11459.99
257.079	11451.22
257.149	11471.32
257.219	11432.38
257.29	11419.6
257.36	11375.56
257.43	11372.91
257.5	11331.6
257.571	11310.69
257.641	11296.57
257.711	11265.14
257.781	11258.4
257.852	11242.54
257.922	11208.18
257.992	11192.22
258.062	11172.22
258.132	11164.18
258.202	11145.43
258.273	11127.6
258.343	11127.45
258.413	11099.45
258.483	11077.09
258.553	11043.12
258.623	11007.07
258.693	10999.79
258.764	11000.18
258.834	10999.7
258.904	10980.32
258.974	10954.21
259.044	10935.99
259.114	10932.09
259.184	10920.23
259.254	10905.15
259.324	10867.85
259.394	10856.29
259.464	10861.97
259.535	10839.13
259.605	10816.53
259.675	10789.07
259.745	10778.23
259.815	10745.89
259.885	10728.06
259.955	10748.16
260.025	10730.24
260.095	10716.6
260.165	10705.95
260.235	10712.6
260.305	10697.95
260.375	10670.82
260.445	10684.12
260.515	10680.22
260.585	10674.48
260.655	10657.28
260.725	10652.56
260.795	10651.31
260.865	10655.31
260.934	10626.2
261.004	10622.15
261.074	10608.76
261.144	10611.94
261.214	10605.77
261.284	10596.38
261.354	10589.05
261.424	10562.12
261.494	10565.44
261.564	10554.6
261.634	10540.14
261.703	10498.18
261.773	10481.36
261.843	10476.11
261.913	10455.15
261.983	10430.68
262.053	10423.35
262.123	10408.23
262.192	10378.74
262.262	10368.14
