Data from 20250704_urea_0.1M_MAYP1162681_11-21-57-678.txt Node
Date: Fri Jul 04 11:21:57 BST 2025
User: adleo
Spectrometer: MAYP116268
Trigger mode: 0
Integration Time (sec): 1.000000E0
Scans to average: 1
Electric dark correction enabled: true
Nonlinearity correction enabled: true
Boxcar width: 10
XAxis mode: Wavelengths
Number of Pixels in Spectrum: 2068
>>>>>Begin Spectral Data<<<<<
179.565	1237.7
179.642	1295.89
179.718	1340.05
179.795	1381.9
179.871	1418.11
179.948	1436.43
180.024	1457.3
180.101	1482.29
180.177	1498.54
180.254	1525.51
180.33	1550.19
180.407	1605.93
180.483	1704.89
180.56	1798.87
180.636	1884.99
180.712	1874.77
180.789	1885.37
180.865	1895.97
180.942	1906.56
181.018	1919.02
181.095	1933.81
181.171	1943.56
181.248	1945.56
181.324	1966.87
181.4	1974.38
181.477	1984.94
181.553	1999.48
181.63	2021.12
181.706	2035.91
181.782	2042.95
181.859	2041.19
181.935	2042.61
182.011	2040.24
182.088	2055.69
182.164	2076.91
182.24	2091.23
182.317	2100.88
182.393	2102.54
182.469	2116.15
182.546	2128.37
182.622	2129.61
182.698	2120.71
182.775	2131.94
182.851	2146.73
182.927	2135.41
183.003	2128.7
183.08	2123.71
183.156	2131.84
183.232	2129.46
183.308	2118.43
183.385	2127.89
183.461	2145.49
183.537	2150.77
183.613	2163.09
183.69	2156.77
183.766	2144.01
183.842	2152.34
183.918	2158.33
183.995	2169.27
184.071	2173.98
184.147	2168.8
184.223	2158.86
184.299	2174.56
184.375	2161.67
184.452	2168.96
184.528	2221.45
184.604	2233.77
184.68	2247.32
184.756	2255.46
184.832	2257.84
184.908	2262.74
184.985	2263.79
185.061	2244.8
185.137	2253.99
185.213	2242.48
185.289	2242
185.365	2233.44
185.441	2234.3
185.517	2246.67
185.593	2243.1
185.669	2240.15
185.745	2253.24
185.822	2271.22
185.898	2261.03
185.974	2272.35
186.05	2264.4
186.126	2228.9
186.202	2223.38
186.278	2216.86
186.354	2208.3
186.43	2215.05
186.506	2213.15
186.582	2209.73
186.658	2217
186.734	2195.55
186.81	2198.59
186.886	2204.63
186.962	2220.43
187.038	2215.91
187.114	2210.2
187.19	2217.05
187.266	2207.68
187.341	2207.92
187.417	2203.49
187.493	2204.2
187.569	2208.63
187.645	2201.25
187.721	2188.69
187.797	2193.64
187.873	2198.54
187.949	2192.55
188.025	2187.5
188.101	2191.88
188.176	2198.16
188.252	2193.64
188.328	2200.68
188.404	2201.15
188.48	2193.82
188.556	2186.21
188.632	2183.02
188.707	2183.26
188.783	2180.17
188.859	2175.08
188.935	2164.09
189.011	2168.61
189.086	2160.28
189.162	2148.01
189.238	2147.39
189.314	2143.44
189.39	2141.21
189.465	2132.26
189.541	2148.53
189.617	2132.55
189.693	2127.46
189.768	2130.08
189.844	2155.73
189.92	2151.36
189.996	2162.06
190.071	2172.72
190.147	2170.58
190.223	2179.95
190.298	2171.1
190.374	2158.49
190.45	2170.05
190.526	2177.19
190.601	2169.15
190.677	2169.86
190.753	2200.95
190.828	2202.33
190.904	2216.79
190.98	2228.5
191.055	2241.82
191.131	2234.68
191.207	2254.38
191.282	2262.32
191.358	2254.85
191.433	2238.43
191.509	2247.46
191.585	2242.47
191.66	2242.09
191.736	2250.32
191.811	2241.18
191.887	2257.6
191.963	2284.02
192.038	2291.49
192.114	2292.01
192.189	2298.67
192.265	2298.53
192.34	2275.2
192.416	2273.39
192.491	2271.39
192.567	2273.06
192.642	2275.87
192.718	2272.3
192.793	2260.88
192.869	2261.16
192.944	2264.59
193.02	2273.34
193.095	2278.67
193.171	2284.72
193.246	2285.38
193.322	2281.72
193.397	2285.1
193.473	2269.44
193.548	2248.21
193.624	2253.87
193.699	2252.21
193.775	2270.87
193.85	2271.16
193.925	2277.82
194.001	2277.2
194.076	2268.78
194.152	2261.92
194.227	2249.84
194.302	2243.75
194.378	2250.98
194.453	2246.17
194.529	2256.17
194.604	2240.89
194.679	2237.13
194.755	2217.2
194.83	2230.2
194.905	2227.68
194.981	2236.53
195.056	2232.96
195.131	2239
195.207	2236.81
195.282	2227.44
195.357	2205.45
195.433	2221.29
195.508	2209.49
195.583	2216.25
195.659	2232.91
195.734	2239.62
195.809	2242.38
195.884	2252.27
195.96	2250.75
196.035	2264.93
196.11	2261.5
196.185	2275.25
196.261	2275.35
196.336	2307.8
196.411	2294.81
196.486	2301.23
196.561	2295.47
196.637	2303.61
196.712	2319.36
196.787	2324.36
196.862	2342.16
196.937	2350.63
197.013	2357.2
197.088	2370.05
197.163	2395.91
197.238	2412.1
197.313	2412.25
197.388	2423.96
197.464	2451.53
197.539	2462.24
197.614	2456.81
197.689	2471.29
197.764	2487.48
197.839	2509.09
197.914	2502.48
197.989	2524.43
198.065	2538.85
198.14	2585.46
198.215	2607.55
198.29	2621.7
198.365	2631.32
198.44	2641.13
198.515	2673.72
198.59	2690.11
198.665	2715.98
198.74	2721.93
198.815	2720.26
198.89	2743.7
198.965	2776.73
199.04	2772.68
199.115	2790.4
199.19	2834.14
199.265	2833.86
199.34	2848.15
199.415	2880.39
199.49	2905.35
199.565	2918.56
199.64	2940.34
199.715	2937.76
199.79	2951.73
199.865	2957.35
199.94	2959.88
200.015	2992.78
200.09	2996.83
200.165	3003.31
200.24	3010.32
200.315	3051.31
200.39	3067.76
200.464	3073.24
200.539	3073.29
200.614	3090.55
200.689	3114.25
200.764	3121.45
200.839	3142.14
200.914	3142.85
200.989	3135.41
201.063	3148
201.138	3128.46
201.213	3135.38
201.288	3117.4
201.363	3121.6
201.438	3124.03
201.512	3139.81
201.587	3123.11
201.662	3126.74
201.737	3139.57
201.812	3149.06
201.886	3116.8
201.961	3128.06
202.036	3114.71
202.111	3114.62
202.186	3088.21
202.26	3068.28
202.335	3046.81
202.41	3043.86
202.485	3029.61
202.559	3009.25
202.634	2982.84
202.709	2997.37
202.784	2980.11
202.858	2986.11
202.933	2971.1
203.008	2971.53
203.082	2957.27
203.157	2960.9
203.232	2927.3
203.306	2912.23
203.381	2893.24
203.456	2879.9
203.53	2870.78
203.605	2867.35
203.68	2858.53
203.754	2868.44
203.829	2874.59
203.904	2873.3
203.978	2879.26
204.053	2907.11
204.127	2919.93
204.202	2949.78
204.277	2958.03
204.351	2979.44
204.426	3004.48
204.5	3034.05
204.575	3030.38
204.65	3080.34
204.724	3115.23
204.799	3166.92
204.873	3210.64
204.948	3257.65
205.022	3299.72
205.097	3346.58
205.171	3420.7
205.246	3491.3
205.32	3555.11
205.395	3620.93
205.469	3682.75
205.544	3764.52
205.618	3824.73
205.693	3917.4
205.767	3988.43
205.842	4095
205.916	4181.16
205.991	4262.85
206.065	4368.78
206.14	4493.73
206.214	4592.74
206.289	4697.31
206.363	4825.15
206.438	4943.17
206.512	5067
206.586	5212.2
206.661	5346.72
206.735	5450.37
206.81	5584.86
206.884	5736.36
206.958	5866.8
207.033	6034.97
207.107	6191.08
207.181	6363.58
207.256	6510.72
207.33	6678.23
207.405	6854.61
207.479	7032.97
207.553	7210.14
207.628	7350.97
207.702	7524.42
207.776	7686.96
207.851	7854.77
207.925	8038.8
207.999	8209.07
208.073	8384.47
208.148	8559.95
208.222	8720.06
208.296	8932.02
208.371	9127.2
208.445	9318.52
208.519	9529.2
208.593	9721.49
208.668	9903.27
208.742	10102.45
208.816	10293.43
208.89	10497.83
208.965	10683.05
209.039	10874.87
209.113	11075.41
209.187	11284.13
209.261	11472.74
209.336	11687.48
209.41	11908.74
209.484	12098.88
209.558	12311.43
209.632	12513.57
209.707	12719.34
209.781	12933.31
209.855	13140.34
209.929	13348.19
210.003	13545.2
210.077	13729.92
210.151	13962.93
210.226	14174.45
210.3	14381.72
210.374	14579.46
210.448	14767.5
210.522	14956.16
210.596	15150.18
210.67	15331.42
210.744	15566.54
210.818	15775.35
210.892	15973.64
210.966	16139.44
211.041	16327.56
211.115	16493.85
211.189	16696.56
211.263	16870.5
211.337	17053.12
211.411	17234.28
211.485	17395.2
211.559	17578.77
211.633	17749.18
211.707	17870.91
211.781	18051.83
211.855	18171.05
211.929	18323.92
212.003	18462.42
212.077	18618.66
212.151	18786.89
212.225	18953.68
212.299	19088.18
212.373	19219.02
212.447	19343.69
212.52	19500.84
212.594	19647.53
212.668	19801.22
212.742	19908.88
212.816	20044.44
212.89	20162.46
212.964	20287.62
213.038	20420.83
213.112	20545.65
213.186	20685.13
213.26	20798.09
213.333	20868.17
213.407	21002.34
213.481	21125.1
213.555	21244.62
213.629	21357.94
213.703	21452.6
213.777	21569.3
213.85	21657.22
213.924	21809.36
213.998	21925.04
214.072	22038.81
214.146	22131.13
214.219	22228.94
214.293	22332.05
214.367	22432.42
214.441	22548.41
214.515	22630.32
214.588	22702.45
214.662	22767.43
214.736	22837.87
214.81	22926.87
214.883	23019
214.957	23099.91
215.031	23185.59
215.105	23254.29
215.178	23328.79
215.252	23407.11
215.326	23454.94
215.4	23514.35
215.473	23543.05
215.547	23598.22
215.621	23655.95
215.694	23734.52
215.768	23782.36
215.842	23849.4
215.915	23910.27
215.989	23947.94
216.063	24017.59
216.136	24085.16
216.21	24150.08
216.284	24224.66
216.357	24293.49
216.431	24357.69
216.504	24420.79
216.578	24492.14
216.652	24563.87
216.725	24613.03
216.799	24670.88
216.873	24731.42
216.946	24795
217.02	24842.67
217.093	24897.38
217.167	24925.12
217.24	24961.07
217.314	25016.36
217.387	25047.48
217.461	25086.85
217.535	25145.14
217.608	25171.2
217.682	25206.47
217.755	25261.92
217.829	25292.23
217.902	25326.1
217.976	25364.03
218.049	25390.29
218.123	25412.58
218.196	25447.91
218.27	25482.56
218.343	25514.66
218.417	25556.99
218.49	25597
218.563	25642.41
218.637	25673.01
218.71	25723.26
218.784	25761.78
218.857	25813.67
218.931	25850.11
219.004	25878.15
219.077	25918.41
219.151	25956.54
219.224	25986.96
219.298	26015.82
219.371	26059.56
219.444	26079.69
219.518	26113.53
219.591	26158.19
219.665	26220.13
219.738	26258.27
219.811	26263.68
219.885	26291
219.958	26323.06
220.031	26328.86
220.105	26365.46
220.178	26401.52
220.251	26416.93
220.325	26438.99
220.398	26460.05
220.471	26488.05
220.544	26519.14
220.618	26524.6
220.691	26546.95
220.764	26563.42
220.838	26584.91
220.911	26582.15
220.984	26617.88
221.057	26631.74
221.131	26623.44
221.204	26595.67
221.277	26615.37
221.35	26661.63
221.424	26668.48
221.497	26672.11
221.57	26695.76
221.643	26698.81
221.716	26712.91
221.79	26720.64
221.863	26729.57
221.936	26726.38
222.009	26730.82
222.082	26737.83
222.155	26738.12
222.229	26755.21
222.302	26765.26
222.375	26757.67
222.448	26769.51
222.521	26768.35
222.594	26759.12
222.667	26766.9
222.74	26782.11
222.814	26791.38
222.887	26793.55
222.96	26806.21
223.033	26824.85
223.106	26821.13
223.179	26814.95
223.252	26802.54
223.325	26806.26
223.398	26782.84
223.471	26776.27
223.544	26784.86
223.617	26785.2
223.69	26786.8
223.763	26770.09
223.837	26765.69
223.91	26777.38
223.983	26758.74
224.056	26752.95
224.129	26747.59
224.202	26741.5
224.275	26722.77
224.348	26679.16
224.42	26640.48
224.493	26605.76
224.566	26560.27
224.639	26548.4
224.712	26528.65
224.785	26509.43
224.858	26486.4
224.931	26488.33
225.004	26457.96
225.077	26432.66
225.15	26381.53
225.223	26362.7
225.296	26370.13
225.369	26335.71
225.442	26287.43
225.514	26268.02
225.587	26237.7
225.66	26219.83
225.733	26194.73
225.806	26180.01
225.879	26164.03
225.952	26133.13
226.025	26117.73
226.097	26116.43
226.17	26094.32
226.243	26054.5
226.316	26027.41
226.389	25997
226.461	25967.46
226.534	25947.13
226.607	25918.65
226.68	25921.55
226.753	25893.5
226.825	25830.89
226.898	25820.99
226.971	25791.84
227.044	25771.47
227.117	25740.58
227.189	25727.26
227.262	25712.2
227.335	25687.29
227.407	25652.69
227.48	25636.47
227.553	25612.92
227.626	25581.16
227.698	25548.63
227.771	25527.16
227.844	25490.33
227.916	25461.91
227.989	25418.09
228.062	25388.27
228.134	25377.5
228.207	25343.09
228.28	25313.8
228.352	25286.1
228.425	25246.34
228.498	25229.16
228.57	25191.28
228.643	25186.35
228.716	25151.75
228.788	25111.89
228.861	25083.81
228.934	25071.7
229.006	25037.34
229.079	25002.8
229.151	24960.04
229.224	24914.31
229.296	24893.37
229.369	24887.34
229.442	24865.33
229.514	24827.66
229.587	24811.3
229.659	24759.72
229.732	24736.52
229.804	24703.37
229.877	24702.36
229.949	24688.13
230.022	24672.01
230.094	24644.71
230.167	24608.76
230.239	24565.63
230.312	24534.57
230.384	24514.16
230.457	24479.71
230.529	24449.37
230.602	24426.99
230.674	24402.15
230.747	24381.79
230.819	24356.23
230.892	24297.95
230.964	24277.12
231.037	24257.73
231.109	24217.06
231.181	24191.5
231.254	24139.21
231.326	24104.63
231.399	24058.61
231.471	24005.12
231.544	23947.96
231.616	23921.87
231.688	23887.72
231.761	23835.06
231.833	23792.91
231.905	23735.08
231.978	23698.43
232.05	23659.27
232.122	23615.72
232.195	23565.18
232.267	23547.34
232.339	23499.78
232.412	23481.75
232.484	23439.12
232.556	23394.51
232.629	23378.98
232.701	23348.41
232.773	23313.21
232.846	23266.63
232.918	23233.26
232.99	23196.71
233.062	23173.47
233.135	23140.77
233.207	23087.68
233.279	23063.82
233.351	23045.74
233.424	23001.52
233.496	22960.01
233.568	22945.4
233.64	22894.39
233.713	22868.84
233.785	22822.84
233.857	22793.86
233.929	22737.02
234.001	22716.87
234.074	22685.39
234.146	22626.37
234.218	22587.17
234.29	22550.63
234.362	22504.4
234.434	22439.17
234.507	22392.85
234.579	22333.55
234.651	22280.13
234.723	22248.8
234.795	22218.53
234.867	22167.23
234.939	22144.33
235.012	22102.69
235.084	22065.52
235.156	22033.22
235.228	21976
235.3	21928.14
235.372	21882.34
235.444	21862.67
235.516	21802.32
235.588	21768.92
235.66	21723.41
235.732	21670.68
235.804	21680.08
235.876	21660.27
235.948	21643.88
236.02	21602.19
236.092	21559.78
236.164	21518.71
236.236	21472.05
236.308	21417.97
236.38	21380.38
236.452	21322.73
236.524	21283.07
236.596	21259.4
236.668	21225.47
236.74	21198.58
236.812	21164.93
236.884	21129.51
236.956	21082.18
237.028	21021.6
237.1	20973.26
237.172	20952.24
237.244	20930.89
237.316	20861.2
237.388	20803.75
237.46	20749.48
237.532	20723.36
237.604	20684.28
237.675	20667.6
237.747	20628.8
237.819	20591.55
237.891	20548.08
237.963	20505
238.035	20460.52
238.107	20374.88
238.178	20343.4
238.25	20294.59
238.322	20270.35
238.394	20211.17
238.466	20165.82
238.538	20141.72
238.609	20105.53
238.681	20038.64
238.753	19977.92
238.825	19928.95
238.897	19890.74
238.968	19869.73
239.04	19819.46
239.112	19805.73
239.184	19733.73
239.255	19686.51
239.327	19643.18
239.399	19594.66
239.471	19559.91
239.542	19524.44
239.614	19507.29
239.686	19432.06
239.758	19401.8
239.829	19348.79
239.901	19319.06
239.973	19272.94
240.044	19230.24
240.116	19185.67
240.188	19146.83
240.259	19110.3
240.331	19059.8
240.403	19028.95
240.474	18963.9
240.546	18914.36
240.618	18844.68
240.689	18807.38
240.761	18777.45
240.833	18759.62
240.904	18716.59
240.976	18680.2
241.048	18638.09
241.119	18591.78
241.191	18571.58
241.262	18545.13
241.334	18500.17
241.405	18462.43
241.477	18410.24
241.549	18365.33
241.62	18320.61
241.692	18288.85
241.763	18261.67
241.835	18220.42
241.906	18180.71
241.978	18131.85
242.049	18109.73
242.121	18084.04
242.192	18062.69
242.264	18003.08
242.335	17933.54
242.407	17906.46
242.478	17856.67
242.55	17820.19
242.621	17781.45
242.693	17735.33
242.764	17676.29
242.836	17635.57
242.907	17592.83
242.979	17564.49
243.05	17528.78
243.122	17496.78
243.193	17459.86
243.264	17396.92
243.336	17356.59
243.407	17320.3
243.479	17297.65
243.55	17259.52
243.622	17219.62
243.693	17165.89
243.764	17143.28
243.836	17103.71
243.907	17053.74
243.978	17014.79
244.05	16986.17
244.121	16932.82
244.192	16908.24
244.264	16861.1
244.335	16823.32
244.407	16774.98
244.478	16742.83
244.549	16698.54
244.62	16649.23
244.692	16602.15
244.763	16566.63
244.834	16530
244.906	16488.16
244.977	16454.14
245.048	16428.3
245.119	16384.06
245.191	16337.55
245.262	16279.04
245.333	16260.38
245.405	16240.24
245.476	16211.37
245.547	16170.4
245.618	16142.01
245.689	16097.09
245.761	16069.91
245.832	16029.76
245.903	16007.87
245.974	15975.15
246.045	15950.85
246.117	15930.32
246.188	15885.01
246.259	15847.37
246.33	15808.62
246.401	15774.2
246.473	15720.89
246.544	15677.95
246.615	15651.2
246.686	15623.91
246.757	15614.03
246.828	15569.74
246.899	15545.97
246.97	15497.19
247.042	15455.16
247.113	15431.4
247.184	15421.42
247.255	15383.34
247.326	15355.72
247.397	15311.47
247.468	15278.31
247.539	15230.88
247.61	15187.45
247.681	15165.47
247.752	15145.61
247.823	15106.9
247.894	15073.21
247.965	15036.52
248.037	14994.49
248.108	14953.13
248.179	14929.61
248.25	14885.26
248.321	14857.26
248.392	14812.76
248.463	14805
248.534	14769.24
248.605	14741.81
248.675	14701.66
248.746	14671.38
248.817	14646.03
248.888	14624.29
248.959	14576.95
249.03	14559.65
249.101	14533.61
249.172	14497.99
249.243	14444.82
249.314	14434.41
249.385	14404.76
249.456	14379.89
249.527	14354.39
249.598	14333.66
249.669	14292.54
249.739	14272.63
249.81	14256.67
249.881	14211.46
249.952	14180.7
250.023	14154.72
250.094	14107.24
250.165	14067.8
250.235	14048.52
250.306	14023.12
250.377	13982.48
250.448	13958.42
250.519	13912.92
250.59	13900.43
250.66	13873.82
250.731	13869.39
250.802	13833.23
250.873	13816.07
250.944	13791.97
251.014	13765.6
251.085	13762.22
251.156	13744.44
251.227	13732.34
251.297	13705.63
251.368	13693.96
251.439	13669.67
251.51	13647.25
251.58	13620.01
251.651	13595.28
251.722	13577.64
251.792	13532.57
251.863	13504.56
251.934	13490.87
252.005	13490
252.075	13455.15
252.146	13429.89
252.217	13410.65
252.287	13395.47
252.358	13363.85
252.429	13360.42
252.499	13321.28
252.57	13291.39
252.641	13279.97
252.711	13243.91
252.782	13204.14
252.852	13199.94
252.923	13168.08
252.994	13144.22
253.064	13135.3
253.135	13093.36
253.205	13065.11
253.276	13058.31
253.347	13053.54
253.417	13026.16
253.488	12994.01
253.558	12972.6
253.629	12957.32
253.699	12939.87
253.77	12919.09
253.841	12887.71
253.911	12860.72
253.982	12843.41
254.052	12834.2
254.123	12807.4
254.193	12787.78
254.264	12804.85
254.334	12762.86
254.405	12738.85
254.475	12712.77
254.546	12681.25
254.616	12683.66
254.687	12653.34
254.757	12643.6
254.827	12613.91
254.898	12593.9
254.968	12574.72
255.039	12543.14
255.109	12525.26
255.18	12485.88
255.25	12447.79
255.321	12440.18
255.391	12407.83
255.461	12407.69
255.532	12348.01
255.602	12318.08
255.673	12276.14
255.743	12243.31
255.813	12196.61
255.884	12187.21
255.954	12174.67
256.024	12172.5
256.095	12148.11
256.165	12123.48
256.235	12097.84
256.306	12074.85
256.376	12067.86
256.446	12053.15
256.517	12039.51
256.587	12031.22
256.657	12011.8
256.728	11998.59
256.798	11973.67
256.868	11947.5
256.938	11920.02
257.009	11916.94
257.079	11902.48
257.149	11901.66
257.219	11861.89
257.29	11855.72
257.36	11820.88
257.43	11813.36
257.5	11773.59
257.571	11751.8
257.641	11736.19
257.711	11705.2
257.781	11697.34
257.852	11679.02
257.922	11639.4
257.992	11615.98
258.062	11598.97
258.132	11593.13
258.202	11570.58
258.273	11557.03
258.343	11557.37
258.413	11530.19
258.483	11506.52
258.553	11478.76
258.623	11458.33
258.693	11440.59
258.764	11439
258.834	11428.06
258.904	11407.24
258.974	11379.29
259.044	11355.19
259.114	11343.62
259.184	11331.43
259.254	11306.32
259.324	11266.13
259.394	11264.87
259.464	11268.39
259.535	11239.96
259.605	11220.05
259.675	11193.98
259.745	11175.81
259.815	11147.38
259.885	11128.2
259.955	11137.11
260.025	11104.78
260.095	11086.9
260.165	11078.42
260.235	11076.11
260.305	11049.12
260.375	11018.09
260.445	11028.3
260.515	11024.01
260.585	11018.9
260.655	11002.91
260.725	10994.13
260.795	10990.18
260.865	10994.04
260.934	10961.37
261.004	10955.05
261.074	10935.49
261.144	10931.87
261.214	10924.31
261.284	10905.47
261.354	10891.4
261.424	10869.23
261.494	10879.25
261.564	10863.01
261.634	10851.3
261.703	10809.86
261.773	10806.92
261.843	10798.78
261.913	10771.26
261.983	10739.32
