Data from 20250704_background_MAYP1162681_11-02-04-812.txt Node
Date: Fri Jul 04 11:02:04 BST 2025
User: adleo
Spectrometer: MAYP116268
Trigger mode: 0
Integration Time (sec): 1.000000E0
Scans to average: 1
Electric dark correction enabled: true
Nonlinearity correction enabled: true
Boxcar width: 10
XAxis mode: Wavelengths
Number of Pixels in Spectrum: 2068
>>>>>Begin Spectral Data<<<<<
179.565	1235.85
179.642	1292.9
179.718	1337.87
179.795	1376.28
179.871	1409.16
179.948	1427.77
180.024	1451.11
180.101	1473.8
180.177	1487.07
180.254	1513.03
180.33	1535.95
180.407	1591.93
180.483	1689.89
180.56	1784.82
180.636	1867.67
180.712	1854.06
180.789	1862.53
180.865	1872.89
180.942	1883.2
181.018	1893.71
181.095	1907.55
181.171	1912.82
181.248	1916.06
181.324	1932.13
181.4	1939.83
181.477	1951.43
181.553	1966.27
181.63	1984.57
181.706	2000.46
181.782	2011.39
181.859	2009.68
181.935	2013.24
182.011	2007.92
182.088	2022.52
182.164	2040.12
182.24	2057.09
182.317	2066.51
182.393	2068.32
182.469	2083.77
182.546	2096.9
182.622	2098.71
182.698	2093.38
182.775	2104.41
182.851	2118.78
182.927	2109.84
183.003	2107.32
183.08	2102.56
183.156	2108.65
183.232	2105.89
183.308	2092.53
183.385	2101.56
183.461	2118.35
183.537	2121.16
183.613	2137.05
183.69	2129.77
183.766	2119.82
183.842	2127.48
183.918	2131.43
183.995	2143.94
184.071	2148.65
184.147	2144.32
184.223	2134.58
184.299	2147.9
184.375	2137.43
184.452	2142.15
184.528	2192.63
184.604	2200.9
184.68	2212.42
184.756	2220.51
184.832	2226.69
184.908	2233.49
184.985	2230.16
185.061	2212.23
185.137	2220.08
185.213	2207.61
185.289	2207.66
185.365	2199.67
185.441	2194.86
185.517	2210.48
185.593	2207.19
185.669	2201.63
185.745	2210.67
185.822	2227.36
185.898	2217.22
185.974	2227.45
186.05	2218.31
186.126	2182.25
186.202	2177.3
186.278	2172.92
186.354	2163.83
186.43	2167.45
186.506	2165.36
186.582	2166.88
186.658	2175.82
186.734	2157.46
186.81	2160.36
186.886	2163.41
186.962	2174.54
187.038	2174.92
187.114	2165.97
187.19	2171.63
187.266	2163.64
187.341	2167.83
187.417	2163.02
187.493	2164.35
187.569	2165.83
187.645	2161.12
187.721	2149.89
187.797	2155.41
187.873	2160.36
187.949	2154.65
188.025	2150.22
188.101	2154.6
188.176	2159.21
188.252	2152.79
188.328	2160.31
188.404	2158.12
188.48	2154.55
188.556	2147.65
188.632	2145.66
188.707	2144.8
188.783	2141.85
188.859	2135.1
188.935	2120.87
189.011	2124.67
189.086	2117.92
189.162	2109.41
189.238	2105.51
189.314	2105.41
189.39	2103.56
189.465	2094.9
189.541	2113.26
189.617	2098.23
189.693	2092.14
189.768	2094.57
189.844	2122.98
189.92	2114.61
189.996	2121.03
190.071	2135.02
190.147	2134.59
190.223	2145.49
190.298	2138.45
190.374	2126.08
190.45	2141.63
190.526	2152.29
190.601	2147.44
190.677	2148.01
190.753	2175.33
190.828	2180.66
190.904	2194.07
190.98	2206.4
191.055	2219.82
191.131	2209.82
191.207	2230.95
191.282	2243.03
191.358	2232.23
191.433	2214.95
191.509	2227.65
191.585	2226.98
191.66	2226.88
191.736	2236.49
191.811	2227.26
191.887	2242.78
191.963	2269.86
192.038	2274.04
192.114	2275.23
192.189	2280.04
192.265	2275.95
192.34	2257.29
192.416	2253.15
192.491	2249.39
192.567	2250.72
192.642	2250.72
192.718	2248.2
192.793	2233.02
192.869	2228.6
192.944	2231.31
193.02	2239.54
193.095	2243.77
193.171	2251.48
193.246	2251.29
193.322	2247.58
193.397	2247.96
193.473	2237.01
193.548	2214.03
193.624	2219.31
193.699	2215.84
193.775	2234.73
193.85	2236.78
193.925	2242.54
194.001	2243.35
194.076	2234.97
194.152	2225.12
194.227	2215.89
194.302	2208.99
194.378	2213.23
194.453	2210.13
194.529	2223.88
194.604	2207.94
194.679	2203
194.755	2183.45
194.83	2192.92
194.905	2191.44
194.981	2201.77
195.056	2191.78
195.131	2199.63
195.207	2197.77
195.282	2187.36
195.357	2163.94
195.433	2180.45
195.508	2170.12
195.583	2177.83
195.659	2192.15
195.734	2201.67
195.809	2202.29
195.884	2214.61
195.96	2216.27
196.035	2232.12
196.11	2227.22
196.185	2241.54
196.261	2244.35
196.336	2273.32
196.411	2259.28
196.486	2266.13
196.561	2259.66
196.637	2268.89
196.712	2283.98
196.787	2286.22
196.862	2303.2
196.937	2313.91
197.013	2320.62
197.088	2331.66
197.163	2353.47
197.238	2373.14
197.313	2370.47
197.388	2386.18
197.464	2412.47
197.539	2423.41
197.614	2417.41
197.689	2431.93
197.764	2447.08
197.839	2469.79
197.914	2469.6
197.989	2492.36
198.065	2503.07
198.14	2553.58
198.215	2581.67
198.29	2594.92
198.365	2610.59
198.44	2621.39
198.515	2651.4
198.59	2666.08
198.665	2691.94
198.74	2701.61
198.815	2702.38
198.89	2726.86
198.965	2756.6
199.04	2752.4
199.115	2771.08
199.19	2809.52
199.265	2811.86
199.34	2822.48
199.415	2855.24
199.49	2874.06
199.565	2884.35
199.64	2909.75
199.715	2905.03
199.79	2914.04
199.865	2919.28
199.94	2920.43
200.015	2952.94
200.09	2960.38
200.165	2967.48
200.24	2972.44
200.315	3014.53
200.39	3027.64
200.464	3033.45
200.539	3034.6
200.614	3052.14
200.689	3074.89
200.764	3084.71
200.839	3104.82
200.914	3109.31
200.989	3095.47
201.063	3109.4
201.138	3089.96
201.213	3088
201.288	3069.03
201.363	3073.84
201.438	3075.13
201.512	3088.57
201.587	3070.92
201.662	3071.4
201.737	3084.13
201.812	3093.1
201.886	3054.97
201.961	3064.51
202.036	3049.93
202.111	3047.97
202.186	3021.24
202.26	3002.54
202.335	2983.75
202.41	2973.74
202.485	2956.73
202.559	2938.61
202.634	2911.11
202.709	2923.69
202.784	2907
202.858	2909.39
202.933	2889.75
203.008	2885.84
203.082	2865.3
203.157	2860.63
203.232	2818.94
203.306	2798.44
203.381	2765.7
203.456	2743.54
203.53	2721.8
203.605	2702.94
203.68	2678.06
203.754	2671.49
203.829	2654.91
203.904	2630.76
203.978	2620.61
204.053	2620.9
204.127	2608.94
204.202	2607.66
204.277	2592.08
204.351	2585.98
204.426	2573.93
204.5	2564.59
204.575	2528.31
204.65	2536.6
204.724	2529.79
204.799	2538.83
204.873	2529.21
204.948	2527.82
205.022	2517.68
205.097	2507.96
205.171	2523.53
205.246	2530.68
205.32	2524.06
205.395	2527.21
205.469	2520.21
205.544	2527.45
205.618	2511.79
205.693	2523.69
205.767	2513.36
205.842	2530.65
205.916	2523.89
205.991	2515.18
206.065	2519.46
206.14	2537.5
206.214	2533.16
206.289	2525.69
206.363	2535.21
206.438	2540.4
206.512	2547.97
206.586	2570.16
206.661	2577.98
206.735	2554.56
206.81	2553.84
206.884	2571.75
206.958	2557.41
207.033	2571.98
207.107	2577.13
207.181	2610.24
207.256	2604.38
207.33	2625.86
207.405	2641.83
207.479	2660.79
207.553	2670.41
207.628	2653.94
207.702	2662.75
207.776	2657.94
207.851	2662.98
207.925	2681.14
207.999	2678.95
208.073	2677.33
208.148	2675.04
208.222	2666.28
208.296	2698.84
208.371	2715.48
208.445	2726.3
208.519	2754.64
208.593	2768.79
208.668	2763.83
208.742	2767.69
208.816	2768.65
208.89	2778.23
208.965	2773.27
209.039	2780.7
209.113	2800.24
209.187	2822.19
209.261	2815.14
209.336	2834.87
209.41	2854.17
209.484	2853.22
209.558	2874.81
209.632	2886.91
209.707	2899.21
209.781	2919.7
209.855	2937.11
209.929	2954.67
210.003	2962.86
210.077	2964.82
210.151	3011.49
210.226	3047.64
210.3	3073.84
210.374	3095.62
210.448	3100.63
210.522	3111.65
210.596	3119.09
210.67	3126.19
210.744	3175.04
210.818	3208.98
210.892	3228.59
210.966	3225.58
211.041	3239.94
211.115	3235.26
211.189	3260.64
211.263	3279.57
211.337	3282.29
211.411	3296.89
211.485	3292.31
211.559	3303.9
211.633	3304.76
211.707	3273.54
211.781	3280.61
211.855	3246.11
211.929	3235.53
212.003	3215.36
212.077	3224.48
212.151	3239.8
212.225	3249.15
212.299	3236.02
212.373	3224.81
212.447	3221.09
212.52	3247.95
212.594	3250.38
212.668	3263.11
212.742	3245.99
212.816	3237.59
212.89	3230.87
212.964	3225.52
213.038	3229.15
213.112	3239.89
213.186	3252.91
213.26	3228.07
213.333	3180.09
213.407	3183.23
213.481	3187.52
213.555	3199.2
213.629	3183.5
213.703	3164.22
213.777	3157.35
213.85	3134.55
213.924	3166.05
213.998	3161.99
214.072	3153.54
214.146	3135.27
214.219	3128.55
214.293	3122.21
214.367	3120.63
214.441	3127.55
214.515	3113.28
214.588	3082.24
214.662	3038.99
214.736	3011.72
214.81	3013.43
214.883	3018.91
214.957	3000.8
215.031	2981.84
215.105	2952.07
215.178	2934.29
215.252	2920.08
215.326	2891.67
215.4	2862.95
215.473	2805.06
215.547	2777.83
215.621	2754.61
215.694	2751.7
215.768	2720.53
215.842	2699.19
215.915	2672.83
215.989	2637.52
216.063	2619.89
216.136	2611.6
216.21	2604.45
216.284	2608.36
216.357	2599.93
216.431	2581.93
216.504	2579.78
216.578	2595.08
216.652	2594.31
216.725	2582.83
216.799	2581.79
216.873	2575.02
216.946	2576.45
217.02	2563.55
217.093	2552.88
217.167	2519.79
217.24	2491.92
217.314	2479.83
217.387	2463.84
217.461	2449.75
217.535	2456.65
217.608	2432.8
217.682	2422.18
217.755	2423.71
217.829	2405.7
217.902	2399.04
217.976	2392.23
218.049	2375.29
218.123	2349.66
218.196	2347.57
218.27	2334.34
218.343	2311.72
218.417	2305.01
218.49	2296.34
218.563	2307.15
218.637	2306
218.71	2324.33
218.784	2332.38
218.857	2342.18
218.931	2346.51
219.004	2348.7
219.077	2350.18
219.151	2352.41
219.224	2348.84
219.298	2343.03
219.371	2352.46
219.444	2338.33
219.518	2339.23
219.591	2341.42
219.665	2370.76
219.738	2372.95
219.811	2366.96
219.885	2379.38
219.958	2387
220.031	2384.19
220.105	2387.48
220.178	2386.67
220.251	2377.29
220.325	2382.53
220.398	2383.19
220.471	2389.29
220.544	2396.9
220.618	2390.95
220.691	2399.95
220.764	2405.37
220.838	2413.51
220.911	2408.18
220.984	2429.98
221.057	2440.02
221.131	2446.54
221.204	2416.87
221.277	2434.87
221.35	2466.39
221.424	2461.34
221.497	2460.72
221.57	2468.28
221.643	2476.24
221.716	2486.62
221.79	2485.67
221.863	2484.14
221.936	2483.57
222.009	2481.29
222.082	2487.1
222.155	2483
222.229	2499.53
222.302	2506.87
222.375	2504.91
222.448	2514.91
222.521	2517.49
222.594	2515.25
222.667	2504.02
222.74	2515.49
222.814	2513.54
222.887	2508.77
222.96	2521.15
223.033	2533.35
223.106	2538.87
223.179	2544.54
223.252	2545.3
223.325	2553.68
223.398	2555.49
223.471	2557.97
223.544	2564.39
223.617	2564.68
223.69	2573.49
223.763	2561.48
223.837	2559.1
223.91	2566.96
223.983	2545.49
224.056	2530.63
224.129	2533.49
224.202	2546.67
224.275	2541.15
224.348	2528.43
224.42	2515.01
224.493	2497.77
224.566	2486.81
224.639	2492.05
224.712	2484.43
224.785	2479.71
224.858	2473.67
224.931	2465.76
225.004	2455.57
225.077	2453.53
225.15	2424.11
225.223	2418.21
225.296	2434.36
225.369	2418.56
225.442	2405.84
225.514	2408.84
225.587	2412.79
225.66	2410.22
225.733	2406.22
225.806	2407.55
225.879	2404.17
225.952	2394.8
226.025	2402.37
226.097	2416.33
226.17	2408.61
226.243	2384.34
226.316	2379.58
226.389	2378.77
226.461	2386.72
226.534	2389.86
226.607	2384.01
226.68	2407.32
226.753	2406.23
226.825	2381.46
226.898	2396.55
226.971	2398.02
227.044	2403.17
227.117	2403.31
227.189	2406.17
227.262	2417.12
227.335	2422.02
227.407	2414.31
227.48	2419.26
227.553	2422.17
227.626	2412.3
227.698	2412.97
227.771	2420.2
227.844	2409.64
227.916	2408.87
227.989	2388.55
228.062	2383.17
228.134	2401.6
228.207	2397.79
228.28	2387.55
228.352	2385.98
228.425	2380.41
228.498	2384.51
228.57	2367.9
228.643	2379.23
228.716	2373.28
228.788	2363.81
228.861	2352.1
228.934	2369.42
229.006	2363.9
229.079	2357.76
229.151	2347.43
229.224	2328.87
229.296	2332.54
229.369	2358.39
229.442	2370.58
229.514	2364.11
229.587	2376.96
229.659	2356.06
229.732	2357.16
229.804	2367.53
229.877	2390.87
229.949	2398.58
230.022	2412.25
230.094	2414.49
230.167	2410.97
230.239	2400.5
230.312	2397.16
230.384	2421.5
230.457	2417.6
230.529	2421.5
230.602	2424.69
230.674	2428.78
230.747	2441.91
230.819	2453.43
230.892	2419.96
230.964	2418.3
231.037	2425.67
231.109	2420.2
231.181	2430.48
231.254	2418.86
231.326	2415.63
231.399	2405.48
231.471	2397.81
231.544	2374.14
231.616	2387.75
231.688	2386.18
231.761	2380.85
231.833	2375.38
231.905	2345.53
231.978	2343.72
232.05	2339.86
232.122	2338.2
232.195	2329.96
232.267	2339.24
232.339	2328.53
232.412	2345.09
232.484	2335.81
232.556	2327.24
232.629	2346.2
232.701	2349.58
232.773	2349.58
232.846	2339.82
232.918	2339.78
232.99	2342.59
233.062	2355.01
233.135	2357.68
233.207	2345.25
233.279	2354.39
233.351	2360.38
233.424	2359.95
233.496	2350.29
233.568	2371.81
233.64	2355.25
233.713	2357.11
233.785	2352.49
233.857	2351.87
233.929	2332.13
234.001	2350.41
234.074	2366.31
234.146	2338.74
234.218	2334.64
234.29	2331.69
234.362	2327.7
234.434	2311.99
234.507	2296.9
234.579	2277.67
234.651	2268.87
234.723	2274.39
234.795	2279.43
234.867	2275.96
234.939	2288.28
235.012	2295.14
235.084	2294.66
235.156	2307.22
235.228	2297.18
235.3	2291.52
235.372	2294.42
235.444	2311.79
235.516	2285.22
235.588	2288.12
235.66	2292.5
235.732	2280.08
235.804	2341.12
235.876	2352.77
235.948	2367.15
236.02	2372.15
236.092	2371.72
236.164	2372.72
236.236	2370.58
236.308	2367.77
236.38	2374.62
236.452	2365.01
236.524	2364.06
236.596	2377.21
236.668	2382.59
236.74	2388.49
236.812	2393.86
236.884	2401.67
236.956	2402.86
237.028	2396.35
237.1	2386.64
237.172	2405.92
237.244	2429.06
237.316	2390.29
237.388	2383.2
237.46	2372.87
237.532	2388.91
237.604	2385.92
237.675	2403.72
237.747	2414.96
237.819	2406.39
237.891	2405.35
237.963	2405.92
238.035	2404.06
238.107	2370.73
238.178	2384.82
238.25	2385.44
238.322	2409.12
238.394	2389.89
238.466	2389.7
238.538	2401.07
238.609	2410.39
238.681	2392.97
238.753	2384.06
238.825	2385.59
238.897	2392.72
238.968	2414.25
239.04	2404.25
239.112	2433.72
239.184	2421.1
239.255	2417.57
239.327	2426.95
239.399	2429.8
239.471	2440.46
239.542	2444.22
239.614	2464.79
239.686	2439.89
239.758	2454.26
239.829	2444.31
239.901	2462.82
239.973	2465.92
240.044	2473.06
240.116	2473.72
240.188	2474.67
240.259	2473.87
240.331	2467.91
240.403	2477.43
240.474	2461.05
240.546	2457.86
240.618	2437.48
240.689	2432.58
240.761	2435.2
240.833	2451.43
240.904	2450.67
240.976	2448.91
241.048	2456.58
241.119	2462.15
241.191	2474.62
241.262	2490.77
241.334	2485.68
241.405	2485.77
241.477	2480.25
241.549	2482.2
241.62	2488.87
241.692	2500.58
241.763	2516.58
241.835	2520.54
241.906	2521.3
241.978	2509.11
242.049	2525.64
242.121	2540.06
242.192	2559.54
242.264	2549.49
242.335	2529.78
242.407	2537.64
242.478	2534.54
242.55	2536.83
242.621	2529.11
242.693	2523.21
242.764	2518.68
242.836	2515.44
242.907	2522.73
242.979	2530.2
243.05	2534.2
243.122	2535.49
243.193	2529.82
243.264	2507.25
243.336	2504.87
243.407	2513.25
243.479	2539.96
243.55	2542.87
243.622	2548.97
243.693	2544.54
243.764	2562.77
243.836	2557.49
243.907	2555.92
243.978	2556.25
244.05	2562.21
244.121	2544.83
244.192	2556.69
244.264	2540.02
244.335	2544.97
244.407	2527.92
244.478	2532.73
244.549	2526.21
244.62	2514.92
244.692	2515.88
244.763	2526.16
244.834	2520.4
244.906	2512.3
244.977	2513.44
245.048	2526.88
245.119	2513.88
245.191	2505.79
245.262	2485.31
245.333	2503.07
245.405	2500.88
245.476	2508.68
245.547	2511.92
245.618	2525.11
245.689	2527.49
245.761	2532.82
245.832	2531.78
245.903	2540.97
245.974	2544.92
246.045	2547.87
246.117	2567.68
246.188	2557.5
246.259	2548.45
246.33	2550.78
246.401	2550.12
246.473	2532.49
246.544	2522.2
246.615	2536.63
246.686	2536.01
246.757	2552.77
246.828	2543.01
246.899	2561.59
246.97	2544.64
247.042	2531.12
247.113	2540.4
247.184	2560.61
247.255	2555.42
247.326	2556
247.397	2550.71
247.468	2548.9
247.539	2548.76
247.61	2531.94
247.681	2541.85
247.752	2554.75
247.823	2547.7
247.894	2549.42
247.965	2544.28
248.037	2538.08
248.108	2521.13
248.179	2517.8
248.25	2514.89
248.321	2524.46
248.392	2511.4
248.463	2535.3
248.534	2539.45
248.605	2543.97
248.675	2536.68
248.746	2542.58
248.817	2552.3
248.888	2561.73
248.959	2545.07
249.03	2552.4
249.101	2553.02
249.172	2549.88
249.243	2531.74
249.314	2547.88
249.385	2549.69
249.456	2557.59
249.527	2556.69
249.598	2564.02
249.669	2567.02
249.739	2569.35
249.81	2574.83
249.881	2561.12
249.952	2557.45
250.023	2553.88
250.094	2539.64
250.165	2527.91
250.235	2527.1
250.306	2523.48
250.377	2512.29
250.448	2520.72
250.519	2498.01
250.59	2514.29
250.66	2513.63
250.731	2528.91
250.802	2522.95
250.873	2527.86
250.944	2532.24
251.014	2526.86
251.085	2551.26
251.156	2559.35
251.227	2575.17
251.297	2586.84
251.368	2600.46
251.439	2610.85
251.51	2622.52
251.58	2614.28
251.651	2609.33
251.722	2625.19
251.792	2607.19
251.863	2607.96
251.934	2623.63
252.005	2654.15
252.075	2654.44
252.146	2665.53
252.217	2679.92
252.287	2693.64
252.358	2689.12
252.429	2707.6
252.499	2700.32
252.57	2701.04
252.641	2706.94
252.711	2703.94
252.782	2686.31
252.852	2704.76
252.923	2702.8
252.994	2705.37
253.064	2719.94
253.135	2710.71
253.205	2700.75
253.276	2724.23
253.347	2742.23
253.417	2731.94
253.488	2725.79
253.558	2720.27
253.629	2716.17
253.699	2715.65
253.77	2723.56
253.841	2720.03
253.911	2720.94
253.982	2724.18
254.052	2729.85
254.123	2731.09
254.193	2727.71
254.264	2768.04
254.334	2754.79
254.405	2742.88
254.475	2730.49
254.546	2727.54
254.616	2745.73
254.687	2749.26
254.757	2751.4
254.827	2745.45
254.898	2748.16
254.968	2748.83
255.039	2739.73
255.109	2746.4
255.18	2738.87
255.25	2712.76
255.321	2721.91
255.391	2705.99
255.461	2728.19
255.532	2700.21
255.602	2695.5
255.673	2675.87
255.743	2661.99
255.813	2637.57
255.884	2648.09
255.954	2654.81
256.024	2675.63
256.095	2676.25
256.165	2660.15
256.235	2662.49
256.306	2655.2
256.376	2667.12
256.446	2674.55
256.517	2680.88
256.587	2694.56
256.657	2694.28
256.728	2696.37
256.798	2694.85
256.868	2689.04
256.938	2679.79
257.009	2688.46
257.079	2695.08
257.149	2719.81
257.219	2696.26
257.29	2705.31
257.36	2685.54
257.43	2691.93
257.5	2663.53
257.571	2653.62
257.641	2661.96
257.711	2647.76
257.781	2652.8
257.852	2656.81
257.922	2635.85
257.992	2632.04
258.062	2622.79
258.132	2630.08
258.202	2629.08
258.273	2628.65
258.343	2650.86
258.413	2642.62
258.483	2642.14
258.553	2628.52
258.623	2620.46
258.693	2624.94
258.764	2638.66
258.834	2654.8
258.904	2658.8
258.974	2651.76
259.044	2651.28
259.114	2655.09
259.184	2658.43
259.254	2655.9
259.324	2630.94
259.394	2637.51
259.464	2655.99
259.535	2652.9
259.605	2644.89
259.675	2632.56
259.745	2636.09
259.815	2618.41
259.885	2611.17
259.955	2640.98
260.025	2627.51
260.095	2625.32
260.165	2627.22
260.235	2641.23
260.305	2627.76
260.375	2610.41
260.445	2634.37
260.515	2648.61
260.585	2656.57
260.655	2653.52
260.725	2659.67
260.795	2666.57
260.865	2683.68
260.934	2671.19
261.004	2675.1
261.074	2675.05
261.144	2693.05
261.214	2702.53
261.284	2700.48
261.354	2708.96
261.424	2691.55
261.494	2714.07
261.564	2710.54
261.634	2716.21
261.703	2692.53
261.773	2702.05
261.843	2710.63
261.913	2706.2
261.983	2686.47
262.053	2691.77
262.123	2689.48
262.192	2677.19
262.262	2685.48
262.332	2669.14
262.402	2676.95
262.472	2675.66
262.541	2653.19
262.611	2663.34
262.681	2651.67
262.751	2661.96
262.821	2656.96
262.89	2640.56
262.96	2643.95
263.03	2663.77
263.1	2666.44
263.169	2667.77
263.239	2667.73
263.309	2684.07
263.379	2687.36
263.448	2687.22
263.518	2688.08
263.588	2687.12
263.657	2703.7
263.727	2709.56
263.797	2706.8
263.867	2699.7
263.936	2686.03
264.006	2699.07
264.076	2688.16
264.145	2682.02
264.215	2669.3
264.285	2677.34
264.354	2662.16
264.424	2652.39
264.494	2633.9
264.563	2623.27
264.633	2645
264.702	2648.24
264.772	2625.6
264.842	2616.17
