Data from 20250704_urea_0.1M_MAYP1162681_11-20-27-686.txt Node
Date: Fri Jul 04 11:20:27 BST 2025
User: adleo
Spectrometer: MAYP116268
Trigger mode: 0
Integration Time (sec): 1.000000E0
Scans to average: 1
Electric dark correction enabled: true
Nonlinearity correction enabled: true
Boxcar width: 10
XAxis mode: Wavelengths
Number of Pixels in Spectrum: 2068
>>>>>Begin Spectral Data<<<<<
179.565	1249.7
179.642	1314.11
179.718	1358.78
179.795	1398.78
179.871	1435.38
179.948	1454.92
180.024	1477.04
180.101	1499.53
180.177	1512.46
180.254	1533.67
180.33	1556.72
180.407	1612.65
180.483	1710.85
180.56	1803.65
180.636	1890.91
180.712	1877.64
180.789	1886.34
180.865	1899.22
180.942	1908.73
181.018	1920.37
181.095	1934.74
181.171	1938.59
181.248	1935.97
181.324	1948.43
181.4	1954.61
181.477	1965.22
181.553	1977.53
181.63	2000.12
181.706	2016.91
181.782	2026.8
181.859	2026.75
181.935	2031.13
182.011	2027.23
182.088	2045.59
182.164	2064.14
182.24	2079.41
182.317	2091.25
182.393	2090.34
182.469	2103.99
182.546	2118.93
182.622	2122.73
182.698	2114.36
182.775	2124.59
182.851	2138.14
182.927	2133.24
183.003	2129.49
183.08	2120.97
183.156	2129.44
183.232	2124.11
183.308	2111.22
183.385	2119.88
183.461	2139.05
183.537	2142
183.613	2157.79
183.69	2148.04
183.766	2140.99
183.842	2147.32
183.918	2151.7
183.995	2166.73
184.071	2172.54
184.147	2165.64
184.223	2154.27
184.299	2168.31
184.375	2158.56
184.452	2166.93
184.528	2216.99
184.604	2226.03
184.68	2238.63
184.756	2247.67
184.832	2250.86
184.908	2258.33
184.985	2257.9
185.061	2241.63
185.137	2251.62
185.213	2238.78
185.289	2240.06
185.365	2231.55
185.441	2230.88
185.517	2244.88
185.593	2240.12
185.669	2236.02
185.745	2249.82
185.822	2267.52
185.898	2260.76
185.974	2273.41
186.05	2266.46
186.126	2232.97
186.202	2228.4
186.278	2223.59
186.354	2212.98
186.43	2221.17
186.506	2220.65
186.582	2218.65
186.658	2223.88
186.734	2200.38
186.81	2201.76
186.886	2206.66
186.962	2221.69
187.038	2218.03
187.114	2209.27
187.19	2215.74
187.266	2204.28
187.341	2201.57
187.417	2192.43
187.493	2190.86
187.569	2191.72
187.645	2183.49
187.721	2170.5
187.797	2175.87
187.873	2181.49
187.949	2176.87
188.025	2168.92
188.101	2168.21
188.176	2175.3
188.252	2171.21
188.328	2181.24
188.404	2181.76
188.48	2174.63
188.556	2164.4
188.632	2163.87
188.707	2162.87
188.783	2159.64
188.859	2155.07
188.935	2144.89
189.011	2153.07
189.086	2148.13
189.162	2138.52
189.238	2137.75
189.314	2137.42
189.39	2135.47
189.465	2129.86
189.541	2146.18
189.617	2131.15
189.693	2127.25
189.768	2130.1
189.844	2155.51
189.92	2145.91
189.996	2154.95
190.071	2163.84
190.147	2163.18
190.223	2171.6
190.298	2165.94
190.374	2155.24
190.45	2168.5
190.526	2179.45
190.601	2176.4
190.677	2175.21
190.753	2205.49
190.828	2207.87
190.904	2221.57
190.98	2234.42
191.055	2246.32
191.131	2237.99
191.207	2261.3
191.282	2271.58
191.358	2262.87
191.433	2247.12
191.509	2260.72
191.585	2257.39
191.66	2261.15
191.736	2269.47
191.811	2261.38
191.887	2278.66
191.963	2301.69
192.038	2309.31
192.114	2306.83
192.189	2309.74
192.265	2307.17
192.34	2280.7
192.416	2279.84
192.491	2277.17
192.567	2281.32
192.642	2281.22
192.718	2281.7
192.793	2264.85
192.869	2259.48
192.944	2262.57
193.02	2273.18
193.095	2277.27
193.171	2283.7
193.246	2281.7
193.322	2277.7
193.397	2278.13
193.473	2262.23
193.548	2243.15
193.624	2242.86
193.699	2242.19
193.775	2260.14
193.85	2263.99
193.925	2274.7
194.001	2274.13
194.076	2265.8
194.152	2253.24
194.227	2243.67
194.302	2231.02
194.378	2238.15
194.453	2236.44
194.529	2248.91
194.604	2233.68
194.679	2227.45
194.755	2208.37
194.83	2219.8
194.905	2218.94
194.981	2228.08
195.056	2222.09
195.131	2230.22
195.207	2230.32
195.282	2220.23
195.357	2200.19
195.433	2215.65
195.508	2205.66
195.583	2211.47
195.659	2223.65
195.734	2233.5
195.809	2234.88
195.884	2245.82
195.96	2247.06
196.035	2260.05
196.11	2254.38
196.185	2265.95
196.261	2270.99
196.336	2303.54
196.411	2290.35
196.486	2295.64
196.561	2289.69
196.637	2298.49
196.712	2313.82
196.787	2319.29
196.862	2335.23
196.937	2346.32
197.013	2348.7
197.088	2359.03
197.163	2382.84
197.238	2400.75
197.313	2400.8
197.388	2413.27
197.464	2444.89
197.539	2456.03
197.614	2450.7
197.689	2464.26
197.764	2480.07
197.839	2500.26
197.914	2490.88
197.989	2515.31
198.065	2528.31
198.14	2576.38
198.215	2604.91
198.29	2617.59
198.365	2630.92
198.44	2641.3
198.515	2668.56
198.59	2682.56
198.665	2708.95
198.74	2717.43
198.815	2717.67
198.89	2737.63
198.965	2770.52
199.04	2768.09
199.115	2783.43
199.19	2828.4
199.265	2832.74
199.34	2843.17
199.415	2876.6
199.49	2899.99
199.565	2909.66
199.64	2932.63
199.715	2931.78
199.79	2938.4
199.865	2944.93
199.94	2942.84
200.015	2978.45
200.09	2981.36
200.165	2989.84
200.24	2998.33
200.315	3040.09
200.39	3056.92
200.464	3063.12
200.539	3064.26
200.614	3077.56
200.689	3102.22
200.764	3109.37
200.839	3125.29
200.914	3132.16
200.989	3122.66
201.063	3135.87
201.138	3119.24
201.213	3122.96
201.288	3102.84
201.363	3105.99
201.438	3103.98
201.512	3125.86
201.587	3105.64
201.662	3112.89
201.737	3129.2
201.812	3134.07
201.886	3100.94
201.961	3114.78
202.036	3107.2
202.111	3100.9
202.186	3075.93
202.26	3058
202.335	3038.97
202.41	3035.1
202.485	3020.85
202.559	3005.12
202.634	2984.23
202.709	2996.96
202.784	2980.32
202.858	2987.32
202.933	2974.55
203.008	2975.6
203.082	2956
203.157	2963.01
203.232	2927.6
203.306	2914.3
203.381	2894.75
203.456	2878.25
203.53	2863.32
203.605	2856.79
203.68	2852.5
203.754	2859.79
203.829	2864.12
203.904	2861.69
203.978	2871.23
204.053	2894.59
204.127	2900.74
204.202	2927.45
204.277	2939.27
204.351	2962.4
204.426	2987.68
204.5	3014.44
204.575	3019.25
204.65	3071.02
204.724	3109.54
204.799	3161.23
204.873	3204.38
204.948	3251.71
205.022	3294.6
205.097	3345.03
205.171	3417.2
205.246	3488.75
205.32	3554.23
205.395	3625.26
205.469	3690.91
205.544	3770.19
205.618	3835.18
205.693	3931.04
205.767	4002.31
205.842	4113.49
205.916	4204.72
205.991	4289.38
206.065	4394.53
206.14	4511.65
206.214	4613.4
206.289	4713.33
206.363	4840.11
206.438	4961.65
206.512	5086.66
206.586	5235.26
206.661	5370.03
206.735	5480.39
206.81	5615.93
206.884	5771.38
206.958	5893.77
207.033	6051.81
207.107	6208.11
207.181	6390.24
207.256	6539.74
207.33	6716.54
207.405	6892.27
207.479	7072.87
207.553	7242.5
207.628	7395.59
207.702	7576.31
207.776	7738.03
207.851	7914.36
207.925	8104.12
207.999	8274.26
208.073	8455.05
208.148	8633.24
208.222	8805.93
208.296	9022.77
208.371	9217.71
208.445	9411.45
208.519	9630.56
208.593	9839.75
208.668	10025.53
208.742	10214.66
208.816	10404.1
208.89	10601.43
208.965	10783.09
209.039	10981.71
209.113	11190.69
209.187	11400.91
209.261	11585.43
209.336	11797.81
209.41	12005.29
209.484	12198.14
209.558	12411.41
209.632	12615.1
209.707	12822.03
209.781	13035.95
209.855	13238.89
209.929	13446.26
210.003	13640.96
210.077	13829.19
210.151	14063.7
210.226	14274.06
210.3	14491.36
210.374	14706.83
210.448	14894.05
210.522	15088.16
210.596	15276.44
210.67	15467.41
210.744	15691.06
210.818	15907
210.892	16107.27
210.966	16272.11
211.041	16455.02
211.115	16626.99
211.189	16820.55
211.263	17004.85
211.337	17174.45
211.411	17354.98
211.485	17514.89
211.559	17691.23
211.633	17857.69
211.707	17978.84
211.781	18149.2
211.855	18270.26
211.929	18414.83
212.003	18552.08
212.077	18714.92
212.151	18874.96
212.225	19029.41
212.299	19171.19
212.373	19298.9
212.447	19429.2
212.52	19610.5
212.594	19765.34
212.668	19917.1
212.742	20040.23
212.816	20173.24
212.89	20305.72
212.964	20430.69
213.038	20570.07
213.112	20717.79
213.186	20851.82
213.26	20948.59
213.333	21038.52
213.407	21166
213.481	21285.77
213.555	21424.48
213.629	21528.35
213.703	21634.2
213.777	21754.23
213.85	21843.69
213.924	21992.6
213.998	22117.36
214.072	22224.38
214.146	22309.57
214.219	22410.32
214.293	22504.47
214.367	22608.85
214.441	22714.63
214.515	22808.21
214.588	22882.17
214.662	22932.6
214.736	23017.56
214.81	23121.6
214.883	23215.62
214.957	23289.05
215.031	23363.74
215.105	23422.51
215.178	23494.12
215.252	23572.1
215.326	23626.55
215.4	23679.74
215.473	23709.88
215.547	23758.26
215.621	23802.29
215.694	23881.1
215.768	23925.19
215.842	23986.97
215.915	24034.05
215.989	24073.21
216.063	24117.93
216.136	24184.16
216.21	24253.9
216.284	24319.66
216.357	24391.15
216.431	24445.8
216.504	24513.53
216.578	24603.41
216.652	24674.91
216.725	24732.51
216.799	24789.88
216.873	24845.27
216.946	24914.69
217.02	24962.69
217.093	25011.72
217.167	25043.95
217.24	25067.25
217.314	25113.52
217.387	25143.87
217.461	25175.96
217.535	25243.37
217.608	25286.85
217.682	25325.79
217.755	25376.13
217.829	25405.57
217.902	25448.38
217.976	25483.99
218.049	25519.56
218.123	25540.7
218.196	25584.04
218.27	25612.91
218.343	25634.77
218.417	25675.94
218.49	25703.6
218.563	25746.65
218.637	25789.9
218.71	25855.12
218.784	25908.55
218.857	25949.34
218.931	26002.14
219.004	26052.29
219.077	26075.76
219.151	26110.08
219.224	26137.26
219.298	26153.96
219.371	26192.19
219.444	26197.36
219.518	26231.25
219.591	26253.31
219.665	26302.42
219.738	26327.86
219.811	26349.2
219.885	26382.61
219.958	26420.71
220.031	26445.53
220.105	26479.95
220.178	26502.99
220.251	26518.34
220.325	26542.29
220.398	26574.5
220.471	26602.8
220.544	26624.19
220.618	26639.35
220.691	26660.06
220.764	26672.47
220.838	26715.21
220.911	26724.68
220.984	26753.26
221.057	26775.28
221.131	26799.76
221.204	26784.6
221.277	26818.79
221.35	26859.74
221.424	26861.34
221.497	26863.8
221.57	26877.8
221.643	26885.29
221.716	26902.77
221.79	26889.11
221.863	26891.14
221.936	26885.87
222.009	26887.8
222.082	26899.64
222.155	26896.84
222.229	26907.12
222.302	26925.86
222.375	26909.1
222.448	26925.23
222.521	26946.29
222.594	26939.19
222.667	26924.85
222.74	26933.06
222.814	26921.18
222.887	26909.2
222.96	26915.96
223.033	26920.26
223.106	26923.01
223.179	26925.04
223.252	26912.04
223.325	26920.06
223.398	26914.89
223.471	26914.46
223.544	26904.7
223.617	26889.54
223.69	26890.46
223.763	26879.49
223.837	26868.53
223.91	26866.79
223.983	26830.91
224.056	26793.34
224.129	26788.95
224.202	26794.21
224.275	26773.4
224.348	26740.32
224.42	26714.05
224.493	26697.19
224.566	26664.89
224.639	26648.56
224.712	26625.48
224.785	26614.47
224.858	26584.73
224.931	26553.97
225.004	26514.81
225.077	26485.56
225.15	26438.63
225.223	26414.34
225.296	26411.1
225.369	26371.27
225.442	26343.41
225.514	26323.33
225.587	26307.69
225.66	26284.27
225.733	26253.99
225.806	26231.4
225.879	26210.3
225.952	26176.27
226.025	26150.49
226.097	26157.44
226.17	26133.49
226.243	26086.43
226.316	26048.09
226.389	26031.49
226.461	26021.4
226.534	26021.4
226.607	26001.37
226.68	26010.25
226.753	25986.06
226.825	25928.62
226.898	25915.87
226.971	25891.98
227.044	25878.85
227.117	25845.88
227.189	25830.68
227.262	25813.2
227.335	25798.38
227.407	25771.98
227.48	25754.32
227.553	25729.51
227.626	25675.78
227.698	25656.38
227.771	25634.42
227.844	25604.93
227.916	25577.66
227.989	25528.78
228.062	25487.56
228.134	25480.61
228.207	25442.24
228.28	25401.46
228.352	25380.42
228.425	25345.97
228.498	25325.07
228.57	25280.82
228.643	25266.97
228.716	25227.4
228.788	25182.61
228.861	25138.7
228.934	25122.44
229.006	25088.81
229.079	25051.51
229.151	25027.72
229.224	24971.75
229.296	24949.36
229.369	24936.96
229.442	24922.48
229.514	24890.84
229.587	24871.44
229.659	24818.85
229.732	24782.86
229.804	24767.95
229.877	24760.9
229.949	24742.67
230.022	24725.58
230.094	24695.63
230.167	24664.07
230.239	24618.87
230.312	24590.02
230.384	24579.6
230.457	24543.9
230.529	24511.92
230.602	24481.82
230.674	24444.19
230.747	24429.72
230.819	24405.26
230.892	24339.08
230.964	24305.41
231.037	24268.75
231.109	24233.3
231.181	24207.78
231.254	24162.4
231.326	24121.49
231.399	24077.35
231.471	24036.45
231.544	23970.51
231.616	23945.1
231.688	23915.14
231.761	23878.83
231.833	23840.77
231.905	23786.71
231.978	23748.27
232.05	23707.76
232.122	23683.11
232.195	23649.79
232.267	23628.76
232.339	23589.16
232.412	23574.41
232.484	23518.85
232.556	23482.88
232.629	23482.74
232.701	23463.83
232.773	23434.03
232.846	23392.9
232.918	23354.27
232.99	23317.24
233.062	23305.33
233.135	23284.4
233.207	23228.9
233.279	23208.55
233.351	23173.16
233.424	23132.13
233.496	23087.72
233.568	23076.97
233.64	23021.81
233.713	22972.34
233.785	22916.26
233.857	22867.86
233.929	22819.06
234.001	22810.34
234.074	22785.03
234.146	22704.36
234.218	22656.53
234.29	22615.17
234.362	22577.47
234.434	22529.98
234.507	22474.83
234.579	22415.14
234.651	22355.79
234.723	22326.15
234.795	22285.41
234.867	22236.62
234.939	22205.48
235.012	22168.56
235.084	22126.37
235.156	22097.4
235.228	22050.07
235.3	22003.55
235.372	21980.7
235.444	21940.4
235.516	21869.3
235.588	21833.68
235.66	21802.44
235.732	21747.83
235.804	21778.97
235.876	21747.54
235.948	21723.59
236.02	21687.92
236.092	21643.86
236.164	21603.57
236.236	21549.97
236.308	21503.12
236.38	21474.35
236.452	21423.88
236.524	21386.77
236.596	21362.04
236.668	21322.81
236.74	21286.42
236.812	21259.81
236.884	21211.09
236.956	21180.58
237.028	21136.62
237.1	21088.96
237.172	21054.55
237.244	21029.15
237.316	20930.33
237.388	20880.55
237.46	20817.46
237.532	20788.06
237.604	20732.59
237.675	20702.81
237.747	20670.76
237.819	20617.07
237.891	20575.62
237.963	20527.29
238.035	20471.82
238.107	20384.44
238.178	20360.06
238.25	20313.65
238.322	20289.84
238.394	20237.36
238.466	20192.06
238.538	20151.14
238.609	20114.9
238.681	20050.42
238.753	20004.06
238.825	19968.64
238.897	19920.06
238.968	19899.49
239.04	19855.97
239.112	19843.34
239.184	19790.09
239.255	19752.21
239.327	19716.7
239.399	19675.98
239.471	19645.86
239.542	19617.72
239.614	19587.31
239.686	19509
239.758	19490.88
239.829	19427.32
239.901	19399.65
239.973	19348.09
240.044	19312.82
240.116	19271.04
240.188	19229.69
240.259	19180
240.331	19123.57
240.403	19095.38
240.474	19036.59
240.546	18975.44
240.618	18914.67
240.689	18868.84
240.761	18826.1
240.833	18793.67
240.904	18741.86
240.976	18690.15
241.048	18651.02
241.119	18628.95
241.191	18600.38
241.262	18573.39
241.334	18528.14
241.405	18478.5
241.477	18429.88
241.549	18388.29
241.62	18346.9
241.692	18312.92
241.763	18290.23
241.835	18257.21
241.906	18208.93
241.978	18158.91
242.049	18137.89
242.121	18110.09
242.192	18083.25
242.264	18029.03
242.335	17975.92
242.407	17951.73
242.478	17917.71
242.55	17873.85
242.621	17820.46
242.693	17780.7
242.764	17717.67
242.836	17673.86
242.907	17640.13
242.979	17615.84
243.05	17580.03
243.122	17541.91
243.193	17498.92
243.264	17437.28
243.336	17387.93
243.407	17364.71
243.479	17347.79
243.55	17313.04
243.622	17276.56
243.693	17241
243.764	17212.85
243.836	17162.97
243.907	17116.94
243.978	17075.25
244.05	17039.98
244.121	16983.11
244.192	16951.49
244.264	16901.27
244.335	16873.37
244.407	16817.41
244.478	16783.34
244.549	16741.99
244.62	16697.45
244.692	16665.6
244.763	16636.87
244.834	16602.41
244.906	16554.75
244.977	16516.33
245.048	16488.96
245.119	16444.38
245.191	16389.58
245.262	16331.64
245.333	16316.85
245.405	16281.18
245.476	16245.76
245.547	16214.52
245.618	16186.57
245.689	16156.78
245.761	16127.57
245.832	16092.73
245.903	16061.49
245.974	16026.12
246.045	15990.16
246.117	15964.71
246.188	15917.52
246.259	15866.53
246.33	15827.82
246.401	15792.16
246.473	15739.09
246.544	15697.88
246.615	15669.97
246.686	15633.19
246.757	15616.66
246.828	15569.95
246.899	15552.65
246.97	15503
247.042	15456.73
247.113	15430.65
247.184	15408.14
247.255	15367.8
247.326	15333.14
247.397	15312.22
247.468	15282.72
247.539	15249.56
247.61	15200.2
247.681	15179.91
247.752	15165.64
247.823	15124.09
247.894	15091.5
247.965	15049.23
248.037	15017.56
248.108	14970.61
248.179	14944.82
248.25	14918.69
248.321	14901.15
248.392	14854.53
248.463	14849.76
248.534	14821.8
248.605	14803.1
248.675	14769.12
248.746	14745.35
248.817	14718.84
248.888	14689.05
248.959	14637.13
249.03	14612.31
249.101	14584.93
249.172	14545.64
249.243	14489
249.314	14474.63
249.385	14443.69
249.456	14420.21
249.527	14380.73
249.598	14361.64
249.669	14327.22
249.739	14293.38
249.81	14261.57
249.881	14221.75
249.952	14190.66
250.023	14156.43
250.094	14113.19
250.165	14075.69
250.235	14041.94
250.306	14014.75
250.377	13968.28
250.448	13945.1
250.519	13900.22
250.59	13884.93
250.66	13853.41
250.731	13845.07
250.802	13817.01
250.873	13786.93
250.944	13766.3
251.014	13734.1
251.085	13724.84
251.156	13703.24
251.227	13688.83
251.297	13677.02
251.368	13652.58
251.439	13631.85
251.51	13615.99
251.58	13579.06
251.651	13541.61
251.722	13530.37
251.792	13484.05
251.863	13458.64
251.934	13450.79
252.005	13452.42
252.075	13425.43
252.146	13414.49
252.217	13399.45
252.287	13384.21
252.358	13369.89
252.429	13362.81
252.499	13335.23
252.57	13316.24
252.641	13305.06
252.711	13279.8
252.782	13230.53
252.852	13238.05
252.923	13209.03
252.994	13183.77
253.064	13174.08
253.135	13138.5
253.205	13109.73
253.276	13094.83
253.347	13085.48
253.417	13050.58
253.488	13023.92
253.558	13003.29
253.629	12980
253.699	12955.85
253.77	12939.32
253.841	12907.11
253.911	12891.98
253.982	12877.47
254.052	12854.14
254.123	12832.68
254.193	12806.22
254.264	12831.33
254.334	12790.5
254.405	12757.92
254.475	12727.65
254.546	12703.69
254.616	12698.87
254.687	12676.89
254.757	12673.46
254.827	12652.16
254.898	12634.85
254.968	12609.4
255.039	12578.07
255.109	12560.04
255.18	12531.98
255.25	12491.06
255.321	12468.35
255.391	12426.13
255.461	12421.79
255.532	12376.57
255.602	12353.58
255.673	12316.66
255.743	12274.19
255.813	12230.32
255.884	12223.14
255.954	12209.31
256.024	12211.57
256.095	12194.99
256.165	12164.43
256.235	12142.21
256.306	12119.02
256.376	12114.11
256.446	12093.38
256.517	12080.65
256.587	12071.59
256.657	12055.73
256.728	12038.38
256.798	12020.88
256.868	11996.88
256.938	11957.11
257.009	11943.23
257.079	11919.76
257.149	11923.37
257.219	11884.23
257.29	11872.67
257.36	11835.31
257.43	11827.6
257.5	11778
257.571	11750.62
257.641	11737.13
257.711	11703
257.781	11686.57
257.852	11670.57
257.922	11641.21
257.992	11624.54
258.062	11597.4
258.132	11589.74
258.202	11567.9
258.273	11556.87
258.343	11555.76
258.413	11532.33
258.483	11518.69
258.553	11492.72
258.623	11472.47
258.693	11462.79
258.764	11462.83
258.834	11454.59
258.904	11439.36
258.974	11409.05
259.044	11389.34
259.114	11382.06
259.184	11367.99
259.254	11347.02
259.324	11305
259.394	11298.11
259.464	11297.72
259.535	11276.47
259.605	11243.65
259.675	11212.76
259.745	11200.08
259.815	11172.08
259.885	11148.08
259.955	11156.32
260.025	11120.18
260.095	11095.12
260.165	11081.2
260.235	11070.93
260.305	11046.55
260.375	11016.14
260.445	11029.53
260.515	11026.35
260.585	11015.7
260.655	10999.85
260.725	10996.18
260.795	10981.92
260.865	10976.23
260.934	10948.33
261.004	10941.58
261.074	10929.73
261.144	10933.92
261.214	10927.75
261.284	10904.72
261.354	10899.52
261.424	10866.12
261.494	10882.11
261.564	10865.73
261.634	10854.6
261.703	10822.99
261.773	10816.72
261.843	10803.52
261.913	10779.09
