Data from 20250704_urea_1.5M_MAYP1162681_11-54-04-557.txt Node
Date: Fri Jul 04 11:54:04 BST 2025
User: adleo
Spectrometer: MAYP116268
Trigger mode: 0
Integration Time (sec): 1.000000E0
Scans to average: 1
Electric dark correction enabled: true
Nonlinearity correction enabled: true
Boxcar width: 10
XAxis mode: Wavelengths
Number of Pixels in Spectrum: 2068
>>>>>Begin Spectral Data<<<<<
179.565	1262.53
179.642	1322.25
179.718	1369.64
179.795	1411.75
179.871	1447.38
179.948	1463.9
180.024	1484.17
180.101	1507.57
180.177	1520.89
180.254	1547.9
180.33	1570.77
180.407	1628.6
180.483	1730.42
180.56	1825.96
180.636	1917.41
180.712	1905.48
180.789	1920.12
180.865	1934.28
180.942	1944.22
181.018	1953.16
181.095	1966.43
181.171	1972.47
181.248	1973.7
181.324	1989.35
181.4	1995.44
181.477	2005.95
181.553	2021.11
181.63	2042.99
181.706	2060.54
181.782	2070.52
181.859	2065.58
181.935	2071.38
182.011	2069.34
182.088	2082.08
182.164	2101.45
182.24	2112.25
182.317	2123.75
182.393	2121.33
182.469	2133.46
182.546	2145.97
182.622	2153.63
182.698	2149.25
182.775	2159.95
182.851	2174.8
182.927	2167.47
183.003	2164.95
183.08	2158.24
183.156	2166.04
183.232	2161.29
183.308	2149.82
183.385	2157.24
183.461	2180.36
183.537	2184.88
183.613	2197.97
183.69	2191.07
183.766	2179.31
183.842	2187.12
183.918	2190.45
183.995	2204.05
184.071	2209.91
184.147	2203.91
184.223	2190.31
184.299	2201.83
184.375	2189.69
184.452	2197.17
184.528	2246.09
184.604	2255.32
184.68	2266.97
184.756	2276.11
184.832	2283.25
184.908	2287.53
184.985	2289.38
185.061	2271.06
185.137	2278.72
185.213	2265.97
185.289	2267.5
185.365	2259.88
185.441	2257.51
185.517	2272.26
185.593	2270.36
185.669	2265.36
185.745	2276.88
185.822	2295.9
185.898	2290.38
185.974	2301.8
186.05	2291.8
186.126	2259.11
186.202	2252.69
186.278	2250.6
186.354	2241.89
186.43	2249.22
186.506	2249.17
186.582	2249.79
186.658	2256.88
186.734	2234.56
186.81	2236.71
186.886	2237.51
186.962	2251.5
187.038	2250.55
187.114	2242.27
187.19	2247.03
187.266	2238.03
187.341	2238.7
187.417	2230.09
187.493	2228.09
187.569	2231.04
187.645	2224.33
187.721	2211.58
187.797	2218.9
187.873	2221.9
187.949	2216.62
188.025	2208.62
188.101	2212.52
188.176	2217.38
188.252	2212.76
188.328	2219.85
188.404	2222.56
188.48	2220.42
188.556	2212.38
188.632	2208.29
188.707	2210.62
188.783	2206
188.859	2201.01
188.935	2190.02
189.011	2196.34
189.086	2191.3
189.162	2180.36
189.238	2179.88
189.314	2177.79
189.39	2172.13
189.465	2167.46
189.541	2183.26
189.617	2166.99
189.693	2159.91
189.768	2161.29
189.844	2185.56
189.92	2179.52
189.996	2187.8
190.071	2197.36
190.147	2197.08
190.223	2205.93
190.298	2196.84
190.374	2187.28
190.45	2198.69
190.526	2208.88
190.601	2204.97
190.677	2207.26
190.753	2237.92
190.828	2241.77
190.904	2258.33
190.98	2275.56
191.055	2284.32
191.131	2275.32
191.207	2298.73
191.282	2308.25
191.358	2299.16
191.433	2284.68
191.509	2297.57
191.585	2293.34
191.66	2295.15
191.736	2302.24
191.811	2293.05
191.887	2309.95
191.963	2331.51
192.038	2337.32
192.114	2334.65
192.189	2338.36
192.265	2334.56
192.34	2313.99
192.416	2312.42
192.491	2305.04
192.567	2305.47
192.642	2306.23
192.718	2307.13
192.793	2296.23
192.869	2294.14
192.944	2298.75
193.02	2305.8
193.095	2309.27
193.171	2316.55
193.246	2316.79
193.322	2314.65
193.397	2318.84
193.473	2306.46
193.548	2288.66
193.624	2292.18
193.699	2290.32
193.775	2305.37
193.85	2306.46
193.925	2314.74
194.001	2315.17
194.076	2308.32
194.152	2298.56
194.227	2293.37
194.302	2282
194.378	2284.57
194.453	2279.05
194.529	2288.34
194.604	2271.73
194.679	2266.25
194.755	2247.22
194.83	2258.46
194.905	2256.37
194.981	2262.84
195.056	2255.65
195.131	2263.22
195.207	2264.46
195.282	2255.56
195.357	2237.23
195.433	2256.32
195.508	2241.7
195.583	2246.51
195.659	2262.36
195.734	2270.26
195.809	2270.93
195.884	2281.54
195.96	2280.92
196.035	2297.19
196.11	2293.62
196.185	2307.14
196.261	2308.66
196.336	2339.22
196.411	2325.74
196.486	2332.26
196.561	2325.36
196.637	2329.88
196.712	2346.98
196.787	2350.4
196.862	2369.01
196.937	2382.96
197.013	2384.77
197.088	2394.62
197.163	2418.57
197.238	2432.01
197.313	2429.1
197.388	2444.05
197.464	2475.48
197.539	2487.53
197.614	2480.34
197.689	2495.05
197.764	2513.58
197.839	2535.24
197.914	2528.77
197.989	2553.67
198.065	2567.39
198.14	2623.95
198.215	2653.1
198.29	2663.49
198.365	2677.3
198.44	2687.69
198.515	2712.32
198.59	2729.52
198.665	2758.87
198.74	2766.68
198.815	2770.93
198.89	2798.89
198.965	2829.88
199.04	2825.21
199.115	2843.74
199.19	2888.2
199.265	2888.67
199.34	2899.25
199.415	2935.35
199.49	2957.32
199.565	2965.42
199.64	2987.35
199.715	2984.67
199.79	2992.49
199.865	2999.64
199.94	2997.12
200.015	3028.69
200.09	3033.26
200.165	3039.37
200.24	3046.9
200.315	3091.33
200.39	3108.93
200.464	3115.08
200.539	3113.46
200.614	3130.81
200.689	3151.32
200.764	3159
200.839	3178.74
200.914	3182.84
200.989	3172.77
201.063	3187.79
201.138	3171.49
201.213	3175.41
201.288	3152.08
201.363	3157
201.438	3156.57
201.512	3173.87
201.587	3156.08
201.662	3158.75
201.737	3171.91
201.812	3179.31
201.886	3144.08
201.961	3155.34
202.036	3143.23
202.111	3140.75
202.186	3111.77
202.26	3093.6
202.335	3069.8
202.41	3063.41
202.485	3046.11
202.559	3027.8
202.634	3002.29
202.709	3011.82
202.784	2992.65
202.858	2992.51
202.933	2975.06
203.008	2968.86
203.082	2949.65
203.157	2946.41
203.232	2907.29
203.306	2883.69
203.381	2848.6
203.456	2823.72
203.53	2799.06
203.605	2775.76
203.68	2753.4
203.754	2744.98
203.829	2731.11
203.904	2710.53
203.978	2699.04
204.053	2702.19
204.127	2684.47
204.202	2683.71
204.277	2667.27
204.351	2658.6
204.426	2652.07
204.5	2642.64
204.575	2607.49
204.65	2617.22
204.724	2608.21
204.799	2614.35
204.873	2613.16
204.948	2615.44
205.022	2603.83
205.097	2593.1
205.171	2608.53
205.246	2615.58
205.32	2616.25
205.395	2617.3
205.469	2609.02
205.544	2611.92
205.618	2594.35
205.693	2605.59
205.767	2590.16
205.842	2609.5
205.916	2604.21
205.991	2591.54
206.065	2596.97
206.14	2612.58
206.214	2605.58
206.289	2602.2
206.363	2617.06
206.438	2618.87
206.512	2627.11
206.586	2648.11
206.661	2657.41
206.735	2634.36
206.81	2633.03
206.884	2649.6
206.958	2638.51
207.033	2653.88
207.107	2666.8
207.181	2700.16
207.256	2699.25
207.33	2718.26
207.405	2732.04
207.479	2752.91
207.553	2762.24
207.628	2744.53
207.702	2758.34
207.776	2753.25
207.851	2754.34
207.925	2766.21
207.999	2761.78
208.073	2757.2
208.148	2758.49
208.222	2746.86
208.296	2782.06
208.371	2801.66
208.445	2811.62
208.519	2839.59
208.593	2855.07
208.668	2847.11
208.742	2847.78
208.816	2849.5
208.89	2863.7
208.965	2863.42
209.039	2869.38
209.113	2887.39
209.187	2911.35
209.261	2905.06
209.336	2925.89
209.41	2945.76
209.484	2949.58
209.558	2974.04
209.632	2989.76
209.707	3002.92
209.781	3024.76
209.855	3042.64
209.929	3062.59
210.003	3066.93
210.077	3066.69
210.151	3116.67
210.226	3157.32
210.3	3190.78
210.374	3217.82
210.448	3224.5
210.522	3234.28
210.596	3250.07
210.67	3262.71
210.744	3312.24
210.818	3350.48
210.892	3379.17
210.966	3380.21
211.041	3400.21
211.115	3404.41
211.189	3434.8
211.263	3457.76
211.337	3473.89
211.411	3493.65
211.485	3493.65
211.559	3521.33
211.633	3533.78
211.707	3510.66
211.781	3531.4
211.855	3508.34
211.929	3517.31
212.003	3516.5
212.077	3545.82
212.151	3576.82
212.225	3609.39
212.299	3622.77
212.373	3634.52
212.447	3653.77
212.52	3715.39
212.594	3750.66
212.668	3794.99
212.742	3811.56
212.816	3842.86
212.89	3878.41
212.964	3920.05
213.038	3969.78
213.112	4030.6
213.186	4098.95
213.26	4129.33
213.333	4132.3
213.407	4192.37
213.481	4248.25
213.555	4321.03
213.629	4373.91
213.703	4420.37
213.777	4487.18
213.85	4538.77
213.924	4647.88
213.998	4722.86
214.072	4794.58
214.146	4861.81
214.219	4937.05
214.293	5021.47
214.367	5109.52
214.441	5205.06
214.515	5283.61
214.588	5351.53
214.662	5404.97
214.736	5481.86
214.81	5591.15
214.883	5707.52
214.957	5802.06
215.031	5898.05
215.105	5984.31
215.178	6083.21
215.252	6189.59
215.326	6280.26
215.4	6373.11
215.473	6441.98
215.547	6539.61
215.621	6644.83
215.694	6767.09
215.768	6863.16
215.842	6970.28
215.915	7080.14
215.989	7183.52
216.063	7302.64
216.136	7433.53
216.21	7562.73
216.284	7695.68
216.357	7827.91
216.431	7949.59
216.504	8083.78
216.578	8236.03
216.652	8373.49
216.725	8500.96
216.799	8643.71
216.873	8779.08
216.946	8925.82
217.02	9055.05
217.093	9187.19
217.167	9294.66
217.24	9412.49
217.314	9549.91
217.387	9672.2
217.461	9794.48
217.535	9931.41
217.608	10047.59
217.682	10172.21
217.755	10311.19
217.829	10430.33
217.902	10559.07
217.976	10686.98
218.049	10810.19
218.123	10922.08
218.196	11058.83
218.27	11180.75
218.343	11290.4
218.417	11422.26
218.49	11542.45
218.563	11686.75
218.637	11822.29
218.71	11966.5
218.784	12101.17
218.857	12225.81
218.931	12358.99
219.004	12486.19
219.077	12617.45
219.151	12743.12
219.224	12863.77
219.298	12979.9
219.371	13113.91
219.444	13209.83
219.518	13324.32
219.591	13443.68
219.665	13586.51
219.738	13696.03
219.811	13792.93
219.885	13913.01
219.958	14012.7
220.031	14117.02
220.105	14228.8
220.178	14331.38
220.251	14436.66
220.325	14540.59
220.398	14652.42
220.471	14759.39
220.544	14867.03
220.618	14959.34
220.691	15056.61
220.764	15149.88
220.838	15248.7
220.911	15339.17
220.984	15456.74
221.057	15564.57
221.131	15660.97
221.204	15716.78
221.277	15823.35
221.35	15947.13
221.424	16026.85
221.497	16126.14
221.57	16214.15
221.643	16290.79
221.716	16372.58
221.79	16439.91
221.863	16503.82
221.936	16570.86
222.009	16641.86
222.082	16713.33
222.155	16776.27
222.229	16863.6
222.302	16947.27
222.375	17020.38
222.448	17091.61
222.521	17158.22
222.594	17214.94
222.667	17256.2
222.74	17325.74
222.814	17381.93
222.887	17435.52
222.96	17501.02
223.033	17570.99
223.106	17629.11
223.179	17688.53
223.252	17748.82
223.325	17800.87
223.398	17855.66
223.471	17905.49
223.544	17965.35
223.617	18016.48
223.69	18068.14
223.763	18103.37
223.837	18146.74
223.91	18204.95
223.983	18226.4
224.056	18251.36
224.129	18291.89
224.202	18349.81
224.275	18394.82
224.348	18418.77
224.42	18448.99
224.493	18467.49
224.566	18477.71
224.639	18519.2
224.712	18549.42
224.785	18566.33
224.858	18597.08
224.931	18625.85
225.004	18656.54
225.077	18673.26
225.15	18677.75
225.223	18703
225.296	18753.5
225.369	18759.14
225.442	18756.01
225.514	18783.48
225.587	18821.11
225.66	18847.42
225.733	18869.01
225.806	18883.71
225.879	18908.05
225.952	18909.25
226.025	18940.81
226.097	18976.81
226.17	18984.33
226.243	18974.45
226.316	18994.02
226.389	19013.1
226.461	19024.47
226.534	19037.1
226.607	19054.06
226.68	19093.43
226.753	19114.2
226.825	19095.65
226.898	19118.88
226.971	19131.07
227.044	19147.26
227.117	19156.32
227.189	19163.6
227.262	19179.59
227.335	19185.28
227.407	19184.37
227.48	19203.74
227.553	19213.91
227.626	19214.97
227.698	19212.36
227.771	19226.34
227.844	19214.53
227.916	19208.32
227.989	19212.99
228.062	19219.88
228.134	19242.1
228.207	19241.42
228.28	19226.19
228.352	19222.1
228.425	19223.16
228.498	19234.96
228.57	19221.95
228.643	19232.22
228.716	19233.23
228.788	19227.69
228.861	19222.68
228.934	19236.84
229.006	19222.63
229.079	19215.16
229.151	19201.09
229.224	19196.12
229.296	19195.4
229.369	19221.04
229.442	19241.95
229.514	19229.81
229.587	19229.33
229.659	19207.4
229.732	19208.12
229.804	19219.98
229.877	19238.92
229.949	19239.54
230.022	19259.35
230.094	19257.66
230.167	19253.95
230.239	19235.11
230.312	19226.77
230.384	19249.61
230.457	19242.63
230.529	19246.77
230.602	19245.61
230.674	19249.52
230.747	19253.86
230.819	19262.48
230.892	19224.22
230.964	19208.94
231.037	19206.05
231.109	19200.46
231.181	19208.61
231.254	19187.5
231.326	19168.9
231.399	19154.87
231.471	19141.91
231.544	19101.77
231.616	19105.14
231.688	19093.24
231.761	19084.23
231.833	19064.85
231.905	19032.13
231.978	19019.51
232.05	19005.58
232.122	18994.31
232.195	18971.08
232.267	18984.62
232.339	18961.78
232.412	18970.5
232.484	18957.58
232.556	18941.2
232.629	18951.95
232.701	18938.16
232.773	18925.97
232.846	18916.19
232.918	18916.05
232.99	18911.47
233.062	18910.84
233.135	18905.83
233.207	18872.1
233.279	18863.57
233.351	18857.54
233.424	18841.5
233.496	18818.99
233.568	18827.71
233.64	18803.14
233.713	18792.97
233.785	18755.81
233.857	18749.12
233.929	18719.77
234.001	18725.21
234.074	18731.62
234.146	18686.23
234.218	18671.53
234.29	18652.74
234.362	18626.18
234.434	18585.27
234.507	18553.13
234.579	18519.15
234.651	18488.41
234.723	18490.38
234.795	18478.58
234.867	18454.82
234.939	18445.9
235.012	18429.66
235.084	18404.75
235.156	18388.51
235.228	18360.56
235.3	18347.26
235.372	18330.92
235.444	18323.6
235.516	18276.23
235.588	18256.57
235.66	18250.69
235.732	18216.28
235.804	18254.01
235.876	18250.35
235.948	18245.24
236.02	18226.78
236.092	18203.07
236.164	18182.83
236.236	18146.93
236.308	18115.22
236.38	18112.86
236.452	18083.37
236.524	18074.31
236.596	18063.71
236.668	18049.78
236.74	18032.53
236.812	18009.97
236.884	17985.92
236.956	17958.65
237.028	17935.03
237.1	17903.9
237.172	17889.49
237.244	17880.67
237.316	17824.24
237.388	17787.96
237.46	17764.1
237.532	17754.08
237.604	17724.78
237.675	17722.99
237.747	17718.75
237.819	17701.02
237.891	17668.92
237.963	17638.8
238.035	17604.15
238.107	17547.24
238.178	17540.15
238.25	17516.15
238.322	17519.19
238.394	17476.58
238.466	17454.61
238.538	17431.86
238.609	17414.75
238.681	17374.85
238.753	17341.5
238.825	17314.51
238.897	17301.5
238.968	17299.33
239.04	17272.78
239.112	17288.49
239.184	17246.75
239.255	17213.64
239.327	17197.45
239.399	17179.96
239.471	17169.21
239.542	17151.86
239.614	17151.67
239.686	17099.95
239.758	17089.01
239.829	17053.26
239.901	17047.62
239.973	17029.5
240.044	17015.52
240.116	16991.13
240.188	16960.48
240.259	16934.46
240.331	16898.69
240.403	16871.56
240.474	16820.43
240.546	16783.32
240.618	16728.33
240.689	16698.01
240.761	16670.06
240.833	16653.72
240.904	16619.84
240.976	16583.64
241.048	16559.4
241.119	16536.22
241.191	16514
241.262	16501.13
241.334	16470.77
241.405	16442.86
241.477	16410.95
241.549	16375
241.62	16348.73
241.692	16327.91
241.763	16318.99
241.835	16297.69
241.906	16274.7
241.978	16236.82
242.049	16218.89
242.121	16204.62
242.192	16195.66
242.264	16163.8
242.335	16113.77
242.407	16091.55
242.478	16064.55
242.55	16036.55
242.621	16006.19
242.693	15979.97
242.764	15935.72
242.836	15898.56
242.907	15873.11
242.979	15844.09
243.05	15829.58
243.122	15804.09
243.193	15776.52
243.264	15726.82
243.336	15700.27
243.407	15680.41
243.479	15678
243.55	15659.97
243.622	15634.66
243.693	15607.62
243.764	15599.33
243.836	15570.36
243.907	15542.31
243.978	15519.46
244.05	15508.52
244.121	15459.93
244.192	15439.45
244.264	15402.43
244.335	15377.27
244.407	15335.53
244.478	15312.34
244.549	15277.15
244.62	15237.58
244.692	15209.62
244.763	15185.91
244.834	15143.78
244.906	15103.48
244.977	15069.45
245.048	15051.37
245.119	15016.76
245.191	14973.77
245.262	14916.5
245.333	14905.12
245.405	14877.31
245.476	14858.66
245.547	14828.67
245.618	14814.89
245.689	14791.36
245.761	14775.55
245.832	14749.91
245.903	14726.43
245.974	14708.26
246.045	14673.5
246.117	14663.24
246.188	14628.43
246.259	14601
246.33	14582.73
246.401	14559.02
246.473	14520.6
246.544	14490.66
246.615	14476.68
246.686	14450.6
246.757	14443.81
246.828	14402.69
246.899	14393.48
246.97	14340.7
247.042	14294.66
247.113	14273.5
247.184	14269.16
247.255	14235.95
247.326	14209.34
247.397	14190.05
247.468	14163.54
247.539	14145.46
247.61	14107.96
247.681	14095.57
247.752	14081.88
247.823	14045.24
247.894	14021.24
247.965	13982.53
248.037	13948.11
248.108	13900.87
248.179	13876.81
248.25	13850.1
248.321	13834.2
248.392	13793.51
248.463	13801.51
248.534	13782.9
248.605	13772.54
248.675	13743.33
248.746	13729.3
248.817	13707.37
248.888	13687.31
248.959	13640.26
249.03	13625.17
249.101	13599.86
249.172	13563.61
249.243	13519.55
249.314	13507.74
249.385	13485.66
249.456	13474.29
249.527	13446.09
249.598	13428.83
249.669	13405.21
249.739	13386.74
249.81	13381.59
249.881	13347.17
249.952	13316.51
250.023	13289.08
250.094	13239.95
250.165	13208.62
250.235	13166.29
250.306	13149.95
250.377	13113.51
250.448	13105.12
250.519	13054.55
250.59	13046.31
250.66	13024.23
250.731	13013.48
250.802	12994.49
250.873	12977.42
250.944	12958.86
251.014	12935.48
251.085	12944.31
251.156	12927.92
251.227	12920.73
251.297	12900.24
251.368	12885.93
251.439	12878.02
251.51	12873.3
251.58	12843.56
251.651	12813.86
251.722	12824.03
251.792	12777.9
251.863	12761.56
251.934	12756.98
252.005	12767.87
252.075	12743.34
252.146	12735.19
252.217	12730.22
252.287	12713.02
252.358	12690.02
252.429	12687.42
252.499	12654.64
252.57	12631.45
252.641	12617.62
252.711	12587.01
252.782	12551.87
252.852	12560.93
252.923	12538.42
252.994	12521.59
253.064	12519.71
253.135	12490.02
253.205	12455.26
253.276	12459.7
253.347	12453.38
253.417	12417.42
253.488	12395.78
253.558	12377.41
253.629	12357.6
253.699	12335.57
253.77	12329.6
253.841	12308.1
253.911	12298.65
253.982	12285.11
254.052	12272.52
254.123	12259.46
254.193	12244.13
254.264	12261.77
254.334	12226.06
254.405	12192.31
254.475	12157.17
254.546	12133.46
254.616	12127.24
254.687	12115.43
254.757	12106.56
254.827	12081.93
254.898	12068.15
254.968	12047.47
255.039	12020.96
255.109	12012.57
255.18	11992.28
255.25	11949.38
255.321	11938.25
255.391	11891.78
255.461	11902.87
255.532	11852.16
255.602	11828.64
255.673	11792.97
255.743	11758.94
255.813	11718.5
255.884	11712.43
255.954	11705.44
256.024	11712.14
256.095	11699.03
256.165	11669.05
256.235	11646.73
256.306	11628.9
256.376	11619.89
256.446	11606.97
256.517	11599.69
256.587	11586.68
256.657	11567.16
256.728	11551.2
256.798	11537.66
256.868	11524.41
256.938	11491.92
257.009	11487.82
257.079	11478.62
257.149	11487.49
257.219	11448.54
257.29	11433.56
257.36	11390.95
257.43	11377.31
257.5	11330.86
257.571	11298.23
257.641	11285.65
257.711	11258.61
257.781	11238.47
257.852	11232.59
257.922	11194.8
257.992	11174.23
258.062	11152.97
258.132	11148.88
258.202	11131.09
258.273	11110.37
258.343	11108.06
258.413	11086.95
258.483	11068.06
258.553	11027.53
258.623	11003.38
258.693	10996.83
258.764	11005.17
258.834	11013.21
258.904	11002.76
258.974	10978.13
259.044	10964.06
259.114	10958.38
259.184	10950.28
259.254	10934.62
259.324	10897.47
259.394	10895.39
259.464	10894.57
259.535	10883.39
259.605	10855.4
259.675	10825.43
259.745	10808.71
259.815	10777.14
259.885	10749.82
259.955	10765.53
260.025	10744.87
260.095	10719.62
260.165	10706.7
260.235	10704.24
260.305	10679.24
260.375	10651.14
260.445	10654.61
260.515	10659.09
260.585	10650.71
260.655	10631
260.725	10626.95
260.795	10613.32
260.865	10616.4
260.934	10590.33
261.004	10573.76
261.074	10560.02
261.144	10570.09
261.214	10570.48
261.284	10557.33
261.354	10558.58
261.424	10530.63
261.494	10540.79
261.564	10533.09
261.634	10523.88
261.703	10489
261.773	10479.65
261.843	10470.5
261.913	10463.85
261.983	10431.09
262.053	10423.86
262.123	10408.63
262.192	10380.16
262.262	10386.62
262.332	10354.1
