Data from 20250704_urea_0.1M_MAYP1162681_11-29-57-664.txt Node
Date: Fri Jul 04 11:29:57 BST 2025
User: adleo
Spectrometer: MAYP116268
Trigger mode: 0
Integration Time (sec): 1.000000E0
Scans to average: 1
Electric dark correction enabled: true
Nonlinearity correction enabled: true
Boxcar width: 10
XAxis mode: Wavelengths
Number of Pixels in Spectrum: 2068
>>>>>Begin Spectral Data<<<<<
179.565	1255.62
179.642	1315.77
179.718	1358.67
179.795	1398.66
179.871	1431.45
179.948	1451.22
180.024	1470.37
180.101	1493.71
180.177	1509.18
180.254	1531.49
180.33	1555.2
180.407	1612.75
180.483	1712.71
180.56	1808.68
180.636	1894.14
180.712	1881.73
180.789	1893.61
180.865	1908.02
180.942	1916.48
181.018	1926.22
181.095	1939.92
181.171	1945.39
181.248	1942.63
181.324	1960.99
181.4	1970.07
181.477	1983.91
181.553	1996.41
181.63	2017.15
181.706	2035.46
181.782	2043.63
181.859	2043.59
181.935	2048.15
182.011	2043.87
182.088	2060.76
182.164	2079.75
182.24	2094.91
182.317	2105.85
182.393	2103.57
182.469	2116.88
182.546	2130.06
182.622	2132.53
182.698	2125.54
182.775	2136.58
182.851	2152.27
182.927	2142.14
183.003	2136.58
183.08	2128.35
183.156	2136.86
183.232	2134.43
183.308	2119.17
183.385	2129.11
183.461	2146.99
183.537	2146.14
183.613	2158.31
183.69	2148.42
183.766	2133.67
183.842	2139.66
183.918	2142.99
183.995	2154.88
184.071	2155.45
184.147	2149.7
184.223	2138.81
184.299	2151.32
184.375	2140
184.452	2150.61
184.528	2204.34
184.604	2214.42
184.68	2227.65
184.756	2237.69
184.832	2242.88
184.908	2250.3
184.985	2248.73
185.061	2232.93
185.137	2245.3
185.213	2236.26
185.289	2237.5
185.365	2233.41
185.441	2231.98
185.517	2246.4
185.593	2242.08
185.669	2242.03
185.745	2253.26
185.822	2271.09
185.898	2263.29
185.974	2274.28
186.05	2263.52
186.126	2227.21
186.202	2221.97
186.278	2217.26
186.354	2204.89
186.43	2211.94
186.506	2211.89
186.582	2208.56
186.658	2213.27
186.734	2191.95
186.81	2191.86
186.886	2195.57
186.962	2210.75
187.038	2212.13
187.114	2203.18
187.19	2210.41
187.266	2198.95
187.341	2200.42
187.417	2191.72
187.493	2191.48
187.569	2194.9
187.645	2188.91
187.721	2178.44
187.797	2185.91
187.873	2192.43
187.949	2189.57
188.025	2183.91
188.101	2184.34
188.176	2192.95
188.252	2191.14
188.328	2200.18
188.404	2200.18
188.48	2195.75
188.556	2186.14
188.632	2183.05
188.707	2185.38
188.783	2186.28
188.859	2182.77
188.935	2170.16
189.011	2179.72
189.086	2174.2
189.162	2162.4
189.238	2160.64
189.314	2156.12
189.39	2152.79
189.465	2143.89
189.541	2158.12
189.617	2143.18
189.693	2141.71
189.768	2146.18
189.844	2172.07
189.92	2164.8
189.996	2172.55
190.071	2183.35
190.147	2183.45
190.223	2191.77
190.298	2183.02
190.374	2169.32
190.45	2180.97
190.526	2190.96
190.601	2185.77
190.677	2188.72
190.753	2218.05
190.828	2219.47
190.904	2238.7
190.98	2249.93
191.055	2258.54
191.131	2253.88
191.207	2271.1
191.282	2282.05
191.358	2269.39
191.433	2251.11
191.509	2260.72
191.585	2261.48
191.66	2262.62
191.736	2269.52
191.811	2263.19
191.887	2281.56
191.963	2301.69
192.038	2307.07
192.114	2306.35
192.189	2311.54
192.265	2309.45
192.34	2287.12
192.416	2289.35
192.491	2281.55
192.567	2282.88
192.642	2290.5
192.718	2287.55
192.793	2278.12
192.869	2273.03
192.944	2279.41
193.02	2292.54
193.095	2300.11
193.171	2306.96
193.246	2307.63
193.322	2304.16
193.397	2302.25
193.473	2287.78
193.548	2271.55
193.624	2277.26
193.699	2275.6
193.775	2289.88
193.85	2290.07
193.925	2299.97
194.001	2299.3
194.076	2294.26
194.152	2286.88
194.227	2276.27
194.302	2269.08
194.378	2271.94
194.453	2266.23
194.529	2272.65
194.604	2254.38
194.679	2244.15
194.755	2223.45
194.83	2233.4
194.905	2231.98
194.981	2240.3
195.056	2232.26
195.131	2238.12
195.207	2241.78
195.282	2231.41
195.357	2211.8
195.433	2229.12
195.508	2217.84
195.583	2222.93
195.659	2236.93
195.734	2243.73
195.809	2243.35
195.884	2251.39
195.96	2255.44
196.035	2269.9
196.11	2268.14
196.185	2282.99
196.261	2290.79
196.336	2322.96
196.411	2307.92
196.486	2313.25
196.561	2308.87
196.637	2317.34
196.712	2335.62
196.787	2334.62
196.862	2354.42
196.937	2368.17
197.013	2374.51
197.088	2384.5
197.163	2408.79
197.238	2423.84
197.313	2423.7
197.388	2438.79
197.464	2469.6
197.539	2479.6
197.614	2472.08
197.689	2488.6
197.764	2504.6
197.839	2524.08
197.914	2516.12
197.989	2539.84
198.065	2556.22
198.14	2606.63
198.215	2633.87
198.29	2646.4
198.365	2659.88
198.44	2667.84
198.515	2694.9
198.59	2709.24
198.665	2735.78
198.74	2742.59
198.815	2744.5
198.89	2766.32
198.965	2797.16
199.04	2793.06
199.115	2808.92
199.19	2854.9
199.265	2852.52
199.34	2859.24
199.415	2894.14
199.49	2916.44
199.565	2927.97
199.64	2951.28
199.715	2951.9
199.79	2960.48
199.865	2967.11
199.94	2965.97
200.015	3000.63
200.09	3005.06
200.165	3011.97
200.24	3019.8
200.315	3065.09
200.39	3079.63
200.464	3088.73
200.539	3091.12
200.614	3107.47
200.689	3131.08
200.764	3137.85
200.839	3157.97
200.914	3165.5
200.989	3155.05
201.063	3170.02
201.138	3150.58
201.213	3153.59
201.288	3131.65
201.363	3134.7
201.438	3133.65
201.512	3151.24
201.587	3133.31
201.662	3137.65
201.737	3149.95
201.812	3157.16
201.886	3119.21
201.961	3131.09
202.036	3118.46
202.111	3114.5
202.186	3086.42
202.26	3071.92
202.335	3053.94
202.41	3051.51
202.485	3038.4
202.559	3020.95
202.634	2997.97
202.709	3009.59
202.784	2990.85
202.858	2996.05
202.933	2983.23
203.008	2986.56
203.082	2971.12
203.157	2974.22
203.232	2940.62
203.306	2925.98
203.381	2903.42
203.456	2892.31
203.53	2882.58
203.605	2873.57
203.68	2865.8
203.754	2874.04
203.829	2874.61
203.904	2869.32
203.978	2878.53
204.053	2904.23
204.127	2915.05
204.202	2937.98
204.277	2954.39
204.351	2976.08
204.426	2999.74
204.5	3026.16
204.575	3024.78
204.65	3073.31
204.724	3107.67
204.799	3156.59
204.873	3196.87
204.948	3242.77
205.022	3280.69
205.097	3322.72
205.171	3394.78
205.246	3459.83
205.32	3522.25
205.395	3587.49
205.469	3647.21
205.544	3721.66
205.618	3775.32
205.693	3862.58
205.767	3931.92
205.842	4033.53
205.916	4116.95
205.991	4198.01
206.065	4296.59
206.14	4410.06
206.214	4507.09
206.289	4606.77
206.363	4726.14
206.438	4840.22
206.512	4962.53
206.586	5104.36
206.661	5237.75
206.735	5340.66
206.81	5473.44
206.884	5621.43
206.958	5745.95
207.033	5899.43
207.107	6045.32
207.181	6222.36
207.256	6370.35
207.33	6531.43
207.405	6700.01
207.479	6870.41
207.553	7037.95
207.628	7176.67
207.702	7347.54
207.776	7504.81
207.851	7673.02
207.925	7857.01
207.999	8022.49
208.073	8202.25
208.148	8371.6
208.222	8530.34
208.296	8739.97
208.371	8927.32
208.445	9115.88
208.519	9317.86
208.593	9514.88
208.668	9696.19
208.742	9881.82
208.816	10063.35
208.89	10264.06
208.965	10443.87
209.039	10635.76
209.113	10826.7
209.187	11041.23
209.261	11215.74
209.336	11420.35
209.41	11624.78
209.484	11808.7
209.558	12024.13
209.632	12212.63
209.707	12407.5
209.781	12613.84
209.855	12813.69
209.929	13020.72
210.003	13211.6
210.077	13400.08
210.151	13632.23
210.226	13845.1
210.3	14055.65
210.374	14253.96
210.448	14441.91
210.522	14626.96
210.596	14812.83
210.67	15002.13
210.744	15226.02
210.818	15443.7
210.892	15638.43
210.966	15806.37
211.041	15994.64
211.115	16158.61
211.189	16354.29
211.263	16538.17
211.337	16702.57
211.411	16872.13
211.485	17020.76
211.559	17195.61
211.633	17347.91
211.707	17464.82
211.781	17630.41
211.855	17746.22
211.929	17887.71
212.003	18012.77
212.077	18176.29
212.151	18343.9
212.225	18503.85
212.299	18624.71
212.373	18745.81
212.447	18878.48
212.52	19042.23
212.594	19181.02
212.668	19326.9
212.742	19434.5
212.816	19565.01
212.89	19696.18
212.964	19825.48
213.038	19958.06
213.112	20088.32
213.186	20228.17
213.26	20331.06
213.333	20403.21
213.407	20529.33
213.481	20657.23
213.555	20784.94
213.629	20875.94
213.703	20965.97
213.777	21074.61
213.85	21169.55
213.924	21314.78
213.998	21427.47
214.072	21529.37
214.146	21617.87
214.219	21708.58
214.293	21810.09
214.367	21912.19
214.441	22018.53
214.515	22107.18
214.588	22171.05
214.662	22233.91
214.736	22316.25
214.81	22414.4
214.883	22515
214.957	22597.15
215.031	22669.08
215.105	22734.64
215.178	22806.28
215.252	22877.78
215.326	22929.47
215.4	22991.23
215.473	23030.09
215.547	23082.17
215.621	23141.58
215.694	23219.27
215.768	23273.46
215.842	23336.44
215.915	23380.61
215.989	23414.37
216.063	23460.62
216.136	23531.5
216.21	23585.61
216.284	23659.74
216.357	23725.38
216.431	23788.41
216.504	23846.97
216.578	23928.67
216.652	24001.49
216.725	24053.58
216.799	24118.27
216.873	24169.05
216.946	24221.96
217.02	24255.82
217.093	24302.18
217.167	24326.68
217.24	24351.43
217.314	24382.93
217.387	24421.81
217.461	24463.82
217.535	24531.6
217.608	24571.01
217.682	24609.12
217.755	24668.17
217.829	24696.69
217.902	24738.81
217.976	24761.29
218.049	24793.47
218.123	24821.22
218.196	24861.7
218.27	24907.88
218.343	24927.42
218.417	24983.05
218.49	25023.15
218.563	25085.01
218.637	25130.32
218.71	25194.69
218.784	25248.84
218.857	25308.67
218.931	25336.12
219.004	25364.54
219.077	25388.48
219.151	25427.14
219.224	25460.96
219.298	25485.87
219.371	25523.22
219.444	25530.13
219.518	25557.92
219.591	25584.85
219.665	25622.84
219.738	25647.31
219.811	25660.68
219.885	25697.6
219.958	25719.03
220.031	25738.34
220.105	25759.82
220.178	25773.67
220.251	25781.83
220.325	25793.12
220.398	25818.85
220.471	25851.77
220.544	25897.82
220.618	25916.16
220.691	25938.03
220.764	25949.08
220.838	25975.83
220.911	25979.64
220.984	26019.08
221.057	26052.96
221.131	26071.79
221.204	26068.46
221.277	26101.82
221.35	26149.81
221.424	26163.76
221.497	26180.56
221.57	26195.91
221.643	26208.8
221.716	26227.29
221.79	26224.35
221.863	26243.37
221.936	26241.82
222.009	26239.75
222.082	26236.41
222.155	26232.94
222.229	26251.91
222.302	26270.16
222.375	26269.78
222.448	26278.03
222.521	26273.25
222.594	26275.52
222.667	26274.12
222.74	26277.93
222.814	26262.34
222.887	26248.58
222.96	26251.81
223.033	26247.08
223.106	26245.05
223.179	26244.18
223.252	26233.76
223.325	26232.5
223.398	26226.03
223.471	26224.82
223.544	26235.2
223.617	26226.03
223.69	26224.73
223.763	26205.9
223.837	26206.96
223.91	26203.1
223.983	26175.44
224.056	26160.42
224.129	26144.73
224.202	26142.42
224.275	26125.95
224.348	26111.76
224.42	26091.68
224.493	26069.57
224.566	26052
224.639	26052.28
224.712	26023.51
224.785	26013.86
224.858	26010.09
224.931	25989.34
225.004	25968.14
225.077	25938.65
225.15	25906.02
225.223	25898.2
225.296	25904.19
225.369	25862.05
225.442	25826.62
225.514	25817.45
225.587	25803.55
225.66	25782.31
225.733	25752.62
225.806	25740.56
225.879	25717.82
225.952	25686.36
226.025	25672.5
226.097	25672.36
226.17	25634.9
226.243	25596.83
226.316	25565.07
226.389	25541.32
226.461	25523.9
226.534	25502.42
226.607	25483.07
226.68	25475.69
226.753	25452.47
226.825	25402.76
226.898	25400.44
226.971	25387.56
227.044	25370.72
227.117	25347.12
227.189	25331.77
227.262	25324.24
227.335	25308.9
227.407	25272.22
227.48	25249.54
227.553	25220.69
227.626	25179.37
227.698	25160.17
227.771	25141.98
227.844	25112.11
227.916	25081.57
227.989	25034.57
228.062	25004.13
228.134	25000.75
228.207	24972.81
228.28	24928.09
228.352	24900.49
228.425	24868.88
228.498	24845.05
228.57	24807.99
228.643	24783.63
228.716	24749.9
228.788	24710.48
228.861	24670.58
228.934	24667.21
229.006	24636.67
229.079	24601.11
229.151	24560.83
229.224	24519.53
229.296	24505.93
229.369	24501.4
229.442	24484.99
229.514	24450.12
229.587	24434.88
229.659	24386.92
229.732	24361.11
229.804	24351.66
229.877	24349.15
229.949	24325.08
230.022	24312.25
230.094	24286.54
230.167	24270.38
230.239	24226
230.312	24196.63
230.384	24178.88
230.457	24146.8
230.529	24113.91
230.602	24093.31
230.674	24064.42
230.747	24049.47
230.819	24032.15
230.892	23969.02
230.964	23943.41
231.037	23924.65
231.109	23888.86
231.181	23857.22
231.254	23821.44
231.326	23781.46
231.399	23730.96
231.471	23688.76
231.544	23625.53
231.616	23594.86
231.688	23563.41
231.761	23528.89
231.833	23490.55
231.905	23428.92
231.978	23386.58
232.05	23358.52
232.122	23318.44
232.195	23278.76
232.267	23251.18
232.339	23192.83
232.412	23177.98
232.484	23131.97
232.556	23089.64
232.629	23071.94
232.701	23043.06
232.773	23000.68
232.846	22957
232.918	22929.8
232.99	22891.9
233.062	22872.18
233.135	22840.31
233.207	22782.94
233.279	22767.75
233.351	22728.94
233.424	22692.78
233.496	22649.49
233.568	22627.22
233.64	22588.16
233.713	22554.42
233.785	22512.62
233.857	22483.55
233.929	22435.92
234.001	22418.13
234.074	22395.37
234.146	22330.43
234.218	22307.44
234.29	22275.19
234.362	22232
234.434	22175.26
234.507	22134.38
234.579	22075.91
234.651	22034.93
234.723	22000.27
234.795	21962.09
234.867	21924.4
234.939	21901.16
235.012	21876.53
235.084	21850.02
235.156	21812.23
235.228	21772.51
235.3	21724.74
235.372	21687.48
235.444	21664.2
235.516	21591.71
235.588	21552.86
235.66	21510.92
235.732	21443.92
235.804	21458.14
235.876	21436.65
235.948	21419.05
236.02	21376.35
236.092	21334.47
236.164	21287.09
236.236	21252
236.308	21207.08
236.38	21169.44
236.452	21121.39
236.524	21074.78
236.596	21037.77
236.668	21002.49
236.74	20962.44
236.812	20930
236.884	20891.78
236.956	20835.1
237.028	20791.49
237.1	20749.37
237.172	20726.76
237.244	20702.23
237.316	20617.5
237.388	20563.57
237.46	20499.96
237.532	20469.45
237.604	20426.46
237.675	20405.21
237.747	20361.84
237.819	20309.98
237.891	20261.26
237.963	20214.9
238.035	20167.38
238.107	20089.02
238.178	20057.89
238.25	20012.59
238.322	19984.78
238.394	19927.15
238.466	19886.09
238.538	19844.93
238.609	19798.33
238.681	19737.42
238.753	19686.43
238.825	19650.63
238.897	19608.85
238.968	19595.21
239.04	19547.45
239.112	19533
239.184	19477.63
239.255	19439.56
239.327	19393.2
239.399	19360.86
239.471	19329.97
239.542	19291.85
239.614	19276.87
239.686	19213.16
239.758	19184.87
239.829	19136.97
239.901	19110.66
239.973	19070.13
240.044	19039.72
240.116	19005.41
240.188	18969.61
240.259	18931.25
240.331	18888.5
240.403	18858.15
240.474	18786.97
240.546	18741.48
240.618	18683.07
240.689	18641.19
240.761	18602.3
240.833	18585.15
240.904	18535.42
240.976	18489.73
241.048	18451.71
241.119	18414.6
241.191	18384.05
241.262	18359.96
241.334	18308.35
241.405	18263.24
241.477	18217.46
241.549	18178.09
241.62	18141.08
241.692	18106.33
241.763	18077.51
241.835	18024.79
241.906	17990
241.978	17947.97
242.049	17921.13
242.121	17894.92
242.192	17862.15
242.264	17802
242.335	17742.53
242.407	17717.81
242.478	17669.28
242.55	17630.2
242.621	17582.49
242.693	17537.48
242.764	17491.45
242.836	17453.72
242.907	17423.26
242.979	17394.3
243.05	17361.33
243.122	17317.67
243.193	17285.81
243.264	17227.84
243.336	17189.14
243.407	17151.31
243.479	17135.59
243.55	17098.1
243.622	17058.87
243.693	17024.89
243.764	17009.91
243.836	16965.76
243.907	16923.68
243.978	16892.12
244.05	16859.58
244.121	16802.38
244.192	16781.07
244.264	16715.38
244.335	16674.42
244.407	16618.27
244.478	16581.59
244.549	16536.62
244.62	16496.52
244.692	16440.04
244.763	16421.53
244.834	16382.78
244.906	16340.51
244.977	16304.12
245.048	16279.69
245.119	16235.63
245.191	16183.92
245.262	16120.97
245.333	16101.5
245.405	16070.27
245.476	16036.43
245.547	16008.19
245.618	15981.77
245.689	15944.95
245.761	15927.5
245.832	15894.63
245.903	15870.29
245.974	15845.56
246.045	15803.19
246.117	15780.4
246.188	15744.24
246.259	15687.56
246.33	15655.56
246.401	15625.09
246.473	15573.66
246.544	15532.31
246.615	15506.96
246.686	15472.01
246.757	15455.43
246.828	15414.46
246.899	15395.08
246.97	15349.86
247.042	15305.71
247.113	15289.47
247.184	15274.24
247.255	15230.57
247.326	15204.25
247.397	15165.3
247.468	15127.89
247.539	15099.36
247.61	15050.34
247.681	15034.57
247.752	15018.96
247.823	14968.82
247.894	14934.94
247.965	14890.15
248.037	14856.7
248.108	14810.43
248.179	14783.29
248.25	14751.62
248.321	14717.34
248.392	14666.39
248.463	14663.31
248.534	14630.62
248.605	14598.33
248.675	14555.76
248.746	14534.26
248.817	14511.51
248.888	14492.09
248.959	14445.57
249.03	14430.67
249.101	14402.71
249.172	14361.59
249.243	14306.49
249.314	14305.24
249.385	14273.71
249.456	14255.49
249.527	14217.46
249.598	14194.22
249.669	14161.25
249.739	14138.06
249.81	14123.26
249.881	14080.22
249.952	14047.92
250.023	14022.61
250.094	13974.89
250.165	13937.72
250.235	13900.7
250.306	13869.17
250.377	13831.62
250.448	13805.39
250.519	13756.7
250.59	13743.5
250.66	13716.36
250.731	13714.23
250.802	13683.91
250.873	13664.77
250.944	13643.13
251.014	13612.71
251.085	13614.11
251.156	13588.08
251.227	13570.77
251.297	13558.05
251.368	13547.15
251.439	13529.36
251.51	13516.39
251.58	13482.12
251.651	13455.8
251.722	13446.78
251.792	13401.86
251.863	13373.37
251.934	13379.01
252.005	13379.63
252.075	13357.55
252.146	13343.96
252.217	13325.98
252.287	13307.37
252.358	13279.85
252.429	13274.64
252.499	13249.23
252.57	13222
252.641	13214.14
252.711	13185.75
252.782	13139.47
252.852	13132.96
252.923	13109.39
252.994	13079.84
253.064	13072.03
253.135	13034.86
253.205	13007.67
253.276	12999.43
253.347	12987.19
253.417	12942.4
253.488	12915.12
253.558	12887.3
253.629	12859.92
253.699	12839.58
253.77	12819.96
253.841	12795.18
253.911	12771.22
253.982	12745.43
254.052	12733.77
254.123	12713.52
254.193	12691.97
254.264	12707.69
254.334	12683.78
254.405	12649.55
254.475	12620.15
254.546	12595.23
254.616	12584.77
254.687	12565.92
254.757	12546.59
254.827	12526.53
254.898	12510.29
254.968	12485.08
255.039	12458.9
255.109	12451.14
255.18	12417.69
255.25	12372.67
255.321	12353.58
255.391	12319.89
255.461	12321.19
255.532	12264.11
255.602	12233.89
255.673	12194.7
255.743	12165.1
255.813	12112.08
255.884	12100.18
255.954	12081.23
256.024	12079.88
256.095	12061.95
256.165	12030.52
256.235	12021.61
256.306	11993.12
256.376	11983.14
256.446	11971.86
256.517	11952.29
256.587	11940.19
256.657	11922.12
256.728	11914.22
256.798	11895.03
256.868	11871.99
256.938	11838.49
257.009	11829.09
257.079	11822.35
257.149	11831.55
257.219	11788.46
257.29	11781.91
257.36	11742.58
257.43	11740.26
257.5	11692.93
257.571	11669.6
257.641	11655.67
257.711	11625.31
257.781	11611.04
257.852	11598.8
257.922	11559.47
257.992	11547.52
258.062	11519.18
258.132	11521.73
258.202	11497.83
258.273	11483.66
258.343	11478.02
258.413	11456.86
258.483	11445.73
258.553	11407.99
258.623	11384.18
258.693	11369.87
258.764	11363.89
258.834	11358.35
258.904	11339.5
258.974	11315.41
259.044	11291.5
259.114	11282.06
259.184	11265.29
259.254	11254.73
259.324	11208.51
259.394	11201.53
259.464	11189.77
259.535	11173.04
259.605	11134.34
259.675	11107.46
259.745	11091.31
259.815	11059.41
259.885	11032.76
259.955	11039.65
260.025	11015.12
260.095	10989.63
260.165	10974.55
260.235	10976.23
260.305	10954.89
260.375	10918.6
260.445	10929.01
260.515	10938.26
260.585	10935.56
260.655	10919.32
260.725	10907.37
260.795	10909.01
260.865	10911.95
260.934	10893.64
261.004	10877.35
261.074	10862.07
261.144	10869.21
261.214	10861.16
261.284	10849.54
261.354	10848.92
261.424	10817.59
261.494	10822.99
261.564	10810.51
261.634	10800.05
261.703	10756.83
261.773	10746.04
261.843	10744.21
