Data from 20250704_urea_2M_MAYP1162681_12-05-29-485.txt Node
Date: Fri Jul 04 12:05:29 BST 2025
User: adleo
Spectrometer: MAYP116268
Trigger mode: 0
Integration Time (sec): 1.000000E0
Scans to average: 1
Electric dark correction enabled: true
Nonlinearity correction enabled: true
Boxcar width: 10
XAxis mode: Wavelengths
Number of Pixels in Spectrum: 2068
>>>>>Begin Spectral Data<<<<<
179.565	1280.97
179.642	1340.56
179.718	1387.68
179.795	1428.2
179.871	1462.26
179.948	1481.58
180.024	1505.03
180.101	1530.81
180.177	1548.46
180.254	1571.79
180.33	1593.99
180.407	1653.01
180.483	1752.64
180.56	1848.71
180.636	1939.64
180.712	1925.75
180.789	1937.83
180.865	1950.18
180.942	1959.6
181.018	1970.63
181.095	1984.18
181.171	1988.99
181.248	1989.51
181.324	2005.4
181.4	2012.01
181.477	2021.47
181.553	2037.64
181.63	2057.8
181.706	2071.88
181.782	2077.02
181.859	2077.35
181.935	2082.73
182.011	2078.59
182.088	2099.9
182.164	2121.13
182.24	2132.01
182.317	2142.29
182.393	2140.81
182.469	2154.75
182.546	2169.54
182.622	2171.73
182.698	2165.83
182.775	2177.3
182.851	2192.81
182.927	2182.58
183.003	2180.91
183.08	2178.2
183.156	2186.39
183.232	2181.96
183.308	2169.69
183.385	2180.2
183.461	2198.57
183.537	2201.66
183.613	2216.55
183.69	2207.7
183.766	2194.18
183.842	2203.94
183.918	2212.6
183.995	2226.73
184.071	2231.87
184.147	2225.35
184.223	2216.31
184.299	2230.3
184.375	2220.31
184.452	2225.83
184.528	2278.51
184.604	2288.41
184.68	2300.64
184.756	2307.59
184.832	2314.34
184.908	2320.72
184.985	2319.29
185.061	2301.5
185.137	2309.4
185.213	2295.31
185.289	2292.55
185.365	2286.8
185.441	2284.94
185.517	2298.65
185.593	2293.8
185.669	2292.18
185.745	2304.41
185.822	2322.11
185.898	2314.78
185.974	2322.29
186.05	2315.49
186.126	2280.03
186.202	2273.61
186.278	2270.23
186.354	2260.52
186.43	2267.14
186.506	2266.47
186.582	2265.33
186.658	2272.61
186.734	2250.11
186.81	2255.34
186.886	2259.76
186.962	2271.71
187.038	2268.37
187.114	2255.71
187.19	2260.37
187.266	2247.48
187.341	2248.29
187.417	2240.06
187.493	2240.1
187.569	2243.39
187.645	2236.16
187.721	2224.59
187.797	2230.63
187.873	2234.01
187.949	2226.02
188.025	2220.54
188.101	2224.68
188.176	2230.54
188.252	2225.54
188.328	2238.19
188.404	2238.95
188.48	2232.2
188.556	2225.11
188.632	2221.92
188.707	2223.78
188.783	2225.06
188.859	2219.07
188.935	2208.6
189.011	2216.21
189.086	2208.22
189.162	2196.9
189.238	2193.52
189.314	2192.28
189.39	2187.95
189.465	2180.34
189.541	2195.85
189.617	2179.24
189.693	2172.11
189.768	2177.34
189.844	2202.71
189.92	2194.29
189.996	2201.81
190.071	2216.37
190.147	2215.33
190.223	2228.51
190.298	2219.85
190.374	2204.81
190.45	2218.42
190.526	2226.17
190.601	2220.51
190.677	2221.41
190.753	2252.02
190.828	2255.02
190.904	2269.3
190.98	2282.91
191.055	2296.24
191.131	2290.38
191.207	2310.32
191.282	2320.5
191.358	2310.08
191.433	2294.94
191.509	2306.59
191.585	2306.45
191.66	2306.5
191.736	2314.54
191.811	2303.88
191.887	2322.83
191.963	2346.38
192.038	2352.14
192.114	2349.76
192.189	2354.19
192.265	2351.1
192.34	2330.29
192.416	2331.76
192.491	2328.14
192.567	2332.48
192.642	2330.76
192.718	2329.15
192.793	2316.01
192.869	2311.82
192.944	2312.68
193.02	2320.29
193.095	2326.77
193.171	2328.05
193.246	2325.29
193.322	2322.91
193.397	2323.58
193.473	2308.39
193.548	2291.25
193.624	2296.06
193.699	2297.54
193.775	2313.01
193.85	2316.77
193.925	2326.34
194.001	2325.53
194.076	2315.87
194.152	2303.35
194.227	2298.44
194.302	2292.21
194.378	2296.68
194.453	2295.11
194.529	2310.35
194.604	2294.02
194.679	2283.51
194.755	2265.33
194.83	2277.04
194.905	2275.28
194.981	2282.71
195.056	2274.71
195.131	2278.76
195.207	2277.38
195.282	2267.77
195.357	2248.63
195.433	2263.29
195.508	2247.01
195.583	2252.62
195.659	2267.28
195.734	2274.23
195.809	2272.85
195.884	2280.84
195.96	2281.8
196.035	2298.17
196.11	2294.84
196.185	2309.68
196.261	2314.77
196.336	2347.09
196.411	2332.81
196.486	2337.43
196.561	2334
196.637	2345.28
196.712	2365.28
196.787	2368.8
196.862	2384.79
196.937	2396.55
197.013	2400.64
197.088	2415.59
197.163	2443.11
197.238	2460.93
197.313	2463.55
197.388	2476.78
197.464	2511.46
197.539	2522.65
197.614	2514.27
197.689	2526.89
197.764	2545.89
197.839	2569.75
197.914	2563.08
197.989	2588.04
198.065	2603.75
198.14	2653.98
198.215	2680.04
198.29	2685.99
198.365	2698.86
198.44	2709.48
198.515	2738.26
198.59	2756.7
198.665	2782.19
198.74	2788.81
198.815	2789.96
198.89	2813.26
198.965	2844.14
199.04	2838.04
199.115	2855.24
199.19	2901.56
199.265	2904.99
199.34	2914.05
199.415	2945.67
199.49	2969.35
199.565	2983.13
199.64	3007.15
199.715	3006.15
199.79	3014.16
199.865	3021.98
199.94	3023.46
200.015	3057.6
200.09	3063.9
200.165	3072.81
200.24	3082.4
200.315	3120.15
200.39	3138.51
200.464	3143.8
200.539	3147.09
200.614	3162.35
200.689	3185.1
200.764	3192.5
200.839	3207.75
200.914	3212
200.989	3203.46
201.063	3218.72
201.138	3195.27
201.213	3195.41
201.288	3175.53
201.363	3178.63
201.438	3183.58
201.512	3199.37
201.587	3180.95
201.662	3185.48
201.737	3193.64
201.812	3199.84
201.886	3166.67
201.961	3175.64
202.036	3163.39
202.111	3157.95
202.186	3128.78
202.26	3111.37
202.335	3086.04
202.41	3081.13
202.485	3061.82
202.559	3040.8
202.634	3010.61
202.709	3024.91
202.784	3006.22
202.858	3005.98
202.933	2989.25
203.008	2977.95
203.082	2957.26
203.157	2954.54
203.232	2907.98
203.306	2890.62
203.381	2856.58
203.456	2833.47
203.53	2811.14
203.605	2792.28
203.68	2771.49
203.754	2761.35
203.829	2745.91
203.904	2727.47
203.978	2716.03
204.053	2721.56
204.127	2705.98
204.202	2704.08
204.277	2683.45
204.351	2673.68
204.426	2662.77
204.5	2653.72
204.575	2623.1
204.65	2634.82
204.724	2627.57
204.799	2634.38
204.873	2626.18
204.948	2626.14
205.022	2614.52
205.097	2606.94
205.171	2619.65
205.246	2625.18
205.32	2626.42
205.395	2627.23
205.469	2615.38
205.544	2619.14
205.618	2601.04
205.693	2612.04
205.767	2600.33
205.842	2625.34
205.916	2621.44
205.991	2614.15
206.065	2621.01
206.14	2637.29
206.214	2629.19
206.289	2623.18
206.363	2638.85
206.438	2641.86
206.512	2647.24
206.586	2665.86
206.661	2670.67
206.735	2649.1
206.81	2652.16
206.884	2670.3
206.958	2657.87
207.033	2675.73
207.107	2685.78
207.181	2719.43
207.256	2716.62
207.33	2735.81
207.405	2746.59
207.479	2764.12
207.553	2770.79
207.628	2751.27
207.702	2760.8
207.776	2754.36
207.851	2759.32
207.925	2773.38
207.999	2771.43
208.073	2768.43
208.148	2773.62
208.222	2761.75
208.296	2795.48
208.371	2812.55
208.445	2821.99
208.519	2850.57
208.593	2865.35
208.668	2861.49
208.742	2864.92
208.816	2865.3
208.89	2880.61
208.965	2881.8
209.039	2888.38
209.113	2906.35
209.187	2929.16
209.261	2925.3
209.336	2947.7
209.41	2967.34
209.484	2967.44
209.558	2991.52
209.632	3007.34
209.707	3019.83
209.781	3045.34
209.855	3059.79
209.929	3077.88
210.003	3084.94
210.077	3086.56
210.151	3132.62
210.226	3166.54
210.3	3194.76
210.374	3222.36
210.448	3229.56
210.522	3238.15
210.596	3254.42
210.67	3265.72
210.744	3313.87
210.818	3349.54
210.892	3372.68
210.966	3366.67
211.041	3386.19
211.115	3386.66
211.189	3416.15
211.263	3434.24
211.337	3440.92
211.411	3458.96
211.485	3457.86
211.559	3474.23
211.633	3478.57
211.707	3450.39
211.781	3463.72
211.855	3434.08
211.929	3431.21
212.003	3415.33
212.077	3435.82
212.151	3456.2
212.225	3476.25
212.299	3479.65
212.373	3481.75
212.447	3491.82
212.52	3539.48
212.594	3561.26
212.668	3588.61
212.742	3593.05
212.816	3606.09
212.89	3626
212.964	3646.59
213.038	3677.66
213.112	3720.52
213.186	3771.14
213.26	3783.17
213.333	3767.74
213.407	3806.94
213.481	3846.76
213.555	3902.19
213.629	3930.02
213.703	3958.03
213.777	4005.79
213.85	4036.73
213.924	4122.35
213.998	4178.69
214.072	4226.21
214.146	4267.4
214.219	4329.88
214.293	4391.53
214.367	4467.66
214.441	4546.81
214.515	4617.14
214.588	4666.88
214.662	4712.12
214.736	4767.41
214.81	4862.3
214.883	4967.69
214.957	5055.27
215.031	5141.75
215.105	5222.68
215.178	5313.88
215.252	5411.12
215.326	5495.79
215.4	5586.33
215.473	5650.33
215.547	5741.42
215.621	5844.73
215.694	5975.49
215.768	6073.44
215.842	6183.95
215.915	6290.58
215.989	6391.97
216.063	6505.02
216.136	6632.85
216.21	6765.44
216.284	6915.89
216.357	7052.57
216.431	7179.71
216.504	7326.11
216.578	7492.19
216.652	7640.71
216.725	7782.51
216.799	7938.06
216.873	8085.33
216.946	8241.69
217.02	8383.88
217.093	8526.72
217.167	8651.84
217.24	8780.6
217.314	8928.64
217.387	9072.07
217.461	9218.61
217.535	9384.67
217.608	9525.94
217.682	9676.23
217.755	9829.42
217.829	9972.34
217.902	10127.29
217.976	10284.23
218.049	10418.16
218.123	10547.62
218.196	10707.97
218.27	10849.63
218.343	10983.01
218.417	11132.79
218.49	11273.16
218.563	11436.48
218.637	11590.89
218.71	11769.31
218.784	11928.41
218.857	12085.2
218.931	12234.81
219.004	12379.46
219.077	12526.33
219.151	12671.95
219.224	12810.78
219.298	12952.26
219.371	13108.68
219.444	13227.26
219.518	13365.61
219.591	13503.19
219.665	13667.76
219.738	13800.81
219.811	13929.56
219.885	14070.56
219.958	14205.83
220.031	14334.63
220.105	14460.83
220.178	14578.98
220.251	14686.33
220.325	14802.94
220.398	14924.36
220.471	15045.74
220.544	15167.4
220.618	15271.28
220.691	15388.41
220.764	15505.49
220.838	15617.61
220.911	15703.93
220.984	15841.45
221.057	15947.25
221.131	16055.84
221.204	16132.48
221.277	16244.78
221.35	16371.1
221.424	16457.09
221.497	16553.62
221.57	16644.14
221.643	16736.82
221.716	16841.98
221.79	16919.58
221.863	17002.47
221.936	17075
222.009	17162.91
222.082	17248.99
222.155	17321.52
222.229	17412.94
222.302	17494.29
222.375	17576.27
222.448	17650.34
222.521	17706.82
222.594	17773.52
222.667	17824.02
222.74	17892.41
222.814	17945.61
222.887	18001.8
222.96	18076.26
223.033	18143.58
223.106	18207.09
223.179	18271.57
223.252	18327.47
223.325	18387.09
223.398	18448.63
223.471	18510.94
223.544	18554.45
223.617	18604.86
223.69	18662.4
223.763	18703.36
223.837	18746.92
223.91	18784.32
223.983	18824.8
224.056	18857.76
224.129	18902.53
224.202	18973.41
224.275	19005.08
224.348	19027.05
224.42	19053.02
224.493	19076.25
224.566	19100.2
224.639	19135.53
224.712	19163.23
224.785	19186.94
224.858	19209.64
224.931	19229.16
225.004	19241.16
225.077	19273.49
225.15	19276.19
225.223	19306.45
225.296	19349.73
225.369	19356.57
225.442	19369.78
225.514	19390.59
225.587	19416.91
225.66	19438.35
225.733	19452.33
225.806	19472.61
225.879	19493.43
225.952	19494.15
226.025	19517.91
226.097	19546.63
226.17	19561.77
226.243	19545.67
226.316	19558.73
226.389	19580.22
226.461	19592.32
226.534	19620.75
226.607	19627.26
226.68	19660.7
226.753	19667.54
226.825	19653.42
226.898	19678.19
226.971	19682.96
227.044	19696.31
227.117	19710.34
227.189	19723.35
227.262	19742.48
227.335	19761.13
227.407	19766.09
227.48	19788.79
227.553	19796.21
227.626	19793.56
227.698	19800.26
227.771	19820.84
227.844	19810.76
227.916	19820.07
227.989	19813.13
228.062	19803.15
228.134	19833.8
228.207	19837.51
228.28	19834.19
228.352	19840.26
228.425	19842.62
228.498	19858.23
228.57	19850.67
228.643	19854.47
228.716	19850.76
228.788	19829.51
228.861	19821.13
228.934	19839.92
229.006	19834.57
229.079	19823.34
229.151	19812.4
229.224	19789.27
229.296	19789.95
229.369	19818.96
229.442	19817.9
229.514	19819.97
229.587	19824.21
229.659	19785.95
229.732	19772.84
229.804	19775.2
229.877	19782.67
229.949	19796.5
230.022	19809.85
230.094	19807.73
230.167	19806.23
230.239	19785.61
230.312	19784.69
230.384	19796.36
230.457	19795.58
230.529	19783.59
230.602	19784.21
230.674	19780.12
230.747	19787.06
230.819	19791.3
230.892	19755.59
230.964	19759.06
231.037	19752.79
231.109	19742.43
231.181	19749.71
231.254	19731.49
231.326	19716.6
231.399	19701.76
231.471	19673.04
231.544	19641.95
231.616	19643.88
231.688	19636.12
231.761	19622.58
231.833	19600.94
231.905	19561.52
231.978	19538.44
232.05	19532.32
232.122	19520.95
232.195	19506.54
232.267	19500.61
232.339	19482.3
232.412	19485.19
232.484	19464.47
232.556	19440.13
232.629	19449.67
232.701	19449.1
232.773	19450.16
232.846	19433.58
232.918	19418.35
232.99	19411.17
233.062	19401.92
233.135	19386.06
233.207	19358.07
233.279	19365.44
233.351	19355.66
233.424	19341.49
233.496	19324.43
233.568	19331.95
233.64	19306.98
233.713	19287.03
233.785	19279.42
233.857	19266.22
233.929	19230.51
234.001	19232.72
234.074	19235.57
234.146	19192.87
234.218	19166.51
234.29	19134.95
234.362	19115.67
234.434	19084.97
234.507	19048.59
234.579	19020.11
234.651	18996.64
234.723	18984.4
234.795	18961.13
234.867	18945.85
234.939	18945.85
235.012	18928.79
235.084	18909.18
235.156	18902.09
235.228	18875.73
235.3	18844.51
235.372	18826.68
235.444	18827.59
235.516	18779.21
235.588	18758.78
235.66	18746.15
235.732	18717
235.804	18758.68
235.876	18745.67
235.948	18736.61
236.02	18718.68
236.092	18688.9
236.164	18671.75
236.236	18649.1
236.308	18608.96
236.38	18591.85
236.452	18547.61
236.524	18516.62
236.596	18503.42
236.668	18483.76
236.74	18464.91
236.812	18448.72
236.884	18427.9
236.956	18398.7
237.028	18364.58
237.1	18332.92
237.172	18324.25
237.244	18312.2
237.316	18253.12
237.388	18217.12
237.46	18189.56
237.532	18189.03
237.604	18163.58
237.675	18148.55
237.747	18124.4
237.819	18101.03
237.891	18069.08
237.963	18041.71
238.035	18011.06
238.107	17943.3
238.178	17922.63
238.25	17898.29
238.322	17894.34
238.394	17850.72
238.466	17826.72
238.538	17806.77
238.609	17782.15
238.681	17738.58
238.753	17696.65
238.825	17666.54
238.897	17646.34
238.968	17636.8
239.04	17595.4
239.112	17598.3
239.184	17552.75
239.255	17525.28
239.327	17498.97
239.399	17478.63
239.471	17470.06
239.542	17455.98
239.614	17450.01
239.686	17396.32
239.758	17374.2
239.829	17340.9
239.901	17322.83
239.973	17282.15
240.044	17271.45
240.116	17245.91
240.188	17214.29
240.259	17197.23
240.331	17165.76
240.403	17145.76
240.474	17100.46
240.546	17060.94
240.618	17013.09
240.689	16986.43
240.761	16960.75
240.833	16951.93
240.904	16918.29
240.976	16879.97
241.048	16851.58
241.119	16834.81
241.191	16824.6
241.262	16818.96
241.334	16776.98
241.405	16747.87
241.477	16721.41
241.549	16678.37
241.62	16649.94
241.692	16622.99
241.763	16604.63
241.835	16575.52
241.906	16539.86
241.978	16493.73
242.049	16474.26
242.121	16463.56
242.192	16459.85
242.264	16409.92
242.335	16360.32
242.407	16339.74
242.478	16307.88
242.55	16281.28
242.621	16229.66
242.693	16190.33
242.764	16149.89
242.836	16119.86
242.907	16101.5
242.979	16081.02
243.05	16055.57
243.122	16029.35
243.193	16003.08
243.264	15948.66
243.336	15914.78
243.407	15895.16
243.479	15880.75
243.55	15856.02
243.622	15825.27
243.693	15787.87
243.764	15784.74
243.836	15751.04
243.907	15720.29
243.978	15694.84
244.05	15673.83
244.121	15634.88
244.192	15621.19
244.264	15579.55
244.335	15553.37
244.407	15507.82
244.478	15482.52
244.549	15454.17
244.62	15413.11
244.692	15385.01
244.763	15373.53
244.834	15341
244.906	15308.08
244.977	15293.33
245.048	15285.13
245.119	15252.98
245.191	15207.77
245.262	15155.56
245.333	15149.15
245.405	15127.27
245.476	15102.59
245.547	15075.98
245.618	15067.69
245.689	15034.38
245.761	15005.94
245.832	14981.41
245.903	14970.08
245.974	14948.63
246.045	14919.85
246.117	14914.21
246.188	14873.48
246.259	14836.12
246.33	14808.11
246.401	14784.73
246.473	14738.84
246.544	14699.41
246.615	14674.59
246.686	14654.1
246.757	14643.4
246.828	14601.7
246.899	14585.89
246.97	14540.19
247.042	14497.82
247.113	14462.1
247.184	14449.23
247.255	14416.31
247.326	14389.07
247.397	14350.94
247.468	14325.92
247.539	14304.13
247.61	14260.99
247.681	14247.3
247.752	14236.07
247.823	14198.66
247.894	14168.19
247.965	14137.97
248.037	14106.73
248.108	14069.18
248.179	14040.25
248.25	14014.17
248.321	13998.27
248.392	13958.11
248.463	13963.17
248.534	13944.85
248.605	13935.5
248.675	13911.16
248.746	13898.05
248.817	13881.08
248.888	13864.4
248.959	13817.25
249.03	13795.08
249.101	13773.77
249.172	13743.59
249.243	13693.02
249.314	13692.54
249.385	13669.26
249.456	13654.65
249.527	13635.95
249.598	13617.29
249.669	13590.01
249.739	13572.56
249.81	13549.61
249.881	13507.09
249.952	13480
250.023	13446.25
250.094	13410.34
250.165	13373.85
250.235	13349.7
250.306	13325.5
250.377	13289.73
250.448	13275.07
250.519	13232.36
250.59	13224.5
250.66	13194.09
250.731	13185.65
250.802	13154.46
250.873	13141.4
250.944	13125.01
251.014	13087.94
251.085	13085.43
251.156	13072.61
251.227	13057.32
251.297	13050.19
251.368	13045.71
251.439	13042.24
251.51	13043.06
251.58	13010.03
251.651	12987.28
251.722	12977.35
251.792	12930.25
251.863	12910.92
251.934	12904.46
252.005	12918.11
252.075	12890.63
252.146	12882.72
252.217	12877.13
252.287	12867.68
252.358	12840.4
252.429	12833.65
252.499	12802.22
252.57	12787.13
252.641	12771.71
252.711	12750.93
252.782	12716.08
252.852	12720.46
252.923	12689.56
252.994	12667.92
253.064	12660.64
253.135	12631.19
253.205	12606.07
253.276	12610.56
253.347	12607.18
253.417	12574.35
253.488	12546.68
253.558	12527.16
253.629	12508.65
253.699	12494.91
253.77	12485.99
253.841	12463.39
253.911	12443.86
253.982	12430.8
254.052	12417.74
254.123	12395.47
254.193	12377.29
254.264	12396.05
254.334	12359.65
254.405	12323.16
254.475	12288.41
254.546	12260.64
254.616	12249.7
254.687	12231.91
254.757	12218.13
254.827	12197.16
254.898	12183.33
254.968	12160.14
255.039	12131.9
255.109	12125.73
255.18	12099.12
255.25	12050.72
255.321	12038.87
255.391	12003.05
255.461	12006.96
255.532	11956.87
255.602	11937.35
255.673	11891.27
255.743	11856.71
255.813	11812.95
255.884	11805.19
255.954	11792.51
256.024	11802.54
256.095	11793.14
256.165	11762.96
256.235	11749.52
256.306	11725.22
256.376	11720.02
256.446	11708.74
256.517	11699
256.587	11687.19
256.657	11666.71
256.728	11653.5
256.798	11634.61
256.868	11613.69
256.938	11594.89
257.009	11592.68
257.079	11585.26
257.149	11599.57
257.219	11557.49
257.29	11548.19
257.36	11515.32
257.43	11513.49
257.5	11476.48
257.571	11454.69
257.641	11444.23
257.711	11405.87
257.781	11394.78
257.852	11381.1
257.922	11344.9
257.992	11323.94
258.062	11304.32
258.132	11294.1
258.202	11274.49
258.273	11263.6
258.343	11266.54
258.413	11238.97
258.483	11221.04
258.553	11191.74
258.623	11166.34
258.693	11160.32
258.764	11161.76
258.834	11164.46
258.904	11145.04
258.974	11121.76
259.044	11100.27
259.114	11086.58
259.184	11079.16
259.254	11052.95
259.324	11016.42
259.394	11010.01
259.464	11017.53
259.535	10996.81
259.605	10975.07
259.675	10954.21
259.745	10938.45
259.815	10904.67
259.885	10881.15
259.955	10894.7
260.025	10871.28
260.095	10853.74
260.165	10847.52
260.235	10846.41
260.305	10820.25
260.375	10791.19
260.445	10794.8
260.515	10798.71
260.585	10793.74
260.655	10774.47
260.725	10778.18
260.795	10777.17
260.865	10780.44
260.934	10752.06
261.004	10740.74
261.074	10728.84
261.144	10734.38
261.214	10729.41
261.284	10718.67
261.354	10716.21
261.424	10689.27
261.494	10695.92
261.564	10685.8
261.634	10673.66
261.703	10637.28
261.773	10628.75
261.843	10621.77
261.913	10603.07
261.983	10570.4
262.053	10563.51
262.123	10556.53
262.192	10523.96
262.262	10512.68
