Data from 20250704_urea_1M_MAYP1162681_11-41-20-615.txt Node
Date: Fri Jul 04 11:41:20 BST 2025
User: adleo
Spectrometer: MAYP116268
Trigger mode: 0
Integration Time (sec): 1.000000E0
Scans to average: 1
Electric dark correction enabled: true
Nonlinearity correction enabled: true
Boxcar width: 10
XAxis mode: Wavelengths
Number of Pixels in Spectrum: 2068
>>>>>Begin Spectral Data<<<<<
179.565	1262.61
179.642	1319.01
179.718	1363.82
179.795	1405.22
179.871	1440.37
179.948	1458.89
180.024	1482.81
180.101	1508.4
180.177	1525.42
180.254	1546.22
180.33	1570.22
180.407	1624.34
180.483	1723.07
180.56	1818.24
180.636	1906.07
180.712	1893.66
180.789	1906.69
180.865	1917.52
180.942	1924.89
181.018	1934.63
181.095	1948.38
181.171	1954.42
181.248	1955.99
181.324	1971.02
181.4	1977.1
181.477	1988.09
181.553	2002.87
181.63	2021.85
181.706	2036.74
181.782	2042.01
181.859	2043.35
181.935	2049.86
182.011	2050.48
182.088	2068.79
182.164	2088.78
182.24	2102.62
182.317	2109.89
182.393	2104.47
182.469	2121.69
182.546	2138.43
182.622	2144.57
182.698	2139.34
182.775	2150.09
182.851	2166.64
182.927	2161.79
183.003	2158.13
183.08	2152.04
183.156	2159.03
183.232	2156.18
183.308	2144.38
183.385	2155.08
183.461	2174.73
183.537	2173.49
183.613	2184.24
183.69	2175.35
183.766	2164.3
183.842	2173.49
183.918	2177.01
183.995	2191.85
184.071	2197.04
184.147	2189.61
184.223	2178.58
184.299	2194.52
184.375	2184.77
184.452	2187.58
184.528	2238.12
184.604	2247.3
184.68	2258.38
184.756	2265.76
184.832	2270.47
184.908	2273.99
184.985	2271.47
185.061	2254.58
185.137	2262.43
185.213	2252.91
185.289	2254.15
185.365	2246.4
185.441	2245.4
185.517	2261.06
185.593	2256.68
185.669	2248.73
185.745	2259.53
185.822	2274.18
185.898	2263.81
185.974	2271.7
186.05	2264.71
186.126	2226.92
186.202	2223.07
186.278	2218.74
186.354	2211.88
186.43	2219.93
186.506	2221.83
186.582	2222.73
186.658	2228.78
186.734	2209.84
186.81	2212.6
186.886	2216.27
186.962	2229.16
187.038	2224.64
187.114	2215.45
187.19	2223.4
187.266	2215.45
187.341	2217.64
187.417	2211.55
187.493	2210.41
187.569	2213.22
187.645	2208.27
187.721	2197.8
187.797	2203.7
187.873	2209.65
187.949	2201.37
188.025	2189.76
188.101	2188.76
188.176	2192.04
188.252	2187.86
188.328	2196.65
188.404	2196.23
188.48	2189.66
188.556	2181.52
188.632	2179.95
188.707	2181.95
188.783	2179.91
188.859	2173.72
188.935	2161.54
189.011	2169.68
189.086	2164.16
189.162	2157.55
189.238	2155.36
189.314	2152.41
189.39	2146.56
189.465	2140.8
189.541	2161.69
189.617	2150.61
189.693	2147.42
189.768	2150.66
189.844	2177.64
189.92	2170.22
189.996	2179.88
190.071	2192.02
190.147	2193.73
190.223	2205.1
190.298	2196.2
190.374	2185.07
190.45	2200.29
190.526	2209.43
190.601	2202.81
190.677	2206.19
190.753	2235.47
190.828	2239.04
190.904	2257.17
190.98	2272.49
191.055	2282.25
191.131	2268.59
191.207	2290.62
191.282	2300.99
191.358	2293.04
191.433	2276.81
191.509	2290.84
191.585	2286.75
191.66	2286.84
191.736	2293.89
191.811	2284.56
191.887	2299.98
191.963	2321.92
192.038	2326.3
192.114	2325.77
192.189	2331.86
192.265	2325.02
192.34	2300.83
192.416	2299.73
192.491	2293.26
192.567	2295.92
192.642	2297.5
192.718	2298.92
192.793	2284.64
192.869	2280.46
192.944	2282.27
193.02	2287.98
193.095	2292.21
193.171	2296.16
193.246	2294.88
193.322	2292.74
193.397	2291.59
193.473	2279.12
193.548	2261.42
193.624	2267.94
193.699	2267.99
193.775	2284.46
193.85	2289.26
193.925	2294.93
194.001	2295.45
194.076	2289.4
194.152	2280.88
194.227	2274.65
194.302	2266.32
194.378	2270.42
194.453	2266.8
194.529	2280.79
194.604	2266.9
194.679	2259.85
194.755	2244.82
194.83	2259.77
194.905	2254.16
194.981	2264.82
195.056	2259.3
195.131	2268.05
195.207	2264.58
195.282	2255.39
195.357	2235.88
195.433	2249.63
195.508	2241.35
195.583	2245.96
195.659	2259.15
195.734	2264.24
195.809	2263.43
195.884	2275.04
195.96	2275.61
196.035	2292.79
196.11	2288.84
196.185	2301.45
196.261	2304.26
196.336	2333.38
196.411	2319.24
196.486	2327.9
196.561	2323.52
196.637	2330.85
196.712	2345.8
196.787	2352.13
196.862	2368.98
196.937	2379.07
197.013	2385.07
197.088	2394.87
197.163	2419.68
197.238	2436.21
197.313	2438.36
197.388	2452.07
197.464	2478.88
197.539	2492.83
197.614	2486.07
197.689	2497.26
197.764	2512.74
197.839	2535.02
197.914	2529.4
197.989	2551.21
198.065	2562.5
198.14	2611.15
198.215	2636.73
198.29	2649.12
198.365	2661.5
198.44	2676.32
198.515	2703
198.59	2722.01
198.665	2751.36
198.74	2757.88
198.815	2758.46
198.89	2781.85
198.965	2810.64
199.04	2805.87
199.115	2819.54
199.19	2863.1
199.265	2866.67
199.34	2877.92
199.415	2909.29
199.49	2932.74
199.565	2943.51
199.64	2971.63
199.715	2967.86
199.79	2976.01
199.865	2982.45
199.94	2981.69
200.015	3007.2
200.09	3015.97
200.165	3021.5
200.24	3027.99
200.315	3071.46
200.39	3089.58
200.464	3097.36
200.539	3098.79
200.614	3118.24
200.689	3139.6
200.764	3149.24
200.839	3169.54
200.914	3174.46
200.989	3168.01
201.063	3181.08
201.138	3160.88
201.213	3158.21
201.288	3139.32
201.363	3145.47
201.438	3144.9
201.512	3159.15
201.587	3140.89
201.662	3141.46
201.737	3150.28
201.812	3157.73
201.886	3123.41
201.961	3132.33
202.036	3116.55
202.111	3113.97
202.186	3084.66
202.26	3068.16
202.335	3043.26
202.41	3035.4
202.485	3020.09
202.559	2996.68
202.634	2969.75
202.709	2981.99
202.784	2963.88
202.858	2965.45
202.933	2946.43
203.008	2935.32
203.082	2916.78
203.157	2917.64
203.232	2876.28
203.306	2856.64
203.381	2822.74
203.456	2797.05
203.53	2773.78
203.605	2756.68
203.68	2734.08
203.754	2725.94
203.829	2713.45
203.904	2690.97
203.978	2678.34
204.053	2682.01
204.127	2667.1
204.202	2668.1
204.277	2650.53
204.351	2643.38
204.426	2633.47
204.5	2624.8
204.575	2595.28
204.65	2601.76
204.724	2594.22
204.799	2599.89
204.873	2596.31
204.948	2595.84
205.022	2585.51
205.097	2579.45
205.171	2588.93
205.246	2597.41
205.32	2596.08
205.395	2594.55
205.469	2584.66
205.544	2592.09
205.618	2575.13
205.693	2589.61
205.767	2575.99
205.842	2592.9
205.916	2586.57
205.991	2575.14
206.065	2582.8
206.14	2597.89
206.214	2594.37
206.289	2586.17
206.363	2601.22
206.438	2605.23
206.512	2613.32
206.586	2634.95
206.661	2639.62
206.735	2619.95
206.81	2619.91
206.884	2638.15
206.958	2628.48
207.033	2649.14
207.107	2655.48
207.181	2686.84
207.256	2684.31
207.33	2704.98
207.405	2721.39
207.479	2741.01
207.553	2752.11
207.628	2734.35
207.702	2746.54
207.776	2739.87
207.851	2745.11
207.925	2761.56
207.999	2759.42
208.073	2757.37
208.148	2757.8
208.222	2749.12
208.296	2784.22
208.371	2800.96
208.445	2813.54
208.519	2842.99
208.593	2856.47
208.668	2852.9
208.742	2856.81
208.816	2857.52
208.89	2870.02
208.965	2870.64
209.039	2879.55
209.113	2897.57
209.187	2922.76
209.261	2919.38
209.336	2947.17
209.41	2968.67
209.484	2968.91
209.558	2994.18
209.632	3013.82
209.707	3032.66
209.781	3060.12
209.855	3082.2
209.929	3106.83
210.003	3123.62
210.077	3132.07
210.151	3191.7
210.226	3237.85
210.3	3280.34
210.374	3318.64
210.448	3340.4
210.522	3370
210.596	3402.31
210.67	3434
210.744	3500.41
210.818	3560.1
210.892	3605.38
210.966	3628.29
211.041	3678.76
211.115	3706.64
211.189	3760.28
211.263	3814.06
211.337	3860.68
211.411	3913.59
211.485	3951.69
211.559	4008.36
211.633	4060.09
211.707	4077.41
211.781	4142.62
211.855	4166.92
211.929	4216.24
212.003	4262.9
212.077	4340.99
212.151	4424.6
212.225	4511.55
212.299	4578.78
212.373	4644.73
212.447	4722.88
212.52	4841.63
212.594	4934.84
212.668	5040.82
212.742	5130.94
212.816	5228.02
212.89	5326.59
212.964	5434.51
213.038	5553.25
213.112	5681.06
213.186	5814.51
213.26	5918.89
213.333	5994.88
213.407	6127.37
213.481	6265.48
213.555	6410.7
213.629	6531.82
213.703	6652.89
213.777	6790.58
213.85	6921.64
213.924	7111.84
213.998	7263.33
214.072	7405.78
214.146	7542.69
214.219	7695.1
214.293	7845.74
214.367	8006.48
214.441	8181.52
214.515	8332.88
214.588	8464.66
214.662	8597.23
214.736	8745.41
214.81	8926.15
214.883	9108.44
214.957	9265.65
215.031	9423.26
215.105	9565.61
215.178	9726.07
215.252	9883.26
215.326	10032.87
215.4	10176.88
215.473	10289.77
215.547	10442.83
215.621	10606.22
215.694	10786.81
215.768	10936.67
215.842	11084.16
215.915	11234.86
215.989	11372.4
216.063	11528.79
216.136	11707.25
216.21	11867.26
216.284	12037.31
216.357	12193.43
216.431	12353.55
216.504	12518.88
216.578	12701.13
216.652	12877.84
216.725	13030.35
216.799	13201.91
216.873	13363.64
216.946	13531.15
217.02	13685.45
217.093	13834.07
217.167	13962.78
217.24	14098.71
217.314	14238.27
217.387	14389.78
217.461	14532.75
217.535	14694.47
217.608	14825.59
217.682	14958.1
217.755	15110.95
217.829	15239.94
217.902	15377.8
217.976	15506.88
218.049	15629.89
218.123	15742.78
218.196	15874.41
218.27	15995.68
218.343	16101.81
218.417	16217.63
218.49	16344.54
218.563	16476.5
218.637	16601.43
218.71	16735.51
218.784	16855.75
218.857	16987.76
218.931	17107.96
219.004	17224.01
219.077	17341.51
219.151	17452.4
219.224	17564.06
219.298	17660.98
219.371	17778.13
219.444	17867.58
219.518	17973.46
219.591	18085.55
219.665	18211.47
219.738	18315.52
219.811	18410.07
219.885	18523.32
219.958	18624.86
220.031	18713.28
220.105	18813.18
220.178	18902.72
220.251	18988.84
220.325	19072.83
220.398	19149.6
220.471	19241.88
220.544	19324
220.618	19377.2
220.691	19463.03
220.764	19538.93
220.838	19625.09
220.911	19690.77
220.984	19787.88
221.057	19855.87
221.131	19924.4
221.204	19951.82
221.277	20028.54
221.35	20114.71
221.424	20167
221.497	20221.17
221.57	20270.03
221.643	20323.38
221.716	20377.07
221.79	20413.74
221.863	20458.71
221.936	20505.45
222.009	20552.97
222.082	20606.66
222.155	20660.68
222.229	20723.29
222.302	20766.47
222.375	20799.24
222.448	20853.08
222.521	20880.69
222.594	20915.59
222.667	20931.68
222.74	20989.81
222.814	21010.29
222.887	21038.1
222.96	21075.93
223.033	21129.24
223.106	21166.78
223.179	21200.91
223.252	21232.09
223.325	21263.42
223.398	21295.95
223.471	21329.02
223.544	21342.17
223.617	21361.07
223.69	21385.65
223.763	21388.25
223.837	21415.44
223.91	21441.08
223.983	21429.51
224.056	21439.78
224.129	21463.49
224.202	21491.4
224.275	21499.3
224.348	21508.7
224.42	21513.09
224.493	21513.71
224.566	21509.37
224.639	21523.54
224.712	21523.16
224.785	21520.7
224.858	21525.18
224.931	21520.36
225.004	21515.93
225.077	21522
225.15	21495.78
225.223	21487.83
225.296	21512.6
225.369	21484.7
225.442	21469.18
225.514	21477.95
225.587	21475.3
225.66	21477.66
225.733	21474.29
225.806	21469.42
225.879	21464.21
225.952	21449.46
226.025	21457.56
226.097	21466.05
226.17	21451.01
226.243	21434.28
226.316	21429.22
226.389	21432.16
226.461	21424.69
226.534	21421.56
226.607	21413.51
226.68	21438.33
226.753	21438.38
226.825	21401.31
226.898	21412.3
226.971	21410.61
227.044	21395.67
227.117	21386.66
227.189	21378.32
227.262	21379.53
227.335	21381.02
227.407	21365.26
227.48	21372.06
227.553	21361.74
227.626	21339.62
227.698	21327.9
227.771	21315.47
227.844	21291.61
227.916	21273.2
227.989	21260.62
228.062	21241.49
228.134	21255.51
228.207	21230.21
228.28	21205.73
228.352	21190.16
228.425	21181.92
228.498	21180.28
228.57	21164.04
228.643	21169.24
228.716	21152.32
228.788	21126.59
228.861	21097.96
228.934	21097.86
229.006	21064.8
229.079	21051.25
229.151	21022.38
229.224	20996.94
229.296	20981.85
229.369	21004.17
229.442	21011.01
229.514	20984.07
229.587	20987.11
229.659	20941.56
229.732	20938.33
229.804	20938.62
229.877	20955.39
229.949	20947.06
230.022	20943.49
230.094	20932.5
230.167	20909.66
230.239	20877.99
230.312	20858.76
230.384	20874.19
230.457	20864.35
230.529	20851.24
230.602	20829.94
230.674	20817.65
230.747	20827
230.819	20830.86
230.892	20778.76
230.964	20753.02
231.037	20742.56
231.109	20712.25
231.181	20701.21
231.254	20661.94
231.326	20637.79
231.399	20609.4
231.471	20574.85
231.544	20528.49
231.616	20513.79
231.688	20493.4
231.761	20469.5
231.833	20459.04
231.905	20399.76
231.978	20377.26
232.05	20357.11
232.122	20332.34
232.195	20314.32
232.267	20293.59
232.339	20255.38
232.412	20254.94
232.484	20231.76
232.556	20203.23
232.629	20208.82
232.701	20194.13
232.773	20173.16
232.846	20151.24
232.918	20117.79
232.99	20098.8
233.062	20096.01
233.135	20081.31
233.207	20041.6
233.279	20030.47
233.351	20002.08
233.424	19983.67
233.496	19944.64
233.568	19940.78
233.64	19911.48
233.713	19891.53
233.785	19862.91
233.857	19840.31
233.929	19795.97
234.001	19785.75
234.074	19770.33
234.146	19715.3
234.218	19687.88
234.29	19663.54
234.362	19630.15
234.434	19598.25
234.507	19565.14
234.579	19513.19
234.651	19479.7
234.723	19469.29
234.795	19451.17
234.867	19420.33
234.939	19403.65
235.012	19376.57
235.084	19353.54
235.156	19324.91
235.228	19283.61
235.3	19249.98
235.372	19222.22
235.444	19204.05
235.516	19147.91
235.588	19132.68
235.66	19123.19
235.732	19090.66
235.804	19122.32
235.876	19102.61
235.948	19088.4
236.02	19055.43
236.092	19034.76
236.164	19005.7
236.236	18972.36
236.308	18927.3
236.38	18906.91
236.452	18869.37
236.524	18841.66
236.596	18815.98
236.668	18790.34
236.74	18758.97
236.812	18731.26
236.884	18710.88
236.956	18683.41
237.028	18642.59
237.1	18594.69
237.172	18575.22
237.244	18555.51
237.316	18486.7
237.388	18446.17
237.46	18403.42
237.532	18390.32
237.604	18344.29
237.675	18325.31
237.747	18304.44
237.819	18277.84
237.891	18239.29
237.963	18194.52
238.035	18158.47
238.107	18098.14
238.178	18089.03
238.25	18054.67
238.322	18038.72
238.394	17995.83
238.466	17957.52
238.538	17942.91
238.609	17924.7
238.681	17862.05
238.753	17825.62
238.825	17793.95
238.897	17768.46
238.968	17766.39
239.04	17732.22
239.112	17734.92
239.184	17697.57
239.255	17659.07
239.327	17626.1
239.399	17599.89
239.471	17587.45
239.542	17570.34
239.614	17556.99
239.686	17496.37
239.758	17486.1
239.829	17445.43
239.901	17421.43
239.973	17385.67
240.044	17359.74
240.116	17331.6
240.188	17303.74
240.259	17272.13
240.331	17236.46
240.403	17209.14
240.474	17150.58
240.546	17107.16
240.618	17054.68
240.689	17018.72
240.761	16989.04
240.833	16983.11
240.904	16955.78
240.976	16927.2
241.048	16892.17
241.119	16864.69
241.191	16838.43
241.262	16826.38
241.334	16800.5
241.405	16770.18
241.477	16741.56
241.549	16699.09
241.62	16664.3
241.692	16641.11
241.763	16627.52
241.835	16596.92
241.906	16570.75
241.978	16529.69
242.049	16521.83
242.121	16504
242.192	16482.74
242.264	16436.47
242.335	16373.96
242.407	16343.79
242.478	16302.48
242.55	16282.77
242.621	16245.8
242.693	16213.7
242.764	16173.7
242.836	16135.62
242.907	16114.32
242.979	16095.04
243.05	16072.68
243.122	16053.73
243.193	16020.91
243.264	15961.39
243.336	15930.63
243.407	15905.43
243.479	15894.2
243.55	15857.03
243.622	15818.67
243.693	15788.01
243.764	15781.17
243.836	15748.25
243.907	15715.71
243.978	15686.98
244.05	15656.57
244.121	15609.96
244.192	15588.65
244.264	15535.92
244.335	15513.7
244.407	15461.98
244.478	15427.04
244.549	15396.77
244.62	15346.59
244.692	15308.46
244.763	15287.78
244.834	15248.98
244.906	15212.97
244.977	15183.71
245.048	15169.2
245.119	15147.95
245.191	15107.55
245.262	15051.16
245.333	15047.2
245.405	15019.25
245.476	14999.48
245.547	14967.33
245.618	14951.09
245.689	14924.86
245.761	14903.9
245.832	14865.19
245.903	14846.77
245.974	14827.59
246.045	14799.2
246.117	14791.15
246.188	14758.32
246.259	14727.85
246.33	14698.5
246.401	14663.11
246.473	14624.7
246.544	14590.09
246.615	14568.39
246.686	14539.18
246.757	14529.06
246.828	14489.39
246.899	14477.38
246.97	14431.78
247.042	14393.41
247.113	14368.34
247.184	14368.44
247.255	14333.25
247.326	14316.47
247.397	14278.97
247.468	14251.54
247.539	14220.83
247.61	14177.3
247.681	14166.79
247.752	14149.01
247.823	14110.92
247.894	14090.97
247.965	14058.09
248.037	14012.87
248.108	13963.56
248.179	13936.75
248.25	13908.36
248.321	13893.22
248.392	13852.54
248.463	13847.77
248.534	13823.37
248.605	13810.36
248.675	13769.82
248.746	13756.32
248.817	13737.42
248.888	13726
248.959	13682.23
249.03	13676.68
249.101	13661.83
249.172	13633.15
249.243	13582.39
249.314	13581.04
249.385	13556.12
249.456	13543.63
249.527	13525.99
249.598	13517.02
249.669	13496.24
249.739	13478.84
249.81	13454.06
249.881	13419.21
249.952	13399.93
250.023	13385.56
250.094	13348.97
250.165	13321.74
250.235	13297.59
250.306	13274.49
250.377	13244.17
250.448	13224.6
250.519	13170.51
250.59	13156.53
250.66	13129.73
250.731	13130.98
250.802	13106.54
250.873	13086.78
250.944	13058.92
251.014	13033.27
251.085	13035.01
251.156	13012.78
251.227	13004.73
251.297	12986.8
251.368	12976.39
251.439	12954.21
251.51	12930.74
251.58	12891.74
251.651	12862.52
251.722	12851.24
251.792	12804
251.863	12780.62
251.934	12782.31
252.005	12789.35
252.075	12761.1
252.146	12750.25
252.217	12742.78
252.287	12732.85
252.358	12710.92
252.429	12708.31
252.499	12680.4
252.57	12660.35
252.641	12647.29
252.711	12623.71
252.782	12592.57
252.852	12602.65
252.923	12583.22
252.994	12564.66
253.064	12563.94
253.135	12530.97
253.205	12500.84
253.276	12504.02
253.347	12506.82
253.417	12472.84
253.488	12443.82
253.558	12426.17
253.629	12407.28
253.699	12383.66
253.77	12369.34
253.841	12351.02
253.911	12330.78
253.982	12319.02
254.052	12304.65
254.123	12292.89
254.193	12276.02
254.264	12301.52
254.334	12268.5
254.405	12240.4
254.475	12219.38
254.546	12199.62
254.616	12207.62
254.687	12192.87
254.757	12183.42
254.827	12155.95
254.898	12145.87
254.968	12129.15
255.039	12105.53
255.109	12092.32
255.18	12069.52
255.25	12027.25
255.321	12014.33
255.391	11981.02
255.461	11983.34
255.532	11932.87
255.602	11905.64
255.673	11860.62
255.743	11823.21
255.813	11772.65
255.884	11764.56
255.954	11756.6
256.024	11756.75
256.095	11737.47
256.165	11703.34
256.235	11684.74
256.306	11660.4
256.376	11656.2
256.446	11645.17
256.517	11632.59
256.587	11624.2
256.657	11611.52
256.728	11595.14
256.798	11571.95
256.868	11557.35
256.938	11525.88
257.009	11520.67
257.079	11519.23
257.149	11529.83
257.219	11489.78
257.29	11479.56
257.36	11448.91
257.43	11441.78
257.5	11398.16
257.571	11371.89
257.641	11364.71
257.711	11330.59
257.781	11321.96
257.852	11304.03
257.922	11276.47
257.992	11259.89
258.062	11246.3
258.132	11230.58
258.202	11216.51
258.273	11202.05
258.343	11198.2
258.413	11178.92
258.483	11160.17
258.553	11126.83
258.623	11107.11
258.693	11102.54
258.764	11105.28
258.834	11102.78
258.904	11082.53
258.974	11060.08
259.044	11038.11
259.114	11027.46
259.184	11014.54
259.254	10992.81
259.324	10949.97
259.394	10935.51
259.464	10927.27
259.535	10901.29
259.605	10879.95
259.675	10856.77
259.745	10858.79
259.815	10830.84
259.885	10812.05
259.955	10828.92
260.025	10803.48
260.095	10783.91
260.165	10769.17
260.235	10773.75
260.305	10748.64
260.375	10718.77
260.445	10726.33
260.515	10734.23
260.585	10731.73
260.655	10718.09
260.725	10716.02
260.795	10715.06
260.865	10721.8
260.934	10705.18
261.004	10696.07
261.074	10680.65
261.144	10682.24
261.214	10669.23
261.284	10659.84
261.354	10654.34
261.424	10621.81
261.494	10627.02
261.564	10611.45
261.634	10603.99
261.703	10565.25
261.773	10561.05
261.843	10556.57
261.913	10541.83
261.983	10498.47
262.053	10493.89
262.123	10477.85
262.192	10450.63
