Data from 20250704_urea_1M_MAYP1162681_11-34-20-647.txt Node
Date: Fri Jul 04 11:34:20 BST 2025
User: adleo
Spectrometer: MAYP116268
Trigger mode: 0
Integration Time (sec): 1.000000E0
Scans to average: 1
Electric dark correction enabled: true
Nonlinearity correction enabled: true
Boxcar width: 10
XAxis mode: Wavelengths
Number of Pixels in Spectrum: 2068
>>>>>Begin Spectral Data<<<<<
179.565	1258.19
179.642	1319.34
179.718	1365.33
179.795	1404.67
179.871	1442.76
179.948	1458.44
180.024	1476.9
180.101	1501.14
180.177	1517.1
180.254	1541.59
180.33	1564.09
180.407	1620.35
180.483	1721.64
180.56	1815.86
180.636	1904.22
180.712	1891.76
180.789	1902.03
180.865	1912.77
180.942	1922.23
181.018	1931.17
181.095	1945.53
181.171	1950.57
181.248	1949.19
181.324	1964.08
181.4	1973.21
181.477	1981.01
181.553	1995.93
181.63	2020.28
181.706	2036.55
181.782	2042.97
181.859	2043.35
181.935	2050.2
182.011	2048.34
182.088	2062.13
182.164	2081.98
182.24	2094.53
182.317	2104.28
182.393	2103.71
182.469	2118.02
182.546	2134.2
182.622	2139.95
182.698	2135.1
182.775	2146.61
182.851	2163.31
182.927	2155.17
183.003	2147.38
183.08	2143.52
183.156	2150.28
183.232	2145.23
183.308	2134.15
183.385	2144.9
183.461	2160.55
183.537	2163.36
183.613	2172.92
183.69	2167.78
183.766	2158.78
183.842	2169.01
183.918	2174.44
183.995	2188.14
184.071	2195.04
184.147	2185.67
184.223	2172.68
184.299	2186.34
184.375	2173.07
184.452	2177.59
184.528	2229.08
184.604	2242.63
184.68	2252.62
184.756	2265.38
184.832	2269.09
184.908	2275.32
184.985	2274.84
185.061	2259.71
185.137	2266.19
185.213	2258.15
185.289	2257.67
185.365	2247.78
185.441	2244.68
185.517	2259.15
185.593	2254.87
185.669	2248.07
185.745	2259.82
185.822	2277.94
185.898	2267.56
185.974	2277.89
186.05	2270.08
186.126	2233.06
186.202	2226.73
186.278	2223.64
186.354	2211.98
186.43	2222.97
186.506	2219.26
186.582	2216.98
186.658	2222.97
186.734	2203.61
186.81	2202.09
186.886	2204.66
186.962	2218.22
187.038	2217.65
187.114	2209.51
187.19	2218.12
187.266	2209.79
187.341	2212.18
187.417	2205.37
187.493	2206.8
187.569	2208.46
187.645	2200.9
187.721	2189.77
187.797	2196.52
187.873	2202.14
187.949	2199.85
188.025	2190.71
188.101	2194.95
188.176	2202.84
188.252	2198.61
188.328	2206.12
188.404	2208.93
188.48	2203.7
188.556	2197.94
188.632	2194.85
188.707	2193.9
188.783	2190.66
188.859	2184.95
188.935	2172.25
189.011	2179.38
189.086	2172.96
189.162	2166.68
189.238	2164.35
189.314	2161.07
189.39	2155.07
189.465	2147.75
189.541	2160.07
189.617	2145.32
189.693	2138.33
189.768	2139.9
189.844	2163.6
189.92	2154.19
189.996	2163.42
190.071	2173.31
190.147	2172.6
190.223	2180.02
190.298	2175.22
190.374	2160.9
190.45	2172.88
190.526	2181.88
190.601	2177.02
190.677	2178.69
190.753	2205.11
190.828	2210.1
190.904	2229.56
190.98	2245.13
191.055	2254.55
191.131	2245.51
191.207	2265.06
191.282	2275.29
191.358	2264.87
191.433	2250.92
191.509	2267.52
191.585	2266.76
191.66	2270.66
191.736	2274.51
191.811	2264.66
191.887	2277.42
191.963	2299.36
192.038	2308.35
192.114	2308.88
192.189	2312.49
192.265	2307.59
192.34	2285.88
192.416	2284.65
192.491	2278.46
192.567	2279.27
192.642	2280.03
192.718	2281.41
192.793	2268.56
192.869	2264.32
192.944	2267.51
193.02	2275.37
193.095	2279.7
193.171	2282.12
193.246	2279.79
193.322	2277.94
193.397	2279.98
193.473	2267.27
193.548	2250.9
193.624	2256.28
193.699	2254.8
193.775	2271.09
193.85	2275.51
193.925	2283.79
194.001	2283.41
194.076	2275.56
194.152	2267.51
194.227	2261.85
194.302	2250.67
194.378	2257.52
194.453	2254.34
194.529	2270.66
194.604	2255.96
194.679	2245.34
194.755	2225.75
194.83	2238.41
194.905	2236.46
194.981	2246.45
195.056	2238.98
195.131	2243.84
195.207	2239.74
195.282	2230.08
195.357	2211.19
195.433	2223.08
195.508	2212.76
195.583	2219.56
195.659	2233.12
195.734	2240.98
195.809	2238.55
195.884	2249.16
195.96	2249.44
196.035	2264.29
196.11	2254.1
196.185	2269.43
196.261	2276.42
196.336	2309.4
196.411	2295.92
196.486	2304.87
196.561	2298.02
196.637	2306.63
196.712	2324.43
196.787	2328.86
196.862	2343.71
196.937	2355.7
197.013	2362.94
197.088	2374.5
197.163	2397.74
197.238	2415.51
197.313	2415.79
197.388	2434.17
197.464	2462.88
197.539	2472.83
197.614	2469.35
197.689	2486.73
197.764	2500.21
197.839	2521.59
197.914	2518.54
197.989	2540.54
198.065	2552.21
198.14	2602.05
198.215	2629.86
198.29	2642.06
198.365	2654.73
198.44	2665.11
198.515	2692.18
198.59	2709.61
198.665	2734.86
198.74	2743.87
198.815	2746.63
198.89	2765.97
198.965	2793
199.04	2791.57
199.115	2811.53
199.19	2854.51
199.265	2853.18
199.34	2861.38
199.415	2891.61
199.49	2911.52
199.565	2923.58
199.64	2946.46
199.715	2946.51
199.79	2954.56
199.865	2963.43
199.94	2961.96
200.015	2997.19
200.09	3001.15
200.165	3009.49
200.24	3015.26
200.315	3059.98
200.39	3075.14
200.464	3084.1
200.539	3085.63
200.614	3103.18
200.689	3124.26
200.764	3127.55
200.839	3148.85
200.914	3155.81
200.989	3147.56
201.063	3163.01
201.138	3140.57
201.213	3144.34
201.288	3121.88
201.363	3128.55
201.438	3127.74
201.512	3143.76
201.587	3127.35
201.662	3132.5
201.737	3144.09
201.812	3153.1
201.886	3112.96
201.961	3124.99
202.036	3111.4
202.111	3107.73
202.186	3075.66
202.26	3058.44
202.335	3037.65
202.41	3030.11
202.485	3016.15
202.559	2997.89
202.634	2970.76
202.709	2982.09
202.784	2963.4
202.858	2968.41
202.933	2947.24
203.008	2941.67
203.082	2921.79
203.157	2914.78
203.232	2872.14
203.306	2851.97
203.381	2818.12
203.456	2793.2
203.53	2769.4
203.605	2752.06
203.68	2729.71
203.754	2726.04
203.829	2708.17
203.904	2688.88
203.978	2678.49
204.053	2679.58
204.127	2662.39
204.202	2658.44
204.277	2641.19
204.351	2628.9
204.426	2616.37
204.5	2609.23
204.575	2570.61
204.65	2582.66
204.724	2578.47
204.799	2586.85
204.873	2578.75
204.948	2579.89
205.022	2571.41
205.097	2562.41
205.171	2576.6
205.246	2586.27
205.32	2583.18
205.395	2582.8
205.469	2575.7
205.544	2582.66
205.618	2564.89
205.693	2577.75
205.767	2563.99
205.842	2587
205.916	2581.34
205.991	2575.1
206.065	2581.77
206.14	2599.47
206.214	2591.94
206.289	2581.6
206.363	2591.27
206.438	2593.22
206.512	2600.61
206.586	2621.47
206.661	2625.85
206.735	2603.23
206.81	2601.76
206.884	2620
206.958	2608.23
207.033	2624.38
207.107	2631.24
207.181	2664.02
207.256	2659.83
207.33	2683.07
207.405	2695.56
207.479	2717.24
207.553	2722.14
207.628	2702
207.702	2714.15
207.776	2710.05
207.851	2718.77
207.925	2735.07
207.999	2731.92
208.073	2729.64
208.148	2732.4
208.222	2724.06
208.296	2755.83
208.371	2771.75
208.445	2784.1
208.519	2815.82
208.593	2828.55
208.668	2821.16
208.742	2825.59
208.816	2828.41
208.89	2843.47
208.965	2841.66
209.039	2854.2
209.113	2875.6
209.187	2900.65
209.261	2896.84
209.336	2919.38
209.41	2941.17
209.484	2944.94
209.558	2973.06
209.632	2992.27
209.707	3008.53
209.781	3038.52
209.855	3063.66
209.929	3091.2
210.003	3104.7
210.077	3115.48
210.151	3175.15
210.226	3226.69
210.3	3269.24
210.374	3307.58
210.448	3328.39
210.522	3359.84
210.596	3389.24
210.67	3421.56
210.744	3493.6
210.818	3553.67
210.892	3603
210.966	3628.35
211.041	3678.58
211.115	3710.48
211.189	3767.83
211.263	3827.5
211.337	3872.02
211.411	3929.51
211.485	3972.45
211.559	4035.81
211.633	4092.62
211.707	4117.63
211.781	4180.27
211.855	4206.34
211.929	4264.27
212.003	4311.12
212.077	4390.41
212.151	4472.53
212.225	4553.45
212.299	4620.93
212.373	4694.06
212.447	4774.61
212.52	4890.97
212.594	4986.06
212.668	5098.72
212.742	5186.77
212.816	5281.91
212.89	5387.86
212.964	5498.64
213.038	5609.76
213.112	5737.54
213.186	5872.5
213.26	5974.16
213.333	6055.68
213.407	6185.92
213.481	6322.38
213.555	6473.62
213.629	6602.14
213.703	6734.81
213.777	6880.84
213.85	7007.25
213.924	7190.98
213.998	7345.32
214.072	7495.19
214.146	7635.76
214.219	7789.07
214.293	7945.39
214.367	8107
214.441	8286.78
214.515	8439.13
214.588	8582.56
214.662	8711.73
214.736	8853.94
214.81	9031.27
214.883	9211.61
214.957	9373.11
215.031	9532.32
215.105	9679.74
215.178	9835.21
215.252	9997.71
215.326	10147.23
215.4	10305.94
215.473	10428.37
215.547	10582.21
215.621	10743.59
215.694	10928
215.768	11069.04
215.842	11230.71
215.915	11388.98
215.989	11526
216.063	11680.95
216.136	11844.62
216.21	12010.7
216.284	12191.93
216.357	12356.68
216.431	12516.9
216.504	12686.86
216.578	12874.37
216.652	13051.46
216.725	13216.18
216.799	13387.06
216.873	13538.04
216.946	13699.29
217.02	13847.95
217.093	14005.48
217.167	14129.18
217.24	14258.8
217.314	14405.35
217.387	14545.62
217.461	14684.02
217.535	14843.52
217.608	14974.3
217.682	15120.78
217.755	15274.12
217.829	15395.05
217.902	15536.09
217.976	15668.59
218.049	15795.17
218.123	15909.21
218.196	16035.49
218.27	16144.71
218.343	16250.12
218.417	16378.27
218.49	16498.38
218.563	16639.41
218.637	16747.8
218.71	16895.03
218.784	17021.5
218.857	17155
218.931	17269.84
219.004	17382.76
219.077	17488.4
219.151	17601.99
219.224	17703.49
219.298	17811.77
219.371	17925.51
219.444	18004.69
219.518	18101.7
219.591	18201.74
219.665	18322.27
219.738	18428
219.811	18520.81
219.885	18614.4
219.958	18722.87
220.031	18804.56
220.105	18892.79
220.178	18987.87
220.251	19058.42
220.325	19137.79
220.398	19218.46
220.471	19302.94
220.544	19378.79
220.618	19451.8
220.691	19530.69
220.764	19610.73
220.838	19680.99
220.911	19750.43
220.984	19843.35
221.057	19927.1
221.131	19997.6
221.204	20029.6
221.277	20092.35
221.35	20187.24
221.424	20246.95
221.497	20300.01
221.57	20355
221.643	20420.49
221.716	20480.68
221.79	20529.5
221.863	20579.53
221.936	20622.23
222.009	20659.82
222.082	20716.01
222.155	20752.4
222.229	20812.3
222.302	20854.14
222.375	20892.84
222.448	20935.06
222.521	20964.94
222.594	20989.52
222.667	21008.02
222.74	21058.97
222.814	21089.81
222.887	21115.84
222.96	21158.11
223.033	21191.9
223.106	21233.68
223.179	21256.38
223.252	21275.42
223.325	21306.27
223.398	21335.38
223.471	21365.74
223.544	21401.46
223.617	21419
223.69	21443.05
223.763	21448.6
223.837	21472.74
223.91	21493.13
223.983	21489.9
224.056	21491.3
224.129	21504.31
224.202	21521.66
224.275	21524.75
224.348	21525.86
224.42	21514.58
224.493	21510.14
224.566	21512.94
224.639	21521.71
224.712	21524.07
224.785	21534.2
224.858	21532.27
224.931	21521.91
225.004	21514.58
225.077	21508.46
225.15	21490.14
225.223	21488.46
225.296	21510.34
225.369	21498.68
225.442	21487.2
225.514	21504.12
225.587	21510.72
225.66	21518.97
225.733	21520.12
225.806	21526.49
225.879	21520.51
225.952	21508.17
226.025	21511.64
226.097	21521.14
226.17	21513.47
226.243	21487.06
226.316	21482.1
226.389	21481.37
226.461	21486.67
226.534	21479.01
226.607	21474.87
226.68	21495.4
226.753	21498.05
226.825	21469.32
226.898	21474.19
226.971	21463.97
227.044	21453.56
227.117	21455.15
227.189	21452.02
227.262	21451.63
227.335	21435.92
227.407	21418.33
227.48	21420.59
227.553	21412.93
227.626	21392.2
227.698	21383.72
227.771	21375.14
227.844	21345.02
227.916	21329.88
227.989	21304.05
228.062	21293.49
228.134	21301.98
228.207	21286.36
228.28	21260.38
228.352	21243.99
228.425	21229.87
228.498	21223.32
228.57	21192.95
228.643	21182.64
228.716	21169.53
228.788	21160.27
228.861	21138.92
228.934	21139.26
229.006	21124.13
229.079	21112.08
229.151	21092.65
229.224	21062.24
229.296	21054.48
229.369	21075.88
229.442	21076.8
229.514	21049.52
229.587	21047.4
229.659	21012.7
229.732	21000.6
229.804	20999.73
229.877	21006.38
229.949	21002.82
230.022	21012.84
230.094	21000.02
230.167	20984.12
230.239	20956.02
230.312	20941.71
230.384	20950.04
230.457	20947.06
230.529	20932.5
230.602	20920.98
230.674	20909.9
230.747	20906.96
230.819	20902.43
230.892	20834.14
230.964	20815
231.037	20805.56
231.109	20781.75
231.181	20770.47
231.254	20736.78
231.326	20714.28
231.399	20691.67
231.471	20659.82
231.544	20606.32
231.616	20602.51
231.688	20588.05
231.761	20556.15
231.833	20529.07
231.905	20470.61
231.978	20439.57
232.05	20409.88
232.122	20383.72
232.195	20345.74
232.267	20331.91
232.339	20301.4
232.412	20315.76
232.484	20282.99
232.556	20262.41
232.629	20257.26
232.701	20247.23
232.773	20232.68
232.846	20208.05
232.918	20182.51
232.99	20159.09
233.062	20155.04
233.135	20137.5
233.207	20096.59
233.279	20086.22
233.351	20058.56
233.424	20046.71
233.496	20015.19
233.568	20017.55
233.64	19975.48
233.713	19959.34
233.785	19937.36
233.857	19922.71
233.929	19872.31
234.001	19865.94
234.074	19847.15
234.146	19796.02
234.218	19757.37
234.29	19723.15
234.362	19684.55
234.434	19637.47
234.507	19596.27
234.579	19541.57
234.651	19500.56
234.723	19483.17
234.795	19453.48
234.867	19425.68
234.939	19415.99
235.012	19393.63
235.084	19364.43
235.156	19346.16
235.228	19314.65
235.3	19276.82
235.372	19243.66
235.444	19228.1
235.516	19174.08
235.588	19157.5
235.66	19138.03
235.732	19099.48
235.804	19133.5
235.876	19110.52
235.948	19112.54
236.02	19088.01
236.092	19068.69
236.164	19040.98
236.236	19002.43
236.308	18978.28
236.38	18958.72
236.452	18915.92
236.524	18889.04
236.596	18877.95
236.668	18847.78
236.74	18817.23
236.812	18793.38
236.884	18765.19
236.956	18741.33
237.028	18707.12
237.1	18657.72
237.172	18647.94
237.244	18638.16
237.316	18564.19
237.388	18527.27
237.46	18475.76
237.532	18452.87
237.604	18418.46
237.675	18412.24
237.747	18396.29
237.819	18352.58
237.891	18316.39
237.963	18271.14
238.035	18232.73
238.107	18156.59
238.178	18141.36
238.25	18115
238.322	18104.06
238.394	18058.48
238.466	18017.03
238.538	17995.44
238.609	17975.25
238.681	17914.87
238.753	17871.25
238.825	17840.6
238.897	17823.54
238.968	17813.52
239.04	17781.23
239.112	17775.26
239.184	17726.68
239.255	17690.05
239.327	17662.97
239.399	17629.28
239.471	17620.13
239.542	17595.16
239.614	17586.2
239.686	17533.72
239.758	17511.89
239.829	17472.42
239.901	17462.78
239.973	17446.1
240.044	17417.09
240.116	17389.96
240.188	17364.85
240.259	17334.97
240.331	17296.22
240.403	17270.05
240.474	17216.99
240.546	17179.5
240.618	17122.53
240.689	17078
240.761	17048.17
240.833	17043.01
240.904	17011.4
240.976	16978.43
241.048	16954.58
241.119	16934.38
241.191	16914.09
241.262	16896.12
241.334	16852.89
241.405	16811.63
241.477	16768.93
241.549	16728.11
241.62	16694.28
241.692	16673.79
241.763	16660.92
241.835	16627.09
241.906	16594.32
241.978	16553.88
242.049	16531.9
242.121	16518.7
242.192	16505.35
242.264	16461.24
242.335	16399.7
242.407	16377.48
242.478	16336.94
242.55	16304.8
242.621	16265.28
242.693	16220.4
242.764	16180.21
242.836	16152.01
242.907	16129.6
242.979	16097.93
243.05	16089.69
243.122	16069.64
243.193	16033.2
243.264	15981.97
243.336	15961.29
243.407	15934.88
243.479	15925.43
243.55	15900.08
243.622	15868.8
243.693	15842.67
243.764	15831.63
243.836	15795.72
243.907	15766.76
243.978	15735.43
244.05	15705.98
244.121	15656.81
244.192	15643.02
244.264	15601.04
244.335	15568.99
244.407	15528.69
244.478	15506.86
244.549	15464.25
244.62	15408.53
244.692	15376.57
244.763	15357.72
244.834	15313.28
244.906	15276.79
244.977	15247.68
245.048	15229.65
245.119	15199.96
245.191	15158.07
245.262	15107.07
245.333	15092.42
245.405	15062.53
245.476	15036.6
245.547	15013.12
245.618	14997.7
245.689	14972.92
245.761	14945.93
245.832	14916.86
245.903	14888.95
245.974	14862.1
246.045	14835.35
246.117	14832.75
246.188	14793.17
246.259	14743.38
246.33	14720.04
246.401	14688.81
246.473	14646
246.544	14609.85
246.615	14583.53
246.686	14552.78
246.757	14542.36
246.828	14509.34
246.899	14493.19
246.97	14453.42
247.042	14422.28
247.113	14397.51
247.184	14385.65
247.255	14348.63
247.326	14326.02
247.397	14300.52
247.468	14278.2
247.539	14245.9
247.61	14198.08
247.681	14185.35
247.752	14181.93
247.823	14145.82
247.894	14129.72
247.965	14095.79
248.037	14074.38
248.108	14040.88
248.179	14014.22
248.25	13985.64
248.321	13960.47
248.392	13922.58
248.463	13926.54
248.534	13891.54
248.605	13877.22
248.675	13845.6
248.746	13830.22
248.817	13803.37
248.888	13781.63
248.959	13739.11
249.03	13725.18
249.101	13708.31
249.172	13674.13
249.243	13622.26
249.314	13617.19
249.385	13582.05
249.456	13569.18
249.527	13536.26
249.598	13517.5
249.669	13494.8
249.739	13473.59
249.81	13466.16
249.881	13431.55
249.952	13397.95
250.023	13375.78
250.094	13334.37
250.165	13305.97
250.235	13284.04
250.306	13268.81
250.377	13240.12
250.448	13223.25
250.519	13181.5
250.59	13176.15
250.66	13157.83
250.731	13159.76
250.802	13132.24
250.873	13119.46
250.944	13098.73
251.014	13060.07
251.085	13061.18
251.156	13045.56
251.227	13033.08
251.297	13017.51
251.368	13005.12
251.439	12991.23
251.51	12978.46
251.58	12947.75
251.651	12914.3
251.722	12899.02
251.792	12857.27
251.863	12828.11
251.934	12823.62
252.005	12825.5
252.075	12798.36
252.146	12785.4
252.217	12770.4
252.287	12761.73
252.358	12737.82
252.429	12740.32
252.499	12723.6
252.57	12697.56
252.641	12684.16
252.711	12662.66
252.782	12619.23
252.852	12617.16
252.923	12597.49
252.994	12586.21
253.064	12579.51
253.135	12555.46
253.205	12530.58
253.276	12530.97
253.347	12528.75
253.417	12498.14
253.488	12477.46
253.558	12454.13
253.629	12427.62
253.699	12416.48
253.77	12400.05
253.841	12379.08
253.911	12356.57
253.982	12344.56
254.052	12334.15
254.123	12314.82
254.193	12295.68
254.264	12322.78
254.334	12288.31
254.405	12258.09
254.475	12229.7
254.546	12211.81
254.616	12207.14
254.687	12192.87
254.757	12177.01
254.827	12158.36
254.898	12140.67
254.968	12114.88
255.039	12092.27
255.109	12080.37
255.18	12045.9
255.25	12004.88
255.321	11990.04
255.391	11951.48
255.461	11953.93
255.532	11910.6
255.602	11888.38
255.673	11853
255.743	11818.2
255.813	11787.16
255.884	11786.92
255.954	11769.08
256.024	11766.1
256.095	11753.23
256.165	11722.57
256.235	11704.21
256.306	11680.59
256.376	11679.82
256.446	11676.25
256.517	11666.52
256.587	11662.47
256.657	11645.89
256.728	11640.44
256.798	11627.19
256.868	11608.25
256.938	11576.19
257.009	11574.12
257.079	11567.76
257.149	11580.87
257.219	11546.94
257.29	11536.38
257.36	11490.65
257.43	11484.53
257.5	11441.78
257.571	11411.89
257.641	11405.87
257.711	11380.66
257.781	11364.81
257.852	11345.72
257.922	11308.56
257.992	11287.21
258.062	11269.19
258.132	11264.42
258.202	11239.74
258.273	11223.79
258.343	11227.31
258.413	11202.44
258.483	11181.38
258.553	11144.61
258.623	11111.4
258.693	11095.45
258.764	11094.68
258.834	11098.34
258.904	11084.03
258.974	11063.69
259.044	11044.61
259.114	11035.65
259.184	11025.38
259.254	11010.49
259.324	10973.48
259.394	10968.18
259.464	10968.33
259.535	10951.36
259.605	10929.05
259.675	10902.4
259.745	10887.32
259.815	10860.58
259.885	10838.31
259.955	10847.18
260.025	10826.85
260.095	10807.77
260.165	10804.83
260.235	10799.82
260.305	10779.1
260.375	10752.74
260.445	10763.14
260.515	10768.83
260.585	10765.7
260.655	10748.88
260.725	10745.03
260.795	10740.45
260.865	10740.64
260.934	10715.06
261.004	10707.15
261.074	10694
261.144	10697.42
261.214	10690.96
261.284	10671.16
261.354	10667.59
261.424	10640.32
261.494	10641.71
261.564	10633.48
261.634	10622.59
261.703	10586.74
261.773	10574.02
261.843	10568.43
261.913	10550.36
261.983	10514.32
262.053	10499.67
262.123	10483.82
262.192	10452.02
262.262	10446.63
262.332	10414.3
