Data from 20250704_urea_1.5M_MAYP1162681_11-56-34-545.txt Node
Date: Fri Jul 04 11:56:34 BST 2025
User: adleo
Spectrometer: MAYP116268
Trigger mode: 0
Integration Time (sec): 1.000000E0
Scans to average: 1
Electric dark correction enabled: true
Nonlinearity correction enabled: true
Boxcar width: 10
XAxis mode: Wavelengths
Number of Pixels in Spectrum: 2068
>>>>>Begin Spectral Data<<<<<
179.565	1273.07
179.642	1334.16
179.718	1382.78
179.795	1422.95
179.871	1456.58
179.948	1476.64
180.024	1499.45
180.101	1520.39
180.177	1532.98
180.254	1557.28
180.33	1580.51
180.407	1640.68
180.483	1740.88
180.56	1839.19
180.636	1929.06
180.712	1914.84
180.789	1926.78
180.865	1941.37
180.942	1948.17
181.018	1958.05
181.095	1968.8
181.171	1975.7
181.248	1976.08
181.324	1990.02
181.4	1997.96
181.477	2007.99
181.553	2022.11
181.63	2043.71
181.706	2063.11
181.782	2074.62
181.859	2072.9
181.935	2078.8
182.011	2072.19
182.088	2087.46
182.164	2104.07
182.24	2115.77
182.317	2126.47
182.393	2124.23
182.469	2137.93
182.546	2153.06
182.622	2160.71
182.698	2157.24
182.775	2166
182.851	2183.5
182.927	2175.65
183.003	2171.42
183.08	2168.57
183.156	2175.8
183.232	2169.99
183.308	2158.43
183.385	2167.14
183.461	2188.07
183.537	2190.02
183.613	2207.48
183.69	2202.16
183.766	2190.11
183.842	2199.25
183.918	2204.34
183.995	2218.04
184.071	2221.14
184.147	2216.66
184.223	2203.63
184.299	2217.34
184.375	2206.25
184.452	2211.87
184.528	2265.56
184.604	2273.88
184.68	2286.97
184.756	2294.77
184.832	2299.86
184.908	2305
184.985	2302.76
185.061	2282.73
185.137	2292.68
185.213	2277.6
185.289	2276.17
185.365	2266.61
185.441	2264.89
185.517	2278.18
185.593	2274.61
185.669	2271.51
185.745	2280.7
185.822	2297.06
185.898	2289.06
185.974	2300.96
186.05	2291.29
186.126	2253.79
186.202	2250.08
186.278	2242.99
186.354	2235.94
186.43	2245.37
186.506	2241.9
186.582	2241.23
186.658	2249.41
186.734	2226.86
186.81	2229.38
186.886	2231.85
186.962	2247.31
187.038	2243.18
187.114	2234.94
187.19	2241.74
187.266	2236.51
187.341	2235.27
187.417	2228.14
187.493	2226.71
187.569	2225.76
187.645	2221.95
187.721	2209.67
187.797	2216.19
187.873	2221.71
187.949	2214.95
188.025	2206.24
188.101	2213.33
188.176	2221.47
188.252	2218.42
188.328	2226.98
188.404	2226.51
188.48	2224.7
188.556	2219.23
188.632	2219.66
188.707	2219.7
188.783	2216.09
188.859	2206.86
188.935	2197.53
189.011	2206.86
189.086	2201.39
189.162	2196.49
189.238	2191.35
189.314	2190.59
189.39	2185.07
189.465	2178.31
189.541	2195.16
189.617	2180.5
189.693	2170.71
189.768	2172.47
189.844	2197.31
189.92	2190.27
189.996	2200.36
190.071	2207.93
190.147	2208.88
190.223	2218.44
190.298	2213.88
190.374	2200.89
190.45	2215.4
190.526	2223.53
190.601	2217.68
190.677	2217.58
190.753	2246.25
190.828	2248.82
190.904	2264.62
190.98	2279.51
191.055	2288.22
191.131	2276.18
191.207	2297.16
191.282	2308.25
191.358	2298.92
191.433	2282.78
191.509	2295.15
191.585	2292.77
191.66	2295.43
191.736	2302.1
191.811	2295.15
191.887	2309.57
191.963	2333.65
192.038	2337.94
192.114	2340.22
192.189	2344.31
192.265	2343.6
192.34	2318.32
192.416	2318.41
192.491	2313.98
192.567	2315.98
192.642	2320.93
192.718	2323.79
192.793	2307.75
192.869	2304.94
192.944	2307.61
193.02	2318.32
193.095	2322.7
193.171	2328.74
193.246	2331.84
193.322	2329.12
193.397	2328.5
193.473	2315.74
193.548	2296.47
193.624	2299.04
193.699	2297.9
193.775	2312.37
193.85	2311.85
193.925	2319.94
194.001	2319.56
194.076	2311.61
194.152	2302.99
194.227	2296.04
194.302	2284.96
194.378	2290.48
194.453	2286.53
194.529	2300.23
194.604	2281.34
194.679	2275.91
194.755	2254.22
194.83	2263.08
194.905	2259.94
194.981	2268.08
195.056	2259.27
195.131	2266.98
195.207	2268.74
195.282	2258.27
195.357	2239.95
195.433	2258.41
195.508	2250.51
195.583	2256.93
195.659	2271.41
195.734	2279.26
195.809	2275.83
195.884	2287.01
195.96	2286.16
196.035	2301.19
196.11	2293.96
196.185	2308.52
196.261	2312.66
196.336	2346.21
196.411	2333.17
196.486	2335.74
196.561	2330.36
196.637	2339.16
196.712	2355.59
196.787	2358.63
196.862	2376.01
196.937	2390.52
197.013	2394.14
197.088	2404.8
197.163	2426.66
197.238	2443.53
197.313	2437.91
197.388	2455.62
197.464	2485.24
197.539	2501.57
197.614	2495.33
197.689	2511.38
197.764	2529.48
197.839	2551.77
197.914	2546.24
197.989	2570.01
198.065	2589.01
198.14	2640.67
198.215	2668.1
198.29	2679.97
198.365	2694.02
198.44	2701.88
198.515	2729.85
198.59	2745.48
198.665	2773.45
198.74	2783.55
198.815	2786.41
198.89	2816.28
198.965	2848.32
199.04	2846.37
199.115	2863.52
199.19	2908.83
199.265	2911.17
199.34	2916.08
199.415	2945.31
199.49	2965.8
199.565	2976.57
199.64	3002.46
199.715	2996.16
199.79	3007.8
199.865	3015.19
199.94	3013.76
200.015	3047.56
200.09	3051.38
200.165	3058.53
200.24	3059.48
200.315	3101.62
200.39	3112.16
200.464	3117.79
200.539	3117.93
200.614	3133.52
200.689	3155.37
200.764	3161.62
200.839	3179.07
200.914	3187.98
200.989	3178.63
201.063	3194.18
201.138	3174.59
201.213	3169.53
201.288	3151.13
201.363	3154.51
201.438	3154.56
201.512	3171.06
201.587	3152.12
201.662	3157.46
201.737	3171.25
201.812	3186.56
201.886	3148.71
201.961	3164.89
202.036	3150.68
202.111	3143.57
202.186	3112.12
202.26	3093.61
202.335	3069.62
202.41	3063.9
202.485	3042.88
202.559	3023.61
202.634	2995.34
202.709	3005.44
202.784	2987.38
202.858	2986.52
202.933	2966.59
203.008	2961.2
203.082	2940.66
203.157	2943.37
203.232	2897.53
203.306	2874.12
203.381	2839.88
203.456	2818.39
203.53	2792.58
203.605	2773.95
203.68	2752.07
203.754	2746.5
203.829	2733.02
203.904	2715.72
203.978	2704.71
204.053	2713.19
204.127	2699.71
204.202	2700.33
204.277	2682.28
204.351	2677.18
204.426	2672.32
204.5	2661.32
204.575	2624.79
204.65	2635.37
204.724	2625.36
204.799	2631.64
204.873	2630.4
204.948	2629.07
205.022	2615.12
205.097	2606.25
205.171	2620.21
205.246	2628.45
205.32	2629.35
205.395	2628.54
205.469	2616.12
205.544	2618.5
205.618	2599.83
205.693	2612.55
205.767	2598.5
205.842	2619.27
205.916	2612.7
205.991	2597.98
206.065	2603.65
206.14	2621.26
206.214	2614.02
206.289	2608.3
206.363	2622.35
206.438	2623.11
206.512	2630.35
206.586	2655.74
206.661	2662.17
206.735	2640.22
206.81	2637.7
206.884	2652.08
206.958	2639.7
207.033	2659.88
207.107	2669.46
207.181	2703.97
207.256	2698.92
207.33	2720.45
207.405	2734.18
207.479	2755.05
207.553	2765.29
207.628	2750.81
207.702	2760.96
207.776	2755.72
207.851	2760.72
207.925	2771.78
207.999	2767.78
208.073	2764.58
208.148	2765.06
208.222	2753.34
208.296	2786.53
208.371	2805.13
208.445	2819.62
208.519	2846.2
208.593	2859.79
208.668	2855.5
208.742	2856.64
208.816	2856.31
208.89	2871.23
208.965	2868.51
209.039	2873.33
209.113	2889.96
209.187	2912.49
209.261	2910.15
209.336	2931.27
209.41	2948.34
209.484	2955.82
209.558	2978.99
209.632	2991.62
209.707	3002.49
209.781	3025.8
209.855	3041.11
209.929	3060.63
210.003	3064.26
210.077	3065.54
210.151	3114.19
210.226	3152.02
210.3	3183.67
210.374	3208.7
210.448	3218.15
210.522	3232.03
210.596	3247.15
210.67	3263.42
210.744	3313.96
210.818	3353.54
210.892	3379.36
210.966	3379.36
211.041	3398.68
211.115	3404.31
211.189	3437.38
211.263	3461.43
211.337	3477.23
211.411	3501.91
211.485	3505.44
211.559	3526.39
211.633	3541.8
211.707	3521.88
211.781	3543.96
211.855	3522.37
211.929	3532.92
212.003	3524.23
212.077	3557.86
212.151	3590.34
212.225	3623.53
212.299	3635.38
212.373	3646.7
212.447	3673.89
212.52	3737.86
212.594	3768.39
212.668	3811.14
212.742	3829.82
212.816	3861.07
212.89	3895.86
212.964	3935.49
213.038	3982.73
213.112	4046.85
213.186	4112.85
213.26	4140.56
213.333	4144.68
213.407	4208.54
213.481	4270.91
213.555	4346.8
213.629	4393.22
213.703	4441.84
213.777	4505.93
213.85	4557.76
213.924	4662.18
213.998	4735.74
214.072	4802.62
214.146	4873.25
214.219	4948.82
214.293	5030.61
214.367	5124.13
214.441	5223.93
214.515	5306.09
214.588	5380.48
214.662	5443.18
214.736	5520.6
214.81	5630.95
214.883	5743.24
214.957	5833.05
215.031	5925.78
215.105	6010.17
215.178	6103.97
215.252	6208.68
215.326	6300.45
215.4	6395.19
215.473	6463.67
215.547	6562.22
215.621	6662.72
215.694	6784.26
215.768	6891.72
215.842	7003.36
215.915	7110.97
215.989	7206.23
216.063	7315.5
216.136	7438.18
216.21	7557.91
216.284	7689.51
216.357	7818.96
216.431	7945.88
216.504	8079.49
216.578	8236.56
216.652	8381.58
216.725	8512.26
216.799	8651.16
216.873	8776.86
216.946	8918.35
217.02	9049.93
217.093	9177.22
217.167	9284.34
217.24	9405.45
217.314	9531.99
217.387	9652.08
217.461	9769.97
217.535	9914.46
217.608	10036.71
217.682	10162.77
217.755	10302.08
217.829	10427.63
217.902	10554.49
217.976	10678.45
218.049	10803.25
218.123	10910.76
218.196	11039.32
218.27	11162.69
218.343	11279.08
218.417	11415.41
218.49	11538.02
218.563	11681.07
218.637	11809.18
218.71	11962.25
218.784	12085.4
218.857	12220.8
218.931	12355.13
219.004	12485.85
219.077	12609.4
219.151	12736.66
219.224	12855.05
219.298	12979.22
219.371	13109.08
219.444	13216.44
219.518	13335.99
219.591	13450.28
219.665	13595.96
219.738	13717.39
219.811	13826.72
219.885	13949.6
219.958	14063.22
220.031	14171.97
220.105	14284
220.178	14393.47
220.251	14490.55
220.325	14608.41
220.398	14709.35
220.471	14813.62
220.544	14913.98
220.618	15007.78
220.691	15112.63
220.764	15216.41
220.838	15317.15
220.911	15398.03
220.984	15511.5
221.057	15613.93
221.131	15709.56
221.204	15753.32
221.277	15856.23
221.35	15976.24
221.424	16046.13
221.497	16132.36
221.57	16213.09
221.643	16295.46
221.716	16383.9
221.79	16458.9
221.863	16529.02
221.936	16601.42
222.009	16678.68
222.082	16759.89
222.155	16825.38
222.229	16902.11
222.302	16973.15
222.375	17041.01
222.448	17125.78
222.521	17186.02
222.594	17234.41
222.667	17287.95
222.74	17374.8
222.814	17427.09
222.887	17471.43
222.96	17548.63
223.033	17611.14
223.106	17676.68
223.179	17734.65
223.252	17793.73
223.325	17851.76
223.398	17899.42
223.471	17954.41
223.544	18010.6
223.617	18063.94
223.69	18121.53
223.763	18157.1
223.837	18202.78
223.91	18250.68
223.983	18271.21
224.056	18307.74
224.129	18357.86
224.202	18412.89
224.275	18436.89
224.348	18462.63
224.42	18490.53
224.493	18514.82
224.566	18534.38
224.639	18565.42
224.712	18587.05
224.785	18607.68
224.858	18628.83
224.931	18652.01
225.004	18667.1
225.077	18681.46
225.15	18674.08
225.223	18687.67
225.296	18736.49
225.369	18741.16
225.442	18754.66
225.514	18780.2
225.587	18800.68
225.66	18830.27
225.733	18847.81
225.806	18874.89
225.879	18894.12
225.952	18894.07
226.025	18916.05
226.097	18954.65
226.17	18974.84
226.243	18966.16
226.316	18972.43
226.389	18997
226.461	19023.32
226.534	19046.49
226.607	19067.55
226.68	19105.09
226.753	19125.09
226.825	19103.21
226.898	19150.05
226.971	19157.52
227.044	19174.78
227.117	19184.08
227.189	19187.11
227.262	19201.95
227.335	19220.03
227.407	19216.46
227.48	19231.64
227.553	19239.06
227.626	19233.37
227.698	19232.17
227.771	19249.08
227.844	19247.11
227.916	19246.1
227.989	19238.29
228.062	19240.55
228.134	19259.73
228.207	19272.5
228.28	19264.31
228.352	19268.31
228.425	19256.41
228.498	19261.95
228.57	19240.75
228.643	19258.14
228.716	19264.84
228.788	19252.94
228.861	19239.64
228.934	19254.43
229.006	19254.34
229.079	19253.57
229.151	19243.3
229.224	19224.75
229.296	19228.99
229.369	19257.23
229.442	19260.02
229.514	19243.45
229.587	19248.02
229.659	19215.11
229.732	19200.99
229.804	19212.7
229.877	19240.17
229.949	19248.22
230.022	19268.89
230.094	19285.85
230.167	19280.46
230.239	19256.84
230.312	19260.84
230.384	19277.47
230.457	19274.38
230.529	19276.5
230.602	19272.22
230.674	19272.12
230.747	19283.49
230.819	19289.56
230.892	19247.74
230.964	19252.17
231.037	19250.67
231.109	19237.13
231.181	19247.21
231.254	19230.87
231.326	19218.34
231.399	19211.98
231.471	19186.82
231.544	19147.74
231.616	19139.02
231.688	19120.95
231.761	19107.74
231.833	19089
231.905	19051.17
231.978	19039.51
232.05	19021.73
232.122	19007.36
232.195	18990.31
232.267	18989.34
232.339	18970.4
232.412	18973.25
232.484	18951.27
232.556	18933.15
232.629	18951.22
232.701	18938.74
232.773	18929.49
232.846	18908.91
232.918	18877.2
232.99	18870.36
233.062	18868.43
233.135	18857.11
233.207	18833.01
233.279	18825.26
233.351	18816.58
233.424	18801.98
233.496	18776.63
233.568	18784.68
233.64	18750.9
233.713	18745.94
233.785	18739.09
233.857	18723.82
233.929	18693.65
234.001	18696.35
234.074	18702.28
234.146	18657.8
234.218	18639.48
234.29	18618.95
234.362	18593.03
234.434	18561.75
234.507	18536.16
234.579	18501.47
234.651	18485.52
234.723	18482.53
234.795	18476.79
234.867	18452.41
234.939	18449.66
235.012	18435.78
235.084	18421.71
235.156	18415.45
235.228	18383.84
235.3	18345.77
235.372	18324.71
235.444	18330.3
235.516	18296.66
235.588	18289.58
235.66	18274.25
235.732	18249.24
235.804	18288.66
235.876	18286.39
235.948	18287.02
236.02	18261.53
236.092	18240.71
236.164	18216.52
236.236	18184.42
236.308	18155.7
236.38	18140.09
236.452	18115.56
236.524	18092.28
236.596	18087.61
236.668	18072.38
236.74	18048.52
236.812	18037.54
236.884	18028.62
236.956	17998.36
237.028	17955.56
237.1	17913.73
237.172	17906.65
237.244	17898.94
237.316	17835.18
237.388	17810.17
237.46	17787.14
237.532	17778.75
237.604	17764.1
237.675	17755.04
237.747	17739.67
237.819	17716.73
237.891	17691.19
237.963	17660.15
238.035	17639.91
238.107	17572.44
238.178	17564.2
238.25	17547.62
238.322	17544.87
238.394	17495.91
238.466	17471.91
238.538	17458.99
238.609	17448.25
238.681	17397.6
238.753	17367.09
238.825	17354.27
238.897	17334.8
238.968	17317.65
239.04	17286.13
239.112	17288.49
239.184	17246.56
239.255	17223.48
239.327	17199.76
239.399	17176.44
239.471	17159.19
239.542	17136.34
239.614	17132.73
239.686	17076.97
239.758	17063.91
239.829	17022.75
239.901	17018.7
239.973	16990.17
240.044	16976.19
240.116	16936.19
240.188	16921.15
240.259	16893.97
240.331	16859.8
240.403	16833.97
240.474	16798.4
240.546	16758.4
240.618	16706.25
240.689	16679.36
240.761	16659.07
240.833	16650.01
240.904	16621.09
240.976	16593.62
241.048	16572.6
241.119	16547.11
241.191	16532.99
241.262	16513.71
241.334	16474.04
241.405	16446.86
241.477	16414.09
241.549	16377.6
241.62	16359.96
241.692	16338.22
241.763	16321.4
241.835	16293.55
241.906	16272.15
241.978	16224.48
242.049	16211.66
242.121	16189.05
242.192	16175.03
242.264	16133.86
242.335	16096.75
242.407	16082.44
242.478	16051.78
242.55	16029.47
242.621	15999.2
242.693	15970.66
242.764	15938.71
242.836	15919.04
242.907	15893.79
242.979	15882.94
243.05	15862.65
243.122	15843.37
243.193	15808.33
243.264	15757
243.336	15720.94
243.407	15698
243.479	15692.02
243.55	15669.9
243.622	15652.98
243.693	15628.11
243.764	15613.7
243.836	15567.23
243.907	15537.01
243.978	15506.45
244.05	15486.83
244.121	15443.55
244.192	15427.16
244.264	15380.69
244.335	15355.19
244.407	15302.12
244.478	15270.69
244.549	15239.84
244.62	15196.9
244.692	15173.33
244.763	15161.76
244.834	15131.15
244.906	15091.38
244.977	15074.75
245.048	15064.19
245.119	15025.73
245.191	14983.12
245.262	14940.26
245.333	14930.86
245.405	14906.43
245.476	14885.31
245.547	14851.09
245.618	14828.62
245.689	14799.61
245.761	14781.14
245.832	14752.17
245.903	14745.52
245.974	14721.47
246.045	14689.85
246.117	14681.75
246.188	14633.73
246.259	14592.23
246.33	14568.13
246.401	14546.19
246.473	14497.89
246.544	14466.8
246.615	14447.28
246.686	14419.32
246.757	14409.78
246.828	14377.67
246.899	14365.57
246.97	14322.62
247.042	14290.08
247.113	14280.1
247.184	14271.14
247.255	14247.8
247.326	14224.95
247.397	14191.93
247.468	14161.52
247.539	14140.06
247.61	14100.2
247.681	14096.82
247.752	14085.01
247.823	14047.94
247.894	14025.72
247.965	13988.46
248.037	13950.18
248.108	13907.18
248.179	13880.57
248.25	13849.14
248.321	13836.08
248.392	13796.6
248.463	13796.93
248.534	13762.9
248.605	13740.68
248.675	13712.28
248.746	13689.14
248.817	13669.52
248.888	13654.34
248.959	13615.77
249.03	13601.84
249.101	13577.06
249.172	13541.49
249.243	13494.73
249.314	13488.84
249.385	13461.8
249.456	13456.88
249.527	13435.82
249.598	13418.37
249.669	13394.46
249.739	13376.62
249.81	13350.78
249.881	13310.34
249.952	13289.13
250.023	13271.63
250.094	13224.05
250.165	13195.46
250.235	13158.29
250.306	13130.24
250.377	13096.2
250.448	13080.29
250.519	13031.75
250.59	13024.57
250.66	13005.82
250.731	13007.6
250.802	12981.91
250.873	12964.41
250.944	12944.11
251.014	12917.12
251.085	12924.2
251.156	12910.32
251.227	12898.65
251.297	12887.9
251.368	12884.19
251.439	12869.83
251.51	12869.15
251.58	12846.3
251.651	12813.04
251.722	12819.6
251.792	12782
251.863	12762.52
251.934	12753.8
252.005	12766.19
252.075	12741.75
252.146	12729.94
252.217	12716.92
252.287	12709.45
252.358	12688.96
252.429	12684.19
252.499	12658.4
252.57	12630.92
252.641	12627.26
252.711	12603.83
252.782	12568.59
252.852	12560.06
252.923	12536.63
252.994	12504.38
253.064	12501.25
253.135	12471.36
253.205	12435.89
253.276	12438.87
253.347	12436.27
253.417	12419.16
253.488	12390.48
253.558	12370.14
253.629	12348.25
253.699	12336.54
253.77	12325.64
253.841	12299.37
253.911	12278.5
253.982	12263.99
254.052	12258.26
254.123	12233.86
254.193	12218.25
254.264	12238.15
254.334	12208.41
254.405	12178.19
254.475	12151.25
254.546	12127.96
254.616	12130.23
254.687	12121.26
254.757	12107.19
254.827	12082.22
254.898	12061.49
254.968	12048.96
255.039	12019.32
255.109	12009.53
255.18	11978.25
255.25	11935.02
255.321	11928.8
255.391	11896.7
255.461	11899.97
255.532	11848.93
255.602	11832.88
255.673	11788.68
255.743	11758.12
255.813	11717.25
255.884	11713.05
255.954	11707.08
256.024	11709.78
256.095	11692.04
256.165	11659.36
256.235	11656.04
256.306	11628.32
256.376	11623.94
256.446	11609.96
256.517	11601.43
256.587	11593.09
256.657	11579.98
256.728	11565.62
256.798	11543.11
256.868	11521.08
256.938	11493.66
257.009	11492.41
257.079	11472.89
257.149	11490
257.219	11450.04
257.29	11442.43
257.36	11398.86
257.43	11391
257.5	11353.31
257.571	11328.83
257.641	11318.18
257.711	11276.73
257.781	11268.39
257.852	11258.95
257.922	11218.85
257.992	11203
258.062	11187.38
258.132	11176.15
258.202	11156.97
258.273	11137.55
258.343	11140.68
258.413	11115.91
258.483	11098.9
258.553	11071.43
258.623	11042.56
258.693	11028.78
258.764	11030.08
258.834	11034.32
258.904	11015.09
258.974	10992.73
259.044	10969.7
259.114	10959
259.184	10944.21
259.254	10925.13
259.324	10881.9
259.394	10873.23
259.464	10872.17
259.535	10853.66
259.605	10827.16
259.675	10799.55
259.745	10791.21
259.815	10762.01
259.885	10737.05
259.955	10743.41
260.025	10719.37
260.095	10705.59
260.165	10701.64
260.235	10699.61
260.305	10674.46
260.375	10651.48
260.445	10660.05
260.515	10667.62
260.585	10669.5
260.655	10658.37
260.725	10656.82
260.795	10655.48
260.865	10660.63
260.934	10635.24
261.004	10618.81
261.074	10606.42
261.144	10611.67
261.214	10612.4
261.284	10601.89
261.354	10600.5
261.424	10581.37
261.494	10590.33
261.564	10570.86
261.634	10565.27
261.703	10530.68
261.773	10529.18
261.843	10521.52
261.913	10498.49
261.983	10460.77
262.053	10445.83
262.123	10427.04
262.192	10396.01
262.262	10389.37
262.332	10353.86
