Data from 20250704_urea_2M_MAYP1162681_12-04-59-489.txt Node
Date: Fri Jul 04 12:04:59 BST 2025
User: adleo
Spectrometer: MAYP116268
Trigger mode: 0
Integration Time (sec): 1.000000E0
Scans to average: 1
Electric dark correction enabled: true
Nonlinearity correction enabled: true
Boxcar width: 10
XAxis mode: Wavelengths
Number of Pixels in Spectrum: 2068
>>>>>Begin Spectral Data<<<<<
179.565	1281.61
179.642	1340.56
179.718	1388.75
179.795	1431.13
179.871	1466.86
179.948	1487.33
180.024	1509.61
180.101	1531.7
180.177	1545.31
180.254	1571.09
180.33	1594.56
180.407	1653.2
180.483	1754.64
180.56	1848.52
180.636	1937.4
180.712	1922.8
180.789	1935.59
180.865	1948.09
180.942	1958.03
181.018	1966.73
181.095	1979.67
181.171	1982.43
181.248	1984.23
181.324	1999.03
181.4	2006.07
181.477	2015.48
181.553	2027.75
181.63	2046.2
181.706	2063.32
181.782	2073.17
181.859	2069.41
181.935	2073.5
182.011	2068.65
182.088	2086.87
182.164	2107.19
182.24	2121.88
182.317	2134.2
182.393	2131.25
182.469	2144.28
182.546	2159.08
182.622	2162.17
182.698	2154.89
182.775	2168.45
182.851	2182.05
182.927	2174.44
183.003	2169.97
183.08	2165.83
183.156	2174.68
183.232	2171.21
183.308	2158.55
183.385	2165.88
183.461	2186.24
183.537	2189
183.613	2202.27
183.69	2192.38
183.766	2184.71
183.842	2191.75
183.918	2195.51
183.995	2208.12
184.071	2212.07
184.147	2206.65
184.223	2198.09
184.299	2213.55
184.375	2202.42
184.452	2211.94
184.528	2261.29
184.604	2272.94
184.68	2285.22
184.756	2295.26
184.832	2299.97
184.908	2309.3
184.985	2309.63
185.061	2293.4
185.137	2299.11
185.213	2288.55
185.289	2289.79
185.365	2279.99
185.441	2277.99
185.517	2291.46
185.593	2288.94
185.669	2287.13
185.745	2297.65
185.822	2313.68
185.898	2307.2
185.974	2316.15
186.05	2304.77
186.126	2271.41
186.202	2262.71
186.278	2260.23
186.354	2246.57
186.43	2257.33
186.506	2256.38
186.582	2255.52
186.658	2262.9
186.734	2243.2
186.81	2246.01
186.886	2250.67
186.962	2264.47
187.038	2261
187.114	2252.47
187.19	2255.62
187.266	2243.91
187.341	2244.2
187.417	2237.92
187.493	2236.87
187.569	2238.77
187.645	2232.64
187.721	2220.45
187.797	2229.73
187.873	2231.63
187.949	2230.16
188.025	2222.4
188.101	2222.64
188.176	2229.3
188.252	2222.73
188.328	2234.81
188.404	2234.05
188.48	2227.2
188.556	2219.78
188.632	2218.92
188.707	2223.63
188.783	2226.01
188.859	2224.44
188.935	2211.83
189.011	2219.25
189.086	2211.36
189.162	2204.65
189.238	2201.51
189.314	2199.56
189.39	2192.33
189.465	2184.43
189.541	2199.04
189.617	2181.77
189.693	2177.01
189.768	2176.92
189.844	2202.38
189.92	2192.35
189.996	2202.58
190.071	2212.81
190.147	2210.05
190.223	2218.37
190.298	2207.43
190.374	2192.15
190.45	2204.66
190.526	2214.8
190.601	2208.71
190.677	2210.66
190.753	2236.7
190.828	2239.7
190.904	2255.5
190.98	2269.87
191.055	2279.77
191.131	2268.82
191.207	2292.33
191.282	2301.84
191.358	2297.37
191.433	2281.28
191.509	2294.41
191.585	2291.55
191.66	2292.6
191.736	2301.64
191.811	2293.03
191.887	2310.45
191.963	2334.86
192.038	2340.91
192.114	2339.48
192.189	2345.24
192.265	2343.76
192.34	2323.81
192.416	2324.86
192.491	2320.91
192.567	2326.05
192.642	2329.15
192.718	2329
192.793	2313.96
192.869	2308.82
192.944	2308.16
193.02	2319.3
193.095	2324.25
193.171	2329.15
193.246	2331.34
193.322	2329.29
193.397	2332.34
193.473	2313.58
193.548	2297.11
193.624	2300.35
193.699	2303.49
193.775	2318.15
193.85	2318.11
193.925	2328.48
194.001	2328.25
194.076	2317.78
194.152	2304.4
194.227	2297.97
194.302	2291.69
194.378	2297.88
194.453	2298.16
194.529	2310.78
194.604	2295.16
194.679	2286.12
194.755	2266.95
194.83	2276.52
194.905	2271.72
194.981	2279.19
195.056	2274
195.131	2278.57
195.207	2278.48
195.282	2267.05
195.357	2249.3
195.433	2265.24
195.508	2252.77
195.583	2259.43
195.659	2273.18
195.734	2280.13
195.809	2280.75
195.884	2288.08
195.96	2287.55
196.035	2302.69
196.11	2301.02
196.185	2310.68
196.261	2316.68
196.336	2348.85
196.411	2334
196.486	2341.47
196.561	2336.19
196.637	2345.65
196.712	2361.13
196.787	2361.75
196.862	2376.17
196.937	2383.45
197.013	2385.69
197.088	2393.06
197.163	2415.73
197.238	2436.12
197.313	2438.07
197.388	2453.03
197.464	2485.65
197.539	2495.55
197.614	2487.03
197.689	2500.03
197.764	2517.7
197.839	2539.89
197.914	2534.41
197.989	2557.51
198.065	2574.75
198.14	2627.36
198.215	2657.56
198.29	2669.33
198.365	2684.05
198.44	2696.67
198.515	2729.97
198.59	2747.51
198.665	2777.09
198.74	2786.91
198.815	2787.53
198.89	2811.88
198.965	2842.48
199.04	2841.1
199.115	2859.01
199.19	2902.42
199.265	2903.95
199.34	2916.58
199.415	2949.34
199.49	2972.78
199.565	2985.03
199.64	3004.48
199.715	2999.66
199.79	3006.2
199.865	3012.63
199.94	3012.2
200.015	3041.91
200.09	3041.77
200.165	3052.11
200.24	3058.45
200.315	3103.27
200.39	3119.87
200.464	3125.07
200.539	3125.64
200.614	3139.75
200.689	3164.32
200.764	3172.86
200.839	3191.69
200.914	3197.27
200.989	3189.15
201.063	3203.13
201.138	3187.21
201.213	3190.79
201.288	3172.9
201.363	3179.39
201.438	3183.78
201.512	3198.79
201.587	3182.62
201.662	3190.35
201.737	3203.99
201.812	3210.48
201.886	3171.91
201.961	3182.5
202.036	3169.87
202.111	3168.82
202.186	3140.08
202.26	3122.91
202.335	3098.82
202.41	3096.24
202.485	3076.41
202.559	3054.57
202.634	3025.39
202.709	3035.35
202.784	3014.9
202.858	3012.23
202.933	2991.63
203.008	2983.67
203.082	2962.65
203.157	2962.79
203.232	2920.52
203.306	2894.44
203.381	2863.45
203.456	2837.53
203.53	2810.86
203.605	2793.85
203.68	2765.2
203.754	2755.73
203.829	2742.38
203.904	2719.23
203.978	2703.17
204.053	2706.5
204.127	2691.35
204.202	2688.59
204.277	2667.87
204.351	2662.82
204.426	2655.24
204.5	2645.95
204.575	2607.23
204.65	2619.15
204.724	2608.9
204.799	2613.18
204.873	2609.7
204.948	2608.08
205.022	2600.7
205.097	2594.84
205.171	2605.22
205.246	2612.51
205.32	2612.89
205.395	2609.61
205.469	2604.04
205.544	2608.8
205.618	2592.99
205.693	2606.75
205.767	2597.37
205.842	2618.53
205.916	2611.33
205.991	2601.81
206.065	2605.48
206.14	2624.8
206.214	2619.89
206.289	2615.74
206.363	2628.65
206.438	2631.42
206.512	2637.89
206.586	2655.23
206.661	2662.91
206.735	2641.67
206.81	2642.91
206.884	2659.72
206.958	2648.53
207.033	2666.62
207.107	2675.39
207.181	2706.51
207.256	2701.13
207.33	2719.47
207.405	2735.54
207.479	2757.7
207.553	2768.08
207.628	2753.03
207.702	2765.09
207.776	2762.04
207.851	2762.61
207.925	2778.29
207.999	2775.33
208.073	2778.24
208.148	2779.53
208.222	2768.66
208.296	2802.71
208.371	2822.79
208.445	2835.33
208.519	2861.29
208.593	2871.11
208.668	2865.72
208.742	2866.82
208.816	2866.15
208.89	2880.74
208.965	2878.26
209.039	2883.5
209.113	2900.14
209.187	2920.05
209.261	2914.61
209.336	2930.92
209.41	2953.08
209.484	2953.51
209.558	2978.83
209.632	2988.46
209.707	3001.95
209.781	3027.55
209.855	3046.78
209.929	3064.29
210.003	3071.21
210.077	3072.5
210.151	3124.81
210.226	3161.83
210.3	3192.43
210.374	3220.13
210.448	3226.28
210.522	3238.21
210.596	3249.75
210.67	3259.2
210.744	3312.21
210.818	3346.44
210.892	3368.59
210.966	3361.96
211.041	3380.75
211.115	3379.32
211.189	3404.37
211.263	3423.98
211.337	3428.42
211.411	3440.78
211.485	3439.87
211.559	3453.66
211.633	3459.39
211.707	3431.21
211.781	3443.87
211.855	3411.84
211.929	3409.26
212.003	3396.48
212.077	3412.38
212.151	3435.92
212.225	3455.2
212.299	3451
212.373	3452.67
212.447	3464.47
212.52	3513.6
212.594	3530.74
212.668	3557
212.742	3562.49
212.816	3577.29
212.89	3594
212.964	3617.79
213.038	3646.75
213.112	3687.12
213.186	3736.55
213.26	3747.77
213.333	3736.54
213.407	3780.37
213.481	3822.87
213.555	3875.72
213.629	3907.17
213.703	3932.27
213.777	3981.85
213.85	4019.43
213.924	4108.44
213.998	4166.51
214.072	4215.9
214.146	4268.41
214.219	4327.2
214.293	4390.57
214.367	4466.51
214.441	4549.53
214.515	4616.56
214.588	4670.27
214.662	4717.8
214.736	4776.64
214.81	4871.91
214.883	4968.83
214.957	5053.3
215.031	5137.34
215.105	5213.09
215.178	5302.61
215.252	5403.16
215.326	5489.07
215.4	5578.47
215.473	5639.53
215.547	5730.73
215.621	5832.37
215.694	5957.76
215.768	6060.2
215.842	6172.58
215.915	6278.05
215.989	6385.22
216.063	6507.46
216.136	6636.92
216.21	6768.4
216.284	6919.38
216.357	7059.72
216.431	7198.83
216.504	7339.3
216.578	7505.63
216.652	7660.04
216.725	7805.41
216.799	7961.53
216.873	8108.23
216.946	8267.77
217.02	8408.94
217.093	8553.77
217.167	8681.68
217.24	8811.74
217.314	8958.95
217.387	9102.04
217.461	9247.53
217.535	9406.22
217.608	9537.63
217.682	9686.44
217.755	9849.7
217.829	9993.48
217.902	10143.77
217.976	10291.37
218.049	10438.73
218.123	10570.66
218.196	10730.81
218.27	10873.91
218.343	11003.83
218.417	11156.3
218.49	11298.13
218.563	11463.13
218.637	11613.31
218.71	11790.96
218.784	11945.24
218.857	12110.94
218.931	12261.32
219.004	12404.81
219.077	12551.93
219.151	12700
219.224	12843.51
219.298	12979.88
219.371	13132.4
219.444	13255.08
219.518	13391.69
219.591	13532.83
219.665	13697.79
219.738	13824.24
219.811	13947.11
219.885	14087
219.958	14214.55
220.031	14335.5
220.105	14467.77
220.178	14597.2
220.251	14695.2
220.325	14811.81
220.398	14926.63
220.471	15049.88
220.544	15181.14
220.618	15290.41
220.691	15414.34
220.764	15519.23
220.838	15631.34
220.911	15723.21
220.984	15843.42
221.057	15958.04
221.131	16059.74
221.204	16122.16
221.277	16240.2
221.35	16369.51
221.424	16458.44
221.497	16554.3
221.57	16647.13
221.643	16735.33
221.716	16832.44
221.79	16915.91
221.863	17013.65
221.936	17085.42
222.009	17170.38
222.082	17246.58
222.155	17318.1
222.229	17405.13
222.302	17494.82
222.375	17564.07
222.448	17641.18
222.521	17708.55
222.594	17779.2
222.667	17830.24
222.74	17913.18
222.814	17969.51
222.887	18023.49
222.96	18101.94
223.033	18176.54
223.106	18246.42
223.179	18308.58
223.252	18356.44
223.325	18423.81
223.398	18465.35
223.471	18532.57
223.544	18584.57
223.617	18635.6
223.69	18686.25
223.763	18727.36
223.837	18773.91
223.91	18830.34
223.983	18858.63
224.056	18891.2
224.129	18918.62
224.202	18976.16
224.275	19002.52
224.348	19031.72
224.42	19056.45
224.493	19076.11
224.566	19090.81
224.639	19131.09
224.712	19158.9
224.785	19198.8
224.858	19220.29
224.931	19250.36
225.004	19264.38
225.077	19291.37
225.15	19295.42
225.223	19328.96
225.296	19371.8
225.369	19375.03
225.442	19384.52
225.514	19411.27
225.587	19440.57
225.66	19472.52
225.733	19491.21
225.806	19513.33
225.879	19525.14
225.952	19532.27
226.025	19553.67
226.097	19585.47
226.17	19589.43
226.243	19581.62
226.316	19581.19
226.389	19597.76
226.461	19617.91
226.534	19637.76
226.607	19640.12
226.68	19675.06
226.753	19679.11
226.825	19655.88
226.898	19677.32
226.971	19678.58
227.044	19688.31
227.117	19692.7
227.189	19700.6
227.262	19725.37
227.335	19741.08
227.407	19746.24
227.48	19762.28
227.553	19773.42
227.626	19773.13
227.698	19781.08
227.771	19796.31
227.844	19793.99
227.916	19799.92
227.989	19784.45
228.062	19772.84
228.134	19800.45
228.207	19788.93
228.28	19779.3
228.352	19788.21
228.425	19796.84
228.498	19821.9
228.57	19816.98
228.643	19839.05
228.716	19836.16
228.788	19805.99
228.861	19787.34
228.934	19796.26
229.006	19801.85
229.079	19790.24
229.151	19785.75
229.224	19755.88
229.296	19757.56
229.369	19788.36
229.442	19808.26
229.514	19789.51
229.587	19804.55
229.659	19776.79
229.732	19785.66
229.804	19801.46
229.877	19817.03
229.949	19822.57
230.022	19831.34
230.094	19829.95
230.167	19820.98
230.239	19799.78
230.312	19804.12
230.384	19825.61
230.457	19832.26
230.529	19825.46
230.602	19824.02
230.674	19820.5
230.747	19831.83
230.819	19828.16
230.892	19779.15
230.964	19760.84
231.037	19780.79
231.109	19770.91
231.181	19770.04
231.254	19747.39
231.326	19727.73
231.399	19711.93
231.471	19692.12
231.544	19654.53
231.616	19652.27
231.688	19649.13
231.761	19642.82
231.833	19636.32
231.905	19602.24
231.978	19581.09
232.05	19554.39
232.122	19549.33
232.195	19525.04
232.267	19531.69
232.339	19517.14
232.412	19530.01
232.484	19515.21
232.556	19487.46
232.629	19493.82
232.701	19497.05
232.773	19490.54
232.846	19474.64
232.918	19465.91
232.99	19440.9
233.062	19437.39
233.135	19430.88
233.207	19396.91
233.279	19394.4
233.351	19376.91
233.424	19361.82
233.496	19338.02
233.568	19353.92
233.64	19317.3
233.713	19307.13
233.785	19284.24
233.857	19274.7
233.929	19241.78
234.001	19243.71
234.074	19243.13
234.146	19205.45
234.218	19171.14
234.29	19147.72
234.362	19125.21
234.434	19079.34
234.507	19055.24
234.579	19022.42
234.651	18988.16
234.723	18975.25
234.795	18954.38
234.867	18933.61
234.939	18931.35
235.012	18915.11
235.084	18891.44
235.156	18879.35
235.228	18846.48
235.3	18825.81
235.372	18810.24
235.444	18805.91
235.516	18748.8
235.588	18731.5
235.66	18705.96
235.732	18675.31
235.804	18713.58
235.876	18696.71
235.948	18694.54
236.02	18680.13
236.092	18659.27
236.164	18637.82
236.236	18607.8
236.308	18579.7
236.38	18564.52
236.452	18531.56
236.524	18507.61
236.596	18492.91
236.668	18481.73
236.74	18459.52
236.812	18437.64
236.884	18412.77
236.956	18382.22
237.028	18361.11
237.1	18325.65
237.172	18319.43
237.244	18319.62
237.316	18250.71
237.388	18222.28
237.46	18187.44
237.532	18168.06
237.604	18134.04
237.675	18131.39
237.747	18118.57
237.819	18088.55
237.891	18057.03
237.963	18019.63
238.035	17991.92
238.107	17932.6
238.178	17913.08
238.25	17889.76
238.322	17889.66
238.394	17846.53
238.466	17817.13
238.538	17799.79
238.609	17782.82
238.681	17736.65
238.753	17702.29
238.825	17681.91
238.897	17662.39
238.968	17659.55
239.04	17630.1
239.112	17624.8
239.184	17582.2
239.255	17551.6
239.327	17529.09
239.399	17508.75
239.471	17491.69
239.542	17478.25
239.614	17470.15
239.686	17419.93
239.758	17405.43
239.829	17354.3
239.901	17336.03
239.973	17315.79
240.044	17286.49
240.116	17258.05
240.188	17233.48
240.259	17206.63
240.331	17173.57
240.403	17153.86
240.474	17109.47
240.546	17075.74
240.618	17032.03
240.689	17002.43
240.761	16976.22
240.833	16981.08
240.904	16945.47
240.976	16920.5
241.048	16886.77
241.119	16867.68
241.191	16841.46
241.262	16829.99
241.334	16801.56
241.405	16779.39
241.477	16738.23
241.549	16712.2
241.62	16680.83
241.692	16649.4
241.763	16637.4
241.835	16609.31
241.906	16576.48
241.978	16533.4
242.049	16517.39
242.121	16498.84
242.192	16484.67
242.264	16445.34
242.335	16375.7
242.407	16360.8
242.478	16331.74
242.55	16304.99
242.621	16258.29
242.693	16234.43
242.764	16202.23
242.836	16166.42
242.907	16139.43
242.979	16118.66
243.05	16091.19
243.122	16067.86
243.193	16046.07
243.264	15983.51
243.336	15952.23
243.407	15929.82
243.479	15927.6
243.55	15903.74
243.622	15880.7
243.693	15844.5
243.764	15835.06
243.836	15802.81
243.907	15765.7
243.978	15732.92
244.05	15711.66
244.121	15663.27
244.192	15643.22
244.264	15599.11
244.335	15575.79
244.407	15533.03
244.478	15506.57
244.549	15472.92
244.62	15431.81
244.692	15403.08
244.763	15389.2
244.834	15351.99
244.906	15323.93
244.977	15291.93
245.048	15272.02
245.119	15229.84
245.191	15191.33
245.262	15136.28
245.333	15128.57
245.405	15106.11
245.476	15084.75
245.547	15053.86
245.618	15046.05
245.689	15015.05
245.761	14989.41
245.832	14961.26
245.903	14951.18
245.974	14927.85
246.045	14903.46
246.117	14898.59
246.188	14864.56
246.259	14819.01
246.33	14794.57
246.401	14751.47
246.473	14712.28
246.544	14683.41
246.615	14670.78
246.686	14647.79
246.757	14641.95
246.828	14600.88
246.899	14585.36
246.97	14536.53
247.042	14501.48
247.113	14483.31
247.184	14478.06
247.255	14435.01
247.326	14413.41
247.397	14379.91
247.468	14355.95
247.539	14327.85
247.61	14279.89
247.681	14263.21
247.752	14266.24
247.823	14228.79
247.894	14217.51
247.965	14173.64
248.037	14145.87
248.108	14102.87
248.179	14072.21
248.25	14039.77
248.321	14027
248.392	13992.82
248.463	13996.1
248.534	13973.54
248.605	13956.23
248.675	13924.37
248.746	13910.77
248.817	13889.08
248.888	13866.76
248.959	13824.24
249.03	13805.73
249.101	13790.59
249.172	13756.08
249.243	13703.77
249.314	13700.4
249.385	13668.73
249.456	13656.39
249.527	13627.32
249.598	13608.86
249.669	13588.7
249.739	13569.23
249.81	13545.56
249.881	13497.02
249.952	13470.02
250.023	13435.26
250.094	13387.49
250.165	13352.83
250.235	13326.8
250.306	13298.26
250.377	13263.26
250.448	13242.29
250.519	13198.91
250.59	13184.3
250.66	13154.65
250.731	13150.27
250.802	13116.86
250.873	13102.01
250.944	13086.25
251.014	13054.05
251.085	13069.47
251.156	13053.61
251.227	13046.82
251.297	13040.6
251.368	13036.4
251.439	13027.1
251.51	13026.47
251.58	12997.36
251.651	12973.16
251.722	12967.32
251.792	12931.65
251.863	12902.82
251.934	12896.56
252.005	12904.9
252.075	12878.05
252.146	12872.5
252.217	12865.71
252.287	12859.1
252.358	12836.88
252.429	12834.13
252.499	12805.88
252.57	12780.19
252.641	12763.41
252.711	12740.9
252.782	12699.25
252.852	12702.72
252.923	12683.01
252.994	12662.42
253.064	12662.38
253.135	12630.66
253.205	12611.28
253.276	12608.19
253.347	12611.95
253.417	12583.9
253.488	12559.89
253.558	12540.51
253.629	12516.94
253.699	12496.99
253.77	12483.68
253.841	12468.16
253.911	12453.22
253.982	12435.43
254.052	12414.85
254.123	12392.29
254.193	12362.78
254.264	12390.07
254.334	12360.81
254.405	12323.45
254.475	12300.99
254.546	12280.5
254.616	12278.48
254.687	12255.29
254.757	12241.51
254.827	12218.8
254.898	12211.23
254.968	12186.6
255.039	12156.77
255.109	12151.03
255.18	12118.49
255.25	12078.58
255.321	12060.03
255.391	12024.36
255.461	12035.1
255.532	11993.7
255.602	11976.25
255.673	11945.84
255.743	11907.51
255.813	11858.93
255.884	11858.98
255.954	11845.67
256.024	11843.94
256.095	11833.09
256.165	11805.67
256.235	11798.29
256.306	11771.16
256.376	11754.87
256.446	11746
256.517	11734.04
256.587	11728.02
256.657	11714.28
256.728	11701.94
256.798	11680.35
256.868	11648.69
256.938	11617.21
257.009	11611.43
257.079	11602.95
257.149	11606.9
257.219	11575.52
257.29	11565.64
257.36	11517.11
257.43	11500.19
257.5	11455.66
257.571	11421.53
257.641	11404.52
257.711	11368.9
257.781	11360.13
257.852	11352.04
257.922	11312.61
257.992	11299.41
258.062	11272.85
258.132	11266.68
258.202	11241
258.273	11225.28
258.343	11240.85
258.413	11214.49
258.483	11196.08
258.553	11160.56
258.623	11137.52
258.693	11119.6
258.764	11120.51
258.834	11127.89
258.904	11117.96
258.974	11096.56
259.044	11086.97
259.114	11079.07
259.184	11069.33
259.254	11050.2
259.324	11010.2
259.394	11010.49
259.464	11011.51
259.535	10997.92
259.605	10974.16
259.675	10955.61
259.745	10949.15
259.815	10917.87
259.885	10893.3
259.955	10904.43
260.025	10882.84
260.095	10864.1
260.165	10855.18
260.235	10855.86
260.305	10833.21
260.375	10800.25
260.445	10812.2
260.515	10809.36
260.585	10804.78
260.655	10786.85
260.725	10783.05
260.795	10778.28
260.865	10780.3
260.934	10753.46
261.004	10743.68
261.074	10726.52
261.144	10726.28
261.214	10715.1
261.284	10695.49
261.354	10697.9
261.424	10669.28
261.494	10679.63
261.564	10667.16
261.634	10652.51
261.703	10615.36
261.773	10603.46
261.843	10597.39
261.913	10573.97
261.983	10540
262.053	10523.18
262.123	10505.65
262.192	10468.69
262.262	10462.24
262.332	10426.68
262.402	10419.69
262.472	10403.89
