Data from 20250704_urea_0.1M_MAYP1162681_11-23-27-670.txt Node
Date: Fri Jul 04 11:23:27 BST 2025
User: adleo
Spectrometer: MAYP116268
Trigger mode: 0
Integration Time (sec): 1.000000E0
Scans to average: 1
Electric dark correction enabled: true
Nonlinearity correction enabled: true
Boxcar width: 10
XAxis mode: Wavelengths
Number of Pixels in Spectrum: 2068
>>>>>Begin Spectral Data<<<<<
179.565	1244.17
179.642	1301.29
179.718	1348.39
179.795	1386.7
179.871	1419.3
179.948	1438.16
180.024	1459.49
180.101	1481.5
180.177	1496.16
180.254	1519.73
180.33	1545.28
180.407	1599.03
180.483	1699.08
180.56	1794.11
180.636	1879.9
180.712	1867.49
180.789	1879
180.865	1890.73
180.942	1896.82
181.018	1910.42
181.095	1922.45
181.171	1929.01
181.248	1930.81
181.324	1945.7
181.4	1952.83
181.477	1965.58
181.553	1978.98
181.63	2001.48
181.706	2019.6
181.782	2030.05
181.859	2028.44
181.935	2031.53
182.011	2029.48
182.088	2043.85
182.164	2060.36
182.24	2075.38
182.317	2085.8
182.393	2082.99
182.469	2098.35
182.546	2112.15
182.622	2115
182.698	2112.53
182.775	2124.42
182.851	2138.69
182.927	2131.79
183.003	2128.18
183.08	2122.04
183.156	2131.08
183.232	2123.7
183.308	2112.24
183.385	2119.23
183.461	2139.02
183.537	2138.26
183.613	2151.1
183.69	2143.59
183.766	2133.97
183.842	2143.16
183.918	2150.1
183.995	2164.52
184.071	2168.56
184.147	2159.62
184.223	2147.78
184.299	2159.2
184.375	2145.69
184.452	2151.26
184.528	2201.51
184.604	2214.83
184.68	2225.43
184.756	2233.52
184.832	2242.85
184.908	2246.23
184.985	2245.51
185.061	2228.62
185.137	2241.85
185.213	2231.48
185.289	2234.91
185.365	2226.3
185.441	2222.54
185.517	2235.77
185.593	2232.68
185.669	2230.16
185.745	2244.48
185.822	2260.69
185.898	2254.94
185.974	2267.68
186.05	2259.74
186.126	2223.62
186.202	2217.05
186.278	2214.53
186.354	2203.21
186.43	2210.01
186.506	2209.87
186.582	2209.35
186.658	2214.58
186.734	2190.32
186.81	2194.46
186.886	2196.03
186.962	2208.68
187.038	2205.25
187.114	2195.59
187.19	2201.3
187.266	2190.88
187.341	2190.79
187.417	2183.22
187.493	2179.75
187.569	2183.65
187.645	2176.18
187.721	2165.71
187.797	2170.52
187.873	2175.61
187.949	2171.38
188.025	2164.62
188.101	2167.95
188.176	2173.8
188.252	2172.7
188.328	2181.5
188.404	2179.98
188.48	2175.27
188.556	2170.37
188.632	2171.46
188.707	2174.37
188.783	2172.84
188.859	2167.37
188.935	2159.43
189.011	2170.13
189.086	2166.99
189.162	2157.91
189.238	2157.81
189.314	2156.1
189.39	2151.91
189.465	2142.21
189.541	2159.14
189.617	2142.83
189.693	2139.74
189.768	2142.92
189.844	2167.96
189.92	2159.88
189.996	2169.2
190.071	2177.29
190.147	2172.87
190.223	2180.48
190.298	2168.72
190.374	2153.03
190.45	2164.3
190.526	2170.72
190.601	2162.92
190.677	2164.11
190.753	2190.53
190.828	2195.05
190.904	2210.89
190.98	2225.07
191.055	2236.92
191.131	2226.93
191.207	2246.2
191.282	2254.38
191.358	2244.82
191.433	2226.68
191.509	2241.14
191.585	2236.52
191.66	2239.71
191.736	2253.46
191.811	2248.51
191.887	2264.88
191.963	2291.2
192.038	2299.62
192.114	2299.24
192.189	2305.04
192.265	2300.71
192.34	2277.86
192.416	2275.86
192.491	2268.39
192.567	2270.15
192.642	2272.25
192.718	2272.29
192.793	2260.92
192.869	2254.69
192.944	2258.4
193.02	2268.44
193.095	2274.2
193.171	2278.1
193.246	2277.63
193.322	2270.53
193.397	2269.92
193.473	2257.45
193.548	2237.5
193.624	2241.22
193.699	2239.36
193.775	2255.45
193.85	2257.78
193.925	2266.21
194.001	2264.92
194.076	2258.97
194.152	2250.21
194.227	2243.5
194.302	2234.61
194.378	2239.8
194.453	2237.7
194.529	2249.93
194.604	2233.85
194.679	2225.33
194.755	2209.97
194.83	2222.01
194.905	2220.87
194.981	2227.53
195.056	2222.02
195.131	2229.44
195.207	2228.72
195.282	2218.5
195.357	2197.6
195.433	2213.21
195.508	2203.17
195.583	2212.73
195.659	2229.63
195.734	2235.05
195.809	2233.43
195.884	2243.99
195.96	2244.71
196.035	2260.55
196.11	2255.55
196.185	2269.02
196.261	2274.3
196.336	2305.61
196.411	2293.81
196.486	2300.04
196.561	2294.19
196.637	2302.56
196.712	2320.84
196.787	2324.94
196.862	2344.88
196.937	2358.92
197.013	2362.68
197.088	2375
197.163	2396.86
197.238	2413.96
197.313	2415.68
197.388	2431.1
197.464	2462.91
197.539	2474.38
197.614	2469.2
197.689	2482.24
197.764	2500.2
197.839	2520.81
197.914	2516.38
197.989	2538.19
198.065	2554.48
198.14	2604.51
198.215	2629.99
198.29	2639.61
198.365	2650.19
198.44	2657.71
198.515	2680.91
198.59	2696.92
198.665	2722.93
198.74	2733.22
198.815	2730.65
198.89	2757.19
198.965	2789.5
199.04	2783.21
199.115	2798.22
199.19	2839.1
199.265	2842.86
199.34	2852.06
199.415	2884.48
199.49	2904.35
199.565	2913.31
199.64	2934.33
199.715	2934.66
199.79	2946.29
199.865	2954.64
199.94	2956.02
200.015	2988.25
200.09	2997.02
200.165	3005.74
200.24	3012.8
200.315	3051.84
200.39	3069.38
200.464	3072.67
200.539	3073.29
200.614	3091.55
200.689	3117.73
200.764	3128.71
200.839	3148.39
200.914	3151.49
200.989	3143.24
201.063	3156.59
201.138	3140.82
201.213	3141.29
201.288	3120.22
201.363	3122.27
201.438	3122.84
201.512	3138.43
201.587	3123.69
201.662	3126.36
201.737	3139
201.812	3147.39
201.886	3112.22
201.961	3123.34
202.036	3112.85
202.111	3111.8
202.186	3083.73
202.26	3064.89
202.335	3042.95
202.41	3038.7
202.485	3026.21
202.559	3010.14
202.634	2989.36
202.709	3002.8
202.784	2988.78
202.858	2992.69
202.933	2980.05
203.008	2976.81
203.082	2965.99
203.157	2970.57
203.232	2938.87
203.306	2927.19
203.381	2903.73
203.456	2892.19
203.53	2878.55
203.605	2872.78
203.68	2864.82
203.754	2873.34
203.829	2876.06
203.904	2872.72
203.978	2880.78
204.053	2908.87
204.127	2916.31
204.202	2938.48
204.277	2949.02
204.351	2968.85
204.426	2990.36
204.5	3014.25
204.575	3015.3
204.65	3060.68
204.724	3095.57
204.799	3143.78
204.873	3184.68
204.948	3231.2
205.022	3272.56
205.097	3323.28
205.171	3389.71
205.246	3460.65
205.32	3519.58
205.395	3585.64
205.469	3648.41
205.544	3726.26
205.618	3785.18
205.693	3880.14
205.767	3954.99
205.842	4064.45
205.916	4154.47
205.991	4245
206.065	4349.86
206.14	4469.01
206.214	4569.69
206.289	4673.65
206.363	4798.06
206.438	4915.6
206.512	5041.95
206.586	5185.13
206.661	5316.29
206.735	5425.24
206.81	5553.58
206.884	5712.26
206.958	5832.61
207.033	5992.88
207.107	6142.54
207.181	6326.11
207.256	6469.26
207.33	6640.91
207.405	6809.13
207.479	6984.7
207.553	7147.25
207.628	7288.98
207.702	7465.88
207.776	7627.21
207.851	7791.4
207.925	7981.05
207.999	8151.46
208.073	8321.36
208.148	8499.15
208.222	8663.06
208.296	8878.81
208.371	9069.84
208.445	9260.87
208.519	9475.81
208.593	9669.23
208.668	9852.05
208.742	10034.34
208.816	10229.31
208.89	10431.31
208.965	10610.36
209.039	10806.89
209.113	11017.06
209.187	11228.37
209.261	11415.29
209.336	11625.11
209.41	11837.45
209.484	12023.69
209.558	12234.98
209.632	12446.09
209.707	12647.62
209.781	12862.74
209.855	13063.02
209.929	13277.86
210.003	13470.1
210.077	13653.61
210.151	13887.88
210.226	14114.68
210.3	14328.89
210.374	14523.92
210.448	14710.33
210.522	14908.68
210.596	15093.3
210.67	15279.84
210.744	15510.87
210.818	15717.84
210.892	15922.69
210.966	16094.18
211.041	16287.61
211.115	16456.64
211.189	16639.11
211.263	16828.57
211.337	16993.69
211.411	17171.63
211.485	17322.23
211.559	17494.63
211.633	17659.65
211.707	17786.97
211.781	17952.12
211.855	18074
211.929	18234.72
212.003	18367.53
212.077	18521.6
212.151	18687.72
212.225	18843.61
212.299	18967.7
212.373	19103.22
212.447	19231.45
212.52	19392.94
212.594	19528.07
212.668	19676.5
212.742	19798.52
212.816	19921.26
212.89	20051.43
212.964	20178.27
213.038	20316.83
213.112	20459.14
213.186	20608.11
213.26	20706.37
213.333	20767.77
213.407	20893.03
213.481	21002.63
213.555	21133.24
213.629	21237.15
213.703	21337.89
213.777	21459.74
213.85	21559.85
213.924	21697.76
213.998	21806.08
214.072	21920.57
214.146	22017.51
214.219	22126.21
214.293	22233.42
214.367	22333.4
214.441	22450.55
214.515	22542.97
214.588	22614.47
214.662	22676.37
214.736	22756.84
214.81	22868.78
214.883	22975.76
214.957	23045.67
215.031	23130.38
215.105	23196
215.178	23266.01
215.252	23348.18
215.326	23400.4
215.4	23464.87
215.473	23500.27
215.547	23556.5
215.621	23619.06
215.694	23694.63
215.768	23745.46
215.842	23806.23
215.915	23868.74
215.989	23891.16
216.063	23942.58
216.136	24011.17
216.21	24061.13
216.284	24126.88
216.357	24183.65
216.431	24243.95
216.504	24325.47
216.578	24390.01
216.652	24455.52
216.725	24513.26
216.799	24563.96
216.873	24612.73
216.946	24676.41
217.02	24707.24
217.093	24763.69
217.167	24782.7
217.24	24816.08
217.314	24859.65
217.387	24899.16
217.461	24929.76
217.535	25001.31
217.608	25039.57
217.682	25074.65
217.755	25136.7
217.829	25156.63
217.902	25201.31
217.976	25232.97
218.049	25243.2
218.123	25281.61
218.196	25324.81
218.27	25355.16
218.343	25381.94
218.417	25421.32
218.49	25440.63
218.563	25506.5
218.637	25540.09
218.71	25594.44
218.784	25641.26
218.857	25676.25
218.931	25702.75
219.004	25744.35
219.077	25792.09
219.151	25819.51
219.224	25855.62
219.298	25877.77
219.371	25932.17
219.444	25941.39
219.518	25971.03
219.591	26008.97
219.665	26065.31
219.738	26095.1
219.811	26113.83
219.885	26148.49
219.958	26189.48
220.031	26221.58
220.105	26252.43
220.178	26270.39
220.251	26287.39
220.325	26307.28
220.398	26328.67
220.471	26358.36
220.544	26384.86
220.618	26386.75
220.691	26413.98
220.764	26428.07
220.838	26455.4
220.911	26453.81
220.984	26494.12
221.057	26526.33
221.131	26548.54
221.204	26517.34
221.277	26538.15
221.35	26587.79
221.424	26594.79
221.497	26594.31
221.57	26602.09
221.643	26611.26
221.716	26622.17
221.79	26612.71
221.863	26615.7
221.936	26614.79
222.009	26623.57
222.082	26622.13
222.155	26614.88
222.229	26634.63
222.302	26638.64
222.375	26638.79
222.448	26654.96
222.521	26654.77
222.594	26637.72
222.667	26631.4
222.74	26658.44
222.814	26656.94
222.887	26654.04
222.96	26666.21
223.033	26675.92
223.106	26682.68
223.179	26687.8
223.252	26697.8
223.325	26705.43
223.398	26701.71
223.471	26700.35
223.544	26697.55
223.617	26703.25
223.69	26692.49
223.763	26670.66
223.837	26663.03
223.91	26657.72
223.983	26632.13
224.056	26605.62
224.129	26611.94
224.202	26608.66
224.275	26578.82
224.348	26557.09
224.42	26525.56
224.493	26487.41
224.566	26470.03
224.639	26457.81
224.712	26423.04
224.785	26393.4
224.858	26377.56
224.931	26356.56
225.004	26330.1
225.077	26308.57
225.15	26258.21
225.223	26248.7
225.296	26257.68
225.369	26217.09
225.442	26194.3
225.514	26178.37
225.587	26158.28
225.66	26136.94
225.733	26104.6
225.806	26077.52
225.879	26051.11
225.952	26011.39
226.025	25993.86
226.097	25981.55
226.17	25953.31
226.243	25915.08
226.316	25884.38
226.389	25858.99
226.461	25842.77
226.534	25829.93
226.607	25799.52
226.68	25793.64
226.753	25769.02
226.825	25718.62
226.898	25720.36
226.971	25694.49
227.044	25667.26
227.117	25641.68
227.189	25620.11
227.262	25606.3
227.335	25593.66
227.407	25556.79
227.48	25543.66
227.553	25517.7
227.626	25481.3
227.698	25450.56
227.771	25429.28
227.844	25401.92
227.916	25369.63
227.989	25323.79
228.062	25291.31
228.134	25289.24
228.207	25269.98
228.28	25230.41
228.352	25194.99
228.425	25160.88
228.498	25138.19
228.57	25092.7
228.643	25081.55
228.716	25031.8
228.788	24999.18
228.861	24965.26
228.934	24951.55
229.006	24911.9
229.079	24892.45
229.151	24848.54
229.224	24797.93
229.296	24778.35
229.369	24771.78
229.442	24761.89
229.514	24727.55
229.587	24713.8
229.659	24665.16
229.732	24630.38
229.804	24616.58
229.877	24606.01
229.949	24584.3
230.022	24565.82
230.094	24545.13
230.167	24511.21
230.239	24481.64
230.312	24449.61
230.384	24436.15
230.457	24412.27
230.529	24388.54
230.602	24360.08
230.674	24340.06
230.747	24333.79
230.819	24307.5
230.892	24242.58
230.964	24209.73
231.037	24180.88
231.109	24128.36
231.181	24100.43
231.254	24056.83
231.326	24014.77
231.399	23975.22
231.471	23926.65
231.544	23867.76
231.616	23840.94
231.688	23803.56
231.761	23757.32
231.833	23714.01
231.905	23657.19
231.978	23619.72
232.05	23576.42
232.122	23538.94
232.195	23491.34
232.267	23464
232.339	23419.49
232.412	23406.61
232.484	23363.79
232.556	23334.13
232.629	23318.61
232.701	23284.13
232.773	23248.69
232.846	23206.26
232.918	23163.19
232.99	23131.47
233.062	23102.44
233.135	23065.41
233.207	23018.59
233.279	22999.64
233.351	22971.1
233.424	22933.97
233.496	22880.6
233.568	22870.14
233.64	22809.73
233.713	22773.37
233.785	22725.78
233.857	22691.75
233.929	22636.06
234.001	22622.08
234.074	22584.19
234.146	22530.14
234.218	22501.07
234.29	22458.21
234.362	22417.67
234.434	22366.47
234.507	22323.37
234.579	22276.66
234.651	22237.32
234.723	22214.43
234.795	22178.13
234.867	22132.81
234.939	22105.77
235.012	22077.47
235.084	22038.38
235.156	22017.55
235.228	21969.16
235.3	21917.87
235.372	21880.41
235.444	21842.96
235.516	21771.04
235.588	21736.77
235.66	21702.98
235.732	21641.42
235.804	21665.14
235.876	21634.15
235.948	21608.55
236.02	21559.87
236.092	21516.49
236.164	21470.47
236.236	21411.95
236.308	21378.26
236.38	21337.58
236.452	21289.67
236.524	21238.1
236.596	21214.96
236.668	21172.31
236.74	21129.51
236.812	21096.83
236.884	21059.63
236.956	21028.64
237.028	20974.71
237.1	20917.16
237.172	20891.71
237.244	20872.92
237.316	20787.07
237.388	20746.16
237.46	20703.7
237.532	20684.42
237.604	20633.33
237.675	20608.23
237.747	20574.83
237.819	20507.79
237.891	20476.37
237.963	20426.73
238.035	20378.73
238.107	20286.01
238.178	20258.73
238.25	20227.94
238.322	20219.21
238.394	20159.89
238.466	20113.24
238.538	20089.72
238.609	20056.04
238.681	19983.75
238.753	19927.37
238.825	19887.27
238.897	19849.44
238.968	19826.79
239.04	19766.55
239.112	19753.06
239.184	19700.29
239.255	19654.12
239.327	19618.99
239.399	19577.07
239.471	19542.51
239.542	19509.99
239.614	19492.45
239.686	19428.16
239.758	19397.08
239.829	19330.33
239.901	19295.73
239.973	19248.07
240.044	19202.53
240.116	19159.11
240.188	19119.98
240.259	19083.31
240.331	19030.06
240.403	18983.85
240.474	18928.57
240.546	18884.19
240.618	18813.88
240.689	18768.97
240.761	18732.06
240.833	18706.13
240.904	18657.46
240.976	18611
241.048	18577.17
241.119	18542.67
241.191	18506.53
241.262	18474.96
241.334	18429.18
241.405	18388.12
241.477	18352.42
241.549	18311.26
241.62	18274.11
241.692	18244.95
241.763	18213.39
241.835	18172.38
241.906	18129.24
241.978	18064.96
242.049	18040.96
242.121	18021.3
242.192	17999.47
242.264	17957.25
242.335	17899.37
242.407	17870.36
242.478	17831.71
242.55	17788.48
242.621	17747.18
242.693	17703.67
242.764	17648.82
242.836	17614.32
242.907	17582.9
242.979	17545.21
243.05	17515.48
243.122	17484.68
243.193	17440.06
243.264	17378.61
243.336	17340.78
243.407	17319.52
243.479	17298.66
243.55	17258.37
243.622	17227.14
243.693	17178.56
243.764	17150.22
243.836	17106.94
243.907	17057.01
243.978	17011.13
244.05	16982.26
244.121	16920.19
244.192	16893.1
244.264	16849.49
244.335	16809.44
244.407	16755.26
244.478	16719.17
244.549	16675.55
244.62	16627.93
244.692	16593.71
244.763	16570.14
244.834	16526.29
244.906	16483.1
244.977	16452.88
245.048	16433.75
245.119	16387.96
245.191	16344.83
245.262	16278.46
245.333	16254.31
245.405	16223.9
245.476	16200.43
245.547	16165.87
245.618	16144.61
245.689	16112.13
245.761	16078.53
245.832	16039.35
245.903	16015.83
245.974	15980.83
246.045	15944.97
246.117	15936.25
246.188	15887.33
246.259	15833.29
246.33	15795.94
246.401	15752.9
246.473	15701.18
246.544	15653.08
246.615	15624.25
246.686	15591.14
246.757	15573.35
246.828	15532.19
246.899	15511.75
246.97	15458
247.042	15414.29
247.113	15378.04
247.184	15362.28
247.255	15321.06
247.326	15294.26
247.397	15258.84
247.468	15229.58
247.539	15192.03
247.61	15131.34
247.681	15108.88
247.752	15093.98
247.823	15054.6
247.894	15022.69
247.965	14983.65
248.037	14956.65
248.108	14909.22
248.179	14867.96
248.25	14835.71
248.321	14812.38
248.392	14766.63
248.463	14751.59
248.534	14715.25
248.605	14703.87
248.675	14662.08
248.746	14641.4
248.817	14617.44
248.888	14593.24
248.959	14543.79
249.03	14523.59
249.101	14499.29
249.172	14464.1
249.243	14412.62
249.314	14405.34
249.385	14380.56
249.456	14361.42
249.527	14323.15
249.598	14301.6
249.669	14276.15
249.739	14258.79
249.81	14236.14
249.881	14197.43
249.952	14175.5
250.023	14148.36
250.094	14093.69
250.165	14057.2
250.235	14023.74
250.306	13988.55
250.377	13945.65
250.448	13926.95
250.519	13868.52
250.59	13848.18
250.66	13815.64
250.731	13807.97
250.802	13774.18
250.873	13747.04
250.944	13720.67
251.014	13688.08
251.085	13683.36
251.156	13664.51
251.227	13649.61
251.297	13632.4
251.368	13616.4
251.439	13598.61
251.51	13586.99
251.58	13556.77
251.651	13528.76
251.722	13517.05
251.792	13473.42
251.863	13441.65
251.934	13429.89
252.005	13441.55
252.075	13420.92
252.146	13407.38
252.217	13395.28
252.287	13382.21
252.358	13352.66
252.429	13354.35
252.499	13321.23
252.57	13288.84
252.641	13266.42
252.711	13239.09
252.782	13198.79
252.852	13202.35
252.923	13174.2
252.994	13145.04
253.064	13138.82
253.135	13101.6
253.205	13066.94
253.276	13067.28
253.347	13065.5
253.417	13035.32
253.488	13004.47
253.558	12976.22
253.629	12956.98
253.699	12928.25
253.77	12912.1
253.841	12893.88
253.911	12865.3
253.982	12847.41
254.052	12838.45
254.123	12820.8
254.193	12793.23
254.264	12813.04
254.334	12772.74
254.405	12741.79
254.475	12710.27
254.546	12681.1
254.616	12676.62
254.687	12662.64
254.757	12644.23
254.827	12616.89
254.898	12596.12
254.968	12578.09
255.039	12543.43
255.109	12525.31
255.18	12495.13
255.25	12449.72
255.321	12435.02
255.391	12396.17
255.461	12398.53
255.532	12348.49
255.602	12327.33
255.673	12284.96
255.743	12249.1
255.813	12199.88
255.884	12186.92
255.954	12178.29
256.024	12177.08
256.095	12150.47
256.165	12112.88
256.235	12098.13
256.306	12069.93
256.376	12066.31
256.446	12047.66
256.517	12037.68
256.587	12030.98
256.657	12015.37
256.728	11994.45
256.798	11974.35
256.868	11952.32
256.938	11919.98
257.009	11911.4
257.079	11894.33
257.149	11900.21
257.219	11851.05
257.29	11839.53
257.36	11800.54
257.43	11788.63
257.5	11745.25
257.571	11725.83
257.641	11724.77
257.711	11690.3
257.781	11683.8
257.852	11662.01
257.922	11624.9
257.992	11605.91
258.062	11581.09
258.132	11567.45
258.202	11548.5
258.273	11529.51
258.343	11535.01
258.413	11508.31
258.483	11495.54
258.553	11467.1
258.623	11440.54
258.693	11429.46
258.764	11430.47
258.834	11427.72
258.904	11410.08
258.974	11379
259.044	11351.58
259.114	11330.32
259.184	11316.44
259.254	11295.86
259.324	11251.04
259.394	11237.84
259.464	11238.27
259.535	11218.03
259.605	11195.28
259.675	11175.82
259.745	11157.07
259.815	11117.07
259.885	11097.79
259.955	11103.82
260.025	11076.78
260.095	11063.87
260.165	11050.71
260.235	11045.12
260.305	11022.76
260.375	10993.6
260.445	11008.74
260.515	11013.07
260.585	11007.43
260.655	10981.56
260.725	10972.79
260.795	10973.22
260.865	10982.23
260.934	10952.06
261.004	10940.11
261.074	10924.26
261.144	10925.99
261.214	10919.92
261.284	10906.72
261.354	10897.9
261.424	10865.27
261.494	10873.66
261.564	10847.83
261.634	10837.71
261.703	10798.58
261.773	10781.53
261.843	10774.06
