Data from 20250704_urea_0.5M_MAYP1162681_11-10-03-744.txt Node
Date: Fri Jul 04 11:10:03 BST 2025
User: adleo
Spectrometer: MAYP116268
Trigger mode: 0
Integration Time (sec): 1.000000E0
Scans to average: 1
Electric dark correction enabled: true
Nonlinearity correction enabled: true
Boxcar width: 10
XAxis mode: Wavelengths
Number of Pixels in Spectrum: 2068
>>>>>Begin Spectral Data<<<<<
179.565	1233.99
179.642	1296.05
179.718	1341.04
179.795	1381.88
179.871	1412.88
179.948	1431.21
180.024	1454.14
180.101	1477.4
180.177	1492.49
180.254	1515.2
180.33	1537.42
180.407	1593.68
180.483	1692.45
180.56	1784.34
180.636	1871.18
180.712	1859.67
180.789	1870.56
180.865	1883.06
180.942	1896.17
181.018	1906.54
181.095	1920.19
181.171	1925.89
181.248	1927.27
181.324	1945.2
181.4	1951.34
181.477	1965.7
181.553	1982.76
181.63	2001.45
181.706	2018.19
181.782	2026.89
181.859	2026.04
181.935	2033.17
182.011	2029.32
182.088	2047.16
182.164	2069.04
182.24	2081.59
182.317	2093.62
182.393	2094.19
182.469	2108.8
182.546	2120.78
182.622	2125.01
182.698	2120.59
182.775	2129.82
182.851	2138.76
182.927	2129.86
183.003	2124.73
183.08	2118.55
183.156	2122.49
183.232	2120.83
183.308	2109.98
183.385	2118.45
183.461	2139.38
183.537	2139.86
183.613	2155.98
183.69	2148.42
183.766	2137.42
183.842	2144.65
183.918	2149.89
183.995	2162.3
184.071	2164.78
184.147	2156.6
184.223	2145.28
184.299	2156.89
184.375	2147.9
184.452	2160.27
184.528	2210.43
184.604	2223.08
184.68	2234.4
184.756	2243.77
184.832	2247.91
184.908	2249.53
184.985	2249.72
185.061	2230.74
185.137	2238.78
185.213	2225.03
185.289	2221.65
185.365	2213.19
185.441	2213.66
185.517	2226.23
185.593	2221.33
185.669	2219.04
185.745	2235.75
185.822	2251.63
185.898	2240.4
185.974	2251.15
186.05	2240.73
186.126	2205.32
186.202	2198.62
186.278	2195.38
186.354	2185.05
186.43	2193.29
186.506	2196.48
186.582	2194.76
186.658	2200.66
186.734	2179.35
186.81	2181.78
186.886	2185.73
186.962	2200.95
187.038	2198.86
187.114	2193.86
187.19	2201.23
187.266	2194.62
187.341	2191.91
187.417	2185.82
187.493	2188.1
187.569	2189.62
187.645	2183.49
187.721	2173.16
187.797	2180.25
187.873	2186.05
187.949	2182.39
188.025	2174.68
188.101	2173.78
188.176	2178.06
188.252	2174.21
188.328	2183.81
188.404	2183
188.48	2178.77
188.556	2168.16
188.632	2166.35
188.707	2162.73
188.783	2162.45
188.859	2154.08
188.935	2142.51
189.011	2149.89
189.086	2142.9
189.162	2131.76
189.238	2128.44
189.314	2122.35
189.39	2118.21
189.465	2109.5
189.541	2124.54
189.617	2108.51
189.693	2103.51
189.768	2109.22
189.844	2136.02
189.92	2128.5
189.996	2140.54
190.071	2152.58
190.147	2152.81
190.223	2161.62
190.298	2154.96
190.374	2139.59
190.45	2151.1
190.526	2163.38
190.601	2157
190.677	2157.76
190.753	2187.32
190.828	2188.79
190.904	2204.49
190.98	2218.44
191.055	2228.14
191.131	2220.58
191.207	2239.84
191.282	2251.93
191.358	2239.89
191.433	2223.7
191.509	2237.4
191.585	2232.88
191.66	2232.97
191.736	2239.78
191.811	2229.02
191.887	2246.87
191.963	2270.9
192.038	2278.04
192.114	2274.71
192.189	2280.32
192.265	2279.13
192.34	2256.43
192.416	2258.42
192.491	2255.81
192.567	2255.57
192.642	2258.19
192.718	2257.8
192.793	2247.43
192.869	2242.77
192.944	2247.43
193.02	2255.71
193.095	2257.52
193.171	2262.14
193.246	2262.14
193.322	2260.9
193.397	2261.52
193.473	2244.86
193.548	2229.39
193.624	2234.24
193.699	2235.58
193.775	2253.05
193.85	2253.52
193.925	2261.8
194.001	2261.33
194.076	2252.81
194.152	2243.2
194.227	2234.15
194.302	2225.64
194.378	2230.11
194.453	2227.16
194.529	2239.01
194.604	2224.07
194.679	2219.17
194.755	2201.47
194.83	2213.28
194.905	2211.09
194.981	2221.32
195.056	2215.85
195.131	2221.42
195.207	2220.94
195.282	2210.33
195.357	2188.82
195.433	2206.09
195.508	2196.52
195.583	2203.09
195.659	2216.99
195.734	2226.46
195.809	2229.5
195.884	2234.26
195.96	2235.31
196.035	2251.44
196.11	2247.58
196.185	2258.43
196.261	2264.33
196.336	2296.21
196.411	2282.31
196.486	2292.88
196.561	2289.02
196.637	2297.11
196.712	2312.82
196.787	2316.06
196.862	2329.95
196.937	2342.18
197.013	2346.85
197.088	2357.46
197.163	2380.13
197.238	2401.08
197.313	2399.18
197.388	2410.65
197.464	2443.6
197.539	2453.41
197.614	2446.6
197.689	2459.17
197.764	2475.12
197.839	2493.97
197.914	2487.31
197.989	2510.59
198.065	2519.59
198.14	2569.05
198.215	2595.44
198.29	2605.82
198.365	2618.44
198.44	2631.3
198.515	2655.83
198.59	2671.41
198.665	2699.9
198.74	2706.71
198.815	2703.81
198.89	2729.15
198.965	2758.55
199.04	2753.79
199.115	2769.55
199.19	2811.33
199.265	2815.1
199.34	2829.78
199.415	2864.15
199.49	2885.21
199.565	2894.31
199.64	2918.15
199.715	2916.43
199.79	2926.34
199.865	2933.21
199.94	2930.82
200.015	2963.63
200.09	2972.5
200.165	2976.36
200.24	2981.6
200.315	3022.87
200.39	3038.65
200.464	3043.85
200.539	3046.19
200.614	3065.87
200.689	3091.29
200.764	3101.45
200.839	3120.04
200.914	3122.85
200.989	3111.98
201.063	3128.62
201.138	3110.23
201.213	3109.56
201.288	3088.58
201.363	3090.34
201.438	3092.49
201.512	3110.27
201.587	3091.9
201.662	3093.48
201.737	3106.97
201.812	3115.84
201.886	3082.34
201.961	3093.75
202.036	3083.12
202.111	3079.4
202.186	3052.04
202.26	3035.35
202.335	3011.12
202.41	3000.77
202.485	2985.24
202.559	2966.45
202.634	2940.47
202.709	2950.09
202.784	2931.41
202.858	2931.45
202.933	2915.29
203.008	2906.48
203.082	2885.03
203.157	2882.55
203.232	2841.96
203.306	2820.84
203.381	2788.57
203.456	2767.22
203.53	2744.71
203.605	2724.18
203.68	2703.02
203.754	2695.11
203.829	2678.2
203.904	2656.43
203.978	2647.57
204.053	2651.28
204.127	2635.71
204.202	2629.37
204.277	2612.27
204.351	2606.18
204.426	2596.51
204.5	2587.74
204.575	2552.75
204.65	2562.99
204.724	2554.46
204.799	2561.55
204.873	2558.79
204.948	2557.26
205.022	2546.12
205.097	2537.69
205.171	2552.59
205.246	2561.79
205.32	2557.22
205.395	2557.5
205.469	2551.94
205.544	2558.94
205.618	2539.65
205.693	2553.94
205.767	2540.56
205.842	2561.28
205.916	2553.71
205.991	2547.42
206.065	2553.57
206.14	2570.6
206.214	2568.89
206.289	2563.79
206.363	2575.55
206.438	2577.6
206.512	2584.79
206.586	2602.89
206.661	2609.18
206.735	2587.99
206.81	2588.18
206.884	2610.04
206.958	2598.9
207.033	2617.66
207.107	2627.1
207.181	2664.26
207.256	2660.17
207.33	2685.08
207.405	2706.63
207.479	2736.65
207.553	2750.08
207.628	2738.27
207.702	2757.56
207.776	2758.09
207.851	2769.9
207.925	2797.41
207.999	2805.65
208.073	2814.28
208.148	2831.68
208.222	2834.92
208.296	2881.71
208.371	2915.67
208.445	2943.42
208.519	2993.81
208.593	3027.56
208.668	3046.07
208.742	3070.6
208.816	3102.02
208.89	3149.98
208.965	3180.44
209.039	3219.11
209.113	3275.85
209.187	3338.46
209.261	3374.86
209.336	3443.17
209.41	3509.68
209.484	3560.22
209.558	3636.39
209.632	3706.68
209.707	3777.82
209.781	3868.69
209.855	3951.72
209.929	4038.93
210.003	4116.71
210.077	4191.16
210.151	4321.11
210.226	4441.84
210.3	4565.77
210.374	4682.17
210.448	4780.37
210.522	4884.34
210.596	4998.71
210.67	5111.76
210.744	5271.05
210.818	5424.11
210.892	5559.45
210.966	5680.67
211.041	5819.83
211.115	5946.97
211.189	6104.85
211.263	6257.72
211.337	6398.87
211.411	6556.59
211.485	6692.71
211.559	6858.08
211.633	7018.32
211.707	7141.36
211.781	7308.04
211.855	7432.41
211.929	7592.85
212.003	7739.54
212.077	7922.06
212.151	8106.18
212.225	8289.89
212.299	8450.73
212.373	8612.74
212.447	8786.49
212.52	8995.96
212.594	9185.78
212.668	9378.68
212.742	9546.77
212.816	9724.37
212.89	9910.26
212.964	10105.93
213.038	10308.35
213.112	10513.19
213.186	10721.41
213.26	10902.99
213.333	11054.83
213.407	11255.75
213.481	11447.1
213.555	11656.38
213.629	11839.57
213.703	12020.17
213.777	12217.11
213.85	12398.87
213.924	12630.09
213.998	12834.37
214.072	13020.24
214.146	13198.16
214.219	13386.63
214.293	13579.84
214.367	13774.39
214.441	13968.51
214.515	14133.46
214.588	14285.26
214.662	14430.5
214.736	14590.25
214.81	14766.39
214.883	14953.32
214.957	15112.15
215.031	15279.03
215.105	15426.48
215.178	15581.4
215.252	15738.2
215.326	15878.41
215.4	16019.73
215.473	16130.68
215.547	16260.72
215.621	16407.86
215.694	16566.57
215.768	16699.74
215.842	16834.4
215.915	16965.92
215.989	17084.77
216.063	17224.34
216.136	17366.56
216.21	17502.61
216.284	17650.37
216.357	17789.6
216.431	17912.34
216.504	18054.36
216.578	18208.53
216.652	18343.9
216.725	18472.23
216.799	18611.31
216.873	18736.94
216.946	18863.35
217.02	18971.01
217.093	19077.36
217.167	19159.96
217.24	19248.44
217.314	19356.14
217.387	19455.8
217.461	19555.36
217.535	19668.13
217.608	19754.97
217.682	19860.75
217.755	19974.24
217.829	20052.5
217.902	20144.16
217.976	20237.51
218.049	20322.95
218.123	20391.15
218.196	20484.26
218.27	20563.15
218.343	20627.54
218.417	20701.03
218.49	20776.51
218.563	20873.86
218.637	20953.67
218.71	21052.28
218.784	21148.58
218.857	21227.86
218.931	21307.15
219.004	21382.34
219.077	21463.7
219.151	21534.84
219.224	21596.29
219.298	21656.83
219.371	21739.26
219.444	21782.78
219.518	21846.94
219.591	21906.28
219.665	22000.38
219.738	22061.84
219.811	22108.45
219.885	22168.95
219.958	22227.71
220.031	22276.45
220.105	22336.37
220.178	22399.43
220.251	22444.26
220.325	22489.34
220.398	22530.56
220.471	22581.61
220.544	22623.22
220.618	22651.04
220.691	22689.17
220.764	22733.57
220.838	22779.76
220.911	22807.82
220.984	22873.39
221.057	22909.12
221.131	22931.63
221.204	22913.69
221.277	22961.86
221.35	23020.35
221.424	23034.77
221.497	23070.5
221.57	23104.05
221.643	23132.94
221.716	23161.82
221.79	23180.1
221.863	23196.54
221.936	23222.87
222.009	23238.05
222.082	23263.22
222.155	23280.82
222.229	23316.99
222.302	23333.34
222.375	23335.75
222.448	23346.31
222.521	23355.13
222.594	23357.25
222.667	23360.92
222.74	23393.08
222.814	23391.92
222.887	23396.65
222.96	23420.86
223.033	23426.21
223.106	23423.51
223.179	23428.19
223.252	23418.74
223.325	23421.82
223.398	23420.95
223.471	23429.97
223.544	23427.85
223.617	23431.9
223.69	23431.13
223.763	23418.83
223.837	23414.97
223.91	23418.16
223.983	23395.11
224.056	23379.87
224.129	23390.14
224.202	23407.11
224.275	23383.53
224.348	23366.56
224.42	23348.91
224.493	23316.75
224.566	23306.62
224.639	23305.66
224.712	23286.03
224.785	23282.46
224.858	23255.94
224.931	23227.01
225.004	23201.94
225.077	23187.95
225.15	23145.76
225.223	23139.35
225.296	23151.98
225.369	23130.62
225.442	23113.94
225.514	23121.36
225.587	23112.68
225.66	23095.04
225.733	23075.12
225.806	23075.8
225.879	23060.03
225.952	23025.99
226.025	23029.17
226.097	23024.35
226.17	23011.33
226.243	22978.88
226.316	22962.1
226.389	22952.8
226.461	22954.73
226.534	22942.87
226.607	22930.09
226.68	22940.31
226.753	22914.56
226.825	22860.37
226.898	22845.13
226.971	22816.15
227.044	22793.49
227.117	22763.12
227.189	22754.01
227.262	22740.94
227.335	22730.14
227.407	22704.16
227.48	22689.64
227.553	22672.05
227.626	22648.9
227.698	22617.18
227.771	22594.62
227.844	22560.87
227.916	22547.66
227.989	22508.8
228.062	22480.6
228.134	22479.2
228.207	22450.76
228.28	22428.01
228.352	22407.66
228.425	22392.04
228.498	22381.63
228.57	22355.12
228.643	22346.68
228.716	22307.44
228.788	22273.79
228.861	22232.66
228.934	22222.54
229.006	22200.13
229.079	22165.42
229.151	22120.97
229.224	22092.1
229.296	22077.92
229.369	22087.61
229.442	22074.69
229.514	22042.54
229.587	22030.54
229.659	21983.64
229.732	21969.32
229.804	21952.06
229.877	21942.95
229.949	21926.22
230.022	21919.28
230.094	21893.16
230.167	21866.65
230.239	21836.81
230.312	21810.15
230.384	21805.72
230.457	21784.03
230.529	21759.4
230.602	21738.86
230.674	21716.93
230.747	21705.89
230.819	21683.05
230.892	21611.08
230.964	21581.49
231.037	21571.94
231.109	21541.43
231.181	21525.09
231.254	21473.57
231.326	21436.46
231.399	21408.31
231.471	21368.3
231.544	21321.59
231.616	21298.22
231.688	21275.47
231.761	21240.82
231.833	21202.98
231.905	21147.31
231.978	21111.74
232.05	21081.19
232.122	21053.81
232.195	21019.54
232.267	20999.83
232.339	20974.96
232.412	20972.17
232.484	20944.36
232.556	20907.34
232.629	20898.86
232.701	20871.63
232.773	20852.54
232.846	20815.87
232.918	20789.75
232.99	20765.5
233.062	20748.49
233.135	20723.57
233.207	20681.98
233.279	20657.02
233.351	20638.95
233.424	20609.6
233.496	20568.25
233.568	20556.34
233.64	20506.71
233.713	20485.26
233.785	20450.37
233.857	20417.26
233.929	20363.52
234.001	20342.56
234.074	20326.51
234.146	20271.81
234.218	20241.31
234.29	20210.61
234.362	20186.51
234.434	20128.83
234.507	20082.47
234.579	20032.64
234.651	19991.53
234.723	19963.68
234.795	19936.4
234.867	19901.8
234.939	19883.1
235.012	19852.74
235.084	19824.55
235.156	19804.02
235.228	19768.36
235.3	19728.17
235.372	19696.75
235.444	19676.51
235.516	19621.91
235.588	19587.98
235.66	19560.27
235.732	19519.31
235.804	19539.89
235.876	19522.01
235.948	19518.25
236.02	19486.88
236.092	19441.97
236.164	19421.97
236.236	19386.79
236.308	19348.09
236.38	19319.27
236.452	19275.57
236.524	19246.46
236.596	19227.13
236.668	19204.92
236.74	19168.34
236.812	19136.73
236.884	19106.76
236.956	19076.45
237.028	19033.46
237.1	18986.28
237.172	18961.8
237.244	18939.54
237.316	18862.14
237.388	18818.73
237.46	18767.74
237.532	18741.91
237.604	18707.02
237.675	18677.24
237.747	18661.24
237.819	18624.91
237.891	18595.85
237.963	18560.86
238.035	18523.32
238.107	18448.05
238.178	18419.86
238.25	18380.1
238.322	18374.85
238.394	18330.66
238.466	18292.68
238.538	18276.11
238.609	18246.81
238.681	18197.8
238.753	18156.45
238.825	18116.98
238.897	18080.02
238.968	18074.33
239.04	18039.68
239.112	18037.51
239.184	17986.09
239.255	17927.64
239.327	17897.66
239.399	17855.25
239.471	17828.03
239.542	17801.62
239.614	17791.11
239.686	17734.87
239.758	17712.85
239.829	17657.43
239.901	17632.8
239.973	17593.28
240.044	17545.38
240.116	17509.38
240.188	17467.74
240.259	17426.73
240.331	17391.36
240.403	17358.29
240.474	17300.22
240.546	17257.33
240.618	17198.78
240.689	17157.96
240.761	17130.1
240.833	17111.79
240.904	17077.09
240.976	17044.89
241.048	17010.15
241.119	16975.74
241.191	16953.52
241.262	16945.04
241.334	16908.79
241.405	16872.79
241.477	16840.6
241.549	16811.78
241.62	16786.86
241.692	16767.58
241.763	16753.56
241.835	16728.54
241.906	16705.36
241.978	16657.26
242.049	16644.3
242.121	16626.46
242.192	16613.69
242.264	16567.95
242.335	16517.44
242.407	16493.54
242.478	16453.73
242.55	16427.27
242.621	16384.32
242.693	16347.31
242.764	16294.97
242.836	16258.82
242.907	16228.65
242.979	16201.37
243.05	16173.8
243.122	16149.31
243.193	16106.75
243.264	16046.65
243.336	16013.92
243.407	15986.5
243.479	15977.68
243.55	15944.81
243.622	15916.61
243.693	15883.74
243.764	15870.29
243.836	15830.67
243.907	15790.28
243.978	15750.8
244.05	15716.92
244.121	15674.02
244.192	15652.91
244.264	15609.48
244.335	15581.57
244.407	15539.73
244.478	15515.29
244.549	15489.36
244.62	15435.13
244.692	15404.19
244.763	15385.29
244.834	15345
244.906	15306.34
244.977	15277.42
245.048	15255.01
245.119	15210.18
245.191	15170.84
245.262	15119.07
245.333	15112.13
245.405	15089.24
245.476	15069.81
245.547	15047.59
245.618	15029.27
245.689	14996.69
245.761	14970.85
245.832	14939.23
245.903	14917.44
245.974	14889.43
246.045	14853.38
246.117	14859.45
246.188	14825.95
246.259	14782.66
246.33	14751.33
246.401	14715.99
246.473	14673.91
246.544	14634.34
246.615	14616.84
246.686	14582.28
246.757	14569.69
246.828	14521.68
246.899	14508.62
246.97	14466.63
247.042	14426.81
247.113	14408.74
247.184	14404.83
247.255	14370.03
247.326	14345.97
247.397	14308.13
247.468	14278.97
247.539	14255.25
247.61	14203.29
247.681	14183.04
247.752	14173.69
247.823	14142.02
247.894	14116.8
247.965	14078.82
248.037	14050.14
248.108	14010.46
248.179	13984.96
248.25	13960.33
248.321	13941.14
248.392	13897.18
248.463	13892.65
248.534	13855.91
248.605	13829.83
248.675	13796.48
248.746	13779.22
248.817	13760.18
248.888	13743.88
248.959	13705.56
249.03	13681.02
249.101	13658.7
249.172	13628.38
249.243	13586.05
249.314	13580.32
249.385	13554.86
249.456	13538.71
249.527	13509.21
249.598	13487.71
249.669	13470.5
249.739	13448.42
249.81	13434.78
249.881	13403.45
249.952	13379.44
250.023	13367.73
250.094	13331.67
250.165	13294.69
250.235	13269.58
250.306	13243.26
250.377	13212.4
250.448	13192.64
250.519	13148.87
250.59	13140.34
250.66	13118.93
250.731	13108.81
250.802	13081.19
250.873	13060.51
250.944	13034.09
251.014	13006.03
251.085	13010.66
251.156	12987.86
251.227	12980.24
251.297	12970.22
251.368	12950.6
251.439	12934.98
251.51	12929.53
251.58	12901.38
251.651	12878.43
251.722	12873.23
251.792	12838.47
251.863	12810.56
251.934	12803.95
252.005	12815.67
252.075	12789.73
252.146	12779.47
252.217	12771.85
252.287	12758.26
252.358	12737.19
252.429	12738.59
252.499	12718.1
252.57	12697.81
252.641	12685.13
252.711	12660.01
252.782	12621.79
252.852	12628.63
252.923	12613.35
252.994	12584.04
253.064	12572.47
253.135	12542.3
253.205	12506.87
253.276	12505.37
253.347	12507.59
253.417	12477.56
253.488	12450.32
253.558	12425.74
253.629	12395.13
253.699	12379.99
253.77	12362.98
253.841	12342.35
253.911	12330.34
253.982	12309.47
254.052	12299.78
254.123	12282.57
254.193	12263.68
254.264	12280.02
254.334	12252.98
254.405	12214.03
254.475	12187.42
254.546	12166.89
254.616	12158.02
254.687	12150.16
254.757	12137.53
254.827	12109.14
254.898	12091.55
254.968	12066.39
255.039	12035.88
255.109	12032.17
255.18	12004.21
255.25	11959.48
255.321	11947.81
255.391	11909.93
255.461	11913.88
255.532	11863.56
255.602	11838.4
255.673	11798.58
255.743	11769.08
255.813	11720.93
255.884	11715.25
255.954	11703.1
256.024	11703.82
256.095	11686.42
256.165	11649.99
256.235	11628.3
256.306	11605.5
256.376	11601.69
256.446	11596.05
256.517	11600.73
256.587	11594.27
256.657	11577.01
256.728	11566.8
256.798	11545.35
256.868	11521.44
256.938	11494.12
257.009	11487.03
257.079	11483.08
257.149	11491.9
257.219	11455.56
257.29	11443.32
257.36	11411.41
257.43	11399.03
257.5	11358.25
257.571	11337.77
257.641	11332.23
257.711	11301.48
257.781	11292.9
257.852	11276.42
257.922	11240.37
257.992	11210.83
258.062	11186.29
258.132	11174
258.202	11158.54
258.273	11148.66
258.343	11155.69
258.413	11133.76
258.483	11120.75
258.553	11089.33
258.623	11063.21
258.693	11052.46
258.764	11060.32
258.834	11056.51
258.904	11047.79
258.974	11025
259.044	11006.25
259.114	10995.75
259.184	10978.78
259.254	10963.36
259.324	10922.98
259.394	10911.03
259.464	10909.78
259.535	10894.07
259.605	10872.48
259.675	10849.88
259.745	10830.65
259.815	10799.14
259.885	10776.2
259.955	10790.52
260.025	10763.58
260.095	10746.19
260.165	10736.74
260.235	10730.67
260.305	10701.42
260.375	10668.8
260.445	10682.87
260.515	10688.41
260.585	10681.62
260.655	10676.12
260.725	10665.14
260.795	10667.02
260.865	10673.57
260.934	10650.25
261.004	10640.18
261.074	10623.7
261.144	10627.02
261.214	10624.76
261.284	10608.81
261.354	10606.26
261.424	10568.57
261.494	10572.72
261.564	10558.07
261.634	10547.42
261.703	10513.11
261.773	10511.57
261.843	10508.87
261.913	10487.87
261.983	10447.68
