Data from 20250704_urea_1M_MAYP1162681_11-42-20-611.txt Node
Date: Fri Jul 04 11:42:20 BST 2025
User: adleo
Spectrometer: MAYP116268
Trigger mode: 0
Integration Time (sec): 1.000000E0
Scans to average: 1
Electric dark correction enabled: true
Nonlinearity correction enabled: true
Boxcar width: 10
XAxis mode: Wavelengths
Number of Pixels in Spectrum: 2068
>>>>>Begin Spectral Data<<<<<
179.565	1255.78
179.642	1314.52
179.718	1359.22
179.795	1397.96
179.871	1437.8
179.948	1457.56
180.024	1477.69
180.101	1501.03
180.177	1515.54
180.254	1541.39
180.33	1562.87
180.407	1620.23
180.483	1718.53
180.56	1813.6
180.636	1901.96
180.712	1890.21
180.789	1903.81
180.865	1916.36
180.942	1924.06
181.018	1932.9
181.095	1945.08
181.171	1952.88
181.248	1954.06
181.324	1971.81
181.4	1981.74
181.477	1989.5
181.553	2002.9
181.63	2023.64
181.706	2038.86
181.782	2048.17
181.859	2045.08
181.935	2053.21
182.011	2048.65
182.088	2066.68
182.164	2086.95
182.24	2098.88
182.317	2110.2
182.393	2108.35
182.469	2124.61
182.546	2140.26
182.622	2147.02
182.698	2140.5
182.775	2148.21
182.851	2164.62
182.927	2156.34
183.003	2153.01
183.08	2145.83
183.156	2153.53
183.232	2150.58
183.308	2142.64
183.385	2150.06
183.461	2169.8
183.537	2170.75
183.613	2186.45
183.69	2177.51
183.766	2165.66
183.842	2174.51
183.918	2179.5
183.995	2191.73
184.071	2195.3
184.147	2189.73
184.223	2176.23
184.299	2190.79
184.375	2180.65
184.452	2185.32
184.528	2237.1
184.604	2245.9
184.68	2258.55
184.756	2267.88
184.832	2274.73
184.908	2277.02
184.985	2277.06
185.061	2261.17
185.137	2269.83
185.213	2255.51
185.289	2255.61
185.365	2247.9
185.441	2246.09
185.517	2260.47
185.593	2257.8
185.669	2254.76
185.745	2266.23
185.822	2282.4
185.898	2277.07
185.974	2291.2
186.05	2282.53
186.126	2245.98
186.202	2239.32
186.278	2236.23
186.354	2226.05
186.43	2234.61
186.506	2233.23
186.582	2234.04
186.658	2239.47
186.734	2218.25
186.81	2223.67
186.886	2227.14
186.962	2240.13
187.038	2239.32
187.114	2227.61
187.19	2231.7
187.266	2221.19
187.341	2220.9
187.417	2215.67
187.493	2209.68
187.569	2210.01
187.645	2204.97
187.721	2194.54
187.797	2199.92
187.873	2205.11
187.949	2199.73
188.025	2190.54
188.101	2192.21
188.176	2197.68
188.252	2191.31
188.328	2201.72
188.404	2201.06
188.48	2197.35
188.556	2189.73
188.632	2186.02
188.707	2186.69
188.783	2190.07
188.859	2186.17
188.935	2173.79
189.011	2184.69
189.086	2183.64
189.162	2175.41
189.238	2174.79
189.314	2170.08
189.39	2165.28
189.465	2155.86
189.541	2171.89
189.617	2156.29
189.693	2151.82
189.768	2152.49
189.844	2177.66
189.92	2169.62
189.996	2176.95
190.071	2189.8
190.147	2188.28
190.223	2200.46
190.298	2194.32
190.374	2179.24
190.45	2191.6
190.526	2200.41
190.601	2192.32
190.677	2194.5
190.753	2220.74
190.828	2220.26
190.904	2236.34
190.98	2253.52
191.055	2263.28
191.131	2254.09
191.207	2275.84
191.282	2286.87
191.358	2279.02
191.433	2264.12
191.509	2276.63
191.585	2275.3
191.66	2274.3
191.736	2285.29
191.811	2272.73
191.887	2291.63
191.963	2314.42
192.038	2319.66
192.114	2319.8
192.189	2325.46
192.265	2318.38
192.34	2298.24
192.416	2300.62
192.491	2298.19
192.567	2301.66
192.642	2307.9
192.718	2309.66
192.793	2298.19
192.869	2295.72
192.944	2297.43
193.02	2307.61
193.095	2314.18
193.171	2319.42
193.246	2320.23
193.322	2315.99
193.397	2317.32
193.473	2300.9
193.548	2282.52
193.624	2287.38
193.699	2286.81
193.775	2301.47
193.85	2305.7
193.925	2314.46
194.001	2312.66
194.076	2302.09
194.152	2292.05
194.227	2283.19
194.302	2272.2
194.378	2274.01
194.453	2271.16
194.529	2283.15
194.604	2266.4
194.679	2258.16
194.755	2238.61
194.83	2248.18
194.905	2247.56
194.981	2258.03
195.056	2250.18
195.131	2257.37
195.207	2254.23
195.282	2244.9
195.357	2225.34
195.433	2241.47
195.508	2230.71
195.583	2235.75
195.659	2253.56
195.734	2258.17
195.809	2257.46
195.884	2266.69
195.96	2266.88
196.035	2282.25
196.11	2279.96
196.185	2292.86
196.261	2297.76
196.336	2330.12
196.411	2318.46
196.486	2323.12
196.561	2316.22
196.637	2326.4
196.712	2343.16
196.787	2346.5
196.862	2359.73
196.937	2370.43
197.013	2376.24
197.088	2385.33
197.163	2411.19
197.238	2423.96
197.313	2425.86
197.388	2438.57
197.464	2469.81
197.539	2482.71
197.614	2477.28
197.689	2489.52
197.764	2508.71
197.839	2524.76
197.914	2518.19
197.989	2540.67
198.065	2555.33
198.14	2608.61
198.215	2633.85
198.29	2644.48
198.365	2660.2
198.44	2674.77
198.515	2704.88
198.59	2718.22
198.665	2745.09
198.74	2755.05
198.815	2755.77
198.89	2777.06
198.965	2810.33
199.04	2805.95
199.115	2822.29
199.19	2863.31
199.265	2867.36
199.34	2876.75
199.415	2914.99
199.49	2935.91
199.565	2947.45
199.64	2969.32
199.715	2968.94
199.79	2979.91
199.865	2987.97
199.94	2987.01
200.015	3019.1
200.09	3021.3
200.165	3029.83
200.24	3032.93
200.315	3072.49
200.39	3090.28
200.464	3095.19
200.539	3095.33
200.614	3115.69
200.689	3140.4
200.764	3145.83
200.839	3163.95
200.914	3171.82
200.989	3160.41
201.063	3177.1
201.138	3157.23
201.213	3161.38
201.288	3139.01
201.363	3139.44
201.438	3136.25
201.512	3150.26
201.587	3132.18
201.662	3136.33
201.737	3149.59
201.812	3160.99
201.886	3129.15
201.961	3140.65
202.036	3133.17
202.111	3129.02
202.186	3094.7
202.26	3075.53
202.335	3054.64
202.41	3049.25
202.485	3031.94
202.559	3014.11
202.634	2985.93
202.709	2997.7
202.784	2976.44
202.858	2975.58
202.933	2958.47
203.008	2953.18
203.082	2933.11
203.157	2932.4
203.232	2892.42
203.306	2870.34
203.381	2836.02
203.456	2809.47
203.53	2784.19
203.605	2764.28
203.68	2743.07
203.754	2739.07
203.829	2724.63
203.904	2703.38
203.978	2691.71
204.053	2694.52
204.127	2678.13
204.202	2675.8
204.277	2657.36
204.351	2646.02
204.426	2639.45
204.5	2630.21
204.575	2593.59
204.65	2606.88
204.724	2598.68
204.799	2603.16
204.873	2599.63
204.948	2600.35
205.022	2587.02
205.097	2579.44
205.171	2591.73
205.246	2597.35
205.32	2596.97
205.395	2596.01
205.469	2587.35
205.544	2590.35
205.618	2571.39
205.693	2585.21
205.767	2573.78
205.842	2593.55
205.916	2593.93
205.991	2582.93
206.065	2590.55
206.14	2610.25
206.214	2602.49
206.289	2596.77
206.363	2612.87
206.438	2615.11
206.512	2625.01
206.586	2645.49
206.661	2653.07
206.735	2630.07
206.81	2631.17
206.884	2643.74
206.958	2633.5
207.033	2650.45
207.107	2657.46
207.181	2691.48
207.256	2684.38
207.33	2703.72
207.405	2720.89
207.479	2738.18
207.553	2745.61
207.628	2730.47
207.702	2738.42
207.776	2733.66
207.851	2737.19
207.925	2751.15
207.999	2748.77
208.073	2742.48
208.148	2747.96
208.222	2738.67
208.296	2771.05
208.371	2790.89
208.445	2805.57
208.519	2836.3
208.593	2851.31
208.668	2850.74
208.742	2851.83
208.816	2857.12
208.89	2875.91
208.965	2873.38
209.039	2880.24
209.113	2903.41
209.187	2928.47
209.261	2928.89
209.336	2954.83
209.41	2978.62
209.484	2985.06
209.558	3012.9
209.632	3036.21
209.707	3053.62
209.781	3082.56
209.855	3110.51
209.929	3134.38
210.003	3147.45
210.077	3152.89
210.151	3214.76
210.226	3260.58
210.3	3303.32
210.374	3342.38
210.448	3359.75
210.522	3386.29
210.596	3420.08
210.67	3449.63
210.744	3519.06
210.818	3577.75
210.892	3623.02
210.966	3643.36
211.041	3690.54
211.115	3719.67
211.189	3777.9
211.263	3832.16
211.337	3878.36
211.411	3932.18
211.485	3968.84
211.559	4028.04
211.633	4082.21
211.707	4104.55
211.781	4164.21
211.855	4183.62
211.929	4235.54
212.003	4279.84
212.077	4355.35
212.151	4439.29
212.225	4522.51
212.299	4582.22
212.373	4646.64
212.447	4725.22
212.52	4836.39
212.594	4929.99
212.668	5036.08
212.742	5118.77
212.816	5215.34
212.89	5308.24
212.964	5415.7
213.038	5534.15
213.112	5663.4
213.186	5799.96
213.26	5899.37
213.333	5975.69
213.407	6106.86
213.481	6242.44
213.555	6391.64
213.629	6516.1
213.703	6635.64
213.777	6774.14
213.85	6906.15
213.924	7085.99
213.998	7236.57
214.072	7386.03
214.146	7524.87
214.219	7676.23
214.293	7825.17
214.367	7981.53
214.441	8151.74
214.515	8300.89
214.588	8434.26
214.662	8561.73
214.736	8701.91
214.81	8871.58
214.883	9056.41
214.957	9222.09
215.031	9378.16
215.105	9525.67
215.178	9684.78
215.252	9853.77
215.326	9999.9
215.4	10150.81
215.473	10269.12
215.547	10422.67
215.621	10580.81
215.694	10757.21
215.768	10902.44
215.842	11062.65
215.915	11220.48
215.989	11370.26
216.063	11525.83
216.136	11692.34
216.21	11861.41
216.284	12036.95
216.357	12197.74
216.431	12357.28
216.504	12520.83
216.578	12706.94
216.652	12873.57
216.725	13030.28
216.799	13193.5
216.873	13353.44
216.946	13524.18
217.02	13679.93
217.093	13829.08
217.167	13953.59
217.24	14080.28
217.314	14225.47
217.387	14364.11
217.461	14493.15
217.535	14650.73
217.608	14783.77
217.682	14922.07
217.755	15070.29
217.829	15198.51
217.902	15334.59
217.976	15462.95
218.049	15590.05
218.123	15700.67
218.196	15840.93
218.27	15964.23
218.343	16073.2
218.417	16199.34
218.49	16313.95
218.563	16458.69
218.637	16585.01
218.71	16730.9
218.784	16859.92
218.857	16995.3
218.931	17115.12
219.004	17235.41
219.077	17342.69
219.151	17445.49
219.224	17558.26
219.298	17660.91
219.371	17777.58
219.444	17874.01
219.518	17981.19
219.591	18085.58
219.665	18216.9
219.738	18312.12
219.811	18397.08
219.885	18498.48
219.958	18594.86
220.031	18672.15
220.105	18758.42
220.178	18830.17
220.251	18903.47
220.325	18986.74
220.398	19070.2
220.471	19162.92
220.544	19252.89
220.618	19324.41
220.691	19415.15
220.764	19497.89
220.838	19572.35
220.911	19632.39
220.984	19728.48
221.057	19793.15
221.131	19848.57
221.204	19870.93
221.277	19947.9
221.35	20045.58
221.424	20099.55
221.497	20155.55
221.57	20219.55
221.643	20278.63
221.716	20350.25
221.79	20394.1
221.863	20440.75
221.936	20471.89
222.009	20508.22
222.082	20551.31
222.155	20592.18
222.229	20655.46
222.302	20701.87
222.375	20737.82
222.448	20792.47
222.521	20817.49
222.594	20851.41
222.667	20875.08
222.74	20924.14
222.814	20957.15
222.887	20976.67
222.96	21020.97
223.033	21060.54
223.106	21096.78
223.179	21135.14
223.252	21160.64
223.325	21191.58
223.398	21223.15
223.471	21255.15
223.544	21279.49
223.617	21309.57
223.69	21329.62
223.763	21331.31
223.837	21343.36
223.91	21373.86
223.983	21375.17
224.056	21381.14
224.129	21409
224.202	21450.02
224.275	21459.08
224.348	21459.27
224.42	21462.02
224.493	21451.37
224.566	21450.88
224.639	21463.7
224.712	21462.31
224.785	21465.78
224.858	21470.93
224.931	21466.02
225.004	21461.25
225.077	21469.05
225.15	21440.81
225.223	21452.91
225.296	21476.24
225.369	21462.36
225.442	21444.23
225.514	21437.82
225.587	21436.38
225.66	21435.22
225.733	21427.56
225.806	21433.87
225.879	21423.75
225.952	21407.02
226.025	21416.57
226.097	21433.82
226.17	21431.17
226.243	21401.15
226.316	21398.64
226.389	21401.1
226.461	21405.77
226.534	21406.11
226.607	21397.43
226.68	21419.36
226.753	21409.97
226.825	21378.83
226.898	21390.01
226.971	21391.7
227.044	21391.41
227.117	21395.31
227.189	21394.01
227.262	21397.91
227.335	21388.52
227.407	21385.04
227.48	21388.18
227.553	21388.03
227.626	21367.84
227.698	21343.79
227.771	21342.15
227.844	21314.39
227.916	21300.65
227.989	21270.33
228.062	21244.16
228.134	21253.18
228.207	21231.29
228.28	21210.57
228.352	21189.56
228.425	21168.83
228.498	21164.64
228.57	21143.48
228.643	21147.72
228.716	21117.45
228.788	21085.02
228.861	21063.71
228.934	21064.58
229.006	21044.63
229.079	21016.77
229.151	20991.08
229.224	20969.2
229.296	20949.78
229.369	20973.59
229.442	20970.98
229.514	20952.86
229.587	20959.32
229.659	20919.9
229.732	20910.55
229.804	20903.94
229.877	20917.87
229.949	20911.95
230.022	20906.16
230.094	20892.04
230.167	20872.81
230.239	20855.32
230.312	20849.15
230.384	20862.06
230.457	20838.35
230.529	20829.53
230.602	20825.53
230.674	20812.09
230.747	20807.94
230.819	20807.03
230.892	20751.02
230.964	20738.2
231.037	20733.67
231.109	20712.85
231.181	20708.66
231.254	20674.73
231.326	20661.14
231.399	20636.56
231.471	20608.8
231.544	20570.78
231.616	20558.54
231.688	20528.7
231.761	20500.66
231.833	20480.13
231.905	20424.27
231.978	20401.14
232.05	20378.87
232.122	20351.69
232.195	20322.34
232.267	20317.67
232.339	20291.88
232.412	20281.33
232.484	20243.88
232.556	20209.62
232.629	20208.37
232.701	20189.91
232.773	20178.83
232.846	20140.32
232.918	20101.67
232.99	20085.62
233.062	20072.32
233.135	20050.35
233.207	20021.53
233.279	20012.08
233.351	19984.32
233.424	19960.52
233.496	19930.35
233.568	19923.99
233.64	19886.16
233.713	19863.56
233.785	19829.97
233.857	19803.51
233.929	19767.13
234.001	19762.31
234.074	19763.37
234.146	19715.08
234.218	19690.84
234.29	19657.78
234.362	19631.47
234.434	19597.11
234.507	19564.58
234.579	19523.91
234.651	19494.52
234.723	19480.3
234.795	19453.75
234.867	19418.81
234.939	19396.59
235.012	19372.31
235.084	19344.6
235.156	19320.5
235.228	19288.5
235.3	19255.45
235.372	19229.57
235.444	19214.92
235.516	19161.19
235.588	19118.25
235.66	19088.85
235.732	19049.68
235.804	19078.54
235.876	19063.07
235.948	19057.53
236.02	19022.83
236.092	19004.18
236.164	18978.74
236.236	18937.92
236.308	18914.94
236.38	18902.5
236.452	18878.17
236.524	18845.25
236.596	18825.74
236.668	18810.7
236.74	18785.64
236.812	18753.16
236.884	18741.69
236.956	18711.67
237.028	18669.26
237.1	18634.38
237.172	18626.86
237.244	18611.97
237.316	18549.22
237.388	18504.79
237.46	18461.95
237.532	18447.45
237.604	18395.93
237.675	18376.17
237.747	18350.39
237.819	18303.55
237.891	18268.32
237.963	18232.52
238.035	18199.22
238.107	18131.41
238.178	18114.16
238.25	18086.45
238.322	18083.56
238.394	18028.86
238.466	17996.62
238.538	17984.19
238.609	17964.53
238.681	17913.44
238.753	17872.34
238.825	17835.28
238.897	17810.6
238.968	17796.77
239.04	17755.71
239.112	17750.08
239.184	17713.11
239.255	17675.28
239.327	17655.48
239.399	17632.34
239.471	17602.22
239.542	17578.8
239.614	17571.28
239.686	17510.95
239.758	17488.78
239.829	17451.96
239.901	17437.45
239.973	17407.77
240.044	17381.12
240.116	17346.85
240.188	17318.85
240.259	17293.21
240.331	17257.69
240.403	17237.6
240.474	17195.09
240.546	17156.63
240.618	17108.39
240.689	17073.64
240.761	17056.63
240.833	17037.83
240.904	17002.94
240.976	16977.73
241.048	16948.77
241.119	16922.89
241.191	16910.12
241.262	16882.31
241.334	16848.91
241.405	16814.21
241.477	16780.23
241.549	16745.97
241.62	16718.45
241.692	16689.34
241.763	16668.8
241.835	16636.51
241.906	16602.53
241.978	16559.11
242.049	16541.47
242.121	16526.58
242.192	16500.02
242.264	16446.33
242.335	16396.35
242.407	16366.51
242.478	16323.14
242.55	16290.02
242.621	16246.79
242.693	16201.87
242.764	16172.62
242.836	16139.26
242.907	16112.71
242.979	16082.77
243.05	16054.43
243.122	16028.02
243.193	15999.34
243.264	15940.35
243.336	15913.6
243.407	15891.47
243.479	15881.93
243.55	15850.41
243.622	15822.55
243.693	15788.71
243.764	15779.89
243.836	15745.19
243.907	15716.32
243.978	15691.15
244.05	15670.67
244.121	15629.99
244.192	15612.83
244.264	15568.39
244.335	15535.76
244.407	15487.94
244.478	15462.25
244.549	15431.3
244.62	15391.2
244.692	15360.45
244.763	15342.32
244.834	15304.92
244.906	15261.49
244.977	15234.69
245.048	15231.41
245.119	15200.03
245.191	15166.96
245.262	15113.8
245.333	15096.92
245.405	15068.77
245.476	15048.14
245.547	15022.69
245.618	14999.12
245.689	14969.28
245.761	14940.79
245.832	14902.67
245.903	14883.38
245.974	14861.11
246.045	14828.48
246.117	14815.85
246.188	14774.2
246.259	14735.25
246.33	14700.16
246.401	14674.51
246.473	14632.91
246.544	14587.31
246.615	14562.1
246.686	14529.81
246.757	14518.14
246.828	14479.19
246.899	14460.87
246.97	14409.39
247.042	14365.91
247.113	14347.11
247.184	14341.66
247.255	14315.63
247.326	14290.23
247.397	14262.46
247.468	14231.56
247.539	14213.14
247.61	14163.2
247.681	14147.87
247.752	14140.5
247.823	14111.67
247.894	14085.98
247.965	14052.28
248.037	14024.13
248.108	13979.49
248.179	13956.5
248.25	13927.23
248.321	13915.23
248.392	13882.45
248.463	13888.14
248.534	13866.21
248.605	13844.66
248.675	13813.95
248.746	13796.11
248.817	13779.63
248.888	13757.79
248.959	13715.08
249.03	13694.45
249.101	13678.83
249.172	13648.36
249.243	13599.62
249.314	13593.98
249.385	13570.94
249.456	13556.43
249.527	13526.49
249.598	13513.38
249.669	13486.43
249.739	13473.03
249.81	13454.81
249.881	13415.09
249.952	13393.83
250.023	13370.93
250.094	13329.71
250.165	13296.11
250.235	13271.34
250.306	13251.52
250.377	13215.61
250.448	13205.15
250.519	13158.87
250.59	13148.99
250.66	13120.93
250.731	13114.23
250.802	13086.32
250.873	13068.24
250.944	13044.43
251.014	13014.06
251.085	13019.22
251.156	13002.3
251.227	12986.53
251.297	12970.19
251.368	12955.59
251.439	12940.16
251.51	12923.82
251.58	12894.85
251.651	12865.25
251.722	12849.68
251.792	12808.85
251.863	12796.46
251.934	12790.63
252.005	12799.35
252.075	12776.79
252.146	12767.58
252.217	12757.75
252.287	12746.13
252.358	12729.89
252.429	12728.01
252.499	12707.18
252.57	12686.6
252.641	12682.36
252.711	12662.21
252.782	12629.14
252.852	12632.51
252.923	12608.36
252.994	12602.24
253.064	12602.43
253.135	12568.54
253.205	12545.84
253.276	12550.81
253.347	12542.9
253.417	12515.13
253.488	12487.51
253.558	12464.91
253.629	12445.53
253.699	12429.23
253.77	12414.53
253.841	12386.14
253.911	12368.79
253.982	12348.69
254.052	12327.91
254.123	12300.29
254.193	12280.14
254.264	12297.11
254.334	12269.82
254.405	12238.06
254.475	12199.83
254.546	12180.46
254.616	12179.69
254.687	12164.07
254.757	12145.75
254.827	12126.95
254.898	12106.95
254.968	12090.66
255.039	12069.64
255.109	12060.24
255.18	12028.77
255.25	11992.81
255.321	11986.11
255.391	11950.29
255.461	11957.04
255.532	11915.73
255.602	11896.84
255.673	11862.76
255.743	11833.89
255.813	11791.76
255.884	11783.13
255.954	11776.29
256.024	11773.93
256.095	11757.44
256.165	11726.5
256.235	11713.39
256.306	11683.6
256.376	11683.7
256.446	11673.58
256.517	11660.76
256.587	11659.02
256.657	11650.68
256.728	11631.31
256.798	11613.62
256.868	11586.29
256.938	11554.63
257.009	11546.24
257.079	11533.76
257.149	11540.41
257.219	11500.65
257.29	11494.48
257.36	11454.77
257.43	11443.44
257.5	11399.24
257.571	11372.4
257.641	11366.95
257.711	11336.35
257.781	11325.36
257.852	11306.42
257.922	11268.06
257.992	11249.98
258.062	11223.81
258.132	11212.01
258.202	11192.25
258.273	11172.44
258.343	11180.87
258.413	11161.65
258.483	11147.24
258.553	11123.04
258.623	11099.19
258.693	11089.89
258.764	11083.52
258.834	11096.15
258.904	11079.28
258.974	11063.86
259.044	11048.97
259.114	11038.27
259.184	11023.53
259.254	11003.63
259.324	10970.71
259.394	10966.28
259.464	10963.63
259.535	10944.5
259.605	10921.65
259.675	10901.99
259.745	10894.57
259.815	10859.59
259.885	10830.58
259.955	10845.62
260.025	10820.08
260.095	10798.4
260.165	10787.27
260.235	10784.08
260.305	10747.85
260.375	10718.31
260.445	10727.85
260.515	10733.87
260.585	10727.56
260.655	10714.41
260.725	10711.28
260.795	10698.7
260.865	10703.66
260.934	10681.69
261.004	10671.47
261.074	10655.81
261.144	10662.13
261.214	10649.5
261.284	10641.41
261.354	10644.49
261.424	10616.06
261.494	10627.86
261.564	10612.83
261.634	10606.85
261.703	10573.17
261.773	10570.19
261.843	10566.28
261.913	10545.42
261.983	10510.54
262.053	10493.96
