Data from 20250704_urea_1M_MAYP1162681_11-39-20-624.txt Node
Date: Fri Jul 04 11:39:20 BST 2025
User: adleo
Spectrometer: MAYP116268
Trigger mode: 0
Integration Time (sec): 1.000000E0
Scans to average: 1
Electric dark correction enabled: true
Nonlinearity correction enabled: true
Boxcar width: 10
XAxis mode: Wavelengths
Number of Pixels in Spectrum: 2068
>>>>>Begin Spectral Data<<<<<
179.565	1265.24
179.642	1320.68
179.718	1367.2
179.795	1407
179.871	1442.9
179.948	1459.21
180.024	1483.05
180.101	1508.35
180.177	1520.69
180.254	1545.97
180.33	1566.99
180.407	1623.87
180.483	1722.98
180.56	1817.24
180.636	1904.84
180.712	1889.62
180.789	1902.74
180.865	1912.01
180.942	1922.18
181.018	1931.88
181.095	1944.72
181.171	1947.53
181.248	1950.14
181.324	1964.51
181.4	1974.83
181.477	1983.62
181.553	1999.31
181.63	2018.34
181.706	2031.22
181.782	2041.63
181.859	2038.02
181.935	2048.15
182.011	2043.87
182.088	2062.37
182.164	2082.17
182.24	2095.48
182.317	2102.57
182.393	2100.76
182.469	2117.83
182.546	2126.73
182.622	2133.62
182.698	2128.58
182.775	2140.95
182.851	2156.74
182.927	2148.13
183.003	2141.43
183.08	2135.82
183.156	2143.62
183.232	2139.19
183.308	2130.72
183.385	2137.91
183.461	2158.31
183.537	2156.22
183.613	2170.49
183.69	2160.26
183.766	2148.7
183.842	2158.98
183.918	2167.97
183.995	2178.96
184.071	2182.38
184.147	2180.05
184.223	2168.16
184.299	2183.15
184.375	2170.78
184.452	2176.59
184.528	2227.93
184.604	2239.11
184.68	2251.34
184.756	2257.76
184.832	2264.52
184.908	2268.23
184.985	2269.08
185.061	2251.39
185.137	2261.85
185.213	2251.86
185.289	2251.63
185.365	2245.44
185.441	2242.78
185.517	2255.63
185.593	2253.73
185.669	2255.3
185.745	2266.81
185.822	2281.17
185.898	2267.37
185.974	2278.03
186.05	2269.94
186.126	2236.49
186.202	2224.83
186.278	2222.17
186.354	2213.27
186.43	2219.79
186.506	2217.98
186.582	2219.27
186.658	2228.31
186.734	2207.56
186.81	2208.23
186.886	2212.27
186.962	2223.98
187.038	2223.45
187.114	2216.79
187.19	2222.64
187.266	2207.89
187.341	2206.66
187.417	2201.47
187.493	2203.9
187.569	2206.89
187.645	2201.66
187.721	2189.05
187.797	2198.66
187.873	2203.32
187.949	2198.56
188.025	2191.99
188.101	2196.32
188.176	2200.89
188.252	2195.9
188.328	2202.98
188.404	2203.55
188.48	2201.08
188.556	2195.65
188.632	2189.28
188.707	2189.23
188.783	2186.42
188.859	2181.33
188.935	2172.58
189.011	2180.48
189.086	2174.39
189.162	2166.25
189.238	2160.4
189.314	2157.36
189.39	2153.98
189.465	2146.18
189.541	2163.16
189.617	2148.8
189.693	2142.9
189.768	2143.28
189.844	2167.89
189.92	2160.66
189.996	2168.18
190.071	2179.36
190.147	2179.45
190.223	2190.54
190.298	2182.16
190.374	2169.89
190.45	2183.92
190.526	2192.06
190.601	2185.92
190.677	2188.96
190.753	2216.91
190.828	2222.95
190.904	2239.51
190.98	2256.79
191.055	2268.06
191.131	2259.16
191.207	2279.05
191.282	2290.85
191.358	2284.62
191.433	2269.38
191.509	2282.75
191.585	2281.61
191.66	2280.8
191.736	2286.6
191.811	2277.66
191.887	2294.65
191.963	2319.02
192.038	2324.11
192.114	2324.58
192.189	2330.48
192.265	2328.68
192.34	2305.2
192.416	2303.44
192.491	2299.68
192.567	2299.82
192.642	2302.3
192.718	2302.01
192.793	2289.31
192.869	2282.93
192.944	2284.64
193.02	2290.4
193.095	2295.31
193.171	2299.64
193.246	2298.73
193.322	2296.02
193.397	2293.78
193.473	2279.07
193.548	2261.13
193.624	2263.22
193.699	2261.37
193.775	2276.46
193.85	2276.74
193.925	2286.64
194.001	2286.74
194.076	2280.79
194.152	2272.36
194.227	2262.08
194.302	2254.09
194.378	2255.33
194.453	2252.67
194.529	2265.61
194.604	2249.96
194.679	2241.68
194.755	2223.79
194.83	2235.64
194.905	2235.03
194.981	2246.21
195.056	2241.31
195.131	2246.21
195.207	2248.68
195.282	2238.64
195.357	2218.37
195.433	2234.93
195.508	2224.17
195.583	2231.74
195.659	2242.02
195.734	2247.87
195.809	2248.4
195.884	2257.39
195.96	2260.95
196.035	2275.23
196.11	2270.37
196.185	2287.65
196.261	2291.5
196.336	2323.15
196.411	2309.39
196.486	2314.63
196.561	2309.77
196.637	2316.86
196.712	2334.91
196.787	2335.81
196.862	2349.89
196.937	2359.98
197.013	2364.08
197.088	2374.69
197.163	2396.79
197.238	2413.7
197.313	2414.36
197.388	2429.74
197.464	2462.46
197.539	2473.55
197.614	2467.55
197.689	2481.93
197.764	2497.75
197.839	2522.7
197.914	2517.32
197.989	2538.65
198.065	2552.41
198.14	2605.5
198.215	2633.12
198.29	2644.18
198.365	2658.32
198.44	2671.27
198.515	2699.67
198.59	2716.67
198.665	2744.02
198.74	2754.17
198.815	2755.03
198.89	2782.48
198.965	2816.8
199.04	2810.46
199.115	2826.23
199.19	2870.25
199.265	2872.3
199.34	2879.54
199.415	2911.26
199.49	2933.41
199.565	2945.71
199.64	2968.35
199.715	2965.2
199.79	2972.4
199.865	2981.03
199.94	2982.46
200.015	3018.55
200.09	3026.9
200.165	3032.57
200.24	3036.77
200.315	3078.38
200.39	3096.22
200.464	3095.88
200.539	3095.07
200.614	3111.14
200.689	3136.51
200.764	3144.67
200.839	3165.07
200.914	3171.55
200.989	3162.34
201.063	3175.32
201.138	3156.02
201.213	3159.26
201.288	3139.85
201.363	3143.67
201.438	3143.47
201.512	3157.3
201.587	3139.12
201.662	3143.75
201.737	3156.91
201.812	3167.31
201.886	3132.23
201.961	3139.81
202.036	3130.23
202.111	3125.08
202.186	3095.63
202.26	3076.55
202.335	3052.89
202.41	3044.5
202.485	3026.44
202.559	3004.74
202.634	2978.71
202.709	2991.96
202.784	2971.89
202.858	2970.84
202.933	2955.82
203.008	2948.38
203.082	2928.65
203.157	2922.5
203.232	2877.05
203.306	2854.59
203.381	2822.22
203.456	2797.53
203.53	2776.68
203.605	2753.87
203.68	2731.47
203.754	2724.75
203.829	2709.84
203.904	2689.35
203.978	2678.06
204.053	2682.49
204.127	2668.06
204.202	2667.96
204.277	2646.67
204.351	2639.76
204.426	2630.38
204.5	2621.28
204.575	2583.9
204.65	2594.86
204.724	2589.66
204.799	2594.04
204.873	2590.47
204.948	2588.51
205.022	2576.32
205.097	2566.51
205.171	2585.46
205.246	2592.32
205.32	2590.99
205.395	2592.7
205.469	2585.09
205.544	2589.04
205.618	2574.42
205.693	2589.28
205.767	2574.33
205.842	2596.53
205.916	2589.1
205.991	2578.48
206.065	2581.86
206.14	2602.75
206.214	2596.51
206.289	2591.94
206.363	2607.32
206.438	2608.13
206.512	2612.65
206.586	2632.89
206.661	2643.23
206.735	2617.24
206.81	2620.38
206.884	2637.48
206.958	2624.76
207.033	2643.14
207.107	2652.77
207.181	2683.36
207.256	2677.93
207.33	2698.56
207.405	2712.34
207.479	2733.82
207.553	2744.63
207.628	2729.54
207.702	2736.73
207.776	2734.3
207.851	2736.02
207.925	2753.22
207.999	2752.84
208.073	2754.41
208.148	2756.03
208.222	2743.41
208.296	2778.65
208.371	2795.15
208.445	2805.44
208.519	2832.79
208.593	2845.18
208.668	2841.32
208.742	2844.89
208.816	2847.23
208.89	2863.87
208.965	2864.2
209.039	2875.03
209.113	2895.71
209.187	2918.29
209.261	2920.67
209.336	2944.51
209.41	2967.87
209.484	2973.83
209.558	3001.25
209.632	3021.51
209.707	3042.25
209.781	3072.95
209.855	3095.46
209.929	3120.81
210.003	3135.02
210.077	3149.95
210.151	3212.64
210.226	3260.56
210.3	3303.16
210.374	3339.78
210.448	3360.07
210.522	3387.8
210.596	3416.87
210.67	3444.6
210.744	3516.98
210.818	3572.66
210.892	3617.36
210.966	3640.28
211.041	3685.17
211.115	3713.34
211.189	3767.12
211.263	3823.73
211.337	3872.55
211.411	3924.78
211.485	3962.55
211.559	4026
211.633	4074.35
211.707	4093.96
211.781	4158.66
211.855	4183.38
211.929	4237.49
212.003	4282.42
212.077	4360.99
212.151	4439.51
212.225	4524.55
212.299	4588.58
212.373	4659.31
212.447	4742.21
212.52	4858.9
212.594	4950.87
212.668	5061.55
212.742	5146.96
212.816	5237.25
212.89	5332.32
212.964	5442.55
213.038	5556.2
213.112	5684.16
213.186	5815.97
213.26	5910.86
213.333	5986.23
213.407	6116.52
213.481	6248.1
213.555	6390.63
213.629	6517.08
213.703	6644.58
213.777	6785.86
213.85	6913.36
213.924	7097.18
213.998	7248.06
214.072	7396.67
214.146	7539.01
214.219	7690.82
214.293	7839.71
214.367	8007.47
214.441	8172.05
214.515	8326.06
214.588	8467.52
214.662	8600.34
214.736	8743.45
214.81	8925.23
214.883	9106.47
214.957	9263.97
215.031	9429.28
215.105	9586.46
215.178	9745.87
215.252	9906.53
215.326	10050.5
215.4	10207.86
215.473	10325.75
215.547	10473.42
215.621	10634.75
215.694	10813.61
215.768	10962.51
215.842	11128.79
215.915	11277.61
215.989	11430.86
216.063	11586.15
216.136	11760.13
216.21	11916.62
216.284	12097.51
216.357	12254.4
216.431	12407.19
216.504	12576.04
216.578	12758.34
216.652	12923.44
216.725	13078.7
216.799	13248.24
216.873	13406.78
216.946	13565.13
217.02	13716.45
217.093	13862.41
217.167	13989.34
217.24	14116.84
217.314	14255
217.387	14394.36
217.461	14537.62
217.535	14693.9
217.608	14818.12
217.682	14954.05
217.755	15109.12
217.829	15234.64
217.902	15379.15
217.976	15517.49
218.049	15640.64
218.123	15764.17
218.196	15895.95
218.27	16020.69
218.343	16137.14
218.417	16269.34
218.49	16391.77
218.563	16531.92
218.637	16665.57
218.71	16804.18
218.784	16926.74
218.857	17064.53
218.931	17180.93
219.004	17303.53
219.077	17416.69
219.151	17540.16
219.224	17644.11
219.298	17748.06
219.371	17870.57
219.444	17951.43
219.518	18049.55
219.591	18153.94
219.665	18264.73
219.738	18363.81
219.811	18455.66
219.885	18552.23
219.958	18647.7
220.031	18733.81
220.105	18819.59
220.178	18898.72
220.251	18970.48
220.325	19064.2
220.398	19135.62
220.471	19216.73
220.544	19285.25
220.618	19348.67
220.691	19424.91
220.764	19497.43
220.838	19570.2
220.911	19636.8
220.984	19736.12
221.057	19820.31
221.131	19893.99
221.204	19926.43
221.277	20011.34
221.35	20095.97
221.424	20150.52
221.497	20211.1
221.57	20269.36
221.643	20333.46
221.716	20404.49
221.79	20450.03
221.863	20490.18
221.936	20539.72
222.009	20586.85
222.082	20638.23
222.155	20684.64
222.229	20742.28
222.302	20790.42
222.375	20824.83
222.448	20856.69
222.521	20883.24
222.594	20910.09
222.667	20923.97
222.74	20970.04
222.814	20986.24
222.887	21008.46
222.96	21048.94
223.033	21077.91
223.106	21108.17
223.179	21131.45
223.252	21150.78
223.325	21185.72
223.398	21216.28
223.471	21239.51
223.544	21267.22
223.617	21285.59
223.69	21310.8
223.763	21317.35
223.837	21329.88
223.91	21357.02
223.983	21356.97
224.056	21364.3
224.129	21382.95
224.202	21415.77
224.275	21430.86
224.348	21436.45
224.42	21434.91
224.493	21425.27
224.566	21421.89
224.639	21429.51
224.712	21425.84
224.785	21422.95
224.858	21422.18
224.931	21418.37
225.004	21412.88
225.077	21414.08
225.15	21403.33
225.223	21409.07
225.296	21431.05
225.369	21415.48
225.442	21415.68
225.514	21430.52
225.587	21444.59
225.66	21445.94
225.733	21437.41
225.806	21439.49
225.879	21438.62
225.952	21437.94
226.025	21445.99
226.097	21464.21
226.17	21475.44
226.243	21456.36
226.316	21453.56
226.389	21451.2
226.461	21449.22
226.534	21454.62
226.607	21448.26
226.68	21470.82
226.753	21457.51
226.825	21435.53
226.898	21449.22
226.971	21433.12
227.044	21426.76
227.117	21408.93
227.189	21400.44
227.262	21402.13
227.335	21394.66
227.407	21379.82
227.48	21365.07
227.553	21364.34
227.626	21350.9
227.698	21334.75
227.771	21339.04
227.844	21316.53
227.916	21306.22
227.989	21281.2
228.062	21266.5
228.134	21272.53
228.207	21246.35
228.28	21229.53
228.352	21207.89
228.425	21197.48
228.498	21196.23
228.57	21169.48
228.643	21165.38
228.716	21149.53
228.788	21138.68
228.861	21116.7
228.934	21121.14
229.006	21108.85
229.079	21085.33
229.151	21056.41
229.224	21023.35
229.296	21007.25
229.369	21023.49
229.442	21028.17
229.514	21016.79
229.587	21009.37
229.659	20973.85
229.732	20961.13
229.804	20952.65
229.877	20962.67
229.949	20959.83
230.022	20964.31
230.094	20943.97
230.167	20931.39
230.239	20903.44
230.312	20884.59
230.384	20886.67
230.457	20860.55
230.529	20847.1
230.602	20841.07
230.674	20833.75
230.747	20831.63
230.819	20827.82
230.892	20775.29
230.964	20752.78
231.037	20742.28
231.109	20717.26
231.181	20714.18
231.254	20681.5
231.326	20661.26
231.399	20631.04
231.471	20597.6
231.544	20545.31
231.616	20542.27
231.688	20519.62
231.761	20492.34
231.833	20456.78
231.905	20411.91
231.978	20391.23
232.05	20366.94
232.122	20348.29
232.195	20321.69
232.267	20305.26
232.339	20271.76
232.412	20272.44
232.484	20236.63
232.556	20202.9
232.629	20212.1
232.701	20192.82
232.773	20171.38
232.846	20135.53
232.918	20121.98
232.99	20108.97
233.062	20096.15
233.135	20077.45
233.207	20041.7
233.279	20030.61
233.351	20022.08
233.424	20001.65
233.496	19968.45
233.568	19967.58
233.64	19918.86
233.713	19885.8
233.785	19864.16
233.857	19840.98
233.929	19798.86
234.001	19794.19
234.074	19789.85
234.146	19731.64
234.218	19703.78
234.29	19677.18
234.362	19651.06
234.434	19603.5
234.507	19560.46
234.579	19516.56
234.651	19479.31
234.723	19463.17
234.795	19441.48
234.867	19416.18
234.939	19396.23
235.012	19376.47
235.084	19343.66
235.156	19332.04
235.228	19297.68
235.3	19256.24
235.372	19236.96
235.444	19224.77
235.516	19166.22
235.588	19135.24
235.66	19102.71
235.732	19055.72
235.804	19088.54
235.876	19074.13
235.948	19076.69
236.02	19041.22
236.092	19017.51
236.164	18984.55
236.236	18954.62
236.308	18921.61
236.38	18891.11
236.452	18852.27
236.524	18828.56
236.596	18810.73
236.668	18782.1
236.74	18757.52
236.812	18739.07
236.884	18703.6
236.956	18670.78
237.028	18642.3
237.1	18599.37
237.172	18591.99
237.244	18584.96
237.316	18512.38
237.388	18463.9
237.46	18410.03
237.532	18399.23
237.604	18364.2
237.675	18358.85
237.747	18334.27
237.819	18295.19
237.891	18268.25
237.963	18230.18
238.035	18190.37
238.107	18126.09
238.178	18109.03
238.25	18078.14
238.322	18068.11
238.394	18021.27
238.466	17988.45
238.538	17964.31
238.609	17948.41
238.681	17902.34
238.753	17857.42
238.825	17835.35
238.897	17821.28
238.968	17807.16
239.04	17768.7
239.112	17764.27
239.184	17719.02
239.255	17679.21
239.327	17657.38
239.399	17617.23
239.471	17604.66
239.542	17574.2
239.614	17560.42
239.686	17500.56
239.758	17488.71
239.829	17447.31
239.901	17439.65
239.973	17403.5
240.044	17379.55
240.116	17350.97
240.188	17313.19
240.259	17291.93
240.331	17250.2
240.403	17222.68
240.474	17170.97
240.546	17131.4
240.618	17079.16
240.689	17042.82
240.761	17023.01
240.833	17007.59
240.904	16975.11
240.976	16938.24
241.048	16917.8
241.119	16892.65
241.191	16872.65
241.262	16860.45
241.334	16823.34
241.405	16786.23
241.477	16748.88
241.549	16716.98
241.62	16679.82
241.692	16662.32
241.763	16636.25
241.835	16606.7
241.906	16568.34
241.978	16532.87
242.049	16517.35
242.121	16501.15
242.192	16486.65
242.264	16432.62
242.335	16384.66
242.407	16367.69
242.478	16335.55
242.55	16303.78
242.621	16264.41
242.693	16223.92
242.764	16177.41
242.836	16136.35
242.907	16118.75
242.979	16103.04
243.05	16073.69
243.122	16052.14
243.193	16025.11
243.264	15976.04
243.336	15937.38
243.407	15926.92
243.479	15911.64
243.55	15882.44
243.622	15853.71
243.693	15817.8
243.764	15816.35
243.836	15773.31
243.907	15738.8
243.978	15711.81
244.05	15686.07
244.121	15647.51
244.192	15632.08
244.264	15582.53
244.335	15548.7
244.407	15496.11
244.478	15466.56
244.549	15431.09
244.62	15381.2
244.692	15340.27
244.763	15322.78
244.834	15289.61
244.906	15243.68
244.977	15223.19
245.048	15210.8
245.119	15169.54
245.191	15132.81
245.262	15075.45
245.333	15062.92
245.405	15027.87
245.476	14998.23
245.547	14972.2
245.618	14951.13
245.689	14929.97
245.761	14914.55
245.832	14891.8
245.903	14864.42
245.974	14836.89
246.045	14812.26
246.117	14806.19
246.188	14764.3
246.259	14725.78
246.33	14695.41
246.401	14666.1
246.473	14614.57
246.544	14575
246.615	14557.35
246.686	14525.88
246.757	14507.32
246.828	14471.12
246.899	14459.98
246.97	14412.64
247.042	14379.04
247.113	14354.07
247.184	14339.23
247.255	14302.11
247.326	14282.83
247.397	14264.46
247.468	14231.97
247.539	14200.73
247.61	14158.84
247.681	14148.14
247.752	14133.77
247.823	14099.64
247.894	14079.64
247.965	14045.6
248.037	14007.09
248.108	13970.69
248.179	13950.88
248.25	13925.33
248.321	13904.7
248.392	13864.98
248.463	13869.22
248.534	13833.59
248.605	13815.66
248.675	13786.45
248.746	13764.66
248.817	13743.54
248.888	13721.08
248.959	13687.34
249.03	13673.02
249.101	13652.24
249.172	13628.14
249.243	13578.53
249.314	13579.26
249.385	13548.84
249.456	13536.74
249.527	13509.74
249.598	13490.85
249.669	13457.92
249.739	13444.42
249.81	13425.33
249.881	13392.55
249.952	13364.25
250.023	13345.5
250.094	13307.9
250.165	13268.47
250.235	13245.81
250.306	13223.06
250.377	13192.01
250.448	13174.27
250.519	13133.59
250.59	13120.52
250.66	13086.63
250.731	13089.82
250.802	13062.43
250.873	13050.91
250.944	13032.88
251.014	13007.82
251.085	13008.01
251.156	12992.78
251.227	12982.17
251.297	12971.66
251.368	12961.35
251.439	12947.32
251.51	12942.35
251.58	12913.14
251.651	12886.48
251.722	12877.42
251.792	12836.69
251.863	12814.32
251.934	12817.21
252.005	12823.77
252.075	12799.66
252.146	12795.95
252.217	12783.9
252.287	12775.37
252.358	12748.9
252.429	12745.1
252.499	12722.05
252.57	12703.93
252.641	12699.83
252.711	12671.2
252.782	12642.85
252.852	12645.07
252.923	12626.22
252.994	12599.37
253.064	12591.37
253.135	12567.6
253.205	12543.55
253.276	12542.73
253.347	12534.3
253.417	12499.01
253.488	12475.63
253.558	12457.26
253.629	12429.11
253.699	12412
253.77	12401.78
253.841	12380.48
253.911	12363.89
253.982	12355.99
254.052	12345
254.123	12319.31
254.193	12302.48
254.264	12320.9
254.334	12281.27
254.405	12240.78
254.475	12213.26
254.546	12188.77
254.616	12186.94
254.687	12171.42
254.757	12158.74
254.827	12139.03
254.898	12125.58
254.968	12107.6
255.039	12080.51
255.109	12074.97
255.18	12042.38
255.25	11991
255.321	11979.1
255.391	11942.46
255.461	11946.37
255.532	11895.71
255.602	11878.74
255.673	11844.95
255.743	11808.66
255.813	11773.04
255.884	11780.65
255.954	11776.41
256.024	11782.53
256.095	11762.43
256.165	11731.39
256.235	11714.72
256.306	11692.06
256.376	11680.78
256.446	11662.37
256.517	11653.36
256.587	11648.2
256.657	11635.33
256.728	11626.75
256.798	11606.17
256.868	11584.82
256.938	11553.83
257.009	11552.05
257.079	11541.06
257.149	11554.51
257.219	11518.26
257.29	11508.43
257.36	11466.84
257.43	11453.63
257.5	11414.4
257.571	11392.23
257.641	11381.87
257.711	11356.03
257.781	11342.15
257.852	11331.07
257.922	11300.08
257.992	11278.92
258.062	11254.83
258.132	11246.87
258.202	11223.65
258.273	11210.92
258.343	11210.25
258.413	11180.51
258.483	11159.26
258.553	11131.93
258.623	11101.86
258.693	11092.85
258.764	11092.41
258.834	11089.38
258.904	11073.28
258.974	11047.84
259.044	11028.03
259.114	11015.07
259.184	11000.56
259.254	10989.58
259.324	10951.7
259.394	10939.27
259.464	10941.63
259.535	10923.8
259.605	10903.41
259.675	10882.69
259.745	10874.02
259.815	10847.61
259.885	10831.76
259.955	10848.72
260.025	10820.78
260.095	10804.78
260.165	10791.86
260.235	10792.3
260.305	10768.54
260.375	10736.16
260.445	10745.32
260.515	10748.79
260.585	10746.14
260.655	10733.8
260.725	10731.29
260.795	10727.78
260.865	10740.64
260.934	10712.5
261.004	10704.02
261.074	10686.87
261.144	10694.19
261.214	10687.93
261.284	10672.99
261.354	10668.99
261.424	10639.98
261.494	10647.59
261.564	10631.79
261.634	10622.01
261.703	10582.21
261.773	10578.98
261.843	10574.6
261.913	10554.36
261.983	10524.39
262.053	10517.11
262.123	10502.13
