Data from 20250704_urea_0.1M_MAYP1162681_11-27-27-650.txt Node
Date: Fri Jul 04 11:27:27 BST 2025
User: adleo
Spectrometer: MAYP116268
Trigger mode: 0
Integration Time (sec): 1.000000E0
Scans to average: 1
Electric dark correction enabled: true
Nonlinearity correction enabled: true
Boxcar width: 10
XAxis mode: Wavelengths
Number of Pixels in Spectrum: 2068
>>>>>Begin Spectral Data<<<<<
179.565	1241.66
179.642	1300.21
179.718	1347.6
179.795	1389.87
179.871	1422.23
179.948	1441.57
180.024	1467.15
180.101	1493.21
180.177	1509.91
180.254	1532.77
180.33	1555.79
180.407	1613.77
180.483	1711.92
180.56	1806.71
180.636	1894.07
180.712	1882.27
180.789	1893.02
180.865	1903.57
180.942	1913.17
181.018	1921.01
181.095	1935.61
181.171	1941.75
181.248	1943.08
181.324	1956.73
181.4	1962.53
181.477	1974.47
181.553	1988.39
181.63	2006.56
181.706	2017.79
181.782	2024.01
181.859	2024.2
181.935	2029.67
182.011	2023.87
182.088	2039.33
182.164	2056.93
182.24	2073.29
182.317	2083.23
182.393	2083.42
182.469	2099.68
182.546	2113.19
182.622	2118.71
182.698	2110.96
182.775	2124.8
182.851	2140.69
182.927	2133.93
183.003	2127.27
183.08	2121.57
183.156	2130.27
183.232	2126.89
183.308	2118.38
183.385	2125.56
183.461	2145.02
183.537	2144.73
183.613	2158.67
183.69	2153.82
183.766	2144.44
183.842	2150.39
183.918	2157.67
183.995	2170.13
184.071	2173.27
184.147	2167.61
184.223	2157.2
184.299	2172.14
184.375	2161.39
184.452	2168.77
184.528	2219.92
184.604	2232
184.68	2244.13
184.756	2251.27
184.832	2256.17
184.908	2259.74
184.985	2259.74
185.061	2242.8
185.137	2253.88
185.213	2243.32
185.289	2242.13
185.365	2235.14
185.441	2234.38
185.517	2244.61
185.593	2239.48
185.669	2239.05
185.745	2252.8
185.822	2267.45
185.898	2260.69
185.974	2269.49
186.05	2256.59
186.126	2221.76
186.202	2216.62
186.278	2210.68
186.354	2200.02
186.43	2207.87
186.506	2210.3
186.582	2211.01
186.658	2218.86
186.734	2196.64
186.81	2200.73
186.886	2203.26
186.962	2216.29
187.038	2210.39
187.114	2201.49
187.19	2210.15
187.266	2197.21
187.341	2195.16
187.417	2190.31
187.493	2190.93
187.569	2194.45
187.645	2190.74
187.721	2178.94
187.797	2188.07
187.873	2196.78
187.949	2191.88
188.025	2185.84
188.101	2187.17
188.176	2191.59
188.252	2186.22
188.328	2195.39
188.404	2195.39
188.48	2191.07
188.556	2183.12
188.632	2181.12
188.707	2183.88
188.783	2180.41
188.859	2175.7
188.935	2164.61
189.011	2171.08
189.086	2163.52
189.162	2151.63
189.238	2148.39
189.314	2146.44
189.39	2136.83
189.465	2126.41
189.541	2143.3
189.617	2126.27
189.693	2120.71
189.768	2125.56
189.844	2150.26
189.92	2141.75
189.996	2147.6
190.071	2158.78
190.147	2155.41
190.223	2166.02
190.298	2157.93
190.374	2149.5
190.45	2163.73
190.526	2172.15
190.601	2166.06
190.677	2167.39
190.753	2200.38
190.828	2205.09
190.904	2218.94
190.98	2237.21
191.055	2250.34
191.131	2240.87
191.207	2263.76
191.282	2273.65
191.358	2263.37
191.433	2246.85
191.509	2260.22
191.585	2258.89
191.66	2260.93
191.736	2270.97
191.811	2260.03
191.887	2275.78
191.963	2293.58
192.038	2300.24
192.114	2299.05
192.189	2305.52
192.265	2302.24
192.34	2276.67
192.416	2274.82
192.491	2272.96
192.567	2271.87
192.642	2273.1
192.718	2271.73
192.793	2257.83
192.869	2252.4
192.944	2256.02
193.02	2268.59
193.095	2273.63
193.171	2280.34
193.246	2283.39
193.322	2281.29
193.397	2286.34
193.473	2274.06
193.548	2257.49
193.624	2259.59
193.699	2259.11
193.775	2275.54
193.85	2276.68
193.925	2284.43
194.001	2286.91
194.076	2277.34
194.152	2269.73
194.227	2259.92
194.302	2249.94
194.378	2252.65
194.453	2251.27
194.529	2263.36
194.604	2245.13
194.679	2238.8
194.755	2217.68
194.83	2225.11
194.905	2223.06
194.981	2230.1
195.056	2219.68
195.131	2228.63
195.207	2229.49
195.282	2223.35
195.357	2202.6
195.433	2218.39
195.508	2208.49
195.583	2212.87
195.659	2229.29
195.734	2235.96
195.809	2239
195.884	2252.75
195.96	2254.79
196.035	2271.21
196.11	2270.59
196.185	2283.15
196.261	2287.53
196.336	2320.51
196.411	2308.13
196.486	2310.27
196.561	2304.94
196.637	2314.36
196.712	2329.07
196.787	2334.22
196.862	2348.78
196.937	2359.25
197.013	2366.87
197.088	2377.34
197.163	2400.24
197.238	2418.2
197.313	2419.15
197.388	2432.1
197.464	2462.63
197.539	2471.91
197.614	2463.67
197.689	2472.39
197.764	2487.01
197.839	2506.39
197.914	2498.01
197.989	2519.48
198.065	2536.57
198.14	2590.09
198.215	2620.23
198.29	2633.24
198.365	2643.25
198.44	2652.34
198.515	2680.5
198.59	2695.98
198.665	2723.37
198.74	2732.19
198.815	2730.33
198.89	2752.67
198.965	2786.04
199.04	2779.56
199.115	2796.51
199.19	2841.3
199.265	2845.21
199.34	2856.64
199.415	2890.31
199.49	2912.75
199.565	2924.47
199.64	2948.25
199.715	2942.1
199.79	2949.82
199.865	2951.68
199.94	2953.73
200.015	2985.86
200.09	2994.07
200.165	2999.88
200.24	3002.84
200.315	3047.79
200.39	3065.63
200.464	3072.3
200.539	3074.02
200.614	3094.76
200.689	3118.7
200.764	3121.89
200.839	3141.34
200.914	3143.48
200.989	3135.8
201.063	3150.25
201.138	3132.76
201.213	3135.96
201.288	3114.93
201.363	3117.31
201.438	3118.13
201.512	3132.28
201.587	3117.35
201.662	3120.02
201.737	3135.1
201.812	3147.12
201.886	3112.65
201.961	3122.05
202.036	3113.47
202.111	3108.51
202.186	3077.81
202.26	3061.88
202.335	3044.91
202.41	3040.57
202.485	3028.65
202.559	3008.86
202.634	2987.84
202.709	2999.37
202.784	2978.11
202.858	2985.3
202.933	2972.38
203.008	2974.2
203.082	2959.51
203.157	2964.47
203.232	2928.44
203.306	2913.28
203.381	2890.58
203.456	2873.51
203.53	2863.49
203.605	2852.53
203.68	2844.19
203.754	2852.48
203.829	2857.44
203.904	2855.67
203.978	2863.45
204.053	2890.77
204.127	2899.92
204.202	2923.28
204.277	2934.2
204.351	2961.04
204.426	2985.47
204.5	3011.94
204.575	3016.18
204.65	3064.41
204.724	3095.87
204.799	3145.07
204.873	3188.02
204.948	3239.9
205.022	3283.07
205.097	3327.39
205.171	3402.56
205.246	3466.88
205.32	3531.55
205.395	3595.22
205.469	3655.89
205.544	3731.35
205.618	3790.65
205.693	3883.35
205.767	3951.79
205.842	4059.17
205.916	4141.21
205.991	4221.51
206.065	4322.48
206.14	4435.86
206.214	4528.48
206.289	4629.64
206.363	4752.51
206.438	4866.6
206.512	4985.63
206.586	5121.99
206.661	5252.13
206.735	5355
206.81	5487.58
206.884	5634.47
206.958	5759.33
207.033	5913.93
207.107	6063.62
207.181	6240.44
207.256	6382.38
207.33	6550.01
207.405	6710.17
207.479	6886.92
207.553	7051.28
207.628	7194.34
207.702	7359.82
207.776	7523.33
207.851	7694.3
207.925	7876.51
207.999	8044.79
208.073	8212.95
208.148	8396.02
208.222	8559.29
208.296	8769.84
208.371	8968.32
208.445	9166.85
208.519	9375.73
208.593	9574.3
208.668	9753.06
208.742	9936.25
208.816	10124.7
208.89	10323.02
208.965	10512.46
209.039	10704.8
209.113	10906.43
209.187	11110.17
209.261	11303.1
209.336	11514.79
209.41	11718.79
209.484	11910.42
209.558	12118
209.632	12325.34
209.707	12516.36
209.781	12721.26
209.855	12920.72
209.929	13123.7
210.003	13308.28
210.077	13485.38
210.151	13716.56
210.226	13930.3
210.3	14139.16
210.374	14335.16
210.448	14524.55
210.522	14708.59
210.596	14885.07
210.67	15073.35
210.744	15301.63
210.818	15505.09
210.892	15689.17
210.966	15853.58
211.041	16040.16
211.115	16205.53
211.189	16393.74
211.263	16573.28
211.337	16752
211.411	16927.48
211.485	17068.3
211.559	17232.02
211.633	17396.03
211.707	17518.49
211.781	17683.35
211.855	17798.48
211.929	17954
212.003	18085.86
212.077	18242.43
212.151	18409.03
212.225	18571.05
212.299	18702.22
212.373	18833.35
212.447	18969.87
212.52	19141.38
212.594	19278.39
212.668	19431.88
212.742	19554.28
212.816	19688.21
212.89	19803.62
212.964	19928.83
213.038	20071.91
213.112	20221.79
213.186	20358.66
213.26	20451.33
213.333	20533.5
213.407	20668.3
213.481	20788.16
213.555	20917.46
213.629	21038.2
213.703	21141
213.777	21257.74
213.85	21346.42
213.924	21497.39
213.998	21615
214.072	21722.6
214.146	21810.37
214.219	21901.38
214.293	21992.58
214.367	22091.59
214.441	22198.94
214.515	22289.33
214.588	22355.61
214.662	22418.38
214.736	22489.63
214.81	22595.49
214.883	22693.31
214.957	22766.44
215.031	22843.15
215.105	22901.87
215.178	22967.15
215.252	23037.64
215.326	23077.09
215.4	23142.46
215.473	23172.17
215.547	23226.81
215.621	23279.28
215.694	23354.98
215.768	23408.94
215.842	23466.67
215.915	23519.91
215.989	23562.63
216.063	23609.85
216.136	23683.44
216.21	23742.09
216.284	23824.37
216.357	23889.81
216.431	23944.65
216.504	24011.16
216.578	24081.2
216.652	24155.14
216.725	24202.41
216.799	24270.81
216.873	24329.85
216.946	24382.33
217.02	24424.1
217.093	24475.58
217.167	24503.36
217.24	24547.07
217.314	24589.23
217.387	24629.94
217.461	24662.51
217.535	24723.24
217.608	24767.87
217.682	24799.95
217.755	24845.98
217.829	24877.35
217.902	24909.05
217.976	24945.43
218.049	24970.18
218.123	24997.01
218.196	25028.32
218.27	25066.44
218.343	25085.17
218.417	25133.62
218.49	25172.89
218.563	25221.49
218.637	25258.5
218.71	25314.82
218.784	25356.23
218.857	25404.29
218.931	25436.91
219.004	25482.32
219.077	25525.33
219.151	25556.7
219.224	25583.48
219.298	25613.7
219.371	25655.11
219.444	25678.03
219.518	25719.06
219.591	25749.22
219.665	25803.72
219.738	25832.68
219.811	25841.42
219.885	25880.9
219.958	25909.24
220.031	25930.53
220.105	25959.78
220.178	25985.56
220.251	26002.21
220.325	26030.17
220.398	26048.9
220.471	26071.58
220.544	26094.56
220.618	26101.08
220.691	26120.05
220.764	26144.04
220.838	26153.65
220.911	26164.07
220.984	26210.71
221.057	26229.88
221.131	26269.9
221.204	26246.05
221.277	26284.72
221.35	26336.38
221.424	26335.47
221.497	26349.32
221.57	26364.14
221.643	26373.17
221.716	26384.91
221.79	26386.35
221.863	26387.18
221.936	26391.57
222.009	26403.44
222.082	26408.47
222.155	26411.41
222.229	26438.31
222.302	26446.66
222.375	26468.87
222.448	26474.9
222.521	26463.17
222.594	26454.67
222.667	26428.26
222.74	26444.72
222.814	26430.48
222.887	26424.68
222.96	26435.21
223.033	26431.97
223.106	26427.82
223.179	26429.22
223.252	26426.08
223.325	26424.25
223.398	26415.17
223.471	26419.9
223.544	26417.83
223.617	26417.15
223.69	26410.34
223.763	26386.3
223.837	26384.22
223.91	26376.98
223.983	26348.45
224.056	26318.85
224.129	26311.51
224.202	26305.43
224.275	26283.22
224.348	26255.61
224.42	26220.32
224.493	26181.99
224.566	26164.07
224.639	26157.36
224.712	26132.84
224.785	26111.26
224.858	26089.49
224.931	26062.5
225.004	26036.58
225.077	26019.58
225.15	25978.31
225.223	25958.42
225.296	25964.94
225.369	25933.76
225.442	25890.99
225.514	25862.07
225.587	25856.09
225.66	25834.95
225.733	25814.92
225.806	25810.28
225.879	25797.39
225.952	25770.27
226.025	25768.72
226.097	25756.85
226.17	25732.33
226.243	25698.11
226.316	25682.66
226.389	25658
226.461	25647.57
226.534	25623.59
226.607	25597.28
226.68	25591.73
226.753	25568.62
226.825	25514.51
226.898	25503.07
226.971	25481.16
227.044	25473.29
227.117	25449.36
227.189	25425.18
227.262	25420.83
227.335	25399.16
227.407	25369.49
227.48	25351.1
227.553	25325.19
227.626	25292.17
227.698	25262.3
227.771	25240.98
227.844	25192.67
227.916	25179.59
227.989	25135.3
228.062	25109.14
228.134	25105.57
228.207	25078.21
228.28	25049.55
228.352	25021.76
228.425	24987.02
228.498	24972.98
228.57	24937.42
228.643	24918.84
228.716	24882.37
228.788	24843.09
228.861	24789.82
228.934	24768.79
229.006	24736.42
229.079	24712.68
229.151	24667.28
229.224	24628.78
229.296	24605.14
229.369	24605.24
229.442	24583.29
229.514	24554.83
229.587	24526.03
229.659	24471.71
229.732	24443.44
229.804	24420.81
229.877	24416.71
229.949	24400.5
230.022	24383.91
230.094	24354.05
230.167	24330.36
230.239	24296.12
230.312	24264.23
230.384	24267.37
230.457	24246.82
230.529	24217.3
230.602	24177.02
230.674	24152.04
230.747	24128.41
230.819	24103.18
230.892	24039.03
230.964	24008.11
231.037	23981.63
231.109	23953.75
231.181	23931.81
231.254	23882.86
231.326	23835.02
231.399	23794.6
231.471	23753.55
231.544	23692.93
231.616	23669.78
231.688	23631.15
231.761	23594.6
231.833	23547.1
231.905	23484.3
231.978	23440.85
232.05	23411.1
232.122	23383.52
232.195	23348.51
232.267	23331.34
232.339	23286.74
232.412	23266.05
232.484	23213.29
232.556	23161.13
232.629	23146.47
232.701	23111.89
232.773	23082.19
232.846	23063.29
232.918	23028.19
232.99	22994.91
233.062	22973.6
233.135	22931.17
233.207	22888.79
233.279	22850.51
233.351	22824.43
233.424	22785.62
233.496	22735.19
233.568	22712.38
233.64	22654.48
233.713	22611.14
233.785	22559.02
233.857	22525.04
233.929	22474.85
234.001	22458.07
234.074	22447.8
234.146	22380.94
234.218	22343.81
234.29	22304.14
234.362	22249.91
234.434	22189.55
234.507	22137.05
234.579	22076.75
234.651	22033.8
234.723	21990.27
234.795	21968.14
234.867	21920.37
234.939	21891.35
235.012	21867.69
235.084	21830.28
235.156	21802.13
235.228	21757.21
235.3	21714.74
235.372	21679.22
235.444	21648.17
235.516	21578.91
235.588	21537.41
235.66	21495.04
235.732	21446.31
235.804	21463.42
235.876	21432.33
235.948	21411.27
236.02	21370.21
236.092	21338.01
236.164	21302.44
236.236	21259.21
236.308	21217.66
236.38	21181.71
236.452	21134.57
236.524	21087.19
236.596	21059.24
236.668	21028.87
236.74	20991.04
236.812	20961.79
236.884	20926.31
236.956	20894.12
237.028	20850.36
237.1	20797.34
237.172	20775.51
237.244	20747.8
237.316	20664.51
237.388	20621.77
237.46	20572.42
237.532	20548.66
237.604	20498.92
237.675	20473.33
237.747	20441.67
237.819	20387.65
237.891	20348.13
237.963	20307.6
238.035	20263.94
238.107	20182.25
238.178	20158.49
238.25	20118.44
238.322	20097.96
238.394	20032.95
238.466	19984.52
238.538	19959.41
238.609	19922.02
238.681	19863.8
238.753	19807.03
238.825	19770.17
238.897	19724.43
238.968	19698.36
239.04	19637.06
239.112	19624.2
239.184	19564.39
239.255	19520.88
239.327	19481.46
239.399	19433.99
239.471	19395.87
239.542	19352.93
239.614	19329.71
239.686	19258.53
239.758	19225.18
239.829	19168.8
239.901	19148.03
239.973	19100.03
240.044	19065
240.116	19037.34
240.188	18998.5
240.259	18963.37
240.331	18919.95
240.403	18890.31
240.474	18825.5
240.546	18784.15
240.618	18721.5
240.689	18677.79
240.761	18632.74
240.833	18611.05
240.904	18572.11
240.976	18531.59
241.048	18500.65
241.119	18471.25
241.191	18436.12
241.262	18414.19
241.334	18365.38
241.405	18315.79
241.477	18273.77
241.549	18219.12
241.62	18169.63
241.692	18140.28
241.763	18113.68
241.835	18065.58
241.906	18020.14
241.978	17978.02
242.049	17952.67
242.121	17915.37
242.192	17895.47
242.264	17847.28
242.335	17790.12
242.407	17761.54
242.478	17709.98
242.55	17667.18
242.621	17603.86
242.693	17562.41
242.764	17508.01
242.836	17470.42
242.907	17438.27
242.979	17403.04
243.05	17383.24
243.122	17350.18
243.193	17302.95
243.264	17238.95
243.336	17201.6
243.407	17179.04
243.479	17156.39
243.55	17122.08
243.622	17091.67
243.693	17040.87
243.764	17018.41
243.836	16970.94
243.907	16925.59
243.978	16897.2
244.05	16870.79
244.121	16827.03
244.192	16797.15
244.264	16744.81
244.335	16701.43
244.407	16651.79
244.478	16624.61
244.549	16570.92
244.62	16525.9
244.692	16479.25
244.763	16450.28
244.834	16402.61
244.906	16360.83
244.977	16326.85
245.048	16302.36
245.119	16260.87
245.191	16220.43
245.262	16163.65
245.333	16141.82
245.405	16110.44
245.476	16082
245.547	16039.54
245.618	16026.19
245.689	15994.76
245.761	15967.53
245.832	15932.39
245.903	15903.33
245.974	15867.95
246.045	15835.51
246.117	15818.11
246.188	15776.13
246.259	15735.93
246.33	15707.88
246.401	15659.2
246.473	15610.66
246.544	15565.3
246.615	15539.27
246.686	15504.52
246.757	15479.21
246.828	15438.29
246.899	15414.62
246.97	15367.05
247.042	15329.74
247.113	15290.31
247.184	15274.84
247.255	15240.09
247.326	15213.53
247.397	15180.03
247.468	15143.83
247.539	15111.19
247.61	15059.42
247.681	15040.24
247.752	15027.75
247.823	14986.59
247.894	14962.1
247.965	14918.72
248.037	14880.73
248.108	14835.08
248.179	14799.12
248.25	14772.27
248.321	14745.09
248.392	14702.86
248.463	14689.7
248.534	14653.5
248.605	14634.7
248.675	14602.35
248.746	14571.74
248.817	14545.42
248.888	14514.57
248.959	14473.79
249.03	14452.92
249.101	14424.53
249.172	14386.83
249.243	14329.13
249.314	14310.86
249.385	14279.67
249.456	14261.59
249.527	14230.11
249.598	14215.89
249.669	14188.46
249.739	14162.19
249.81	14132.88
249.881	14089.4
249.952	14057.25
250.023	14031.17
250.094	13980.41
250.165	13934.47
250.235	13908
250.306	13880.43
250.377	13842.44
250.448	13820.46
250.519	13774.03
250.59	13756.15
250.66	13728.87
250.731	13720.91
250.802	13696.18
250.873	13675.74
250.944	13649.47
251.014	13618.86
251.085	13608.01
251.156	13593.6
251.227	13576.97
251.297	13570.12
251.368	13561.15
251.439	13543.94
251.51	13537.39
251.58	13505.52
251.651	13469.13
251.722	13460.16
251.792	13417.02
251.863	13394.75
251.934	13383.22
252.005	13387.9
252.075	13366.93
252.146	13355.84
252.217	13344.27
252.287	13324.41
252.358	13294.96
252.429	13291.92
252.499	13265.12
252.57	13243.18
252.641	13227.61
252.711	13201.15
252.782	13158.68
252.852	13155.35
252.923	13133.03
252.994	13105.51
253.064	13091.82
253.135	13063.28
253.205	13031.56
253.276	13024.09
253.347	13016.9
253.417	12985.57
253.488	12946.62
253.558	12913.89
253.629	12882.07
253.699	12856.81
253.77	12846.69
253.841	12822.01
253.911	12797.76
253.982	12777.27
254.052	12756.06
254.123	12734.66
254.193	12711.66
254.264	12725.84
254.334	12685.63
254.405	12643.36
254.475	12598.91
254.546	12575.34
254.616	12573.99
254.687	12556.69
254.757	12542.37
254.827	12516.77
254.898	12499.71
254.968	12476.72
255.039	12451.51
255.109	12438.83
255.18	12404.02
255.25	12347.24
255.321	12331.62
255.391	12292.19
255.461	12288.43
255.532	12240.9
255.602	12212.8
255.673	12172.84
255.743	12142.52
255.813	12095.86
255.884	12094.8
255.954	12094.56
256.024	12102.51
256.095	12074.22
256.165	12039.56
256.235	12022.26
256.306	11990.25
256.376	11980.18
256.446	11975.94
256.517	11960.37
256.587	11952.75
256.657	11935.74
256.728	11932.36
256.798	11911.4
256.868	11888.65
256.938	11856.45
257.009	11845.07
257.079	11825.7
257.149	11837.55
257.219	11797.02
257.29	11786.51
257.36	11737.54
257.43	11720.19
257.5	11670.45
257.571	11646.78
257.641	11634.3
257.711	11602.83
257.781	11596.17
257.852	11582.24
257.922	11539.25
257.992	11522.14
258.062	11499.63
258.132	11498.96
258.202	11473.85
258.273	11457.08
258.343	11459.73
258.413	11440.11
258.483	11426.09
258.553	11395.58
258.623	11363.05
258.693	11348.2
258.764	11357.17
258.834	11361.26
258.904	11337.36
258.974	11321.69
259.044	11304.15
259.114	11293.21
259.184	11277.26
259.254	11249.89
259.324	11204.1
259.394	11192.39
259.464	11191.19
259.535	11170.75
259.605	11135.23
259.675	11108.64
259.745	11094.13
259.815	11059.86
259.885	11034.08
259.955	11042.42
260.025	11024.59
260.095	11008.3
260.165	10998.18
260.235	10990.76
260.305	10963.87
260.375	10941.8
260.445	10941.42
260.515	10939.68
260.585	10934.52
260.655	10920.07
260.725	10922.91
260.795	10915.92
260.865	10919.88
260.934	10888.5
261.004	10876.89
261.074	10862.48
261.144	10867.83
261.214	10863.49
261.284	10851.35
261.354	10846.2
261.424	10815.11
261.494	10820.89
261.564	10804.8
261.634	10796.12
261.703	10758.49
261.773	10751.6
261.843	10744.23
