Data from 20250704_urea_0.5M_MAYP1162681_11-14-33-719.txt Node
Date: Fri Jul 04 11:14:33 BST 2025
User: adleo
Spectrometer: MAYP116268
Trigger mode: 0
Integration Time (sec): 1.000000E0
Scans to average: 1
Electric dark correction enabled: true
Nonlinearity correction enabled: true
Boxcar width: 10
XAxis mode: Wavelengths
Number of Pixels in Spectrum: 2068
>>>>>Begin Spectral Data<<<<<
179.565	1245.4
179.642	1303.7
179.718	1351.58
179.795	1391.34
179.871	1423.99
179.948	1441.15
180.024	1464.04
180.101	1487.99
180.177	1503.28
180.254	1526.22
180.33	1548.87
180.407	1606.23
180.483	1702.11
180.56	1797.37
180.636	1885.11
180.712	1872.7
180.789	1885.72
180.865	1899.79
180.942	1907.11
181.018	1918
181.095	1931.5
181.171	1934.31
181.248	1933.5
181.324	1946.77
181.4	1954.38
181.477	1965.41
181.553	1980.19
181.63	1999.02
181.706	2013.82
181.782	2022.85
181.859	2020.28
181.935	2025.65
182.011	2020.66
182.088	2040.54
182.164	2058.91
182.24	2070.46
182.317	2078.97
182.393	2075.31
182.469	2087.34
182.546	2100.66
182.622	2103.85
182.698	2098.38
182.775	2108.75
182.851	2125.59
182.927	2115.69
183.003	2111.51
183.08	2107.42
183.156	2115.69
183.232	2109.94
183.308	2099.95
183.385	2108.46
183.461	2128.06
183.537	2130.15
183.613	2143.57
183.69	2132.58
183.766	2122.2
183.842	2129.96
183.918	2134.14
183.995	2151.27
184.071	2155.98
184.147	2149.27
184.223	2138.86
184.299	2152.51
184.375	2145.19
184.452	2150.47
184.528	2202.23
184.604	2212.94
184.68	2222.31
184.756	2231.02
184.832	2239.87
184.908	2244.72
184.985	2243.15
185.061	2227.16
185.137	2233.73
185.213	2223.41
185.289	2224.69
185.365	2215.7
185.441	2215.79
185.517	2231.26
185.593	2223.7
185.669	2221.03
185.745	2234.45
185.822	2251.05
185.898	2242.1
185.974	2251.52
186.05	2243.67
186.126	2210.6
186.202	2203.47
186.278	2201.09
186.354	2190.14
186.43	2196.09
186.506	2193.33
186.582	2192.62
186.658	2199.37
186.734	2181.35
186.81	2183.44
186.886	2187.53
186.962	2203.66
187.038	2200.28
187.114	2191.47
187.19	2199.32
187.266	2189.76
187.341	2190.72
187.417	2185.05
187.493	2186.01
187.569	2186.62
187.645	2179.3
187.721	2167.31
187.797	2173.87
187.873	2181.1
187.949	2177.11
188.025	2171.21
188.101	2175.3
188.176	2178.67
188.252	2175.53
188.328	2183.62
188.404	2182.86
188.48	2179.05
188.556	2168.77
188.632	2167.63
188.707	2167.11
188.783	2165.63
188.859	2157.93
188.935	2143.99
189.011	2151.89
189.086	2146.42
189.162	2138.52
189.238	2137.57
189.314	2133.62
189.39	2127.34
189.465	2115.73
189.541	2131.43
189.617	2114.17
189.693	2109.17
189.768	2111.98
189.844	2136.68
189.92	2129.55
189.996	2138.59
190.071	2151.39
190.147	2150.01
190.223	2158.95
190.298	2152.1
190.374	2138.78
190.45	2152.1
190.526	2161.37
190.601	2153.81
190.677	2154.28
190.753	2180.75
190.828	2185.13
190.904	2202.06
190.98	2220.24
191.055	2234.61
191.131	2224.38
191.207	2247.55
191.282	2258.02
191.358	2250.69
191.433	2235.07
191.509	2247.15
191.585	2245.01
191.66	2243.4
191.736	2253.82
191.811	2245.96
191.887	2263.72
191.963	2287.46
192.038	2293.27
192.114	2295.17
192.189	2299.26
192.265	2293.7
192.34	2270.28
192.416	2268.9
192.491	2263.42
192.567	2263.38
192.642	2264.47
192.718	2264.52
192.793	2252.62
192.869	2247.05
192.944	2250.76
193.02	2258.24
193.095	2263.33
193.171	2267.75
193.246	2268.94
193.322	2264.04
193.397	2263.57
193.473	2248.95
193.548	2230.72
193.624	2238.05
193.699	2237.67
193.775	2253.33
193.85	2257.14
193.925	2267.13
194.001	2266.09
194.076	2259.9
194.152	2249.71
194.227	2241.1
194.302	2232.16
194.378	2235.06
194.453	2230.64
194.529	2241.72
194.604	2226.59
194.679	2220.31
194.755	2200.57
194.83	2210
194.905	2206.76
194.981	2215.47
195.056	2208.1
195.131	2215.23
195.207	2214.57
195.282	2206.95
195.357	2188.77
195.433	2202.81
195.508	2191.86
195.583	2200.05
195.659	2215.66
195.734	2225.32
195.809	2226.13
195.884	2235.12
195.96	2236.69
196.035	2255.05
196.11	2251.34
196.185	2263.33
196.261	2267.47
196.336	2300.78
196.411	2287.5
196.486	2295.02
196.561	2290.88
196.637	2299.34
196.712	2313.48
196.787	2314.29
196.862	2324.67
196.937	2337.04
197.013	2346.94
197.088	2355.75
197.163	2378.94
197.238	2394.32
197.313	2393.51
197.388	2405.37
197.464	2434.7
197.539	2446.17
197.614	2440.69
197.689	2453.45
197.764	2470.17
197.839	2488.07
197.914	2481.64
197.989	2505.59
198.065	2520.11
198.14	2566.43
198.215	2594.76
198.29	2605.1
198.365	2619.05
198.44	2632.39
198.515	2655.49
198.59	2667.11
198.665	2694.74
198.74	2702.22
198.815	2702.51
198.89	2724.42
198.965	2756.16
199.04	2754.06
199.115	2769.4
199.19	2812.53
199.265	2815.43
199.34	2826.39
199.415	2859.86
199.49	2884.11
199.565	2894.6
199.64	2918.67
199.715	2917.76
199.79	2924.34
199.865	2932.25
199.94	2931.87
200.015	2964.34
200.09	2973.54
200.165	2980.93
200.24	2988.7
200.315	3031.51
200.39	3047.38
200.464	3053.91
200.539	3054.63
200.614	3074.51
200.689	3099.26
200.764	3103.7
200.839	3120.33
200.914	3125.91
200.989	3119.18
201.063	3131.01
201.138	3113.04
201.213	3113.76
201.288	3095.3
201.363	3104.08
201.438	3104.84
201.512	3119.76
201.587	3102.11
201.662	3107.55
201.737	3123.77
201.812	3132.26
201.886	3096.17
201.961	3107.43
202.036	3094.71
202.111	3097.09
202.186	3064.3
202.26	3043.46
202.335	3020.71
202.41	3013.52
202.485	2995.79
202.559	2975.62
202.634	2951.35
202.709	2961.21
202.784	2942.38
202.858	2942.48
202.933	2921.36
203.008	2918.02
203.082	2900.49
203.157	2898.67
203.232	2853.22
203.306	2827.76
203.381	2795.58
203.456	2772.14
203.53	2746.76
203.605	2725.86
203.68	2697.69
203.754	2690.16
203.829	2677.87
203.904	2661.86
203.978	2652.91
204.053	2658.62
204.127	2643.53
204.202	2640.33
204.277	2622.14
204.351	2616.18
204.426	2607.08
204.5	2596.08
204.575	2557.89
204.65	2565.04
204.724	2559.08
204.799	2567.84
204.873	2563.65
204.948	2563.88
205.022	2553.31
205.097	2548.02
205.171	2564.21
205.246	2571.03
205.32	2571.41
205.395	2570.6
205.469	2558.7
205.544	2565.18
205.618	2546.98
205.693	2557.51
205.767	2545.56
205.842	2564.66
205.916	2557.66
205.991	2550.04
206.065	2556.8
206.14	2575.31
206.214	2570.12
206.289	2560.45
206.363	2574.78
206.438	2578.02
206.512	2586.6
206.586	2605.41
206.661	2612.37
206.735	2592.37
206.81	2590.27
206.884	2607.18
206.958	2596.03
207.033	2617.13
207.107	2625.32
207.181	2660.44
207.256	2658.82
207.33	2681.21
207.405	2698.23
207.479	2722.63
207.553	2737.01
207.628	2727.92
207.702	2742.02
207.776	2747.5
207.851	2759.98
207.925	2783.15
207.999	2792.54
208.073	2799.69
208.148	2815.99
208.222	2819.76
208.296	2868.55
208.371	2908.71
208.445	2940.7
208.519	2989.85
208.593	3022.08
208.668	3040.68
208.742	3069.8
208.816	3099.02
208.89	3143.87
208.965	3175.19
209.039	3214.33
209.113	3269.3
209.187	3330.53
209.261	3369.6
209.336	3431.41
209.41	3501.26
209.484	3554
209.558	3633.24
209.632	3702.86
209.707	3776.82
209.781	3860.81
209.855	3944.32
209.929	4029.67
210.003	4105.39
210.077	4183.48
210.151	4308.05
210.226	4423.6
210.3	4536.99
210.374	4653.52
210.448	4750.99
210.522	4861.47
210.596	4975.73
210.67	5089.83
210.744	5249.93
210.818	5401.6
210.892	5547.63
210.966	5663.2
211.041	5802.79
211.115	5923.61
211.189	6084.46
211.263	6230.57
211.337	6375.02
211.411	6530.1
211.485	6670.21
211.559	6837.84
211.633	6994.96
211.707	7126.17
211.781	7303.51
211.855	7431.47
211.929	7585.35
212.003	7736.04
212.077	7915.04
212.151	8102.24
212.225	8286.62
212.299	8452.48
212.373	8612.41
212.447	8779.77
212.52	8991.83
212.594	9175.19
212.668	9376.76
212.742	9544.23
212.816	9733.24
212.89	9919.22
212.964	10106.17
213.038	10295.58
213.112	10500.04
213.186	10702.76
213.26	10868.48
213.333	11000.99
213.407	11194.16
213.481	11393.35
213.555	11597.23
213.629	11779.36
213.703	11954.41
213.777	12144.51
213.85	12319.67
213.924	12553.1
213.998	12750.58
214.072	12934.43
214.146	13119.05
214.219	13301.07
214.293	13490.7
214.367	13673.4
214.441	13869.59
214.515	14043.42
214.588	14210.88
214.662	14360.12
214.736	14520.4
214.81	14704.97
214.883	14907.19
214.957	15075.51
215.031	15231.98
215.105	15385.41
215.178	15538.64
215.252	15702.77
215.326	15837.1
215.4	15976.06
215.473	16088.7
215.547	16227.8
215.621	16372
215.694	16520.11
215.768	16656.27
215.842	16789.82
215.915	16925.01
215.989	17047.27
216.063	17181.69
216.136	17318.94
216.21	17451.77
216.284	17598.37
216.357	17739.24
216.431	17859.04
216.504	17994.9
216.578	18157.49
216.652	18297.73
216.725	18431.99
216.799	18566.01
216.873	18695.93
216.946	18825.37
217.02	18949.18
217.093	19066.95
217.167	19161.94
217.24	19269.54
217.314	19374.94
217.387	19476.91
217.461	19577.14
217.535	19689.91
217.608	19782.77
217.682	19886.91
217.755	19998.09
217.829	20086.72
217.902	20181.51
217.976	20270.95
218.049	20355.58
218.123	20428.25
218.196	20515.34
218.27	20596.74
218.343	20661.56
218.417	20749.9
218.49	20838.92
218.563	20919.02
218.637	20991.07
218.71	21079.03
218.784	21155.81
218.857	21244.4
218.931	21331.49
219.004	21409.71
219.077	21481.19
219.151	21551.76
219.224	21608.01
219.298	21670.57
219.371	21746.15
219.444	21792.86
219.518	21871.38
219.591	21941.13
219.665	22021.3
219.738	22079.62
219.811	22116.16
219.885	22175.31
219.958	22225.83
220.031	22268.59
220.105	22331.07
220.178	22386.07
220.251	22436.74
220.325	22488.9
220.398	22532.73
220.471	22568.02
220.544	22620.61
220.618	22656.72
220.691	22698.52
220.764	22735.84
220.838	22773.83
220.911	22804.64
220.984	22858.44
221.057	22895.33
221.131	22926.09
221.204	22916.88
221.277	22966.49
221.35	23034.86
221.424	23061.48
221.497	23094.75
221.57	23124.21
221.643	23152.66
221.716	23179.37
221.79	23192.87
221.863	23210.71
221.936	23224.36
222.009	23245.53
222.082	23262.07
222.155	23283.67
222.229	23323.98
222.302	23346.98
222.375	23367.72
222.448	23386.72
222.521	23403.35
222.594	23408.66
222.667	23403.5
222.74	23442.85
222.814	23445.35
222.887	23450.23
222.96	23465.75
223.033	23477.86
223.106	23481.52
223.179	23487.31
223.252	23508.34
223.325	23515.14
223.398	23525.65
223.471	23543.93
223.544	23540.02
223.617	23534.38
223.69	23533.08
223.763	23501.87
223.837	23509.64
223.91	23505.39
223.983	23488.95
224.056	23477.47
224.129	23473.57
224.202	23485.09
224.275	23455.34
224.348	23429.98
224.42	23398.1
224.493	23373.94
224.566	23366.76
224.639	23366.47
224.712	23351.37
224.785	23328.9
224.858	23310.77
224.931	23288.44
225.004	23254.3
225.077	23252.03
225.15	23219.39
225.223	23199.62
225.296	23225.71
225.369	23188.58
225.442	23164.81
225.514	23151.74
225.587	23141.52
225.66	23128.11
225.733	23114.37
225.806	23109.79
225.879	23100.05
225.952	23082.31
226.025	23081.59
226.097	23077.29
226.17	23046.34
226.243	23004.25
226.316	22975.8
226.389	22961.53
226.461	22941.52
226.534	22940.26
226.607	22907.53
226.68	22908.59
226.753	22898.51
226.825	22847.69
226.898	22850.19
226.971	22828.16
227.044	22812.06
227.117	22782.36
227.189	22767.65
227.262	22759.17
227.335	22746.25
227.407	22712.59
227.48	22693.26
227.553	22666.07
227.626	22622.05
227.698	22602.67
227.771	22589.41
227.844	22560.05
227.916	22542.41
227.989	22516.08
228.062	22473.61
228.134	22484.07
228.207	22459.63
228.28	22429.69
228.352	22409.3
228.425	22381.39
228.498	22366.68
228.57	22342.77
228.643	22338.43
228.716	22301.02
228.788	22254.21
228.861	22223.79
228.934	22214.44
229.006	22185.08
229.079	22166.96
229.151	22148.98
229.224	22105.02
229.296	22081.35
229.369	22084.34
229.442	22067.32
229.514	22028.9
229.587	22011.84
229.659	21962.33
229.732	21939.58
229.804	21924.68
229.877	21915.53
229.949	21901.26
230.022	21901.69
230.094	21866.12
230.167	21841.34
230.239	21819.55
230.312	21807.65
230.384	21802.01
230.457	21781.96
230.529	21767.11
230.602	21738.62
230.674	21715.87
230.747	21704.59
230.819	21693.89
230.892	21631.47
230.964	21608.29
231.037	21591.42
231.109	21568.23
231.181	21548.23
231.254	21508.23
231.326	21476.46
231.399	21444.65
231.471	21414.57
231.544	21352.73
231.616	21348.39
231.688	21314.41
231.761	21280.24
231.833	21242.12
231.905	21184.62
231.978	21162.01
232.05	21133.38
232.122	21107.55
232.195	21063.93
232.267	21052.41
232.339	21010.67
232.412	21008.6
232.484	20967.54
232.556	20932.02
232.629	20926.72
232.701	20908.74
232.773	20879.29
232.846	20844.79
232.918	20819.39
232.99	20785.02
233.062	20775.34
233.135	20739.91
233.207	20706.95
233.279	20677.84
233.351	20648.83
233.424	20623.43
233.496	20582.99
233.568	20564.01
233.64	20523.38
233.713	20493.55
233.785	20466.99
233.857	20446.9
233.929	20393.45
234.001	20384.1
234.074	20367.96
234.146	20308.01
234.218	20267.48
234.29	20242.22
234.362	20192.73
234.434	20135.82
234.507	20093.7
234.579	20039.58
234.651	20003.34
234.723	19974.95
234.795	19955.53
234.867	19933.41
234.939	19919.2
235.012	19889.17
235.084	19865.17
235.156	19838.81
235.228	19799.06
235.3	19755.54
235.372	19723.3
235.444	19702.24
235.516	19641.42
235.588	19607.45
235.66	19581.62
235.732	19544.37
235.804	19565.14
235.876	19549.62
235.948	19538.97
236.02	19508.95
236.092	19478.16
236.164	19439.89
236.236	19398.74
236.308	19355.9
236.38	19319.8
236.452	19264.29
236.524	19232.58
236.596	19212.49
236.668	19182.03
236.74	19152.87
236.812	19125.55
236.884	19097.17
236.956	19067.14
237.028	19020.93
237.1	18982.28
237.172	18962.28
237.244	18949.37
237.316	18882.43
237.388	18846.77
237.46	18801.04
237.532	18781.28
237.604	18738.15
237.675	18720.03
237.747	18687.41
237.819	18639.07
237.891	18597.82
237.963	18555.03
238.035	18509.06
238.107	18430.17
238.178	18399.33
238.25	18362.8
238.322	18350.22
238.394	18295.09
238.466	18251.19
238.538	18229.84
238.609	18203.63
238.681	18144.16
238.753	18095
238.825	18057.85
238.897	18016.31
238.968	17997.08
239.04	17955.25
239.112	17951.3
239.184	17902.34
239.255	17872.8
239.327	17849.42
239.399	17819.01
239.471	17809.28
239.542	17786.53
239.614	17772.51
239.686	17723.59
239.758	17703.5
239.829	17649.52
239.901	17625.04
239.973	17589.28
240.044	17561.86
240.116	17528.71
240.188	17500.56
240.259	17464.03
240.331	17419.65
240.403	17399.5
240.474	17357.53
240.546	17312.75
240.618	17253.62
240.689	17209.38
240.761	17168.75
240.833	17152.7
240.904	17115.93
240.976	17070.19
241.048	17031.69
241.119	17000.7
241.191	16967.25
241.262	16950.96
241.334	16920.31
241.405	16887.68
241.477	16857.18
241.549	16820.64
241.62	16788.16
241.692	16762.66
241.763	16742.52
241.835	16716.2
241.906	16681.26
241.978	16632.39
242.049	16617.69
242.121	16606.27
242.192	16596.63
242.264	16559.04
242.335	16504.77
242.407	16483.85
242.478	16446.4
242.55	16423.6
242.621	16386.88
242.693	16355.74
242.764	16315.35
242.836	16271.93
242.907	16249.85
242.979	16222.04
243.05	16194.86
243.122	16167.72
243.193	16131.67
243.264	16075.28
243.336	16031.03
243.407	16003.13
243.479	15984.57
243.55	15942.39
243.622	15907.69
243.693	15867.3
243.764	15847.39
243.836	15818.52
243.907	15775.87
243.978	15748.92
244.05	15717.11
244.121	15662.16
244.192	15649.82
244.264	15598.01
244.335	15571.45
244.407	15521.42
244.478	15489.94
244.549	15460.59
244.62	15414.07
244.692	15372.14
244.763	15354.35
244.834	15322.73
244.906	15294.19
244.977	15267.78
245.048	15261.85
245.119	15223
245.191	15190.94
245.262	15141.97
245.333	15118.88
245.405	15093.38
245.476	15070.68
245.547	15039.54
245.618	15022.96
245.689	14984.49
245.761	14963.28
245.832	14923.8
245.903	14907.94
245.974	14884.76
246.045	14850.73
246.117	14846.1
246.188	14812.16
246.259	14773.31
246.33	14739.47
246.401	14697.97
246.473	14656.22
246.544	14613.42
246.615	14589.36
246.686	14547.95
246.757	14532.38
246.828	14491.94
246.899	14477.57
246.97	14428.02
247.042	14390.56
247.113	14368.34
247.184	14356.58
247.255	14325.82
247.326	14305.77
247.397	14266.72
247.468	14234.67
247.539	14205.7
247.61	14158.7
247.681	14145.25
247.752	14131.7
247.823	14091.74
247.894	14071.54
247.965	14030.52
248.037	13993.98
248.108	13952.28
248.179	13926.73
248.25	13898.91
248.321	13879.63
248.392	13837.35
248.463	13838.12
248.534	13808.77
248.605	13797.1
248.675	13766.64
248.746	13744.89
248.817	13727.35
248.888	13707.68
248.959	13666.27
249.03	13646.7
249.101	13622.06
249.172	13588.37
249.243	13531.87
249.314	13532.98
249.385	13502.17
249.456	13492.39
249.527	13475.47
249.598	13463.56
249.669	13442.25
249.739	13422.92
249.81	13407.11
249.881	13369.94
249.952	13338.85
250.023	13322.17
250.094	13280.09
250.165	13245.47
250.235	13224.46
250.306	13198.13
250.377	13161.69
250.448	13152.87
250.519	13106.93
250.59	13097.29
250.66	13078.1
250.731	13078.58
250.802	13052.5
250.873	13044.69
250.944	13020.01
251.014	12983.09
251.085	12978.41
251.156	12964.58
251.227	12956.04
251.297	12944.57
251.368	12938.3
251.439	12933.19
251.51	12920.56
251.58	12893.33
251.651	12867.2
251.722	12848.59
251.792	12808.87
251.863	12781.11
251.934	12778.02
252.005	12791.23
252.075	12768.72
252.146	12752.09
252.217	12744.23
252.287	12732.51
252.358	12701.71
252.429	12701.52
252.499	12672.02
252.57	12655.29
252.641	12638.8
252.711	12615.14
252.782	12577.68
252.852	12574.02
252.923	12545.14
252.994	12524.41
253.064	12510.19
253.135	12480.64
253.205	12456.25
253.276	12458.57
253.347	12458.81
253.417	12425.16
253.488	12397.3
253.558	12375.12
253.629	12357.34
253.699	12337.04
253.77	12323.84
253.841	12300.51
253.911	12275.05
253.982	12263.15
254.052	12246.86
254.123	12231.29
254.193	12209.5
254.264	12227.67
254.334	12198.7
254.405	12173.78
254.475	12144.18
254.546	12120.9
254.616	12112.71
254.687	12092.08
254.757	12075.01
254.827	12055.11
254.898	12032.6
254.968	12011.44
255.039	11981.79
255.109	11970.32
255.18	11945.21
255.25	11904.91
255.321	11891.56
255.391	11870.02
255.461	11874.35
255.532	11831.31
255.602	11806.63
255.673	11771.3
255.743	11740.69
255.813	11694.28
255.884	11680.06
255.954	11670.08
256.024	11672.49
256.095	11656.97
256.165	11627.53
256.235	11616.73
256.306	11592.2
256.376	11588.53
256.446	11577.74
256.517	11570.17
256.587	11558.12
256.657	11540.24
256.728	11528.82
256.798	11516.43
256.868	11491.08
256.938	11465.05
257.009	11453.92
257.079	11442.5
257.149	11453.73
257.219	11411.89
257.29	11406.78
257.36	11370.11
257.43	11357.48
257.5	11319.12
257.571	11297.29
257.641	11286.4
257.711	11254.44
257.781	11246.25
257.852	11232.61
257.922	11194.39
257.992	11172.22
258.062	11155.55
258.132	11143.5
258.202	11123.84
258.273	11110.01
258.343	11115.26
258.413	11087.69
258.483	11067.12
258.553	11039.41
258.623	11010.3
258.693	10995.41
258.764	10991.46
258.834	10995.36
258.904	10982.59
258.974	10956.14
259.044	10936.33
259.114	10931.61
259.184	10915.08
259.254	10898.26
259.324	10859.42
259.394	10855.04
259.464	10856.48
259.535	10833.64
259.605	10813.64
259.675	10788.06
259.745	10775.29
259.815	10746.37
259.885	10731.53
259.955	10749.12
260.025	10726.72
260.095	10712.89
260.165	10711.44
260.235	10711.2
260.305	10689.61
260.375	10663.64
260.445	10679.25
260.515	10687.4
260.585	10685.76
260.655	10670.97
260.725	10665.81
260.795	10665.04
260.865	10662.87
260.934	10630.54
261.004	10620.32
261.074	10609.82
261.144	10613.63
261.214	10606.25
261.284	10581.15
261.354	10574.79
261.424	10549.3
261.494	10552.43
261.564	10532.19
261.634	10517.26
261.703	10486.18
261.773	10473.7
261.843	10469.99
261.913	10450.96
261.983	10412.56
262.053	10395.79
