Data from 20250704_urea_0.5M_MAYP1162681_11-09-03-745.txt Node
Date: Fri Jul 04 11:09:03 BST 2025
User: adleo
Spectrometer: MAYP116268
Trigger mode: 0
Integration Time (sec): 1.000000E0
Scans to average: 1
Electric dark correction enabled: true
Nonlinearity correction enabled: true
Boxcar width: 10
XAxis mode: Wavelengths
Number of Pixels in Spectrum: 2068
>>>>>Begin Spectral Data<<<<<
179.565	1249.11
179.642	1307.62
179.718	1353.36
179.795	1395.28
179.871	1427.62
179.948	1446.56
180.024	1466.5
180.101	1488.72
180.177	1502.66
180.254	1526.19
180.33	1548.28
180.407	1605.78
180.483	1701.09
180.56	1795.97
180.636	1880.76
180.712	1863.64
180.789	1873.44
180.865	1885.22
180.942	1892.83
181.018	1903.95
181.095	1917.69
181.171	1922.35
181.248	1923.45
181.324	1937.05
181.4	1944.37
181.477	1954.88
181.553	1967.91
181.63	1988.4
181.706	2007.9
181.782	2016.98
181.859	2015.79
181.935	2020.21
182.011	2013.98
182.088	2031.96
182.164	2048.52
182.24	2063.49
182.317	2075.05
182.393	2074.1
182.469	2089.7
182.546	2103.25
182.622	2109.39
182.698	2104.58
182.775	2117.81
182.851	2131.08
182.927	2126.13
183.003	2119.47
183.08	2113.86
183.156	2122.38
183.232	2117.95
183.308	2105.82
183.385	2114.81
183.461	2133.27
183.537	2134.74
183.613	2151.87
183.69	2143.26
183.766	2135.83
183.842	2145.25
183.918	2150.48
183.995	2160.57
184.071	2161
184.147	2156.05
184.223	2143.97
184.299	2156.48
184.375	2143.54
184.452	2150.59
184.528	2198.84
184.604	2211.2
184.68	2225.33
184.756	2233.66
184.832	2240.8
184.908	2240.89
184.985	2239.56
185.061	2222.77
185.137	2235.04
185.213	2221.86
185.289	2225.15
185.365	2215.01
185.441	2211.87
185.517	2224.1
185.593	2223.91
185.669	2224.2
185.745	2234.14
185.822	2250.46
185.898	2239.37
185.974	2250.79
186.05	2240.89
186.126	2206.39
186.202	2200.4
186.278	2194.78
186.354	2183.03
186.43	2191.98
186.506	2192.83
186.582	2192.12
186.658	2199.35
186.734	2176.18
186.81	2182.13
186.886	2184.03
186.962	2199.3
187.038	2198.02
187.114	2191.88
187.19	2197.83
187.266	2186.74
187.341	2189.79
187.417	2184.22
187.493	2185.41
187.569	2184.46
187.645	2181.99
187.721	2173.23
187.797	2178.99
187.873	2183.84
187.949	2181.18
188.025	2173.99
188.101	2176.65
188.176	2183.5
188.252	2178.89
188.328	2187.59
188.404	2182.02
188.48	2178.17
188.556	2170.08
188.632	2167.99
188.707	2168.04
188.783	2165.47
188.859	2159.43
188.935	2144.01
189.011	2149.77
189.086	2146.49
189.162	2138.07
189.238	2132.36
189.314	2128.51
189.39	2124.03
189.465	2118.89
189.541	2133.26
189.617	2116.99
189.693	2110.67
189.768	2111.34
189.844	2139.08
189.92	2131.1
189.996	2143.66
190.071	2154.03
190.147	2151.41
190.223	2162.4
190.298	2153.93
190.374	2141.99
190.45	2153.69
190.526	2164.11
190.601	2157.93
190.677	2157.45
190.753	2185.96
190.828	2190.91
190.904	2205.09
190.98	2218.32
191.055	2225.12
191.131	2215.94
191.207	2235.82
191.282	2247.62
191.358	2240.96
191.433	2223.01
191.509	2235
191.585	2229.81
191.66	2230.33
191.736	2236.61
191.811	2228.38
191.887	2245.89
191.963	2269.12
192.038	2275.73
192.114	2276.87
192.189	2280.34
192.265	2277.92
192.34	2254.54
192.416	2254.45
192.491	2250.26
192.567	2255.02
192.642	2258.97
192.718	2257.02
192.793	2244.08
192.869	2238.61
192.944	2237.66
193.02	2245.65
193.095	2250.93
193.171	2256.83
193.246	2256.22
193.322	2257.5
193.397	2254.84
193.473	2239.89
193.548	2223.04
193.624	2228.37
193.699	2228.04
193.775	2248.89
193.85	2250.6
193.925	2261.26
194.001	2258.07
194.076	2253.7
194.152	2240.37
194.227	2232.23
194.302	2227.05
194.378	2232.28
194.453	2229.33
194.529	2243.75
194.604	2228.43
194.679	2222.72
194.755	2201.88
194.83	2212.4
194.905	2207.93
194.981	2218.3
195.056	2212.93
195.131	2218.21
195.207	2217.3
195.282	2209.26
195.357	2186.37
195.433	2200.59
195.508	2188.65
195.583	2197.55
195.659	2208.4
195.734	2216.25
195.809	2219.06
195.884	2227.29
195.96	2230.14
196.035	2245.8
196.11	2243.08
196.185	2254.98
196.261	2257.74
196.336	2290.62
196.411	2279.91
196.486	2287.85
196.561	2281.76
196.637	2290.52
196.712	2307.46
196.787	2310.46
196.862	2321.93
196.937	2332.73
197.013	2339.64
197.088	2350.39
197.163	2373.91
197.238	2392.44
197.313	2390.63
197.388	2401.06
197.464	2434.2
197.539	2442.77
197.614	2438.44
197.689	2450.01
197.764	2468.82
197.839	2490.96
197.914	2485.1
197.989	2503.38
198.065	2516.67
198.14	2564.79
198.215	2591.08
198.29	2601.51
198.365	2615.66
198.44	2629.28
198.515	2657.38
198.59	2675.77
198.665	2702.83
198.74	2707.5
198.815	2706.26
198.89	2732.22
198.965	2763.39
199.04	2756.48
199.115	2773.81
199.19	2817.41
199.265	2819.6
199.34	2830.56
199.415	2862.89
199.49	2885.52
199.565	2897.34
199.64	2920.02
199.715	2922.6
199.79	2930.7
199.865	2939.86
199.94	2939
200.015	2968.94
200.09	2976.52
200.165	2981.43
200.24	2991.64
200.315	3038.73
200.39	3053.04
200.464	3058.99
200.539	3062.67
200.614	3078.54
200.689	3101.81
200.764	3107.39
200.839	3125.89
200.914	3130.65
200.989	3121.35
201.063	3136.66
201.138	3118.7
201.213	3119.98
201.288	3098.86
201.363	3104.58
201.438	3103.1
201.512	3119.74
201.587	3102.04
201.662	3104.33
201.737	3117.93
201.812	3123.08
201.886	3084.56
201.961	3098.4
202.036	3085.67
202.111	3081.47
202.186	3053.41
202.26	3036.95
202.335	3017.16
202.41	3006.86
202.485	2986.66
202.559	2963.54
202.634	2933.6
202.709	2946.94
202.784	2925.15
202.858	2924.11
202.933	2903.09
203.008	2897.13
203.082	2874.3
203.157	2872.3
203.232	2830.94
203.306	2808.86
203.381	2775.88
203.456	2752.77
203.53	2729.3
203.605	2710.39
203.68	2684.51
203.754	2679.13
203.829	2662.65
203.904	2639.54
203.978	2632.4
204.053	2636.87
204.127	2627.83
204.202	2629.02
204.277	2608.96
204.351	2603.77
204.426	2594.58
204.5	2589.24
204.575	2553.63
204.65	2563.49
204.724	2558.24
204.799	2565.19
204.873	2557.57
204.948	2558
205.022	2547.24
205.097	2538.47
205.171	2551.61
205.246	2561.95
205.32	2559.29
205.395	2560.1
205.469	2550.67
205.544	2554.96
205.618	2538.29
205.693	2549.01
205.767	2535.67
205.842	2559.16
205.916	2555.44
205.991	2548.44
206.065	2548.97
206.14	2567.15
206.214	2565.43
206.289	2558.09
206.363	2572.34
206.438	2579.29
206.512	2587.39
206.586	2610.01
206.661	2619.35
206.735	2600.74
206.81	2602.79
206.884	2620.69
206.958	2607.02
207.033	2627.54
207.107	2637.74
207.181	2672.43
207.256	2670.1
207.33	2694.2
207.405	2711.22
207.479	2735.71
207.553	2746.43
207.628	2740.38
207.702	2756.01
207.776	2759.72
207.851	2772.83
207.925	2795.61
207.999	2803.1
208.073	2813.92
208.148	2826.64
208.222	2827.12
208.296	2875.86
208.371	2908.87
208.445	2939.48
208.519	2990.82
208.593	3025.29
208.668	3047.23
208.742	3075.35
208.816	3108.86
208.89	3153.58
208.965	3183.04
209.039	3226.42
209.113	3282.63
209.187	3342.38
209.261	3381.22
209.336	3441.17
209.41	3510.69
209.484	3564.43
209.558	3642.81
209.632	3710.34
209.707	3786.21
209.781	3874.59
209.855	3955.95
209.929	4046.76
210.003	4126.41
210.077	4201.09
210.151	4331.32
210.226	4450.77
210.3	4568.71
210.374	4683.25
210.448	4781.97
210.522	4894.71
210.596	5005.97
210.67	5121.36
210.744	5282.51
210.818	5436.54
210.892	5575.89
210.966	5691.08
211.041	5836.78
211.115	5958.17
211.189	6114.51
211.263	6264.8
211.337	6412.48
211.411	6571.36
211.485	6712.44
211.559	6874.65
211.633	7027.82
211.707	7152.74
211.781	7324.76
211.855	7451.86
211.929	7607.92
212.003	7758.56
212.077	7940.04
212.151	8123.49
212.225	8308.45
212.299	8478.58
212.373	8639.35
212.447	8818.49
212.52	9029.25
212.594	9216.73
212.668	9417.63
212.742	9592.61
212.816	9775.31
212.89	9951.72
212.964	10139.82
213.038	10330.21
213.112	10538.18
213.186	10755.98
213.26	10929.12
213.333	11070.75
213.407	11267.24
213.481	11463.16
213.555	11662.46
213.629	11851.78
213.703	12045.05
213.777	12235.34
213.85	12406.7
213.924	12639.31
213.998	12828.79
214.072	13012.93
214.146	13184.68
214.219	13368.92
214.293	13550.36
214.367	13734.07
214.441	13933.82
214.515	14110.97
214.588	14274.63
214.662	14419.48
214.736	14580.2
214.81	14763.32
214.883	14956.14
214.957	15122.29
215.031	15281.9
215.105	15435.42
215.178	15579.49
215.252	15725.88
215.326	15870.57
215.4	16013.68
215.473	16123.86
215.547	16264.6
215.621	16413.09
215.694	16575.17
215.768	16710.46
215.842	16845.8
215.915	16986.67
215.989	17103.54
216.063	17241.57
216.136	17385.14
216.21	17525.28
216.284	17668.9
216.357	17814.15
216.431	17942.34
216.504	18084.84
216.578	18249.56
216.652	18393.32
216.725	18528.2
216.799	18661.98
216.873	18784.72
216.946	18907.56
217.02	19020.13
217.093	19141.24
217.167	19232.61
217.24	19327.06
217.314	19436.79
217.387	19552.3
217.461	19649.4
217.535	19775.28
217.608	19859.13
217.682	19966.6
217.755	20076.28
217.829	20150.3
217.902	20231.75
217.976	20317.29
218.049	20407.31
218.123	20477.68
218.196	20560.09
218.27	20621.58
218.343	20684.24
218.417	20764.82
218.49	20845.4
218.563	20935.86
218.637	21008.97
218.71	21106.09
218.784	21186.1
218.857	21261.05
218.931	21325.2
219.004	21400.19
219.077	21465.99
219.151	21535.59
219.224	21577.28
219.298	21637.63
219.371	21726.61
219.444	21786.14
219.518	21853.86
219.591	21907.37
219.665	21982.86
219.738	22047.45
219.811	22106.98
219.885	22175.48
219.958	22247.84
220.031	22302.94
220.105	22366.24
220.178	22424.81
220.251	22456.82
220.325	22501.66
220.398	22553.82
220.471	22606.9
220.544	22662.68
220.618	22701.39
220.691	22751.34
220.764	22802.15
220.838	22847.33
220.911	22871.73
220.984	22920.86
221.057	22957.16
221.131	22988.98
221.204	22993.32
221.277	23039.95
221.35	23091.01
221.424	23119.17
221.497	23131.03
221.57	23152.44
221.643	23171.77
221.716	23199.55
221.79	23214.54
221.863	23240.15
221.936	23265.08
222.009	23288.95
222.082	23308.96
222.155	23320.29
222.229	23350.24
222.302	23364.08
222.375	23361.42
222.448	23376.76
222.521	23388.33
222.594	23392.33
222.667	23394.99
222.74	23412.44
222.814	23404.82
222.887	23413.99
222.96	23424.45
223.033	23435.25
223.106	23448.75
223.179	23452.47
223.252	23456.32
223.325	23468.77
223.398	23475.95
223.471	23463.08
223.544	23453.19
223.617	23448.37
223.69	23450.2
223.763	23431.83
223.837	23438.87
223.91	23448.8
223.983	23432.98
224.056	23411.86
224.129	23419.43
224.202	23419.53
224.275	23400.53
224.348	23391.27
224.42	23373.33
224.493	23347.92
224.566	23339.43
224.639	23332.35
224.712	23315.9
224.785	23289.38
224.858	23273.23
224.931	23261.03
225.004	23245.79
225.077	23234.17
225.15	23188.56
225.223	23176.89
225.296	23184.12
225.369	23156.1
225.442	23139.42
225.514	23131.37
225.587	23122.74
225.66	23111.94
225.733	23101.71
225.806	23096.31
225.879	23079.92
225.952	23050.94
226.025	23056.82
226.097	23060.97
226.17	23040.29
226.243	23010.54
226.316	22994.53
226.389	22987.83
226.461	22964.97
226.534	22945.06
226.607	22928.72
226.68	22950.41
226.753	22920.9
226.825	22872.74
226.898	22868.69
226.971	22849.3
227.044	22833.49
227.117	22818.21
227.189	22791.69
227.262	22786.87
227.335	22772.21
227.407	22743.62
227.48	22718.89
227.553	22686.73
227.626	22645.07
227.698	22624.68
227.771	22606.21
227.844	22577.82
227.916	22555.4
227.989	22508.93
228.062	22481.3
228.134	22484.2
228.207	22445.24
228.28	22422.34
228.352	22396.17
228.425	22360.73
228.498	22344.58
228.57	22314.93
228.643	22296.95
228.716	22269.76
228.788	22215.29
228.861	22182.22
228.934	22177.98
229.006	22155.18
229.079	22134.98
229.151	22106.1
229.224	22057.7
229.296	22039.53
229.369	22039.87
229.442	22027.19
229.514	22004.15
229.587	21999.38
229.659	21949.1
229.732	21926.44
229.804	21913.52
229.877	21927.12
229.949	21912.27
230.022	21898.63
230.094	21868.36
230.167	21844.59
230.239	21816.4
230.312	21809.99
230.384	21809.79
230.457	21784.39
230.529	21769.4
230.602	21741.3
230.674	21727.95
230.747	21730.11
230.819	21716.14
230.892	21659.69
230.964	21625.95
231.037	21599.59
231.109	21572.11
231.181	21551.58
231.254	21511.33
231.326	21481.26
231.399	21436.14
231.471	21402.69
231.544	21354.78
231.616	21339.02
231.688	21321.28
231.761	21281.38
231.833	21246.91
231.905	21190.52
231.978	21163.92
232.05	21132.78
232.122	21102.61
232.195	21067.33
232.267	21046.8
232.339	21004.43
232.412	20994.89
232.484	20953.39
232.556	20931.8
232.629	20914.45
232.701	20903.8
232.773	20890.45
232.846	20856.81
232.918	20835.84
232.99	20806.98
233.062	20779.12
233.135	20750.78
233.207	20705.91
233.279	20690.01
233.351	20661.57
233.424	20626.44
233.496	20578.3
233.568	20564.99
233.64	20526.15
233.713	20494.2
233.785	20457.04
233.857	20442.05
233.929	20395.74
234.001	20391.5
234.074	20375.07
234.146	20325.43
234.218	20281.86
234.29	20252.13
234.362	20217.19
234.434	20163.65
234.507	20124.47
234.579	20077.86
234.651	20040.76
234.723	20013.87
234.795	19984.33
234.867	19946.35
234.939	19932.09
235.012	19902.83
235.084	19882.45
235.156	19855.66
235.228	19811.9
235.3	19776.53
235.372	19739.52
235.444	19719.85
235.516	19658.99
235.588	19632.97
235.66	19603.81
235.732	19557.89
235.804	19571.86
235.876	19550.85
235.948	19533.21
236.02	19500.64
236.092	19464.88
236.164	19425.94
236.236	19384.02
236.308	19335.25
236.38	19309.71
236.452	19269.81
236.524	19245.86
236.596	19208.56
236.668	19181.38
236.74	19145.81
236.812	19111.02
236.884	19081.82
236.956	19049.44
237.028	19018.59
237.1	18966.07
237.172	18940.38
237.244	18920.48
237.316	18845.16
237.388	18790.7
237.46	18745.4
237.532	18721.31
237.604	18688.3
237.675	18668.4
237.747	18640.64
237.819	18604.59
237.891	18564.93
237.963	18521.03
238.035	18470.62
238.107	18409.62
238.178	18384.27
238.25	18345.86
238.322	18339.64
238.394	18285.72
238.466	18239.22
238.538	18202.49
238.609	18172.95
238.681	18130.59
238.753	18088.62
238.825	18050.26
238.897	18033.68
238.968	18019.8
239.04	17977.97
239.112	17970.7
239.184	17927.85
239.255	17896.43
239.327	17875.9
239.399	17844
239.471	17820.05
239.542	17799.95
239.614	17776.44
239.686	17722.22
239.758	17706.61
239.829	17646.61
239.901	17628.83
239.973	17600.73
240.044	17571.09
240.116	17546.46
240.188	17505.6
240.259	17476.87
240.331	17438.13
240.403	17402.51
240.474	17348.3
240.546	17309.98
240.618	17255.38
240.689	17216.05
240.761	17183.72
240.833	17161.02
240.904	17129.02
240.976	17091.71
241.048	17061.79
241.119	17044.39
241.191	17013.49
241.262	16989.45
241.334	16956.67
241.405	16922.94
241.477	16876.28
241.549	16842.02
241.62	16803.22
241.692	16776.67
241.763	16755.65
241.835	16731.51
241.906	16698.73
241.978	16656.56
242.049	16639.11
242.121	16617.86
242.192	16598.73
242.264	16546.67
242.335	16496.45
242.407	16473.32
242.478	16440.35
242.55	16401.6
242.621	16351.43
242.693	16315.91
242.764	16274.6
242.836	16238.26
242.907	16205.68
242.979	16180.91
243.05	16160.95
243.122	16135.84
243.193	16108.42
243.264	16057.62
243.336	16012.69
243.407	15993.7
243.479	15979.39
243.55	15948.49
243.622	15923.38
243.693	15891.43
243.764	15879.67
243.836	15832.04
243.907	15793.82
243.978	15756.13
244.05	15736.08
244.121	15693.85
244.192	15677.22
244.264	15636.83
244.335	15610.9
244.407	15552.77
244.478	15523.32
244.549	15488.81
244.62	15442.15
244.692	15408.94
244.763	15378.09
244.834	15341.94
244.906	15294.94
244.977	15268.86
245.048	15256.96
245.119	15213
245.191	15170.14
245.262	15120.25
245.333	15116.4
245.405	15091.62
245.476	15069.79
245.547	15040.82
245.618	15020.23
245.689	14990.88
245.761	14968.22
245.832	14930.58
245.903	14922.19
245.974	14900.5
246.045	14863.24
246.117	14849.79
246.188	14806.88
246.259	14762.92
246.33	14736.36
246.401	14704.4
246.473	14657.45
246.544	14618.55
246.615	14604.76
246.686	14576.85
246.757	14561.72
246.828	14512.74
246.899	14488.69
246.97	14438.79
247.042	14396.86
247.113	14370.68
247.184	14355.16
247.255	14316.16
247.326	14290.71
247.397	14263.52
247.468	14241.44
247.539	14212.9
247.61	14173.9
247.681	14153.22
247.752	14145.03
247.823	14107.67
247.894	14089.5
247.965	14050.45
248.037	14017.43
248.108	13973.03
248.179	13950.23
248.25	13923.04
248.321	13908.39
248.392	13879.17
248.463	13882.26
248.534	13851.55
248.605	13845.33
248.675	13816.99
248.746	13802.09
248.817	13790.04
248.888	13769.74
248.959	13728.77
249.03	13714.45
249.101	13696.62
249.172	13665.57
249.243	13620.21
249.314	13614.04
249.385	13589.5
249.456	13580.73
249.527	13558.17
249.598	13542.06
249.669	13519.65
249.739	13502.49
249.81	13484.31
249.881	13441.41
249.952	13414.61
250.023	13389.2
250.094	13336.95
250.165	13305.71
250.235	13277.36
250.306	13252.39
250.377	13217.92
250.448	13200.91
250.519	13158.68
250.59	13142.29
250.66	13120.06
250.731	13114.09
250.802	13089.07
250.873	13065.11
250.944	13039.75
251.014	13002.25
251.085	12997.19
251.156	12978.34
251.227	12968.41
251.297	12958.67
251.368	12947.82
251.439	12935.82
251.51	12932.06
251.58	12901.26
251.651	12876.33
251.722	12867.95
251.792	12825.04
251.863	12801.52
251.934	12797.23
252.005	12801.09
252.075	12779.92
252.146	12765.94
252.217	12755.97
252.287	12744.49
252.358	12730.47
252.429	12732.1
252.499	12710.61
252.57	12692.58
252.641	12678.02
252.711	12648.9
252.782	12612.99
252.852	12614.82
252.923	12595.35
252.994	12582.57
253.064	12582.81
253.135	12552.49
253.205	12527.86
253.276	12523.38
253.347	12522.61
253.417	12485.15
253.488	12458.59
253.558	12437.77
253.629	12421.23
253.699	12408.99
253.77	12399.35
253.841	12373.65
253.911	12356.78
253.982	12339.86
254.052	12327.33
254.123	12310.8
254.193	12294.31
254.264	12313.79
254.334	12273.01
254.405	12238.4
254.475	12203.21
254.546	12177.08
254.616	12160.5
254.687	12142.23
254.757	12135.34
254.827	12105.17
254.898	12099
254.968	12086.37
255.039	12056.63
255.109	12042.65
255.18	12010.69
255.25	11967.26
255.321	11946.83
255.391	11912.55
255.461	11909.03
255.532	11863.53
255.602	11836.3
255.673	11794.08
255.743	11760.77
255.813	11730.21
255.884	11725.25
255.954	11712.33
256.024	11715.22
256.095	11708.43
256.165	11678.69
256.235	11661.72
256.306	11640.08
256.376	11635.69
256.446	11621.91
256.517	11609.18
256.587	11602.63
256.657	11590.87
256.728	11578.34
256.798	11575.3
256.868	11555.59
256.938	11532.17
257.009	11521.8
257.079	11517.37
257.149	11530.77
257.219	11490.33
257.29	11479.58
257.36	11438.19
257.43	11429.94
257.5	11387.2
257.571	11359.1
257.641	11343.05
257.711	11306.9
257.781	11298.13
257.852	11279.19
257.922	11239.62
257.992	11217.26
258.062	11199.28
258.132	11183.91
258.202	11166.8
258.273	11141.93
258.343	11149.93
258.413	11123.96
258.483	11106.66
258.553	11073.41
258.623	11050.18
258.693	11047.14
258.764	11043.77
258.834	11045.55
258.904	11031.67
258.974	11007.39
259.044	10989.89
259.114	10989.41
259.184	10980.54
259.254	10962.14
259.324	10920.5
259.394	10912.12
259.464	10919.87
259.535	10900.89
259.605	10886.33
259.675	10857.91
259.745	10849.42
259.815	10807.16
259.885	10788.37
259.955	10807.07
260.025	10784.04
260.095	10765.68
260.165	10750.59
260.235	10752.28
260.305	10726.7
260.375	10694.56
260.445	10704.77
260.515	10709.93
260.585	10703.52
260.655	10693.45
260.725	10688
260.795	10683.23
260.865	10688.82
260.934	10657.6
261.004	10644.68
261.074	10629.6
261.144	10626.76
261.214	10614.52
261.284	10607.63
261.354	10607.1
261.424	10576.02
261.494	10583.39
261.564	10564.6
261.634	10559.3
261.703	10522.29
261.773	10517.86
261.843	10514.54
261.913	10499.84
261.983	10466.64
262.053	10452.33
