Data from 20250704_urea_2M_MAYP1162681_12-01-59-522.txt Node
Date: Fri Jul 04 12:01:59 BST 2025
User: adleo
Spectrometer: MAYP116268
Trigger mode: 0
Integration Time (sec): 1.000000E0
Scans to average: 1
Electric dark correction enabled: true
Nonlinearity correction enabled: true
Boxcar width: 10
XAxis mode: Wavelengths
Number of Pixels in Spectrum: 2068
>>>>>Begin Spectral Data<<<<<
179.565	1269.51
179.642	1328.5
179.718	1378.26
179.795	1415.49
179.871	1450.15
179.948	1465.82
180.024	1488.75
180.101	1513.9
180.177	1529.36
180.254	1553.41
180.33	1574.83
180.407	1633
180.483	1733.19
180.56	1827.41
180.636	1915.06
180.712	1901.22
180.789	1912.58
180.865	1925.46
180.942	1934.97
181.018	1943.62
181.095	1956.89
181.171	1964.22
181.248	1965.41
181.324	1979.53
181.4	1988.57
181.477	1999.55
181.553	2018.24
181.63	2040.59
181.706	2057.53
181.782	2064.56
181.859	2064.13
181.935	2070.84
182.011	2069.08
182.088	2088.92
182.164	2110.57
182.24	2125.16
182.317	2138.53
182.393	2133.68
182.469	2150.23
182.546	2163.55
182.622	2168.12
182.698	2164.65
182.775	2174.21
182.851	2189.76
182.927	2181.72
183.003	2178.63
183.08	2172.12
183.156	2176.87
183.232	2171.88
183.308	2160.36
183.385	2169.87
183.461	2188.72
183.537	2193.05
183.613	2206.27
183.69	2194.71
183.766	2183.52
183.842	2191.04
183.918	2195.94
183.995	2212.4
184.071	2214.88
184.147	2207.88
184.223	2199.61
184.299	2210.31
184.375	2200.71
184.452	2209.51
184.528	2260.19
184.604	2271.33
184.68	2284.17
184.756	2292.64
184.832	2297.97
184.908	2301.25
184.985	2302.16
185.061	2285.46
185.137	2293.07
185.213	2281.79
185.289	2285.22
185.365	2277.47
185.441	2278.56
185.517	2292.13
185.593	2286.94
185.669	2281.61
185.745	2292.46
185.822	2308.92
185.898	2301.54
185.974	2311.87
186.05	2300.68
186.126	2267.42
186.202	2260.85
186.278	2256.71
186.354	2248
186.43	2257.71
186.506	2258.57
186.582	2256.38
186.658	2262.38
186.734	2241.01
186.81	2243.3
186.886	2242.06
186.962	2254.15
187.038	2250.39
187.114	2240.72
187.19	2246.1
187.266	2240.2
187.341	2242.91
187.417	2233.49
187.493	2232.87
187.569	2234.25
187.645	2227.59
187.721	2215.45
187.797	2220.26
187.873	2225.73
187.949	2221.21
188.025	2214.31
188.101	2215.12
188.176	2221.59
188.252	2217.5
188.328	2226.1
188.404	2227.25
188.48	2224.92
188.556	2218.73
188.632	2212.74
188.707	2213.64
188.783	2214.12
188.859	2206.6
188.935	2195.51
189.011	2204.74
189.086	2199.99
189.162	2193.56
189.238	2191.95
189.314	2187
189.39	2181.38
189.465	2172.82
189.541	2188.81
189.617	2171.3
189.693	2165.31
189.768	2167.88
189.844	2195.01
189.92	2187.02
189.996	2195.63
190.071	2206.62
190.147	2206.24
190.223	2219.8
190.298	2211.33
190.374	2199.44
190.45	2213.18
190.526	2221.85
190.601	2215.28
190.677	2216.23
190.753	2244.08
190.828	2249.13
190.904	2265.54
190.98	2282.53
191.055	2295.81
191.131	2285.05
191.207	2308.99
191.282	2318.7
191.358	2311.08
191.433	2295.65
191.509	2308.69
191.585	2304.12
191.66	2306.26
191.736	2314.02
191.811	2306.02
191.887	2325.92
191.963	2348.72
192.038	2353.1
192.114	2349.19
192.189	2352.91
192.265	2351.43
192.34	2329.86
192.416	2326.96
192.491	2322.72
192.567	2324.48
192.642	2324.58
192.718	2326.05
192.793	2309.58
192.869	2306.35
192.944	2306.92
193.02	2313.11
193.095	2319.01
193.171	2326.77
193.246	2327.53
193.322	2324.1
193.397	2324.82
193.473	2310.39
193.548	2289.07
193.624	2295.83
193.699	2296.06
193.775	2313.87
193.85	2314.77
193.925	2322.87
194.001	2322.25
194.076	2315.92
194.152	2308.49
194.227	2301.45
194.302	2296.12
194.378	2299.21
194.453	2297.4
194.529	2310.97
194.604	2297.83
194.679	2286.84
194.755	2265.29
194.83	2274.9
194.905	2274.1
194.981	2282.52
195.056	2273.57
195.131	2283.09
195.207	2280.52
195.282	2271.24
195.357	2249.68
195.433	2265.14
195.508	2253.34
195.583	2261.9
195.659	2277.04
195.734	2283.9
195.809	2283.9
195.884	2287.75
195.96	2288.42
196.035	2306.12
196.11	2303.69
196.185	2316.31
196.261	2323.97
196.336	2356.81
196.411	2341.38
196.486	2345.14
196.561	2337.33
196.637	2346.14
196.712	2361.23
196.787	2362.52
196.862	2380.41
196.937	2390.69
197.013	2397.93
197.088	2411.21
197.163	2434.07
197.238	2448.26
197.313	2445.79
197.388	2461.4
197.464	2496.65
197.539	2509.07
197.614	2499.55
197.689	2512.84
197.764	2527.89
197.839	2548.03
197.914	2538.79
197.989	2562.7
198.065	2578.6
198.14	2631.4
198.215	2659.55
198.29	2672.18
198.365	2688.9
198.44	2699.86
198.515	2730.49
198.59	2745.93
198.665	2770.56
198.74	2777.52
198.815	2779.52
198.89	2803.15
198.965	2833.71
199.04	2828.8
199.115	2842.62
199.19	2887.36
199.265	2890.65
199.34	2902.42
199.415	2936.47
199.49	2964.73
199.565	2973.73
199.64	2998.52
199.715	2995.28
199.79	3002.53
199.865	3011.11
199.94	3007.06
200.015	3038.24
200.09	3040.96
200.165	3047.92
200.24	3054.6
200.315	3099.94
200.39	3119.54
200.464	3126.36
200.539	3125.88
200.614	3141.9
200.689	3166.32
200.764	3175.91
200.839	3193.69
200.914	3197.93
200.989	3186.72
201.063	3195.98
201.138	3181.01
201.213	3181.35
201.288	3161.13
201.363	3168.04
201.438	3166.23
201.512	3187.87
201.587	3171.99
201.662	3178.76
201.737	3191.54
201.812	3199.56
201.886	3163.28
201.961	3169.43
202.036	3156.66
202.111	3154.8
202.186	3123.2
202.26	3107.03
202.335	3080.13
202.41	3073.02
202.485	3058.48
202.559	3038.84
202.634	3010.76
202.709	3020.62
202.784	3001.46
202.858	2999.31
202.933	2976.43
203.008	2970.32
203.082	2945.96
203.157	2944.49
203.232	2901.69
203.306	2877.71
203.381	2844.05
203.456	2817.64
203.53	2796.89
203.605	2777.32
203.68	2753.96
203.754	2747.62
203.829	2732.8
203.904	2715.84
203.978	2703.5
204.053	2701.93
204.127	2691.11
204.202	2694.92
204.277	2676.01
204.351	2667.2
204.426	2663
204.5	2654.67
204.575	2618.33
204.65	2628.1
204.724	2617.57
204.799	2622.85
204.873	2618.66
204.948	2618.18
205.022	2607.71
205.097	2597.41
205.171	2610.7
205.246	2617.99
205.32	2618.27
205.395	2618.61
205.469	2607.71
205.544	2612.38
205.618	2595.13
205.693	2605.66
205.767	2590.04
205.842	2615.15
205.916	2607.01
205.991	2598.24
206.065	2605.67
206.14	2622.14
206.214	2615.42
206.289	2607.94
206.363	2624.37
206.438	2626.66
206.512	2636.19
206.586	2656.34
206.661	2665.82
206.735	2644.78
206.81	2644.97
206.884	2660.25
206.958	2646.68
207.033	2664.59
207.107	2670.69
207.181	2705.76
207.256	2699.71
207.33	2720.52
207.405	2730.82
207.479	2751.74
207.553	2757.36
207.628	2740.79
207.702	2755.6
207.776	2753.89
207.851	2757.93
207.925	2771.24
207.999	2772.05
208.073	2766.95
208.148	2770.43
208.222	2756.84
208.296	2790.9
208.371	2805.96
208.445	2818.83
208.519	2851.52
208.593	2862.05
208.668	2859.52
208.742	2862.24
208.816	2863.53
208.89	2876.93
208.965	2873.11
209.039	2881.31
209.113	2901.04
209.187	2922.19
209.261	2916.23
209.336	2933.3
209.41	2954.89
209.484	2955.08
209.558	2975.3
209.632	2988.83
209.707	3002.85
209.781	3031.03
209.855	3044.76
209.929	3066.77
210.003	3074.25
210.077	3067.29
210.151	3117.55
210.226	3149.8
210.3	3179.02
210.374	3202.95
210.448	3209
210.522	3221.98
210.596	3236.53
210.67	3246.17
210.744	3293.26
210.818	3324.68
210.892	3349.35
210.966	3344.01
211.041	3361.28
211.115	3359.9
211.189	3389
211.263	3404.17
211.337	3408.85
211.411	3427.66
211.485	3424.7
211.559	3441.4
211.633	3453.51
211.707	3427.86
211.781	3446.49
211.855	3415.42
211.929	3414.61
212.003	3402.06
212.077	3422.31
212.151	3443.56
212.225	3462.03
212.299	3467.86
212.373	3473.35
212.447	3483.23
212.52	3532.17
212.594	3548.98
212.668	3579.01
212.742	3581.78
212.816	3597.15
212.89	3611.9
212.964	3636.61
213.038	3666.04
213.112	3709.29
213.186	3755.71
213.26	3765.49
213.333	3746.2
213.407	3789.03
213.481	3831.95
213.555	3885.19
213.629	3915.64
213.703	3948.49
213.777	4000.03
213.85	4025.08
213.924	4116.21
213.998	4172.55
214.072	4227.45
214.146	4277.71
214.219	4337.08
214.293	4401.55
214.367	4475.33
214.441	4560.7
214.515	4630.22
214.588	4689.39
214.662	4733.44
214.736	4795.25
214.81	4889.9
214.883	4998.45
214.957	5084.59
215.031	5170.41
215.105	5248.84
215.178	5338.13
215.252	5434.67
215.326	5517.56
215.4	5612.7
215.473	5672.29
215.547	5766.4
215.621	5868.3
215.694	6000.27
215.768	6102.76
215.842	6214.57
215.915	6326.38
215.989	6431.35
216.063	6546.47
216.136	6671.87
216.21	6805.23
216.284	6956.9
216.357	7100.32
216.431	7236.03
216.504	7382.47
216.578	7551.36
216.652	7701.55
216.725	7847.54
216.799	8000.84
216.873	8145.07
216.946	8303.65
217.02	8440.16
217.093	8587.44
217.167	8717.53
217.24	8849.62
217.314	8991.4
217.387	9136.13
217.461	9284.08
217.535	9449.38
217.608	9587.28
217.682	9741.78
217.755	9900.08
217.829	10044.69
217.902	10192.38
217.976	10344.65
218.049	10484.32
218.123	10610.65
218.196	10763.48
218.27	10904.75
218.343	11032.21
218.417	11185.98
218.49	11333.45
218.563	11510.5
218.637	11660.29
218.71	11824.16
218.784	11978.11
218.857	12134.22
218.931	12285.32
219.004	12427.95
219.077	12569.95
219.151	12712.39
219.224	12839.99
219.298	12979.83
219.371	13125.69
219.444	13244.18
219.518	13372.26
219.591	13513.02
219.665	13678.51
219.738	13823.7
219.811	13944.22
219.885	14087.53
219.958	14222.55
220.031	14345.67
220.105	14478.52
220.178	14600.67
220.251	14713.47
220.325	14841.11
220.398	14964.75
220.471	15084.63
220.544	15205.77
220.618	15307.72
220.691	15433.33
220.764	15547.52
220.838	15660.84
220.911	15752.9
220.984	15886.56
221.057	16005.38
221.131	16108.09
221.204	16173.54
221.277	16277.5
221.35	16408.07
221.424	16499.79
221.497	16594.98
221.57	16682.7
221.643	16763.38
221.716	16866.8
221.79	16943.87
221.863	17021.75
221.936	17103.49
222.009	17183.15
222.082	17273.66
222.155	17352.31
222.229	17437.42
222.302	17523.3
222.375	17589.33
222.448	17665.47
222.521	17729.23
222.594	17789.42
222.667	17846.63
222.74	17924.6
222.814	17983.59
222.887	18039.1
222.96	18105.89
223.033	18165.36
223.106	18236.25
223.179	18301.93
223.252	18358.32
223.325	18426.36
223.398	18478.36
223.471	18527.95
223.544	18583.56
223.617	18628.52
223.69	18686.83
223.763	18726.25
223.837	18773.28
223.91	18829.33
223.983	18862.14
224.056	18892.41
224.129	18936.41
224.202	18982.81
224.275	19020.21
224.348	19048.01
224.42	19074.37
224.493	19098.61
224.566	19130.13
224.639	19161.4
224.712	19190.12
224.785	19214.8
224.858	19233.69
224.931	19253.25
225.004	19278.12
225.077	19296.58
225.15	19293.68
225.223	19312.38
225.296	19357.44
225.369	19360.38
225.442	19372.76
225.514	19393.58
225.587	19414.11
225.66	19437.43
225.733	19460.13
225.806	19474.78
225.879	19496.66
225.952	19499.7
226.025	19520.76
226.097	19544.8
226.17	19558.44
226.243	19542.87
226.316	19552.51
226.389	19567.55
226.461	19589.62
226.534	19612.8
226.607	19636.12
226.68	19673.47
226.753	19680.36
226.825	19665.04
226.898	19699.16
226.971	19705.66
227.044	19731.59
227.117	19746.09
227.189	19754.48
227.262	19768.5
227.335	19782.52
227.407	19785.37
227.48	19807.68
227.553	19820.35
227.626	19812.11
227.698	19814.23
227.771	19833.41
227.844	19827.34
227.916	19831.44
227.989	19820.4
228.062	19813.7
228.134	19829.22
228.207	19830.04
228.28	19825.41
228.352	19818.38
228.425	19817.56
228.498	19836.84
228.57	19813.7
228.643	19823
228.716	19822.28
228.788	19817.61
228.861	19804.21
228.934	19810.33
229.006	19805.17
229.079	19792.69
229.151	19796.79
229.224	19778.57
229.296	19780.4
229.369	19808.6
229.442	19820.31
229.514	19814.33
229.587	19827.63
229.659	19803.97
229.732	19797.13
229.804	19809.8
229.877	19837.9
229.949	19839.44
230.022	19838.96
230.094	19844.35
230.167	19851.29
230.239	19836.79
230.312	19823.87
230.384	19848.31
230.457	19849.22
230.529	19842.96
230.602	19843.44
230.674	19835.15
230.747	19848.4
230.819	19855.82
230.892	19810.52
230.964	19801.51
231.037	19797.22
231.109	19771.3
231.181	19774.04
231.254	19753.56
231.326	19731.54
231.399	19703.97
231.471	19683.54
231.544	19656.27
231.616	19655.4
231.688	19636.56
231.761	19616.22
231.833	19611.93
231.905	19579.64
231.978	19561.38
232.05	19545.57
232.122	19535.45
232.195	19516.85
232.267	19510.01
232.339	19479.7
232.412	19487.26
232.484	19468.18
232.556	19438.83
232.629	19451.55
232.701	19449.67
232.773	19445.34
232.846	19434.78
232.918	19434.35
232.99	19423.51
233.062	19414.01
233.135	19396.76
233.207	19374.5
233.279	19373.44
233.351	19358.64
233.424	19338.45
233.496	19316.19
233.568	19320.14
233.64	19289.49
233.713	19263.85
233.785	19243.76
233.857	19241.4
233.929	19210.51
234.001	19203.91
234.074	19213.26
234.146	19181.21
234.218	19149.64
234.29	19129.02
234.362	19102.71
234.434	19054.71
234.507	19023.39
234.579	18999.63
234.651	18980.4
234.723	18969.42
234.795	18948.02
234.867	18922.29
234.939	18911.59
235.012	18887.93
235.084	18869.9
235.156	18867.88
235.228	18850.48
235.3	18831.69
235.372	18798.44
235.444	18791.16
235.516	18753.81
235.588	18726.54
235.66	18702.93
235.732	18669.63
235.804	18705.43
235.876	18695.07
235.948	18697.19
236.02	18673.58
236.092	18644.42
236.164	18621.82
236.236	18594.35
236.308	18570.16
236.38	18560.91
236.452	18526.74
236.524	18505.44
236.596	18503.95
236.668	18481.35
236.74	18457.11
236.812	18434.07
236.884	18418.22
236.956	18389.11
237.028	18349.6
237.1	18318.8
237.172	18311.62
237.244	18313.07
237.316	18247.91
237.388	18219.1
237.46	18186.33
237.532	18182.52
237.604	18149.12
237.675	18138.04
237.747	18109.75
237.819	18076.93
237.891	18042.48
237.963	18012.6
238.035	17987.01
238.107	17910.87
238.178	17892.84
238.25	17873.71
238.322	17875.83
238.394	17836.27
238.466	17804.51
238.538	17795.54
238.609	17778.68
238.681	17727.11
238.753	17680.37
238.825	17650.54
238.897	17629.96
238.968	17622.92
239.04	17587.02
239.112	17592.46
239.184	17560.56
239.255	17530.1
239.327	17518.68
239.399	17496.03
239.471	17473.67
239.542	17454.63
239.614	17452.95
239.686	17395.79
239.758	17373.72
239.829	17322.06
239.901	17309.28
239.973	17284.95
240.044	17264.42
240.116	17240.42
240.188	17214.25
240.259	17195.07
240.331	17162.05
240.403	17136.85
240.474	17086.97
240.546	17047.74
240.618	16992.17
240.689	16954.67
240.761	16940.6
240.833	16922.77
240.904	16884.84
240.976	16866.33
241.048	16840.89
241.119	16817.95
241.191	16796.4
241.262	16786.96
241.334	16759.77
241.405	16732.5
241.477	16700.16
241.549	16659.62
241.62	16628.54
241.692	16608.82
241.763	16590.8
241.835	16569.88
241.906	16537.25
241.978	16501.83
242.049	16484.33
242.121	16470.84
242.192	16446.88
242.264	16392.08
242.335	16336.66
242.407	16320.03
242.478	16278.48
242.55	16252.12
242.621	16209.85
242.693	16187.29
242.764	16151.67
242.836	16124.1
242.907	16088.68
242.979	16066.12
243.05	16050.51
243.122	16027.42
243.193	15999.32
243.264	15948.13
243.336	15911.31
243.407	15897.38
243.479	15881.67
243.55	15858.53
243.622	15828.98
243.693	15810.57
243.764	15812.16
243.836	15780.88
243.907	15747.57
243.978	15728.73
244.05	15711.13
244.121	15668.33
244.192	15652.52
244.264	15610.3
244.335	15576.41
244.407	15540.79
244.478	15516.31
244.549	15477.26
244.62	15428.72
244.692	15395.75
244.763	15373.34
244.834	15343.94
244.906	15309.14
244.977	15288.17
245.048	15283.4
245.119	15253.08
245.191	15205.26
245.262	15145.39
245.333	15136.19
245.405	15104.37
245.476	15083.64
245.547	15048.46
245.618	15029.03
245.689	14992.73
245.761	14972.44
245.832	14952.15
245.903	14935.71
245.974	14907.75
246.045	14882.4
246.117	14881.05
246.188	14846.39
246.259	14812.69
246.33	14776.92
246.401	14739.47
246.473	14690.4
246.544	14643.5
246.615	14625.66
246.686	14606.04
246.757	14591.53
246.828	14555.28
246.899	14552.39
246.97	14501.15
247.042	14459.31
247.113	14446.87
247.184	14447.4
247.255	14412.79
247.326	14379.04
247.397	14344.43
247.468	14327.08
247.539	14298.64
247.61	14253.95
247.681	14239.1
247.752	14224.59
247.823	14190.27
247.894	14170.36
247.965	14142.74
248.037	14115.36
248.108	14070.96
248.179	14039.87
248.25	14016.68
248.321	14002.36
248.392	13962.74
248.463	13962.26
248.534	13947.46
248.605	13925.91
248.675	13891.49
248.746	13870.38
248.817	13846.8
248.888	13824
248.959	13774.54
249.03	13762.01
249.101	13742.92
249.172	13712.26
249.243	13673.31
249.314	13671.33
249.385	13649.2
249.456	13631.37
249.527	13602.54
249.598	13589.57
249.669	13565.57
249.739	13550.96
249.81	13525.07
249.881	13482.36
249.952	13455.8
250.023	13428.85
250.094	13389.85
250.165	13360.3
250.235	13333.35
250.306	13318.75
250.377	13284.18
250.448	13267.46
250.519	13218.48
250.59	13206.76
250.66	13175.19
250.731	13166.37
250.802	13136.53
250.873	13121.25
250.944	13101.58
251.014	13068.94
251.085	13068.89
251.156	13053.52
251.227	13045.37
251.297	13031.73
251.368	13024.79
251.439	13020.98
251.51	13010.08
251.58	12970.7
251.651	12941.68
251.722	12937.39
251.792	12889.57
251.863	12870
251.934	12870.96
252.005	12884.12
252.075	12863.3
252.146	12857.13
252.217	12847.39
252.287	12839.63
252.358	12809.88
252.429	12810.61
252.499	12793.21
252.57	12771.32
252.641	12757.87
252.711	12733.86
252.782	12698.72
252.852	12694.87
252.923	12661.6
252.994	12638.18
253.064	12636.39
253.135	12603.9
253.205	12580.72
253.276	12588.67
253.347	12591.61
253.417	12554.4
253.488	12526.73
253.558	12503.25
253.629	12479.54
253.699	12464.83
253.77	12452.06
253.841	12430.46
253.911	12409.01
253.982	12393.15
254.052	12386.6
254.123	12368.18
254.193	12346.59
254.264	12373.82
254.334	12342.68
254.405	12316.32
254.475	12290.72
254.546	12272.45
254.616	12271.44
254.687	12244.93
254.757	12229.6
254.827	12208.1
254.898	12200.63
254.968	12189.3
255.039	12166.26
255.109	12153.68
255.18	12121.1
255.25	12076.51
255.321	12062.63
255.391	12032.55
255.461	12035.73
255.532	11976.83
255.602	11953.89
255.673	11912.24
255.743	11873.77
255.813	11833.43
255.884	11821.43
255.954	11812.75
256.024	11814.35
256.095	11797.67
256.165	11773.52
256.235	11759.73
256.306	11732.36
256.376	11720.45
256.446	11709.7
256.517	11692.74
256.587	11689.03
256.657	11676.35
256.728	11666.42
256.798	11653.07
256.868	11625.41
256.938	11594.03
257.009	11591.28
257.079	11586.03
257.149	11598.08
257.219	11559.33
257.29	11548.29
257.36	11509.45
257.43	11497.59
257.5	11460.14
257.571	11432.09
257.641	11429.82
257.711	11396.91
257.781	11388.42
257.852	11380.61
257.922	11337.34
257.992	11320.32
258.062	11300.08
258.132	11292.03
258.202	11273.14
258.273	11256.66
258.343	11265.43
258.413	11242.06
258.483	11225.62
258.553	11198.39
258.623	11168.03
258.693	11161.72
258.764	11168.32
258.834	11173.43
258.904	11160.12
258.974	11133.09
259.044	11116.71
259.114	11096.8
259.184	11087.12
259.254	11067.02
259.324	11026.64
259.394	11017.58
259.464	11017.53
259.535	10998.2
259.605	10971.51
259.675	10946.45
259.745	10937.39
259.815	10906.45
259.885	10886.07
259.955	10898.74
260.025	10873.59
260.095	10857.74
260.165	10846.41
260.235	10844.29
260.305	10810.51
260.375	10783.14
260.445	10791.91
260.515	10792.78
260.585	10783.72
260.655	10763.77
260.725	10757.31
260.795	10747.68
260.865	10760.3
260.934	10735.53
261.004	10726.76
261.074	10707.88
261.144	10714.19
261.214	10701.42
261.284	10679.93
261.354	10677.04
261.424	10653.67
261.494	10654
261.564	10638.92
261.634	10629
261.703	10590.98
261.773	10595.07
261.843	10586.59
261.913	10568.57
261.983	10531.57
262.053	10526.32
262.123	10506.08
262.192	10478.23
262.262	10479.44
262.332	10439.78
262.402	10429.33
