Data from 20250704_urea_0.1M_MAYP1162681_11-22-27-677.txt Node
Date: Fri Jul 04 11:22:27 BST 2025
User: adleo
Spectrometer: MAYP116268
Trigger mode: 0
Integration Time (sec): 1.000000E0
Scans to average: 1
Electric dark correction enabled: true
Nonlinearity correction enabled: true
Boxcar width: 10
XAxis mode: Wavelengths
Number of Pixels in Spectrum: 2068
>>>>>Begin Spectral Data<<<<<
179.565	1239.76
179.642	1302.13
179.718	1344.15
179.795	1386.16
179.871	1422.84
179.948	1441.33
180.024	1462.22
180.101	1486
180.177	1500.56
180.254	1526.14
180.33	1549.33
180.407	1605.88
180.483	1703.13
180.56	1796.25
180.636	1883.38
180.712	1870.06
180.789	1881.71
180.865	1893.21
180.942	1903.62
181.018	1913.22
181.095	1928.11
181.171	1933.67
181.248	1934.19
181.324	1951.31
181.4	1956.4
181.477	1965.48
181.553	1981.31
181.63	2004.33
181.706	2019.79
181.782	2028.77
181.859	2027.3
181.935	2032.24
182.011	2027.82
182.088	2047.8
182.164	2066.54
182.24	2079.66
182.317	2089.98
182.393	2087.37
182.469	2102.25
182.546	2118.28
182.622	2125.27
182.698	2119.9
182.775	2131.98
182.851	2145.21
182.927	2139.16
183.003	2135.5
183.08	2132.36
183.156	2140.93
183.232	2133.17
183.308	2121.33
183.385	2128.41
183.461	2146.21
183.537	2148.06
183.613	2161.9
183.69	2150.25
183.766	2142.54
183.842	2151.96
183.918	2160.38
183.995	2174.98
184.071	2177.7
184.147	2173.03
184.223	2161.15
184.299	2170.95
184.375	2162.57
184.452	2169.76
184.528	2220.49
184.604	2229.43
184.68	2238.28
184.756	2244.7
184.832	2254.79
184.908	2261.73
184.985	2264.21
185.061	2247.22
185.137	2255.5
185.213	2244.37
185.289	2247.13
185.365	2237.23
185.441	2234.43
185.517	2241.42
185.593	2239.47
185.669	2240.28
185.745	2247.18
185.822	2264.16
185.898	2258.07
185.974	2264.59
186.05	2257.26
186.126	2221.42
186.202	2218.38
186.278	2213.91
186.354	2204.82
186.43	2207.53
186.506	2202.54
186.582	2198.26
186.658	2202.63
186.734	2182.04
186.81	2184.56
186.886	2186.93
186.962	2199.49
187.038	2198.68
187.114	2191.97
187.19	2194.92
187.266	2183.46
187.341	2185.12
187.417	2177.04
187.493	2175.23
187.569	2179.23
187.645	2173.28
187.721	2160.33
187.797	2166.14
187.873	2173.13
187.949	2166.62
188.025	2162.38
188.101	2169.23
188.176	2175.94
188.252	2175.46
188.328	2184.12
188.404	2185.21
188.48	2180.5
188.556	2175.46
188.632	2173.03
188.707	2178.17
188.783	2177.41
188.859	2171.94
188.935	2160.09
189.011	2168.75
189.086	2167.04
189.162	2158.62
189.238	2152.39
189.314	2151.67
189.39	2145.82
189.465	2136.88
189.541	2151.34
189.617	2133.07
189.693	2129.03
189.768	2132.74
189.844	2157.64
189.92	2148.79
189.996	2156.98
190.071	2167.3
190.147	2167.87
190.223	2175.39
190.298	2165.73
190.374	2152.12
190.45	2166.01
190.526	2177.95
190.601	2172.43
190.677	2172.96
190.753	2197.76
190.828	2201.37
190.904	2213.51
190.98	2227.49
191.055	2238.44
191.131	2231.82
191.207	2255.23
191.282	2262.46
191.358	2254.23
191.433	2238.04
191.509	2252.07
191.585	2248.69
191.66	2250.07
191.736	2254.64
191.811	2246.41
191.887	2265.55
191.963	2291.53
192.038	2297.19
192.114	2294.67
192.189	2300.05
192.265	2295.72
192.34	2276.3
192.416	2277.68
192.491	2277.87
192.567	2283.63
192.642	2283.53
192.718	2282.82
192.793	2268.4
192.869	2265.78
192.944	2268.59
193.02	2278.06
193.095	2284.63
193.171	2289.86
193.246	2288.96
193.322	2288.82
193.397	2291.43
193.473	2274.39
193.548	2253.68
193.624	2257.21
193.699	2258.83
193.775	2274.92
193.85	2276.49
193.925	2289
194.001	2287.67
194.076	2279.63
194.152	2268.11
194.227	2259.83
194.302	2250.98
194.378	2255.36
194.453	2251.84
194.529	2261.6
194.604	2245.65
194.679	2236.8
194.755	2217.77
194.83	2230.72
194.905	2228.96
194.981	2236.86
195.056	2229.16
195.131	2235.1
195.207	2232.96
195.282	2220.02
195.357	2198.98
195.433	2214.78
195.508	2199.31
195.583	2207.25
195.659	2222.63
195.734	2229.05
195.809	2230.77
195.884	2240.42
195.96	2244.09
196.035	2261.22
196.11	2257.12
196.185	2267.88
196.261	2273.3
196.336	2304.52
196.411	2291.14
196.486	2296.66
196.561	2292.33
196.637	2301.18
196.712	2317.27
196.787	2321.79
196.862	2338.26
196.937	2348.73
197.013	2354.15
197.088	2362.96
197.163	2388.24
197.238	2403.01
197.313	2405.44
197.388	2420.2
197.464	2451.72
197.539	2459.96
197.614	2449.72
197.689	2464.43
197.764	2483.01
197.839	2501.38
197.914	2495.91
197.989	2518.34
198.065	2529.48
198.14	2576.56
198.215	2604.08
198.29	2618.42
198.365	2630.43
198.44	2642.09
198.515	2672.11
198.59	2687.59
198.665	2715.12
198.74	2720.17
198.815	2720.84
198.89	2744.04
198.965	2778.17
199.04	2773.74
199.115	2789.55
199.19	2833.33
199.265	2838.53
199.34	2848.01
199.415	2882.43
199.49	2906.64
199.565	2917.46
199.64	2942.57
199.715	2944.15
199.79	2954.35
199.865	2959.07
199.94	2959.74
200.015	2990.44
200.09	2994.3
200.165	3000.79
200.24	3009.22
200.315	3052.6
200.39	3067.91
200.464	3072.06
200.539	3071.05
200.614	3087.45
200.689	3114.59
200.764	3123.8
200.839	3140.95
200.914	3148.15
200.989	3135.32
201.063	3146.1
201.138	3124.85
201.213	3125.94
201.288	3105.06
201.363	3110.21
201.438	3109.49
201.512	3127.94
201.587	3108.96
201.662	3110.96
201.737	3126.61
201.812	3137.91
201.886	3101.3
201.961	3115.05
202.036	3103.37
202.111	3101.79
202.186	3072.49
202.26	3054.46
202.335	3033.99
202.41	3029.99
202.485	3014.26
202.559	2997.38
202.634	2976.45
202.709	2994.56
202.784	2980.35
202.858	2984.31
202.933	2968.19
203.008	2969.81
203.082	2954.94
203.157	2963.71
203.232	2933.35
203.306	2918.28
203.381	2893.68
203.456	2883.19
203.53	2871.21
203.605	2864.73
203.68	2854
203.754	2865.86
203.829	2869.2
203.904	2868.91
203.978	2879.31
204.053	2903.44
204.127	2915.69
204.202	2940.58
204.277	2949.54
204.351	2970.71
204.426	2993.8
204.5	3018.6
204.575	3021.79
204.65	3070.61
204.724	3106.74
204.799	3156.09
204.873	3199.38
204.948	3243.9
205.022	3282.82
205.097	3330.92
205.171	3405.13
205.246	3477.49
205.32	3541.11
205.395	3609.51
205.469	3669.24
205.544	3747.23
205.618	3807.73
205.693	3905.51
205.767	3977.35
205.842	4083.35
205.916	4171.32
205.991	4259.51
206.065	4368.73
206.14	4484.89
206.214	4583.71
206.289	4686.42
206.363	4808.68
206.438	4925.64
206.512	5058.57
206.586	5199.77
206.661	5329.68
206.735	5435.63
206.81	5570.54
206.884	5721.28
206.958	5851.97
207.033	6010.94
207.107	6165.71
207.181	6342.67
207.256	6482.33
207.33	6653.82
207.405	6824.23
207.479	6996.72
207.553	7162.99
207.628	7308.58
207.702	7486.74
207.776	7647.64
207.851	7810.48
207.925	8001.52
207.999	8176.74
208.073	8349.55
208.148	8534.37
208.222	8703.38
208.296	8917.46
208.371	9108.54
208.445	9310.17
208.519	9511.27
208.593	9709.56
208.668	9888.87
208.742	10082.95
208.816	10274.98
208.89	10473.31
208.965	10658.05
209.039	10853.37
209.113	11059.11
209.187	11263.35
209.261	11447.38
209.336	11662.41
209.41	11875.66
209.484	12067.01
209.558	12279.9
209.632	12480.26
209.707	12676.53
209.781	12886.06
209.855	13087.99
209.929	13291.74
210.003	13485.28
210.077	13676.12
210.151	13908.22
210.226	14132.37
210.3	14342.68
210.374	14537.81
210.448	14726.52
210.522	14917.41
210.596	15111.47
210.67	15301.29
210.744	15525.43
210.818	15740.83
210.892	15931.51
210.966	16109.66
211.041	16295.46
211.115	16455.82
211.189	16645.67
211.263	16840.38
211.337	17014.85
211.411	17195.2
211.485	17351.83
211.559	17514.63
211.633	17682.68
211.707	17817.81
211.781	17983.64
211.855	18105.42
211.929	18262.38
212.003	18398.42
212.077	18567.48
212.151	18733.69
212.225	18888.77
212.299	19034.84
212.373	19161.62
212.447	19297.28
212.52	19462.58
212.594	19596.89
212.668	19754.52
212.742	19878.81
212.816	19996.01
212.89	20124.39
212.964	20250.37
213.038	20394.32
213.112	20537.27
213.186	20679.29
213.26	20774.86
213.333	20852.26
213.407	20983.6
213.481	21119.03
213.555	21254.89
213.629	21344.88
213.703	21451.79
213.777	21571.23
213.85	21668.17
213.924	21808.05
213.998	21913.42
214.072	22011.33
214.146	22109.62
214.219	22210.08
214.293	22317.53
214.367	22423.93
214.441	22532.79
214.515	22625.54
214.588	22699.55
214.662	22761.45
214.736	22834.88
214.81	22942.34
214.883	23036.84
214.957	23113.36
215.031	23179.22
215.105	23245.08
215.178	23324.55
215.252	23396.45
215.326	23452.58
215.4	23504.27
215.473	23544.59
215.547	23607.86
215.621	23671.19
215.694	23754.96
215.768	23807.05
215.842	23855.85
215.915	23910.69
215.989	23949.86
216.063	24008.27
216.136	24061.13
216.21	24122.63
216.284	24195.22
216.357	24246.55
216.431	24300.57
216.504	24365.11
216.578	24455.18
216.652	24524.31
216.725	24580.95
216.799	24645.26
216.873	24688.63
216.946	24751.39
217.02	24792.06
217.093	24838.76
217.167	24862.98
217.24	24890.97
217.314	24936.08
217.387	24979.02
217.461	25008.26
217.535	25072.53
217.608	25099.64
217.682	25154.65
217.755	25213.72
217.829	25246.49
217.902	25298.99
217.976	25337.31
218.049	25362.3
218.123	25376.73
218.196	25412.3
218.27	25454.87
218.343	25463.46
218.417	25517.37
218.49	25544.25
218.563	25591.55
218.637	25631.32
218.71	25690.15
218.784	25737.36
218.857	25775.83
218.931	25811.3
219.004	25858.79
219.077	25892.97
219.151	25936.8
219.224	25967.31
219.298	25989.03
219.371	26026.64
219.444	26028.76
219.518	26066.99
219.591	26093.54
219.665	26151.24
219.738	26170.74
219.811	26176.39
219.885	26216.36
219.958	26243.31
220.031	26273.67
220.105	26317.08
220.178	26342.09
220.251	26357.73
220.325	26388.05
220.398	26408.91
220.471	26434.3
220.544	26468.97
220.618	26486.94
220.691	26500.17
220.764	26514.89
220.838	26538.51
220.911	26550.87
220.984	26595.33
221.057	26618.13
221.131	26645.99
221.204	26625.12
221.277	26664.19
221.35	26712.91
221.424	26719.43
221.497	26717.84
221.57	26729.71
221.643	26731.21
221.716	26745.22
221.79	26754.58
221.863	26756.32
221.936	26767.33
222.009	26763.52
222.082	26763.86
222.155	26759.03
222.229	26785.44
222.302	26796.45
222.375	26788.87
222.448	26793.07
222.521	26795.73
222.594	26782.06
222.667	26775.25
222.74	26783.56
222.814	26776.94
222.887	26764.82
222.96	26767.67
223.033	26787.71
223.106	26786.07
223.179	26784.52
223.252	26771.05
223.325	26762.5
223.398	26748.31
223.471	26734.5
223.544	26737.83
223.617	26732.66
223.69	26723.68
223.763	26702.38
223.837	26686.35
223.91	26694.36
223.983	26664.43
224.056	26636.32
224.129	26631.79
224.202	26627.49
224.275	26612.04
224.348	26582.34
224.42	26549.46
224.493	26518.84
224.566	26487.17
224.639	26482.48
224.712	26471.57
224.785	26464.23
224.858	26443.85
224.931	26427.68
225.004	26404.36
225.077	26388.62
225.15	26338.99
225.223	26321.32
225.296	26323.78
225.369	26282.6
225.442	26249.91
225.514	26234.56
225.587	26213.61
225.66	26198.84
225.733	26175.42
225.806	26147.23
225.879	26126.28
225.952	26094.9
226.025	26088.68
226.097	26079.94
226.17	26049.62
226.243	25997.77
226.316	25976.43
226.389	25950.66
226.461	25921.06
226.534	25902.14
226.607	25875.16
226.68	25880.76
226.753	25857.4
226.825	25801.25
226.898	25802.12
226.971	25770.51
227.044	25749.22
227.117	25728.23
227.189	25695.74
227.262	25671.85
227.335	25645.16
227.407	25607.23
227.48	25602.35
227.553	25570.16
227.626	25535.41
227.698	25504.95
227.771	25483.38
227.844	25431.31
227.916	25412.87
227.989	25374.32
228.062	25335.81
228.134	25315.35
228.207	25279.25
228.28	25239.82
228.352	25207.39
228.425	25165.65
228.498	25147.94
228.57	25115.03
228.643	25096.7
228.716	25053.46
228.788	25016.5
228.861	24985.33
228.934	24973.51
229.006	24928.73
229.079	24901.42
229.151	24867.21
229.224	24824.51
229.296	24797.45
229.369	24807.05
229.442	24782.39
229.514	24746.93
229.587	24731.4
229.659	24684.31
229.732	24645.04
229.804	24620.97
229.877	24621.11
229.949	24605.34
230.022	24595.78
230.094	24566.36
230.167	24539.73
230.239	24510.3
230.312	24481.07
230.384	24471.18
230.457	24440.4
230.529	24413.53
230.602	24379.38
230.674	24346.48
230.747	24323.91
230.819	24304.81
230.892	24234.91
230.964	24210.35
231.037	24184.94
231.109	24143.07
231.181	24123.83
231.254	24091.61
231.326	24063.49
231.399	24022.39
231.471	23975.03
231.544	23918.93
231.616	23879.67
231.688	23834.48
231.761	23787.12
231.833	23752.16
231.905	23702.43
231.978	23671.9
232.05	23626.81
232.122	23594.74
232.195	23555.82
232.267	23531.37
232.339	23488.88
232.412	23477.26
232.484	23428.36
232.556	23386.17
232.629	23378.45
232.701	23342.48
232.773	23294.7
232.846	23238.04
232.918	23196.13
232.99	23159.68
233.062	23125.88
233.135	23103.31
233.207	23060.11
233.279	23038.99
233.351	22996.9
233.424	22948.11
233.496	22895.55
233.568	22885.81
233.64	22838.61
233.713	22799.84
233.785	22758.48
233.857	22720
233.929	22670.68
234.001	22650.57
234.074	22633.79
234.146	22571.26
234.218	22538.38
234.29	22504.15
234.362	22470.31
234.434	22412.32
234.507	22370.14
234.579	22310.12
234.651	22265.86
234.723	22232.5
234.795	22195.38
234.867	22162.22
234.939	22143.66
235.012	22115.46
235.084	22080.89
235.156	22043.39
235.228	21994.75
235.3	21943.27
235.372	21903.55
235.444	21866.58
235.516	21804.49
235.588	21762.89
235.66	21721.39
235.732	21666.58
235.804	21685.77
235.876	21661.91
235.948	21642.63
236.02	21604.21
236.092	21561.61
236.164	21509.84
236.236	21465.79
236.308	21423.42
236.38	21383.51
236.452	21331.41
236.524	21283.07
236.596	21255.74
236.668	21222.24
236.74	21185.47
236.812	21145.95
236.884	21120.88
236.956	21074.66
237.028	21012.11
237.1	20954.27
237.172	20936.92
237.244	20920.68
237.316	20838.21
237.388	20777.68
237.46	20730.06
237.532	20700.37
237.604	20652.76
237.675	20627.65
237.747	20593.24
237.819	20543.26
237.891	20495.17
237.963	20443.6
238.035	20393.53
238.107	20308.51
238.178	20279.89
238.25	20239.46
238.322	20222.54
238.394	20146.15
238.466	20102.54
238.538	20077
238.609	20046.88
238.681	19975.89
238.753	19912.86
238.825	19876.57
238.897	19844.77
238.968	19812.28
239.04	19760.48
239.112	19753.3
239.184	19699.42
239.255	19649.06
239.327	19617.74
239.399	19584.78
239.471	19548.83
239.542	19517.79
239.614	19497.41
239.686	19428.01
239.758	19403.68
239.829	19353.46
239.901	19334.14
239.973	19287.73
240.044	19255.06
240.116	19214.82
240.188	19173.67
240.259	19134.73
240.331	19080.42
240.403	19042.64
240.474	18988.62
240.546	18934.6
240.618	18864.63
240.689	18822.07
240.761	18779.76
240.833	18754.66
240.904	18709.02
240.976	18671.67
241.048	18628.4
241.119	18590.67
241.191	18555.15
241.262	18519.54
241.334	18468.36
241.405	18418.82
241.477	18374.1
241.549	18324.9
241.62	18278.35
241.692	18246.06
241.763	18213
241.835	18168.66
241.906	18128.57
241.978	18074.69
242.049	18057.97
242.121	18033.25
242.192	18002.79
242.264	17957.59
242.335	17894.36
242.407	17859.61
242.478	17804.58
242.55	17764.1
242.621	17705.16
242.693	17659.04
242.764	17609.79
242.836	17569.36
242.907	17543.33
242.979	17507.67
243.05	17469.12
243.122	17435.81
243.193	17399.62
243.264	17343.91
243.336	17311.04
243.407	17273.5
243.479	17246.9
243.55	17207.19
243.622	17174.99
243.693	17133.35
243.764	17117.98
243.836	17071.09
243.907	17030.17
243.978	16994.12
244.05	16965.97
244.121	16915.32
244.192	16893.63
244.264	16839.85
244.335	16802.11
244.407	16738.69
244.478	16705.91
244.549	16673.96
244.62	16622.1
244.692	16578.34
244.763	16550.09
244.834	16509.22
244.906	16470.91
244.977	16438.81
245.048	16411.72
245.119	16365.65
245.191	16324.92
245.262	16252.86
245.333	16235.71
245.405	16201.58
245.476	16176.47
245.547	16145.48
245.618	16130.92
245.689	16093.23
245.761	16060.46
245.832	16027.88
245.903	16006.38
245.974	15983.58
246.045	15941.55
246.117	15932.15
246.188	15889.54
246.259	15838.79
246.33	15799.7
246.401	15760.75
246.473	15718.05
246.544	15671.49
246.615	15650.42
246.686	15612.97
246.757	15606.08
246.828	15552.14
246.899	15533.78
246.97	15478.68
247.042	15431.45
247.113	15399.68
247.184	15391.87
247.255	15357.6
247.326	15324.97
247.397	15287.76
247.468	15245.53
247.539	15212.95
247.61	15161.37
247.681	15133.32
247.752	15122.81
247.823	15085.11
247.894	15059.81
247.965	15011.6
248.037	14976.22
248.108	14926.52
248.179	14895.43
248.25	14855.52
248.321	14835.76
248.392	14788.13
248.463	14792.28
248.534	14760.13
248.605	14745.18
248.675	14704.26
248.746	14680.49
248.817	14644.34
248.888	14614.36
248.959	14572.37
249.03	14552.12
249.101	14520.07
249.172	14486.47
249.243	14433.44
249.314	14421.49
249.385	14384.47
249.456	14368.51
249.527	14338.29
249.598	14307.82
249.669	14281.74
249.739	14256.38
249.81	14236.38
249.881	14194.25
249.952	14153.13
250.023	14122.95
250.094	14069.59
250.165	14023.94
250.235	13990.67
250.306	13967.39
250.377	13933.36
250.448	13912.1
250.519	13863.41
250.59	13852.47
250.66	13822.48
250.731	13810.43
250.802	13771.29
250.873	13747.52
250.944	13716.62
251.014	13683.17
251.085	13687.6
251.156	13665.09
251.227	13650.39
251.297	13630.86
251.368	13613.99
251.439	13596.97
251.51	13578.51
251.58	13539.37
251.651	13510.3
251.722	13503.35
251.792	13467.54
251.863	13436.93
251.934	13419.96
252.005	13423.48
252.075	13395.52
252.146	13382.4
252.217	13367.51
252.287	13363.22
252.358	13342.1
252.429	13341.62
252.499	13312.46
252.57	13287.49
252.641	13270.04
252.711	13239.28
252.782	13210.79
252.852	13211.61
252.923	13185.58
252.994	13167.31
253.064	13160.17
253.135	13124.74
253.205	13088.01
253.276	13077.02
253.347	13067.81
253.417	13036.28
253.488	13004.71
253.558	12977.13
253.629	12953.22
253.699	12934.47
253.77	12908.3
253.841	12880.67
253.911	12855.03
253.982	12834.73
254.052	12817.77
254.123	12790.24
254.193	12766.09
254.264	12766.23
254.334	12732.78
254.405	12701.73
254.475	12667.85
254.546	12647.02
254.616	12649
254.687	12635.31
254.757	12618.87
254.827	12598.58
254.898	12585.85
254.968	12558.71
255.039	12528.1
255.109	12514.65
255.18	12479.46
255.25	12439.5
255.321	12424.46
255.391	12391.64
255.461	12396.12
255.532	12346.13
255.602	12324.92
255.673	12288.19
255.743	12260.62
255.813	12211.5
255.884	12198.63
255.954	12185.66
256.024	12177.56
256.095	12153.22
256.165	12119.91
256.235	12104.39
256.306	12075.33
256.376	12060.72
256.446	12053.73
256.517	12046.12
256.587	12034.45
256.657	12014.4
256.728	11997.77
256.798	11975.17
256.868	11950.63
256.938	11914.72
257.009	11900.02
257.079	11885.66
257.149	11896.84
257.219	11855.58
257.29	11847.05
257.36	11807.48
257.43	11798.7
257.5	11755.71
257.571	11732.24
257.641	11714.02
257.711	11682.83
257.781	11669.1
257.852	11655.17
257.922	11612.51
257.992	11584.17
258.062	11563.88
258.132	11561.81
258.202	11541.13
258.273	11520.36
258.343	11523.97
258.413	11499.39
258.483	11485.66
258.553	11458.28
258.623	11427.72
258.693	11418.61
258.764	11416.83
258.834	11416.06
258.904	11395.34
258.974	11367
259.044	11346.28
259.114	11331.87
259.184	11314.37
259.254	11295.34
259.324	11255.91
259.394	11250.13
259.464	11253.84
259.535	11232.15
259.605	11207.33
259.675	11180.35
259.745	11167.48
259.815	11135.43
259.885	11111.38
259.955	11121.94
260.025	11093.7
260.095	11069.46
260.165	11055.87
260.235	11047.29
260.305	11025.8
260.375	10994.14
260.445	11003.53
260.515	10999.44
260.585	11000.93
260.655	10985.22
260.725	10978.91
260.795	10974.09
260.865	10970.91
260.934	10945.56
261.004	10938.62
261.074	10924.07
261.144	10926.33
261.214	10919.87
261.284	10903.68
261.354	10909.75
261.424	10877.27
261.494	10882.19
261.564	10867.54
261.634	10857.8
261.703	10825.61
