Data from 20250704_urea_1M_MAYP1162681_11-38-20-628.txt Node
Date: Fri Jul 04 11:38:20 BST 2025
User: adleo
Spectrometer: MAYP116268
Trigger mode: 0
Integration Time (sec): 1.000000E0
Scans to average: 1
Electric dark correction enabled: true
Nonlinearity correction enabled: true
Boxcar width: 10
XAxis mode: Wavelengths
Number of Pixels in Spectrum: 2068
>>>>>Begin Spectral Data<<<<<
179.565	1260.16
179.642	1316.35
179.718	1360.06
179.795	1398.66
179.871	1434.85
179.948	1454.97
180.024	1473.48
180.101	1494.99
180.177	1509.55
180.254	1533.79
180.33	1557.53
180.407	1615.79
180.483	1716.7
180.56	1812.16
180.636	1901.46
180.712	1887.48
180.789	1896.75
180.865	1910.77
180.942	1922.23
181.018	1931.31
181.095	1945.53
181.171	1949.95
181.248	1953.76
181.324	1969.64
181.4	1978.34
181.477	1987.52
181.553	2002.73
181.63	2025.85
181.706	2043.87
181.782	2054.61
181.859	2053.24
181.935	2058.09
182.011	2053
182.088	2066.98
182.164	2084.54
182.24	2097.24
182.317	2106.84
182.393	2105.84
182.469	2120.73
182.546	2132.62
182.622	2137
182.698	2129.15
182.775	2141.23
182.851	2155.51
182.927	2147.47
183.003	2144.18
183.08	2138.52
183.156	2143.52
183.232	2141.85
183.308	2131.53
183.385	2136.33
183.461	2155.32
183.537	2155.32
183.613	2168.83
183.69	2160.69
183.766	2151.79
183.842	2158.55
183.918	2163.21
183.995	2177.62
184.071	2181.38
184.147	2173.96
184.223	2163.88
184.299	2179.3
184.375	2168.78
184.452	2174.59
184.528	2228.03
184.604	2238.78
184.68	2251.86
184.756	2259.67
184.832	2263.52
184.908	2269.33
184.985	2268.14
185.061	2252.34
185.137	2266.05
185.213	2256.67
185.289	2256.67
185.365	2248.54
185.441	2248.59
185.517	2262.53
185.593	2257.92
185.669	2251.78
185.745	2263.87
185.822	2280.23
185.898	2271.71
185.974	2281.22
186.05	2271.23
186.126	2232.2
186.202	2224.78
186.278	2221.12
186.354	2213.12
186.43	2221.02
186.506	2217.5
186.582	2220.26
186.658	2225.16
186.734	2200.28
186.81	2199.76
186.886	2204.85
186.962	2217.22
187.038	2213.51
187.114	2204.7
187.19	2212.98
187.266	2205.42
187.341	2206.32
187.417	2199.04
187.493	2197.99
187.569	2200.8
187.645	2193.95
187.721	2184.43
187.797	2192
187.873	2198.28
187.949	2193.95
188.025	2187.57
188.101	2191.38
188.176	2195.28
188.252	2191.43
188.328	2199.18
188.404	2201.13
188.48	2193.52
188.556	2186.52
188.632	2184.95
188.707	2187.05
188.783	2183.71
188.859	2178.15
188.935	2165.06
189.011	2172.25
189.086	2165.97
189.162	2157.74
189.238	2158.45
189.314	2157.31
189.39	2152.27
189.465	2141.7
189.541	2157.98
189.617	2138.14
189.693	2131.96
189.768	2137.76
189.844	2162.51
189.92	2156.43
189.996	2163.28
190.071	2177.26
190.147	2176.79
190.223	2186.35
190.298	2180.21
190.374	2167.61
190.45	2179.69
190.526	2189.44
190.601	2182.35
190.677	2182.5
190.753	2209.87
190.828	2212.77
190.904	2225.57
190.98	2239.13
191.055	2252.27
191.131	2240.85
191.207	2265.87
191.282	2274.34
191.358	2261.73
191.433	2246.35
191.509	2258.86
191.585	2258.01
191.66	2258.15
191.736	2265.67
191.811	2255.1
191.887	2269.76
191.963	2293.08
192.038	2297.65
192.114	2298.74
192.189	2305.4
192.265	2305.31
192.34	2283.74
192.416	2281.12
192.491	2277.98
192.567	2280.7
192.642	2283.46
192.718	2283.55
192.793	2270.46
192.869	2269.51
192.944	2273.32
193.02	2280.74
193.095	2284.88
193.171	2289.26
193.246	2290.21
193.322	2285.6
193.397	2288.5
193.473	2275.12
193.548	2257.85
193.624	2262.03
193.699	2262.51
193.775	2279.36
193.85	2278.27
193.925	2287.5
194.001	2287.74
194.076	2278.75
194.152	2267.28
194.227	2257.38
194.302	2250.62
194.378	2254.48
194.453	2253
194.529	2267.18
194.604	2254.33
194.679	2248.77
194.755	2229.69
194.83	2242.36
194.905	2242.07
194.981	2251.97
195.056	2243.93
195.131	2248.93
195.207	2250.83
195.282	2238.74
195.357	2217.04
195.433	2234.79
195.508	2220.89
195.583	2228.55
195.659	2243.49
195.734	2250.82
195.809	2254.92
195.884	2265.71
195.96	2267
196.035	2281.37
196.11	2278.23
196.185	2291.7
196.261	2295.27
196.336	2329.06
196.411	2313.53
196.486	2321.77
196.561	2315.53
196.637	2323.24
196.712	2343.28
196.787	2348
196.862	2362.23
196.937	2373.5
197.013	2377.22
197.088	2389.97
197.163	2413.45
197.238	2434.41
197.313	2437.03
197.388	2446.45
197.464	2474.12
197.539	2484.5
197.614	2474.36
197.689	2488.74
197.764	2501.7
197.839	2525.27
197.914	2516.89
197.989	2541.41
198.065	2551.79
198.14	2601.35
198.215	2629.93
198.29	2636.64
198.365	2650.03
198.44	2661.36
198.515	2690.28
198.59	2706.76
198.665	2734.16
198.74	2742.21
198.815	2741.16
198.89	2765.22
198.965	2797.83
199.04	2793.25
199.115	2810.88
199.19	2855.8
199.265	2854.66
199.34	2864.76
199.415	2894.47
199.49	2919.01
199.565	2926.68
199.64	2953.85
199.715	2950.7
199.79	2955.56
199.865	2968.29
199.94	2965.77
200.015	3001.43
200.09	3007.06
200.165	3016.45
200.24	3022.46
200.315	3062.69
200.39	3079.14
200.464	3080.66
200.539	3079.04
200.614	3097.16
200.689	3119.48
200.764	3127.4
200.839	3144.55
200.914	3152.52
200.989	3145.31
201.063	3160.1
201.138	3144.32
201.213	3144.23
201.288	3126.06
201.363	3135.55
201.438	3131.5
201.512	3146.32
201.587	3126.24
201.662	3128.34
201.737	3138.4
201.812	3146.99
201.886	3113.15
201.961	3120.21
202.036	3110.87
202.111	3110.58
202.186	3079.75
202.26	3059.62
202.335	3036.21
202.41	3032.06
202.485	3012.28
202.559	2989.87
202.634	2958.79
202.709	2967.41
202.784	2948.29
202.858	2946.48
202.933	2925.46
203.008	2921.6
203.082	2902.29
203.157	2900.91
203.232	2859.89
203.306	2836.53
203.381	2804.63
203.456	2781.9
203.53	2762.63
203.605	2742.34
203.68	2717.12
203.754	2715.6
203.829	2702.16
203.904	2681.25
203.978	2670.39
204.053	2675.96
204.127	2662.81
204.202	2662.96
204.277	2647.57
204.351	2639.9
204.426	2633.61
204.5	2626.04
204.575	2590.08
204.65	2601.8
204.724	2593.18
204.799	2599.56
204.873	2598.27
204.948	2597.7
205.022	2584.03
205.097	2572.12
205.171	2585.79
205.246	2597.03
205.32	2591.7
205.395	2592.6
205.469	2584.23
205.544	2590.71
205.618	2574.94
205.693	2588.85
205.767	2576.33
205.842	2595.24
205.916	2588.76
205.991	2578.43
206.065	2580.9
206.14	2596.85
206.214	2591.94
206.289	2588.51
206.363	2604.61
206.438	2606.66
206.512	2611.09
206.586	2634.38
206.661	2643.67
206.735	2622.82
206.81	2620.77
206.884	2635.67
206.958	2621.72
207.033	2641.57
207.107	2645.53
207.181	2677.17
207.256	2672.88
207.33	2693.27
207.405	2708.05
207.479	2728.77
207.553	2739.58
207.628	2727.44
207.702	2740.16
207.776	2733.59
207.851	2731.3
207.925	2745.98
207.999	2744.69
208.073	2744.93
208.148	2744.12
208.222	2733.88
208.296	2766.98
208.371	2785.91
208.445	2798.68
208.519	2828.55
208.593	2840.08
208.668	2838.12
208.742	2842.13
208.816	2844.46
208.89	2859.67
208.965	2858.29
209.039	2868.35
209.113	2885.51
209.187	2907.47
209.261	2905.32
209.336	2930.21
209.41	2956.61
209.484	2960.76
209.558	2986.94
209.632	3003.62
209.707	3022.12
209.781	3053.73
209.855	3075.2
209.929	3098.87
210.003	3112.08
210.077	3124.67
210.151	3183.97
210.226	3232.17
210.3	3273.23
210.374	3312.53
210.448	3334.2
210.522	3361.69
210.596	3392.19
210.67	3425.75
210.744	3494.3
210.818	3549.7
210.892	3595.21
210.966	3619.79
211.041	3665.49
211.115	3695.62
211.189	3760.05
211.263	3812.92
211.337	3853.53
211.411	3910.34
211.485	3949.83
211.559	4013.14
211.633	4061.62
211.707	4083.15
211.781	4147.27
211.855	4173.52
211.929	4227.59
212.003	4271.32
212.077	4352.05
212.151	4434.55
212.225	4512.98
212.299	4581.94
212.373	4652.67
212.447	4731.15
212.52	4850.67
212.594	4944.51
212.668	5047.04
212.742	5123.07
212.816	5221.16
212.89	5321.05
212.964	5429.56
213.038	5546.57
213.112	5667.28
213.186	5807.97
213.26	5907.74
213.333	5982.25
213.407	6111.96
213.481	6243.6
213.555	6396.17
213.629	6516.9
213.703	6642.3
213.777	6787.66
213.85	6916.75
213.924	7099.4
213.998	7248.58
214.072	7390.08
214.146	7528.77
214.219	7680.64
214.293	7842.14
214.367	8000.66
214.441	8177.81
214.515	8334.09
214.588	8471.75
214.662	8609.56
214.736	8750.81
214.81	8931.88
214.883	9112.14
214.957	9277.88
215.031	9439.97
215.105	9583.68
215.178	9746.93
215.252	9912.22
215.326	10059.9
215.4	10211.92
215.473	10339.16
215.547	10501.09
215.621	10658.12
215.694	10839.48
215.768	10994.93
215.842	11147.1
215.915	11308.21
215.989	11447.29
216.063	11601.04
216.136	11773.58
216.21	11932.09
216.284	12105.46
216.357	12268.71
216.431	12427.92
216.504	12594.07
216.578	12774.49
216.652	12948.93
216.725	13102.85
216.799	13266.46
216.873	13416.57
216.946	13580.65
217.02	13727.87
217.093	13871.23
217.167	13999.56
217.24	14124.22
217.314	14267.43
217.387	14405.11
217.461	14537.48
217.535	14692.84
217.608	14821.16
217.682	14956.17
217.755	15112.98
217.829	15253.1
217.902	15393.99
217.976	15529.39
218.049	15654.52
218.123	15773.38
218.196	15900.24
218.27	16018.23
218.343	16126.63
218.417	16262.55
218.49	16377.31
218.563	16517.22
218.637	16646.39
218.71	16790.98
218.784	16921.54
218.857	17048.1
218.931	17167.67
219.004	17286.81
219.077	17406.14
219.151	17522.14
219.224	17631.34
219.298	17734.91
219.371	17847.92
219.444	17932.59
219.518	18030.76
219.591	18129.98
219.665	18253.93
219.738	18354.7
219.811	18446.5
219.885	18551.22
219.958	18642.49
220.031	18730.01
220.105	18826.1
220.178	18907.49
220.251	18987.2
220.325	19072.69
220.398	19156.49
220.471	19252.77
220.544	19343.18
220.618	19406.02
220.691	19494.54
220.764	19571.84
220.838	19647.55
220.911	19704.32
220.984	19790.1
221.057	19863.44
221.131	19929.41
221.204	19961.61
221.277	20044.64
221.35	20137.6
221.424	20196.83
221.497	20260.06
221.57	20322.8
221.643	20367.48
221.716	20421.89
221.79	20462.46
221.863	20513.45
221.936	20558.56
222.009	20591.48
222.082	20629.74
222.155	20670.8
222.229	20719.91
222.302	20758.28
222.375	20792.69
222.448	20835
222.521	20871.68
222.594	20906.09
222.667	20931.34
222.74	20973.47
222.814	21001.18
222.887	21017.13
222.96	21046.63
223.033	21089.57
223.106	21120.85
223.179	21168.38
223.252	21205.58
223.325	21231.9
223.398	21259.13
223.471	21289.01
223.544	21322.08
223.617	21345.11
223.69	21374.61
223.763	21379.53
223.837	21404.4
223.91	21433.51
223.983	21441.41
224.056	21442.43
224.129	21463.73
224.202	21493.52
224.275	21501.71
224.348	21499.06
224.42	21498.24
224.493	21498.43
224.566	21490.29
224.639	21504.46
224.712	21494.05
224.785	21490.05
224.858	21505.32
224.931	21498.24
225.004	21493.71
225.077	21495.83
225.15	21477.9
225.223	21476.69
225.296	21498.19
225.369	21473.66
225.442	21461.03
225.514	21467.3
225.587	21472.69
225.66	21466.62
225.733	21464.4
225.806	21470.09
225.879	21465.51
225.952	21463.49
226.025	21468.16
226.097	21480.89
226.17	21470.77
226.243	21446.72
226.316	21441.13
226.389	21432.26
226.461	21432.16
226.534	21426.33
226.607	21424.01
226.68	21445.66
226.753	21432.69
226.825	21409.46
226.898	21431.68
226.971	21425.8
227.044	21422.09
227.117	21414.42
227.189	21406.9
227.262	21404.11
227.335	21389.36
227.407	21377.36
227.48	21369.69
227.553	21366.9
227.626	21354.46
227.698	21346.08
227.771	21338.27
227.844	21315.04
227.916	21304.34
227.989	21278.6
228.062	21266.5
228.134	21274.17
228.207	21253.97
228.28	21235.56
228.352	21217.39
228.425	21191.46
228.498	21187.8
228.57	21156.37
228.643	21157.77
228.716	21156.66
228.788	21135.21
228.861	21121.72
228.934	21124.13
229.006	21106.15
229.079	21088.9
229.151	21057.52
229.224	21017.42
229.296	21010.29
229.369	21027.11
229.442	21022.34
229.514	20996.84
229.587	20988.55
229.659	20946.96
229.732	20936.93
229.804	20943.25
229.877	20949.75
229.949	20952.79
230.022	20954.96
230.094	20934.09
230.167	20915.05
230.239	20881.61
230.312	20868.98
230.384	20876.84
230.457	20860.11
230.529	20852.64
230.602	20834.71
230.674	20826.18
230.747	20830.28
230.819	20821.99
230.892	20777.7
230.964	20766.04
231.037	20768.3
231.109	20746.9
231.181	20742.66
231.254	20705.74
231.326	20677.26
231.399	20652.63
231.471	20619.09
231.544	20562.41
231.616	20562.85
231.688	20545.06
231.761	20522.61
231.833	20494.27
231.905	20431.28
231.978	20406.37
232.05	20377.64
232.122	20350.22
232.195	20319.96
232.267	20311.23
232.339	20289.84
232.412	20279.57
232.484	20250.99
232.556	20218.7
232.629	20215.86
232.701	20196.1
232.773	20179.91
232.846	20149.36
232.918	20126.75
232.99	20107
233.062	20110.08
233.135	20088.1
233.207	20050.03
233.279	20038.32
233.351	20026.47
233.424	20012.93
233.496	19980.59
233.568	19989.7
233.64	19959.19
233.713	19939.29
233.785	19915.44
233.857	19890.52
233.929	19846.62
234.001	19829.27
234.074	19820.21
234.146	19780.45
234.218	19749.37
234.29	19724.31
234.362	19691.78
234.434	19646.63
234.507	19597.62
234.579	19539.55
234.651	19504.27
234.723	19485.53
234.795	19456.57
234.867	19421.63
234.939	19405.29
235.012	19378.64
235.084	19339.99
235.156	19317.73
235.228	19283.28
235.3	19251.33
235.372	19223.62
235.444	19214.8
235.516	19163.76
235.588	19137.79
235.66	19103.96
235.732	19068.83
235.804	19093.65
235.876	19078.9
235.948	19069.6
236.02	19050.95
236.092	19030.13
236.164	19007.2
236.236	18967.92
236.308	18929.61
236.38	18890.62
236.452	18853.37
236.524	18824.99
236.596	18812.94
236.668	18794
236.74	18763.45
236.812	18731.45
236.884	18702.54
236.956	18675.84
237.028	18643.8
237.1	18593.39
237.172	18582.31
237.244	18566.02
237.316	18498.31
237.388	18466.02
237.46	18424.39
237.532	18409.79
237.604	18370.51
237.675	18359.43
237.747	18343.57
237.819	18310.18
237.891	18286.66
237.963	18253.6
238.035	18218.18
238.107	18150.13
238.178	18130.09
238.25	18100.59
238.322	18093.61
238.394	18050.81
238.466	18002.38
238.538	17976.12
238.609	17959.06
238.681	17905.61
238.753	17861.08
238.825	17828.07
238.897	17798.39
238.968	17782.87
239.04	17743.55
239.112	17742.87
239.184	17683.93
239.255	17649.09
239.327	17627.69
239.399	17604.61
239.471	17582.87
239.542	17565.81
239.614	17549.24
239.686	17486.25
239.758	17463.45
239.829	17419.74
239.901	17401.91
239.973	17382.35
240.044	17355.5
240.116	17333.04
240.188	17298.73
240.259	17268.08
240.331	17228.17
240.403	17205.09
240.474	17155.55
240.546	17116.56
240.618	17060.27
240.689	17028.41
240.761	16998.14
240.833	16993.9
240.904	16962.67
240.976	16927.11
241.048	16894.19
241.119	16870.53
241.191	16851.3
241.262	16834.19
241.334	16797.56
241.405	16761.51
241.477	16719.63
241.549	16689.21
241.62	16650.66
241.692	16627.48
241.763	16623.43
241.835	16598.12
241.906	16571.91
241.978	16535.04
242.049	16516.82
242.121	16506.12
242.192	16491.08
242.264	16444.71
242.335	16382.11
242.407	16353.24
242.478	16317.57
242.55	16284.26
242.621	16243.01
242.693	16214.14
242.764	16182.91
242.836	16144.35
242.907	16124.44
242.979	16097.4
243.05	16072.44
243.122	16054.22
243.193	16024.57
243.264	15955.6
243.336	15920.95
243.407	15890.63
243.479	15877.42
243.55	15847.35
243.622	15824.55
243.693	15798.09
243.764	15788.78
243.836	15752.63
243.907	15713.25
243.978	15687.13
244.05	15659.9
244.121	15609.91
244.192	15591.21
244.264	15543.68
244.335	15518.96
244.407	15472.64
244.478	15458.27
244.549	15418.99
244.62	15370.3
244.692	15346.64
244.763	15334.25
244.834	15300.84
244.906	15266.28
244.977	15242.42
245.048	15235.53
245.119	15191.62
245.191	15144.67
245.262	15092.37
245.333	15081.04
245.405	15057.13
245.476	15032.4
245.547	15008.21
245.618	15000.49
245.689	14969.93
245.761	14946.6
245.832	14920.86
245.903	14899.07
245.974	14864.61
246.045	14832.46
246.117	14817.51
246.188	14780.93
246.259	14738.41
246.33	14709.82
246.401	14672.61
246.473	14631.06
246.544	14592.01
246.615	14574.28
246.686	14547.81
246.757	14543.18
246.828	14502.64
246.899	14492.13
246.97	14444.94
247.042	14407.63
247.113	14391.53
247.184	14382.13
247.255	14346.07
247.326	14313.29
247.397	14279.69
247.468	14258.58
247.539	14234.72
247.61	14192.58
247.681	14166.51
247.752	14160.86
247.823	14125
247.894	14100.51
247.965	14064.4
248.037	14029.46
248.108	13990.31
248.179	13966.84
248.25	13929.62
248.321	13905.03
248.392	13865.65
248.463	13869.65
248.534	13846.18
248.605	13821.25
248.675	13785.44
248.746	13761.86
248.817	13750.2
248.888	13735.54
248.959	13684.73
249.03	13668.05
249.101	13654.31
249.172	13622.93
249.243	13568.99
249.314	13565.76
249.385	13547.49
249.456	13530.91
249.527	13507.33
249.598	13492.87
249.669	13459.9
249.739	13442.35
249.81	13430.97
249.881	13390.67
249.952	13360.35
250.023	13337.02
250.094	13299.08
250.165	13268.56
250.235	13250.29
250.306	13227.78
250.377	13191
250.448	13181.46
250.519	13143.61
250.59	13131.56
250.66	13110.3
250.731	13108.33
250.802	13084.99
250.873	13064.84
250.944	13052.79
251.014	13021.02
251.085	13012.4
251.156	13002.37
251.227	12996.58
251.297	12987.67
251.368	12979.47
251.439	12973.4
251.51	12959.66
251.58	12919.21
251.651	12898.49
251.722	12884.31
251.792	12842.18
251.863	12820.25
251.934	12813.98
252.005	12821.36
252.075	12797.11
252.146	12785.59
252.217	12781.59
252.287	12765.73
252.358	12737.82
252.429	12724.61
252.499	12702.72
252.57	12687.3
252.641	12674.23
252.711	12651.48
252.782	12618.94
252.852	12614.51
252.923	12587.08
252.994	12573.2
253.064	12580.81
253.135	12546.44
253.205	12528.41
253.276	12527.06
253.347	12525.04
253.417	12492.31
253.488	12458.57
253.558	12439.38
253.629	12415.91
253.699	12396.96
253.77	12388.72
253.841	12368.91
253.911	12349.82
253.982	12332.71
254.052	12325.04
254.123	12305.76
254.193	12283.97
254.264	12301.37
254.334	12270.67
254.405	12240.4
254.475	12213.45
254.546	12178.84
254.616	12177.73
254.687	12160.09
254.757	12144.91
254.827	12127.22
254.898	12115.99
254.968	12103.26
255.039	12076.22
255.109	12068.27
255.18	12033.8
255.25	11987.68
255.321	11981.55
255.391	11953.16
255.461	11961.45
255.532	11912.38
255.602	11892.96
255.673	11858.79
255.743	11823.98
255.813	11783.59
255.884	11783.93
255.954	11771.21
256.024	11782.1
256.095	11762.34
256.165	11723.92
256.235	11715.39
256.306	11688.88
256.376	11681.41
256.446	11673.22
256.517	11659.92
256.587	11650.03
256.657	11637.7
256.728	11626.47
256.798	11610.08
256.868	11587.81
256.938	11559.66
257.009	11548.63
257.079	11536.58
257.149	11544.34
257.219	11504.48
257.29	11501.88
257.36	11457.1
257.43	11447.61
257.5	11399.99
257.571	11375.41
257.641	11374.93
257.711	11338.49
257.781	11325.09
257.852	11310.59
257.922	11269.53
257.992	11249.86
258.062	11227.6
258.132	11212.51
258.202	11193.24
258.273	11174.87
258.343	11177.33
258.413	11151.16
258.483	11134.25
258.553	11105.04
258.623	11076.37
258.693	11069.19
258.764	11071.26
258.834	11070.73
258.904	11057.62
258.974	11040.71
259.044	11025.48
259.114	11013.82
259.184	11004.42
259.254	10981.19
259.324	10947.65
259.394	10941.68
259.464	10942.06
259.535	10930.26
259.605	10914.21
259.675	10891.71
259.745	10878.89
259.815	10845.2
259.885	10818.37
259.955	10833.21
260.025	10809.6
260.095	10794.08
260.165	10777.51
260.235	10777.84
260.305	10755.15
260.375	10718.19
260.445	10722.09
260.515	10717.37
260.585	10708.5
260.655	10688.94
260.725	10687.78
260.795	10678.2
260.865	10686.97
260.934	10668.32
261.004	10660.94
261.074	10641.96
261.144	10639.07
261.214	10637.19
261.284	10625.34
261.354	10630.64
261.424	10605.87
261.494	10615.41
261.564	10598.21
261.634	10594.54
261.703	10551.66
261.773	10546.99
261.843	10543.76
261.913	10534.99
261.983	10505.55
262.053	10499.53
262.123	10490.71
262.192	10459.64
