Data from 20250704_urea_2M_MAYP1162681_12-07-29-475.txt Node
Date: Fri Jul 04 12:07:29 BST 2025
User: adleo
Spectrometer: MAYP116268
Trigger mode: 0
Integration Time (sec): 1.000000E0
Scans to average: 1
Electric dark correction enabled: true
Nonlinearity correction enabled: true
Boxcar width: 10
XAxis mode: Wavelengths
Number of Pixels in Spectrum: 2068
>>>>>Begin Spectral Data<<<<<
179.565	1276.37
179.642	1334.15
179.718	1381.43
179.795	1425.3
179.871	1456.94
179.948	1474.01
180.024	1498.18
180.101	1521.44
180.177	1537.78
180.254	1561.42
180.33	1585.29
180.407	1641.98
180.483	1744.42
180.56	1842.15
180.636	1929.99
180.712	1917.29
180.789	1927.8
180.865	1938.82
180.942	1950.57
181.018	1963.21
181.095	1978.48
181.171	1983.57
181.248	1986.42
181.324	1999.88
181.4	2005.31
181.477	2020.95
181.553	2036.69
181.63	2057.62
181.706	2074.88
181.782	2082.97
181.859	2081.82
181.935	2088.63
182.011	2087.39
182.088	2103.71
182.164	2119.41
182.24	2136.48
182.317	2143.95
182.393	2142.43
182.469	2161.74
182.546	2171.78
182.622	2177.34
182.698	2168.73
182.775	2181.91
182.851	2197.8
182.927	2192.81
183.003	2189.9
183.08	2179.11
183.156	2189.95
183.232	2185.15
183.308	2175.25
183.385	2183.24
183.461	2203.18
183.537	2202.61
183.613	2216.26
183.69	2206.03
183.766	2200.32
183.842	2207.08
183.918	2215.64
183.995	2225.11
184.071	2225.73
184.147	2219.16
184.223	2210.27
184.299	2225.73
184.375	2213.17
184.452	2218.98
184.528	2267.81
184.604	2278.22
184.68	2289.88
184.756	2296.78
184.832	2302.21
184.908	2309.1
184.985	2309.63
185.061	2294.11
185.137	2302.73
185.213	2288.69
185.289	2290.36
185.365	2279.94
185.441	2278.65
185.517	2291.36
185.593	2291.74
185.669	2290.13
185.745	2303.07
185.822	2316.58
185.898	2308.73
185.974	2319.24
186.05	2308.05
186.126	2274.41
186.202	2268.51
186.278	2267.75
186.354	2258.23
186.43	2263.32
186.506	2259.57
186.582	2258.33
186.658	2263.23
186.734	2241.39
186.81	2246.29
186.886	2248.43
186.962	2263.47
187.038	2258.28
187.114	2249.62
187.19	2254.47
187.266	2243.58
187.341	2242.39
187.417	2234.15
187.493	2231.3
187.569	2234.06
187.645	2228.21
187.721	2216.5
187.797	2224.97
187.873	2229.3
187.949	2224.45
188.025	2218.69
188.101	2219.26
188.176	2223.02
188.252	2220.5
188.328	2232.39
188.404	2232.29
188.48	2227.53
188.556	2219.25
188.632	2219.44
188.707	2222.11
188.783	2219.87
188.859	2215.5
188.935	2207.74
189.011	2217.54
189.086	2214.73
189.162	2210.07
189.238	2208.74
189.314	2206.22
189.39	2197.7
189.465	2189.66
189.541	2202.84
189.617	2186.62
189.693	2179.44
189.768	2184.62
189.844	2207.71
189.92	2197.63
189.996	2207.19
190.071	2222.99
190.147	2219.47
190.223	2228.75
190.298	2218.9
190.374	2203.91
190.45	2215.71
190.526	2223.32
190.601	2216.04
190.677	2216.85
190.753	2240.18
190.828	2242.85
190.904	2258.93
190.98	2276.73
191.055	2288.87
191.131	2281.87
191.207	2304.81
191.282	2319.74
191.358	2310.46
191.433	2297.37
191.509	2312.02
191.585	2307.17
191.66	2305.6
191.736	2314.87
191.811	2305.07
191.887	2322.3
191.963	2348.81
192.038	2353.62
192.114	2354.33
192.189	2359.85
192.265	2355.47
192.34	2336.57
192.416	2335.57
192.491	2331.57
192.567	2333.9
192.642	2337.29
192.718	2335.67
192.793	2323.58
192.869	2317.3
192.944	2316.06
193.02	2324.2
193.095	2327.39
193.171	2334.62
193.246	2333.96
193.322	2334.48
193.397	2336.81
193.473	2324.62
193.548	2307.77
193.624	2313.96
193.699	2309.87
193.775	2324.72
193.85	2324.25
193.925	2330.72
194.001	2331.53
194.076	2324.2
194.152	2311.35
194.227	2303.02
194.302	2296.21
194.378	2300.07
194.453	2298.78
194.529	2316.44
194.604	2299.4
194.679	2293.74
194.755	2272.57
194.83	2286.09
194.905	2282.47
194.981	2290.61
195.056	2283.62
195.131	2290.37
195.207	2292.28
195.282	2283.43
195.357	2263.63
195.433	2283.42
195.508	2271.81
195.583	2279.99
195.659	2295.23
195.734	2303.6
195.809	2306.46
195.884	2314.26
195.96	2314.69
196.035	2331.54
196.11	2326.25
196.185	2338.01
196.261	2341.82
196.336	2374.61
196.411	2358.32
196.486	2364.03
196.561	2358.18
196.637	2365.51
196.712	2381.89
196.787	2382.08
196.862	2399.21
196.937	2411.16
197.013	2416.68
197.088	2426.25
197.163	2449.49
197.238	2464.97
197.313	2462.45
197.388	2473.54
197.464	2505.65
197.539	2517.55
197.614	2507.6
197.689	2520.12
197.764	2538.84
197.839	2560.17
197.914	2554.46
197.989	2575.98
198.065	2591.6
198.14	2645.32
198.215	2673.14
198.29	2683.76
198.365	2697.05
198.44	2707.25
198.515	2736.74
198.59	2750.37
198.665	2777.67
198.74	2784.1
198.815	2786.39
198.89	2813.88
198.965	2841.67
199.04	2838.9
199.115	2856.01
199.19	2902.66
199.265	2908.76
199.34	2918.1
199.415	2951.01
199.49	2972.97
199.565	2986.27
199.64	3007.63
199.715	3002.09
199.79	3011.63
199.865	3020.98
199.94	3017.88
200.015	3051.21
200.09	3057.93
200.165	3064.56
200.24	3072.76
200.315	3115.96
200.39	3129.4
200.464	3132.93
200.539	3137.42
200.614	3154.11
200.689	3177.76
200.764	3184.44
200.839	3202.04
200.914	3207
200.989	3199.65
201.063	3216.53
201.138	3198.61
201.213	3198.18
201.288	3180.77
201.363	3182.97
201.438	3180.87
201.512	3199.13
201.587	3180.28
201.662	3185.48
201.737	3197.88
201.812	3203.7
201.886	3167.71
201.961	3178.07
202.036	3166.44
202.111	3162.38
202.186	3130.4
202.26	3108.69
202.335	3084.75
202.41	3074.07
202.485	3057.57
202.559	3037.16
202.634	3009.03
202.709	3018.75
202.784	2999.35
202.858	2996.63
202.933	2975.94
203.008	2973.7
203.082	2954.06
203.157	2953.25
203.232	2906.12
203.306	2886
203.381	2857.2
203.456	2835.56
203.53	2813.28
203.605	2792.18
203.68	2768.92
203.754	2762.3
203.829	2749.39
203.904	2730.61
203.978	2719.99
204.053	2725.94
204.127	2709.65
204.202	2708.65
204.277	2690.36
204.351	2684.5
204.426	2679.25
204.5	2674.01
204.575	2632.96
204.65	2640.53
204.724	2635.2
204.799	2643.67
204.873	2638.38
204.948	2635.14
205.022	2623.19
205.097	2612.75
205.171	2626.7
205.246	2633.56
205.32	2632.85
205.395	2632.37
205.469	2622.38
205.544	2627.48
205.618	2605.13
205.693	2617.42
205.767	2604.52
205.842	2624.24
205.916	2617.14
205.991	2605.28
206.065	2608.48
206.14	2627.37
206.214	2620.75
206.289	2612.36
206.363	2623.51
206.438	2627.41
206.512	2637.47
206.586	2658.09
206.661	2664.38
206.735	2643.43
206.81	2644.72
206.884	2656.91
206.958	2645.43
207.033	2665.81
207.107	2674.54
207.181	2709.47
207.256	2700.41
207.33	2718.04
207.405	2730.53
207.479	2749.97
207.553	2757.35
207.628	2742.78
207.702	2752.07
207.776	2749.74
207.851	2750.55
207.925	2767.28
207.999	2758.22
208.073	2750.74
208.148	2750.17
208.222	2742.12
208.296	2774.98
208.371	2790.1
208.445	2804.82
208.519	2832.74
208.593	2840.94
208.668	2838.36
208.742	2839.37
208.816	2843.46
208.89	2856.33
208.965	2855.48
209.039	2865.49
209.113	2883.93
209.187	2907.51
209.261	2903.61
209.336	2925.44
209.41	2944.93
209.484	2947.03
209.558	2975.49
209.632	2993.13
209.707	3006.38
209.781	3031.55
209.855	3048.24
209.929	3065.04
210.003	3072.1
210.077	3073.48
210.151	3125.22
210.226	3159.72
210.3	3190.99
210.374	3217.16
210.448	3227.56
210.522	3239.82
210.596	3251.22
210.67	3262.24
210.744	3308.29
210.818	3340.14
210.892	3364.53
210.966	3365.29
211.041	3380.65
211.115	3375.88
211.189	3401.32
211.263	3423.6
211.337	3429.76
211.411	3447.89
211.485	3452.38
211.559	3466.5
211.633	3474.99
211.707	3445.19
211.781	3457.42
211.855	3428.06
211.929	3429.68
212.003	3416.04
212.077	3433.57
212.151	3452.95
212.225	3470.95
212.299	3470.33
212.373	3474.95
212.447	3483.46
212.52	3529.01
212.594	3548.11
212.668	3583.3
212.742	3587.26
212.816	3600.54
212.89	3619.25
212.964	3644.91
213.038	3666.6
213.112	3711.61
213.186	3756.41
213.26	3768.68
213.333	3756.26
213.407	3793.5
213.481	3835.67
213.555	3888.62
213.629	3920.37
213.703	3951.01
213.777	3999.39
213.85	4033.72
213.924	4123.21
213.998	4177.98
214.072	4227.41
214.146	4276.25
214.219	4333.56
214.293	4396.88
214.367	4466.84
214.441	4548.67
214.515	4613.02
214.588	4670.79
214.662	4715.89
214.736	4776.4
214.81	4872.3
214.883	4975.3
214.957	5064.65
215.031	5147.21
215.105	5223.88
215.178	5311.05
215.252	5414.72
215.326	5495.45
215.4	5583.79
215.473	5646.1
215.547	5739.89
215.621	5849.41
215.694	5976.53
215.768	6073.4
215.842	6189.53
215.915	6303.45
215.989	6403.61
216.063	6520.99
216.136	6655.21
216.21	6789.91
216.284	6939.89
216.357	7068.73
216.431	7202.66
216.504	7345.59
216.578	7509.18
216.652	7663.94
216.725	7806.17
216.799	7951.09
216.873	8100.51
216.946	8259.95
217.02	8399.15
217.093	8547.98
217.167	8667.14
217.24	8791.08
217.314	8939.83
217.387	9084.28
217.461	9232.32
217.535	9397.51
217.608	9533.35
217.682	9679.89
217.755	9843.88
217.829	9984.44
217.902	10146.67
217.976	10292.48
218.049	10435.94
218.123	10565.99
218.196	10717.95
218.27	10865.1
218.343	10998.19
218.417	11146.23
218.49	11284.87
218.563	11452.57
218.637	11609.88
218.71	11778.13
218.784	11942.25
218.857	12108.38
218.931	12256.74
219.004	12401.05
219.077	12553.76
219.151	12702.85
219.224	12847.99
219.298	12973.71
219.371	13124.15
219.444	13243.89
219.518	13384.89
219.591	13520.74
219.665	13682.42
219.738	13816.14
219.811	13939.06
219.885	14085.51
219.958	14224.05
220.031	14350.64
220.105	14485.13
220.178	14601.98
220.251	14716.17
220.325	14838.85
220.398	14944.03
220.471	15069.55
220.544	15192.76
220.618	15293.06
220.691	15413.33
220.764	15520.77
220.838	15641.42
220.911	15740.51
220.984	15869.93
221.057	15980.26
221.131	16093.72
221.204	16163.85
221.277	16275.77
221.35	16410.43
221.424	16503.64
221.497	16591.31
221.57	16685.54
221.643	16781.21
221.716	16880.01
221.79	16964.16
221.863	17047.29
221.936	17138.81
222.009	17214.24
222.082	17297.28
222.155	17366.77
222.229	17454.68
222.302	17539.25
222.375	17606.24
222.448	17684.07
222.521	17755.3
222.594	17822.38
222.667	17865.52
222.74	17941.13
222.814	18006.28
222.887	18058.14
222.96	18117.99
223.033	18190.61
223.106	18258.8
223.179	18322.7
223.252	18383.66
223.325	18441.49
223.398	18493.97
223.471	18546.11
223.544	18601.77
223.617	18650.54
223.69	18713.91
223.763	18740.42
223.837	18794.15
223.91	18849.33
223.983	18866.87
224.056	18900.12
224.129	18938.24
224.202	19001.36
224.275	19040.5
224.348	19071.24
224.42	19096.54
224.493	19113.12
224.566	19143.48
224.639	19178.9
224.712	19197.64
224.785	19213.59
224.858	19242.55
224.931	19265.35
225.004	19281.88
225.077	19305.97
225.15	19303.18
225.223	19323.42
225.296	19382.4
225.369	19384.14
225.442	19394.88
225.514	19439.17
225.587	19457.96
225.66	19486.59
225.733	19502.2
225.806	19525.14
225.879	19533.48
225.952	19534.73
226.025	19579.07
226.097	19611.69
226.17	19621.18
226.243	19610.68
226.316	19625.67
226.389	19644.03
226.461	19662.87
226.534	19683.64
226.607	19699.11
226.68	19736.84
226.753	19740.36
226.825	19715.73
226.898	19735.15
226.971	19737.23
227.044	19744.74
227.117	19754.09
227.189	19765.71
227.262	19780.45
227.335	19789.8
227.407	19794.33
227.48	19811.73
227.553	19813.7
227.626	19802.23
227.698	19804.98
227.771	19816.5
227.844	19802.52
227.916	19800.45
227.989	19788.64
228.062	19789.22
228.134	19814.72
228.207	19813.37
228.28	19812.35
228.352	19817.03
228.425	19816.74
228.498	19830.04
228.57	19812.64
228.643	19823.97
228.716	19818.14
228.788	19808.07
228.861	19799.54
228.934	19818.09
229.006	19809.08
229.079	19800.31
229.151	19790.96
229.224	19776.45
229.296	19772.02
229.369	19802.28
229.442	19815.1
229.514	19806.38
229.587	19810.62
229.659	19771.87
229.732	19771.78
229.804	19776.4
229.877	19792.45
229.949	19793.27
230.022	19806.72
230.094	19814.38
230.167	19814.96
230.239	19794.77
230.312	19788.07
230.384	19810.96
230.457	19798.33
230.529	19804.64
230.602	19803.39
230.674	19801.32
230.747	19813.17
230.819	19817.13
230.892	19779.92
230.964	19766
231.037	19764.89
231.109	19755.06
231.181	19765.95
231.254	19743.06
231.326	19737.27
231.399	19724.79
231.471	19718.38
231.544	19689.52
231.616	19681.52
231.688	19667.74
231.761	19661.95
231.833	19653.9
231.905	19612.61
231.978	19599.02
232.05	19573.67
232.122	19567.84
232.195	19549.28
232.267	19547.5
232.339	19538.1
232.412	19549.81
232.484	19529.81
232.556	19510.68
232.629	19515.41
232.701	19513.91
232.773	19503.65
232.846	19484.47
232.918	19472.18
232.99	19448.08
233.062	19437.34
233.135	19430.64
233.207	19401.77
233.279	19389.82
233.351	19377.49
233.424	19350.36
233.496	19325.92
233.568	19336.28
233.64	19299.13
233.713	19286.02
233.785	19264.34
233.857	19250.55
233.929	19206.03
234.001	19215.38
234.074	19214.41
234.146	19179.47
234.218	19153.93
234.29	19130.66
234.362	19107.24
234.434	19065.94
234.507	19044.45
234.579	19014.52
234.651	18989.75
234.723	18973.08
234.795	18958.24
234.867	18940.55
234.939	18948.16
235.012	18938.77
235.084	18918.82
235.156	18907.01
235.228	18882.05
235.3	18852.07
235.372	18824.56
235.444	18820.17
235.516	18771.21
235.588	18759.21
235.66	18736.95
235.732	18702.44
235.804	18741.57
235.876	18727.17
235.948	18730.06
236.02	18709.38
236.092	18686.97
236.164	18655.94
236.236	18631.46
236.308	18604.67
236.38	18582.93
236.452	18543.47
236.524	18518.84
236.596	18511.27
236.668	18499.27
236.74	18473.83
236.812	18458.89
236.884	18437.45
236.956	18418.7
237.028	18387.57
237.1	18342.8
237.172	18335.86
237.244	18323.96
237.316	18261.7
237.388	18234.13
237.46	18194.95
237.532	18184.35
237.604	18156.26
237.675	18151.29
237.747	18132.59
237.819	18096.21
237.891	18069.08
237.963	18036.36
238.035	18007.83
238.107	17948.22
238.178	17933.28
238.25	17912.02
238.322	17909.52
238.394	17871.35
238.466	17840.84
238.538	17823.01
238.609	17813.81
238.681	17762.68
238.753	17726.68
238.825	17697.19
238.897	17677.19
238.968	17672.46
239.04	17629.72
239.112	17623.21
239.184	17583.98
239.255	17552.18
239.327	17534.01
239.399	17504.22
239.471	17496.66
239.542	17473.28
239.614	17450.01
239.686	17395.31
239.758	17384.56
239.829	17333.77
239.901	17326.78
239.973	17294.3
240.044	17272.71
240.116	17238.49
240.188	17211.11
240.259	17187.31
240.331	17156.13
240.403	17126.29
240.474	17080.22
240.546	17052.32
240.618	17007.35
240.689	16969.13
240.761	16939.54
240.833	16927.35
240.904	16894.96
240.976	16858.72
241.048	16832.55
241.119	16817.27
241.191	16791.68
241.262	16771.82
241.334	16749.56
241.405	16708.98
241.477	16684.78
241.549	16658.23
241.62	16636.92
241.692	16617.31
241.763	16604.49
241.835	16576.92
241.906	16555.23
241.978	16508
242.049	16491.95
242.121	16477.34
242.192	16469.15
242.264	16435.8
242.335	16382.88
242.407	16361.72
242.478	16322
242.55	16297.18
242.621	16259.35
242.693	16228.84
242.764	16192.11
242.836	16157.51
242.907	16145.84
242.979	16115.57
243.05	16088.24
243.122	16069.5
243.193	16045.2
243.264	15994.26
243.336	15965.29
243.407	15932.9
243.479	15929.96
243.55	15904.7
243.622	15868.94
243.693	15843.59
243.764	15830.09
243.836	15798.38
243.907	15772.25
243.978	15753.02
244.05	15726.07
244.121	15682.98
244.192	15670.31
244.264	15627.94
244.335	15598.1
244.407	15539.2
244.478	15511.97
244.549	15474.27
244.62	15414.26
244.692	15378.26
244.763	15359.55
244.834	15322.82
244.906	15294.29
244.977	15268.36
245.048	15259.01
245.119	15232.16
245.191	15188.63
245.262	15135.75
245.333	15134.4
245.405	15115.8
245.476	15094.3
245.547	15066.2
245.618	15052.94
245.689	15028.55
245.761	15007.2
245.832	14978.8
245.903	14974.22
245.974	14957.69
246.045	14936.24
246.117	14930.55
246.188	14892.42
246.259	14851.11
246.33	14828.89
246.401	14799.68
246.473	14754.27
246.544	14716.67
246.615	14698.74
246.686	14675.55
246.757	14668.51
246.828	14623.59
246.899	14597.8
246.97	14550.65
247.042	14523.18
247.113	14495.56
247.184	14487.75
247.255	14449.04
247.326	14422.57
247.397	14385.36
247.468	14353.59
247.539	14330.21
247.61	14293.29
247.681	14281.38
247.752	14266.63
247.823	14229.41
247.894	14203.24
247.965	14168.14
248.037	14133.1
248.108	14094.2
248.179	14062.96
248.25	14032.59
248.321	14021.26
248.392	13989.11
248.463	13992.53
248.534	13963.8
248.605	13952.33
248.675	13916.27
248.746	13895.54
248.817	13882.91
248.888	13872.45
248.959	13824.53
249.03	13806.41
249.101	13787.85
249.172	13753.43
249.243	13703.2
249.314	13687.96
249.385	13662.7
249.456	13652
249.527	13627.22
249.598	13610.06
249.669	13579.4
249.739	13563.49
249.81	13537.89
249.881	13498.56
249.952	13473.64
250.023	13441.39
250.094	13403.3
250.165	13368.74
250.235	13349.36
250.306	13324.44
250.377	13283.7
250.448	13272.28
250.519	13218.67
250.59	13208.11
250.66	13183.05
250.731	13186.42
250.802	13166.46
250.873	13150.17
250.944	13134.17
251.014	13105.77
251.085	13106.59
251.156	13094.44
251.227	13086.92
251.297	13082.44
251.368	13075.59
251.439	13060.02
251.51	13056.99
251.58	13020.93
251.651	12988.58
251.722	12972.67
251.792	12928.47
251.863	12900.66
251.934	12892.75
252.005	12910.54
252.075	12880.07
252.146	12872.26
252.217	12862.86
252.287	12848.02
252.358	12820.39
252.429	12811.57
252.499	12780.58
252.57	12764.52
252.641	12752.38
252.711	12726.25
252.782	12684.6
252.852	12682.72
252.923	12654.95
252.994	12632.83
253.064	12630.32
253.135	12607.08
253.205	12587.13
253.276	12589.73
253.347	12599.47
253.417	12577.78
253.488	12545.77
253.558	12525.57
253.629	12503.93
253.699	12488.6
253.77	12481.8
253.841	12463.77
253.911	12448.68
253.982	12434.13
254.052	12416.72
254.123	12400.53
254.193	12378.11
254.264	12393.88
254.334	12364.81
254.405	12334.34
254.475	12302.53
254.546	12279.97
254.616	12277.56
254.687	12265.9
254.757	12256.59
254.827	12227.29
254.898	12208.49
254.968	12188.87
255.039	12163.76
255.109	12158.65
255.18	12127.41
255.25	12082.05
255.321	12080.22
255.391	12043.73
255.461	12047.3
255.532	12001.65
255.602	11974.85
255.673	11934.99
255.743	11904.53
255.813	11857.77
255.884	11856.57
255.954	11846.25
256.024	11851.7
256.095	11836.52
256.165	11798.54
256.235	11775.64
256.306	11753.37
256.376	11744.12
256.446	11734.72
256.517	11725.56
256.587	11716.26
256.657	11695.77
256.728	11683.39
256.798	11660.78
256.868	11641.46
256.938	11607.67
257.009	11600.58
257.079	11592.29
257.149	11609.74
257.219	11576.1
257.29	11565.4
257.36	11525.4
257.43	11516.34
257.5	11470.4
257.571	11443.99
257.641	11442.69
257.711	11417.48
257.781	11407.51
257.852	11399.17
257.922	11356.81
257.992	11335.41
258.062	11309.96
258.132	11304.18
258.202	11291.94
258.273	11273.67
258.343	11273.57
258.413	11259.21
258.483	11237.23
258.553	11206.49
258.623	11181.38
258.693	11165.96
258.764	11166.58
258.834	11167.26
258.904	11150.44
258.974	11126.01
259.044	11111.65
259.114	11092.66
259.184	11078.73
259.254	11059.12
259.324	11019.89
259.394	11016.23
259.464	11017.91
259.535	10994.97
259.605	10968.04
259.675	10938.55
259.745	10924.76
259.815	10901.29
259.885	10877.54
259.955	10892.04
260.025	10870.46
260.095	10842.75
260.165	10838.17
260.235	10840.63
260.305	10815.19
260.375	10791.09
260.445	10800.63
260.515	10799.96
260.585	10798.8
260.655	10788.35
260.725	10781.94
260.795	10773.84
260.865	10780.35
260.934	10755.77
261.004	10750.18
261.074	10743.05
261.144	10744.59
261.214	10741.08
261.284	10720.84
261.354	10718.38
261.424	10688.07
261.494	10695.3
261.564	10691.44
261.634	10680.36
261.703	10637.23
261.773	10632.75
261.843	10623.07
261.913	10608.71
261.983	10568.67
262.053	10557.92
262.123	10538.36
262.192	10514.37
262.262	10514.42
