Data from 20250704_urea_1M_MAYP1162681_11-43-20-605.txt Node
Date: Fri Jul 04 11:43:20 BST 2025
User: adleo
Spectrometer: MAYP116268
Trigger mode: 0
Integration Time (sec): 1.000000E0
Scans to average: 1
Electric dark correction enabled: true
Nonlinearity correction enabled: true
Boxcar width: 10
XAxis mode: Wavelengths
Number of Pixels in Spectrum: 2068
>>>>>Begin Spectral Data<<<<<
179.565	1249.14
179.642	1306.95
179.718	1353.65
179.795	1396.38
179.871	1432.95
179.948	1450.85
180.024	1473.86
180.101	1498.37
180.177	1513.62
180.254	1538.53
180.33	1563.02
180.407	1619.33
180.483	1717.11
180.56	1811.42
180.636	1897.49
180.712	1884.42
180.789	1895.11
180.865	1908.75
180.942	1918.4
181.018	1932.76
181.095	1942.99
181.171	1950.36
181.248	1951.31
181.324	1966.48
181.4	1973.33
181.477	1985.6
181.553	2001
181.63	2021.36
181.706	2035.34
181.782	2044.23
181.859	2041.14
181.935	2046.08
182.011	2043.23
182.088	2062.4
182.164	2081.62
182.24	2097.64
182.317	2107.11
182.393	2106.82
182.469	2122.04
182.546	2134.36
182.622	2138.36
182.698	2131.55
182.775	2141.64
182.851	2159.1
182.927	2152.58
183.003	2148.59
183.08	2139.21
183.156	2147.49
183.232	2140.78
183.308	2131.75
183.385	2140.31
183.461	2160.57
183.537	2162.33
183.613	2176.84
183.69	2168.61
183.766	2157.9
183.842	2164.09
183.918	2171.75
183.995	2182.78
184.071	2185.74
184.147	2180.36
184.223	2166.09
184.299	2185.22
184.375	2175.76
184.452	2182.94
184.528	2236.3
184.604	2248.09
184.68	2261.89
184.756	2270.27
184.832	2279.5
184.908	2282.4
184.985	2280.97
185.061	2263.08
185.137	2271.22
185.213	2260.71
185.289	2259.94
185.365	2253.33
185.441	2251.43
185.517	2263.57
185.593	2263.76
185.669	2262
185.745	2273.46
185.822	2291.3
185.898	2279.21
185.974	2289.1
186.05	2277.87
186.126	2241.32
186.202	2233.8
186.278	2229.99
186.354	2222.09
186.43	2227.85
186.506	2228.71
186.582	2228.8
186.658	2236.65
186.734	2214.1
186.81	2212.77
186.886	2215.48
186.962	2229.19
187.038	2226.81
187.114	2218.43
187.19	2219.71
187.266	2211.72
187.341	2211.77
187.417	2208.01
187.493	2207.58
187.569	2207.91
187.645	2205.39
187.721	2189.16
187.797	2194.64
187.873	2199.78
187.949	2192.59
188.025	2184.26
188.101	2186.64
188.176	2189.21
188.252	2183.55
188.328	2191.44
188.404	2194.34
188.48	2190.11
188.556	2181.16
188.632	2181.12
188.707	2182.93
188.783	2184.26
188.859	2177.6
188.935	2167.04
189.011	2171.32
189.086	2166.94
189.162	2159.14
189.238	2154.29
189.314	2152.34
189.39	2146.11
189.465	2138.06
189.541	2153.24
189.617	2137.78
189.693	2132.74
189.768	2136.64
189.844	2165.77
189.92	2157.83
189.996	2166.06
190.071	2177.67
190.147	2178.01
190.223	2187
190.298	2178.29
190.374	2163.4
190.45	2175.01
190.526	2184.62
190.601	2181.81
190.677	2182.81
190.753	2210.85
190.828	2217.13
190.904	2235.07
190.98	2252.24
191.055	2264.95
191.131	2259.81
191.207	2281.93
191.282	2290.5
191.358	2283.93
191.433	2264.22
191.509	2281.44
191.585	2278.11
191.66	2279.87
191.736	2288.34
191.811	2281.34
191.887	2298.1
191.963	2323.46
192.038	2329.17
192.114	2327.12
192.189	2329.93
192.265	2328.79
192.34	2310.17
192.416	2306.56
192.491	2303.03
192.567	2305.61
192.642	2306.8
192.718	2303.04
192.793	2290.47
192.869	2287.14
192.944	2291.14
193.02	2300.99
193.095	2303.23
193.171	2308.8
193.246	2308.56
193.322	2303.8
193.397	2301.09
193.473	2287.19
193.548	2269.96
193.624	2275.95
193.699	2275.05
193.775	2290.71
193.85	2290.14
193.925	2297.76
194.001	2295.71
194.076	2286.34
194.152	2276.01
194.227	2266.96
194.302	2259.12
194.378	2263.63
194.453	2262.3
194.529	2271.87
194.604	2256.74
194.679	2249.46
194.755	2229.81
194.83	2241.19
194.905	2240.62
194.981	2251.18
195.056	2243.24
195.131	2246.23
195.207	2241.86
195.282	2233.67
195.357	2213.16
195.433	2229.34
195.508	2217.44
195.583	2224.53
195.659	2239.71
195.734	2247.75
195.809	2247.66
195.884	2256.03
195.96	2258.22
196.035	2273.45
196.11	2270.83
196.185	2280.54
196.261	2284.91
196.336	2316.85
196.411	2300.33
196.486	2304.51
196.561	2299.33
196.637	2308.65
196.712	2325.6
196.787	2333.88
196.862	2350.87
196.937	2361.25
197.013	2365.15
197.088	2375.05
197.163	2401.19
197.238	2419.34
197.313	2418.68
197.388	2437.72
197.464	2468.58
197.539	2477.01
197.614	2467.49
197.689	2480.72
197.764	2503.44
197.839	2525.96
197.914	2519.3
197.989	2542.87
198.065	2558.24
198.14	2609.57
198.215	2637.72
198.29	2650.63
198.365	2659.92
198.44	2669.16
198.515	2697.93
198.59	2713.94
198.665	2740.76
198.74	2747.86
198.815	2750.67
198.89	2771.82
198.965	2799.04
199.04	2793.99
199.115	2812.24
199.19	2859.5
199.265	2861.5
199.34	2867.89
199.415	2902.42
199.49	2927.33
199.565	2937.68
199.64	2959.22
199.715	2956.36
199.79	2963.98
199.865	2971.23
199.94	2972.09
200.015	3004.7
200.09	3012.62
200.165	3017.53
200.24	3025.01
200.315	3069.11
200.39	3080.94
200.464	3090.09
200.539	3088.57
200.614	3106.63
200.689	3130.86
200.764	3135.58
200.839	3153.84
200.914	3160.56
200.989	3146.06
201.063	3160.13
201.138	3146.55
201.213	3149.6
201.288	3130.76
201.363	3136.77
201.438	3136.86
201.512	3155.93
201.587	3141.43
201.662	3145.15
201.737	3160.32
201.812	3167.9
201.886	3133.87
201.961	3145.36
202.036	3130.21
202.111	3126.25
202.186	3096.22
202.26	3076.86
202.335	3054.73
202.41	3047.05
202.485	3029.37
202.559	3012.87
202.634	2986.89
202.709	2994.32
202.784	2977.4
202.858	2973.77
202.933	2951.37
203.008	2947.56
203.082	2921.82
203.157	2920.39
203.232	2878.69
203.306	2858.42
203.381	2826.49
203.456	2800.84
203.53	2778.95
203.605	2760.71
203.68	2737.64
203.754	2733.68
203.829	2721.01
203.904	2699.67
203.978	2690.37
204.053	2692.61
204.127	2678.61
204.202	2679.18
204.277	2659.13
204.351	2650.31
204.426	2642.74
204.5	2635.31
204.575	2596.92
204.65	2609.17
204.724	2597.87
204.799	2603.78
204.873	2598.1
204.948	2596.44
205.022	2583.34
205.097	2573.67
205.171	2590.48
205.246	2599.96
205.32	2595.39
205.395	2594.53
205.469	2587.58
205.544	2592.11
205.618	2575.58
205.693	2586.59
205.767	2569.01
205.842	2589.59
205.916	2582.3
205.991	2574.92
206.065	2582.73
206.14	2597.25
206.214	2591.39
206.289	2585.34
206.363	2598.48
206.438	2599.05
206.512	2611.68
206.586	2629.01
206.661	2635.45
206.735	2610.21
206.81	2609.78
206.884	2628.26
206.958	2616.83
207.033	2631.11
207.107	2637.74
207.181	2670.9
207.256	2666.71
207.33	2687.38
207.405	2703.97
207.479	2723.89
207.553	2732.89
207.628	2715.65
207.702	2728.42
207.776	2726.84
207.851	2729.84
207.925	2745.72
207.999	2744
208.073	2736.71
208.148	2739.76
208.222	2732.47
208.296	2765.23
208.371	2784.64
208.445	2796.7
208.519	2825.43
208.593	2840.77
208.668	2838.29
208.742	2843.54
208.816	2847.83
208.89	2864.08
208.965	2863.32
209.039	2876.82
209.113	2894.93
209.187	2920.27
209.261	2920.36
209.336	2939.95
209.41	2964.12
209.484	2966.51
209.558	2994.59
209.632	3015.04
209.707	3033.11
209.781	3063.34
209.855	3089.43
209.929	3117.55
210.003	3128.9
210.077	3139.82
210.151	3201.65
210.226	3252.19
210.3	3294.36
210.374	3332.61
210.448	3351.27
210.522	3378.67
210.596	3405.68
210.67	3434.65
210.744	3504.36
210.818	3563.34
210.892	3610.28
210.966	3629.8
211.041	3676.55
211.115	3701.37
211.189	3757.78
211.263	3813.71
211.337	3852.21
211.411	3905.79
211.485	3940.64
211.559	4000.98
211.633	4053.34
211.707	4074.63
211.781	4133.91
211.855	4150.99
211.929	4202.23
212.003	4246.39
212.077	4324.04
212.151	4406.4
212.225	4495.93
212.299	4563.65
212.373	4631.23
212.447	4714.85
212.52	4837.42
212.594	4926.45
212.668	5035.72
212.742	5116.06
212.816	5212.76
212.89	5312.99
212.964	5418.52
213.038	5533.17
213.112	5660.41
213.186	5791.55
213.26	5886.82
213.333	5962.95
213.407	6097.05
213.481	6228.87
213.555	6383.17
213.629	6505.76
213.703	6627.69
213.777	6762.88
213.85	6884.66
213.924	7062.84
213.998	7208.66
214.072	7350.25
214.146	7493.21
214.219	7647.64
214.293	7807.4
214.367	7963.65
214.441	8136.85
214.515	8284.11
214.588	8421.38
214.662	8551.25
214.736	8698.56
214.81	8875.14
214.883	9056.66
214.957	9215.11
215.031	9374.01
215.105	9515.22
215.178	9673.65
215.252	9838.4
215.326	9981.93
215.4	10133.65
215.473	10260.98
215.547	10416.6
215.621	10566.54
215.694	10747.61
215.768	10894.63
215.842	11053.74
215.915	11210.94
215.989	11352.14
216.063	11515.04
216.136	11683.09
216.21	11847.77
216.284	12023.79
216.357	12189.21
216.431	12344.17
216.504	12512.97
216.578	12697.78
216.652	12865.91
216.725	13028.74
216.799	13195.04
216.873	13360.62
216.946	13527.8
217.02	13680.41
217.093	13834.62
217.167	13964.05
217.24	14093.53
217.314	14237.67
217.387	14368.74
217.461	14507.47
217.535	14665.1
217.608	14794.62
217.682	14941.78
217.755	15091.31
217.829	15216.15
217.902	15353.67
217.976	15488.35
218.049	15612.95
218.123	15726.94
218.196	15867.4
218.27	15983.41
218.343	16090.17
218.417	16212.79
218.49	16323.88
218.563	16452.67
218.637	16568.53
218.71	16724.25
218.784	16847.49
218.857	16969.42
218.931	17092.13
219.004	17197.19
219.077	17311.89
219.151	17430.16
219.224	17528.62
219.298	17638.35
219.371	17750.83
219.444	17827.89
219.518	17926.54
219.591	18029.39
219.665	18154.34
219.738	18243.4
219.811	18331.78
219.885	18443.68
219.958	18541.37
220.031	18636.73
220.105	18731.14
220.178	18813.69
220.251	18892.14
220.325	18985.39
220.398	19065.39
220.471	19149.09
220.544	19235.83
220.618	19302.67
220.691	19370.81
220.764	19438.23
220.838	19513.55
220.911	19578.9
220.984	19678.65
221.057	19753.59
221.131	19819.56
221.204	19851.85
221.277	19933.58
221.35	20029.24
221.424	20077.63
221.497	20132.04
221.57	20193.43
221.643	20250.39
221.716	20316.61
221.79	20354.92
221.863	20397.04
221.936	20451.5
222.009	20503.31
222.082	20552.18
222.155	20591.89
222.229	20660.27
222.302	20720.61
222.375	20750.06
222.448	20788.28
222.521	20829.15
222.594	20862.16
222.667	20895.65
222.74	20946.74
222.814	20975.71
222.887	20985.11
222.96	21028.14
223.033	21067.86
223.106	21096.97
223.179	21135.43
223.252	21166.28
223.325	21193.99
223.398	21223.05
223.471	21247.54
223.544	21272.17
223.617	21298.58
223.69	21324.99
223.763	21328.12
223.837	21337.62
223.91	21372.08
223.983	21380.37
224.056	21377.57
224.129	21394.11
224.202	21421.29
224.275	21425.63
224.348	21431.03
224.42	21447.17
224.493	21439.56
224.566	21440.38
224.639	21459.75
224.712	21463.32
224.785	21452.76
224.858	21455.03
224.931	21447.56
225.004	21438.16
225.077	21438.93
225.15	21417.24
225.223	21414.88
225.296	21441.05
225.369	21437.15
225.442	21424.95
225.514	21428.95
225.587	21437.15
225.66	21440.81
225.733	21430.74
225.806	21430.21
225.879	21415.31
225.952	21399.41
226.025	21420.47
226.097	21430.35
226.17	21416.42
226.243	21384.85
226.316	21385.38
226.389	21382.44
226.461	21388.18
226.534	21395.84
226.607	21384.95
226.68	21402.98
226.753	21406.21
226.825	21371.69
226.898	21373.28
226.971	21363.36
227.044	21365.14
227.117	21356.8
227.189	21364.71
227.262	21371.6
227.335	21370.59
227.407	21356.56
227.48	21354.54
227.553	21335.3
227.626	21323.45
227.698	21312.6
227.771	21306.43
227.844	21289.85
227.916	21277.08
227.989	21246.91
228.062	21225.46
228.134	21237.51
228.207	21229.32
228.28	21205.94
228.352	21187.58
228.425	21178.61
228.498	21177.36
228.57	21144.97
228.643	21142.8
228.716	21112.01
228.788	21081.55
228.861	21059.62
228.934	21058.84
229.006	21042.07
229.079	21016.77
229.151	20988
229.224	20959.42
229.296	20948.62
229.369	20956.04
229.442	20962.79
229.514	20941.83
229.587	20947.95
229.659	20910.45
229.732	20901.24
229.804	20900.67
229.877	20919.8
229.949	20912.72
230.022	20917.1
230.094	20912.76
230.167	20902.59
230.239	20881.34
230.312	20860.52
230.384	20865.24
230.457	20855.51
230.529	20837.48
230.602	20823.94
230.674	20820.09
230.747	20818.93
230.819	20811.41
230.892	20771.51
230.964	20752.47
231.037	20741.77
231.109	20712.08
231.181	20706.15
231.254	20663.89
231.326	20631.41
231.399	20600.61
231.471	20571.55
231.544	20523.35
231.616	20509.62
231.688	20479.21
231.761	20453.09
231.833	20433.86
231.905	20387.11
231.978	20367.4
232.05	20346.44
232.122	20326.39
232.195	20293.18
232.267	20280.94
232.339	20257.52
232.412	20243.69
232.484	20209.91
232.556	20182.63
232.629	20179.6
232.701	20163.26
232.773	20146.3
232.846	20126.68
232.918	20100.95
232.99	20078.2
233.062	20054.3
233.135	20039.89
233.207	20009.24
233.279	20001.43
233.351	19982.93
233.424	19943.8
233.496	19904.18
233.568	19899.12
233.64	19865.2
233.713	19839.08
233.785	19815.42
233.857	19791.37
233.929	19744
234.001	19730.36
234.074	19719.08
234.146	19679.13
234.218	19649.64
234.29	19619.23
234.362	19581.07
234.434	19534.47
234.507	19497.21
234.579	19457.99
234.651	19419.53
234.723	19396.21
234.795	19367.54
234.867	19331.78
234.939	19336.69
235.012	19322.48
235.084	19299.01
235.156	19280.22
235.228	19243.16
235.3	19198.58
235.372	19176.7
235.444	19173.19
235.516	19125
235.588	19103.41
235.66	19069.67
235.732	19025.72
235.804	19056.33
235.876	19047.99
235.948	19044.52
236.02	19015.7
236.092	18991.9
236.164	18955.13
236.236	18928.19
236.308	18897.49
236.38	18877.83
236.452	18832.24
236.524	18801.74
236.596	18785.98
236.668	18759.04
236.74	18738.08
236.812	18714.61
236.884	18691.53
236.956	18664.11
237.028	18623
237.1	18589.75
237.172	18572.88
237.244	18570.28
237.316	18501.52
237.388	18446.58
237.46	18408.17
237.532	18392.36
237.604	18358.97
237.675	18350.2
237.747	18319.36
237.819	18277.62
237.891	18246.11
237.963	18211.41
238.035	18174.21
238.107	18104.91
238.178	18088.52
238.25	18046.74
238.322	18043.03
238.394	17985.78
238.466	17949.78
238.538	17937.49
238.609	17900.34
238.681	17853.78
238.753	17810.85
238.825	17785.59
238.897	17768.34
238.968	17749.64
239.04	17710.75
239.112	17704.05
239.184	17659.67
239.255	17625.26
239.327	17600.25
239.399	17573.93
239.471	17554.46
239.542	17526.13
239.614	17518.99
239.686	17457.84
239.758	17451.72
239.829	17410.18
239.901	17400.06
239.973	17367
240.044	17333.16
240.116	17312.34
240.188	17281.84
240.259	17252.1
240.331	17216.63
240.403	17193.93
240.474	17152.29
240.546	17116.82
240.618	17070.46
240.689	17031.28
240.761	17003.52
240.833	16993.49
240.904	16961.78
240.976	16930.55
241.048	16906.55
241.119	16874.94
241.191	16862.98
241.262	16845.25
241.334	16800.62
241.405	16767.22
241.477	16731.94
241.549	16697.53
241.62	16661.96
241.692	16643.02
241.763	16619.26
241.835	16586.53
241.906	16561.18
241.978	16514.29
242.049	16492.79
242.121	16469.61
242.192	16460.11
242.264	16415.58
242.335	16358.18
242.407	16332.53
242.478	16294.94
242.55	16264.43
242.621	16222.02
242.693	16184.62
242.764	16147.31
242.836	16122.54
242.907	16090.25
242.979	16062.87
243.05	16044.99
243.122	16020.02
243.193	15986.09
243.264	15934.76
243.336	15905.11
243.407	15881.79
243.479	15870.51
243.55	15850.17
243.622	15830.02
243.693	15803.32
243.764	15796.52
243.836	15761.86
243.907	15731.31
243.978	15693.76
244.05	15671.58
244.121	15627.19
244.192	15608.15
244.264	15553.3
244.335	15521.58
244.407	15480.03
244.478	15456.37
244.549	15415.15
244.62	15377.12
244.692	15347.33
244.763	15326.27
244.834	15289.15
244.906	15245.58
244.977	15225.62
245.048	15203.21
245.119	15153.42
245.191	15102.23
245.262	15047.95
245.333	15032.62
245.405	15005.34
245.476	14991.6
245.547	14968.46
245.618	14957.18
245.689	14926.82
245.761	14908.98
245.832	14878.32
245.903	14862.17
245.974	14831.52
246.045	14812.52
246.117	14794.01
246.188	14749.47
246.259	14710.33
246.33	14682.76
246.401	14654.37
246.473	14607.32
246.544	14567.98
246.615	14560.03
246.686	14527.35
246.757	14521.42
246.828	14486.08
246.899	14470.75
246.97	14428.82
247.042	14379.45
247.113	14364.37
247.184	14363.26
247.255	14334.86
247.326	14309.41
247.397	14273.55
247.468	14254.36
247.539	14220.71
247.61	14180.08
247.681	14162.24
247.752	14151.73
247.823	14110.51
247.894	14087.66
247.965	14045.97
248.037	14018.97
248.108	13975.78
248.179	13958.42
248.25	13923.71
248.321	13906.6
248.392	13863.55
248.463	13855.98
248.534	13831.21
248.605	13807.01
248.675	13773.75
248.746	13749.79
248.817	13738.41
248.888	13722.79
248.959	13669.91
249.03	13653.08
249.101	13632.11
249.172	13605.99
249.243	13556.24
249.314	13552.43
249.385	13531.27
249.456	13512.95
249.527	13482.24
249.598	13462.23
249.669	13437.89
249.739	13423.57
249.81	13404.68
249.881	13370.06
249.952	13343.41
250.023	13323.5
250.094	13279
250.165	13241.35
250.235	13211.85
250.306	13181.43
250.377	13145.04
250.448	13136.12
250.519	13097.22
250.59	13092.83
250.66	13063.76
250.731	13063.81
250.802	13039.22
250.873	13016.23
250.944	13007.74
251.014	12978.43
251.085	12982.34
251.156	12967.83
251.227	12962.82
251.297	12950.76
251.368	12944.02
251.439	12938.23
251.51	12927.43
251.58	12905.5
251.651	12876.67
251.722	12874.84
251.792	12838.11
251.863	12815.4
251.934	12810.44
252.005	12813.62
252.075	12792.26
252.146	12790.58
252.217	12770.96
252.287	12758.76
252.358	12735.24
252.429	12733.36
252.499	12710.17
252.57	12690.31
252.641	12677.2
252.711	12648.28
252.782	12610.53
252.852	12610.58
252.923	12586.67
252.994	12568.74
253.064	12560.59
253.135	12534.08
253.205	12507.66
253.276	12510.6
253.347	12511.13
253.417	12480.09
253.488	12451.31
253.558	12419.5
253.629	12396.99
253.699	12387.06
253.77	12374.67
253.841	12353.8
253.911	12331.67
253.982	12319.96
254.052	12305.4
254.123	12285.44
254.193	12268.14
254.264	12295.13
254.334	12261.24
254.405	12232.42
254.475	12201.86
254.546	12175.78
254.616	12173.27
254.687	12152.93
254.757	12132.21
254.827	12110.08
254.898	12094.9
254.968	12080.97
255.039	12059.66
255.109	12045.25
255.18	12015.94
255.25	11975.31
255.321	11961.24
255.391	11935.21
255.461	11945.76
255.532	11896.69
255.602	11871.15
255.673	11832.25
255.743	11798.03
255.813	11759.18
255.884	11749.35
255.954	11746.31
256.024	11745.92
256.095	11733.01
256.165	11702.11
256.235	11693.77
256.306	11666.35
256.376	11662.16
256.446	11648.9
256.517	11646.78
256.587	11640.8
256.657	11632.61
256.728	11621.09
256.798	11603.02
256.868	11572.32
256.938	11532.89
257.009	11528.94
257.079	11527.73
257.149	11539.97
257.219	11501.37
257.29	11488.6
257.36	11454.81
257.43	11442.96
257.5	11403.63
257.571	11371.92
257.641	11369.6
257.711	11341.65
257.781	11336.4
257.852	11325.02
257.922	11288.59
257.992	11266.42
258.062	11249.98
258.132	11233.69
258.202	11208.83
258.273	11195.28
258.343	11204.06
258.413	11182.42
258.483	11168.01
258.553	11135.96
258.623	11108.39
258.693	11099.62
258.764	11104.49
258.834	11100.87
258.904	11083.67
258.974	11057.94
259.044	11045.99
259.114	11038.85
259.184	11017.46
259.254	11000.3
259.324	10960.3
259.394	10955.44
259.464	10947.15
259.535	10924.79
259.605	10907.2
259.675	10890.53
259.745	10878.67
259.815	10844.99
259.885	10822.53
259.955	10831.11
260.025	10803.74
260.095	10785.19
260.165	10771.94
260.235	10766.98
260.305	10737.68
260.375	10711.27
260.445	10731.37
260.515	10729.15
260.585	10719.9
260.655	10711.32
260.725	10703.9
260.795	10702.79
260.865	10705.49
260.934	10691.81
261.004	10684.34
261.074	10668.05
261.144	10672.34
261.214	10668.19
261.284	10655.28
261.354	10653.21
261.424	10624.05
261.494	10631.43
261.564	10619.48
261.634	10612.54
261.703	10582.33
261.773	10577.51
261.843	10566.76
261.913	10543.69
261.983	10509.38
262.053	10495.6
262.123	10473.05
