Data from 20250704_urea_0.1M_MAYP1162681_11-23-57-669.txt Node
Date: Fri Jul 04 11:23:57 BST 2025
User: adleo
Spectrometer: MAYP116268
Trigger mode: 0
Integration Time (sec): 1.000000E0
Scans to average: 1
Electric dark correction enabled: true
Nonlinearity correction enabled: true
Boxcar width: 10
XAxis mode: Wavelengths
Number of Pixels in Spectrum: 2068
>>>>>Begin Spectral Data<<<<<
179.565	1246.22
179.642	1303.29
179.718	1344.91
179.795	1387.71
179.871	1422.33
179.948	1440.66
180.024	1464.81
180.101	1487.89
180.177	1503.39
180.254	1527.12
180.33	1549.26
180.407	1605.28
180.483	1701.58
180.56	1797.51
180.636	1888.01
180.712	1875.12
180.789	1885.29
180.865	1899.65
180.942	1906.92
181.018	1913.86
181.095	1929.65
181.171	1932.74
181.248	1932.79
181.324	1950.76
181.4	1956.42
181.477	1966.79
181.553	1980.72
181.63	1998.22
181.706	2014.58
181.782	2022.71
181.859	2021.18
181.935	2026.42
182.011	2021.85
182.088	2042.68
182.164	2062.53
182.24	2072.18
182.317	2079.88
182.393	2078.46
182.469	2093.25
182.546	2111.8
182.622	2117.7
182.698	2110.8
182.775	2124.64
182.851	2139.72
182.927	2131.01
183.003	2126.83
183.08	2121.88
183.156	2132.63
183.232	2129.3
183.308	2116.51
183.385	2126.3
183.461	2146.66
183.537	2148.38
183.613	2163.6
183.69	2153.18
183.766	2137.76
183.842	2147.42
183.918	2154.55
183.995	2168.82
184.071	2171.2
184.147	2159.98
184.223	2147.23
184.299	2159.98
184.375	2149.71
184.452	2159.04
184.528	2211.71
184.604	2222.42
184.68	2232.88
184.756	2238.31
184.832	2245.59
184.908	2251.2
184.985	2247.63
185.061	2230.79
185.137	2240.97
185.213	2229.08
185.289	2231.55
185.365	2226.84
185.441	2223.46
185.517	2236.5
185.593	2233.7
185.669	2231.41
185.745	2243.21
185.822	2258.05
185.898	2249.77
185.974	2257.19
186.05	2246.58
186.126	2213.12
186.202	2209.36
186.278	2205.99
186.354	2195.95
186.43	2204.18
186.506	2203.23
186.582	2202.8
186.658	2206.04
186.734	2185.58
186.81	2189.39
186.886	2191.29
186.962	2202.66
187.038	2198.19
187.114	2189.19
187.19	2193.14
187.266	2184.67
187.341	2187.24
187.417	2182.48
187.493	2183.29
187.569	2187.34
187.645	2183.25
187.721	2169.54
187.797	2172.35
187.873	2179.25
187.949	2174.35
188.025	2164.02
188.101	2167.06
188.176	2174.1
188.252	2173.2
188.328	2180.28
188.404	2179.05
188.48	2175.15
188.556	2170.96
188.632	2167.73
188.707	2169.2
188.783	2165.3
188.859	2159.5
188.935	2147.17
189.011	2154.74
189.086	2147.75
189.162	2138.14
189.238	2134.95
189.314	2130.81
189.39	2127.24
189.465	2118.39
189.541	2135.57
189.617	2119.25
189.693	2114.55
189.768	2118.73
189.844	2142.86
189.92	2135.26
189.996	2142.87
190.071	2151.91
190.147	2148.39
190.223	2162.66
190.298	2153.62
190.374	2146.72
190.45	2156.71
190.526	2169.08
190.601	2162.32
190.677	2164.42
190.753	2193.65
190.828	2196.07
190.904	2212.68
190.98	2228.62
191.055	2240.8
191.131	2231.71
191.207	2254.74
191.282	2266.11
191.358	2255.35
191.433	2240.02
191.509	2254.53
191.585	2252.2
191.66	2253.25
191.736	2261.72
191.811	2250.68
191.887	2269.52
191.963	2292.32
192.038	2297.51
192.114	2296.13
192.189	2303.93
192.265	2304.59
192.34	2279.74
192.416	2278.22
192.491	2274.13
192.567	2274.89
192.642	2276.32
192.718	2275.7
192.793	2263.33
192.869	2258.47
192.944	2261.56
193.02	2270.7
193.095	2271.56
193.171	2279.46
193.246	2280.74
193.322	2277.56
193.397	2281.6
193.473	2266.61
193.548	2245.19
193.624	2253.85
193.699	2254.66
193.775	2270.23
193.85	2268.61
193.925	2282.27
194.001	2283.41
194.076	2276.08
194.152	2266.37
194.227	2257.71
194.302	2249.2
194.378	2252.91
194.453	2250.82
194.529	2260.19
194.604	2244.44
194.679	2240.82
194.755	2221.17
194.83	2233.89
194.905	2233.22
194.981	2240.5
195.056	2232.89
195.131	2241.64
195.207	2238.55
195.282	2225.13
195.357	2204.52
195.433	2220.46
195.508	2204.09
195.583	2208.9
195.659	2223.03
195.734	2231.84
195.809	2232.22
195.884	2241.54
195.96	2241.3
196.035	2252.06
196.11	2252.15
196.185	2267.71
196.261	2271.38
196.336	2303.5
196.411	2289.12
196.486	2293.88
196.561	2286.74
196.637	2297.49
196.712	2312.35
196.787	2316.92
196.862	2333.29
196.937	2345.23
197.013	2348.56
197.088	2362.89
197.163	2390.55
197.238	2407.23
197.313	2407.84
197.388	2419.13
197.464	2448.36
197.539	2461.21
197.614	2454.93
197.689	2468.27
197.764	2482.22
197.839	2502.65
197.914	2496.12
197.989	2517.03
198.065	2531.98
198.14	2581.62
198.215	2610.15
198.29	2622.35
198.365	2634.54
198.44	2646.78
198.515	2673.56
198.59	2692.09
198.665	2717.67
198.74	2720.39
198.815	2720.29
198.89	2740.44
198.965	2773.13
199.04	2769.42
199.115	2787.81
199.19	2836.21
199.265	2837.21
199.34	2844.93
199.415	2881.41
199.49	2902.47
199.565	2915.1
199.64	2938.07
199.715	2935.16
199.79	2941.5
199.865	2947.41
199.94	2946.7
200.015	2977.79
200.09	2982.51
200.165	2987.51
200.24	2993.19
200.315	3038.66
200.39	3054.49
200.464	3059.78
200.539	3062.31
200.614	3078.37
200.689	3101.22
200.764	3109.42
200.839	3129.92
200.914	3137.69
200.989	3124
201.063	3140.78
201.138	3122.72
201.213	3122.53
201.288	3106.8
201.363	3114.43
201.438	3115.48
201.512	3132.73
201.587	3115.42
201.662	3120.67
201.737	3134.5
201.812	3146.47
201.886	3114.11
201.961	3122.84
202.036	3116.31
202.111	3113.25
202.186	3084.8
202.26	3068.06
202.335	3044.17
202.41	3038.87
202.485	3024.24
202.559	3008.12
202.634	2983.09
202.709	2997.39
202.784	2982.66
202.858	2986.14
202.933	2969.26
203.008	2970.16
203.082	2955.62
203.157	2964.4
203.232	2929.75
203.306	2916.3
203.381	2890.5
203.456	2875.68
203.53	2870
203.605	2859.85
203.68	2849.69
203.754	2863.46
203.829	2866.75
203.904	2865.51
203.978	2876.48
204.053	2901.37
204.127	2908.8
204.202	2934.12
204.277	2943.13
204.351	2967.22
204.426	2991.02
204.5	3018.78
204.575	3018.35
204.65	3066.3
204.724	3097.37
204.799	3145.95
204.873	3187.28
204.948	3236.52
205.022	3277.26
205.097	3320.77
205.171	3392.98
205.246	3460.88
205.32	3521.3
205.395	3591.96
205.469	3653.4
205.544	3729.86
205.618	3788.35
205.693	3883.54
205.767	3955.23
205.842	4066.21
205.916	4151.75
205.991	4235.59
206.065	4338.11
206.14	4457.22
206.214	4558.28
206.289	4658.14
206.363	4785.86
206.438	4903.49
206.512	5028.03
206.586	5163.19
206.661	5296.92
206.735	5407.08
206.81	5537.94
206.884	5687.22
206.958	5807.17
207.033	5963.35
207.107	6116.66
207.181	6300.93
207.256	6446.48
207.33	6612.01
207.405	6779.9
207.479	6954.11
207.553	7121.32
207.628	7261.94
207.702	7435.57
207.776	7594.06
207.851	7765.89
207.925	7953.37
207.999	8124.69
208.073	8294.01
208.148	8480.16
208.222	8645.66
208.296	8856.13
208.371	9056.53
208.445	9251.5
208.519	9459.04
208.593	9653.99
208.668	9830.75
208.742	10016.59
208.816	10204
208.89	10408.54
208.965	10590.87
209.039	10788.55
209.113	10995.98
209.187	11208.83
209.261	11394.88
209.336	11606.87
209.41	11823.54
209.484	12010.84
209.558	12221.9
209.632	12421.19
209.707	12624.26
209.781	12834.27
209.855	13039.91
209.929	13250.99
210.003	13443.37
210.077	13637.39
210.151	13874.79
210.226	14100.14
210.3	14313.15
210.374	14517.97
210.448	14702.78
210.522	14899.84
210.596	15078.57
210.67	15263.91
210.744	15488.04
210.818	15696.03
210.892	15893.89
210.966	16059.07
211.041	16247.19
211.115	16414.54
211.189	16618.37
211.263	16799.63
211.337	16975.74
211.411	17154.93
211.485	17299.66
211.559	17474.99
211.633	17630.17
211.707	17752.15
211.781	17922.07
211.855	18043.76
211.929	18189.34
212.003	18325.1
212.077	18486.4
212.151	18661.77
212.225	18813.62
212.299	18954.09
212.373	19081.6
212.447	19210.27
212.52	19373.21
212.594	19514.12
212.668	19663.27
212.742	19786.74
212.816	19918.15
212.89	20043.36
212.964	20166.3
213.038	20301.67
213.112	20443.99
213.186	20597.29
213.26	20702.55
213.333	20764.86
213.407	20889.83
213.481	21017.3
213.555	21149.31
213.629	21241.95
213.703	21335.89
213.777	21456.48
213.85	21546.52
213.924	21703.04
213.998	21818.82
214.072	21929.22
214.146	22024.95
214.219	22121.31
214.293	22219.84
214.367	22318.86
214.441	22433.22
214.515	22530.94
214.588	22610.2
214.662	22664.96
214.736	22727.54
214.81	22823.38
214.883	22929.44
214.957	23006.78
215.031	23080.45
215.105	23146.16
215.178	23224.95
215.252	23305.67
215.326	23358.09
215.4	23421.59
215.473	23446.38
215.547	23500.58
215.621	23551.56
215.694	23618.21
215.768	23671.26
215.842	23722.04
215.915	23779.82
215.989	23815.08
216.063	23861
216.136	23927.22
216.21	23994.16
216.284	24078.77
216.357	24150.25
216.431	24205.86
216.504	24268.62
216.578	24356.13
216.652	24418.25
216.725	24466.73
216.799	24518.06
216.873	24578.46
216.946	24633.65
217.02	24674.07
217.093	24721.01
217.167	24746.82
217.24	24790.1
217.314	24833.28
217.387	24874.72
217.461	24907.77
217.535	24970.25
217.608	24997.18
217.682	25038.14
217.755	25092.04
217.829	25111.01
217.902	25147.49
217.976	25186.96
218.049	25203.56
218.123	25214.42
218.196	25247.23
218.27	25275.8
218.343	25300.22
218.417	25333.23
218.49	25371.64
218.563	25429.99
218.637	25474.15
218.71	25538.43
218.784	25574.63
218.857	25623.43
218.931	25664.74
219.004	25700.26
219.077	25735.55
219.151	25773.87
219.224	25792.89
219.298	25820.74
219.371	25859.36
219.444	25882.67
219.518	25910.47
219.591	25955.31
219.665	26007.4
219.738	26036.6
219.811	26074.45
219.885	26112.34
219.958	26144.93
220.031	26160.28
220.105	26190.02
220.178	26218.7
220.251	26229.51
220.325	26266.45
220.398	26284.36
220.471	26303.38
220.544	26332.11
220.618	26341.04
220.691	26370.88
220.764	26396.66
220.838	26406.56
220.911	26424.52
220.984	26454.89
221.057	26477.87
221.131	26493.18
221.204	26481.64
221.277	26531.13
221.35	26569.42
221.424	26573.77
221.497	26583.38
221.57	26605.98
221.643	26615.34
221.716	26630.75
221.79	26627.42
221.863	26619.74
221.936	26627.37
222.009	26639.05
222.082	26652.72
222.155	26650.45
222.229	26662.23
222.302	26681.35
222.375	26684.83
222.448	26687.63
222.521	26693.43
222.594	26692.12
222.667	26684.25
222.74	26698.69
222.814	26680.73
222.887	26660.01
222.96	26672.47
223.033	26675.6
223.106	26658.51
223.179	26659.48
223.252	26650.11
223.325	26652.33
223.398	26643.69
223.471	26641.51
223.544	26632
223.617	26617.95
223.69	26608.2
223.763	26596.99
223.837	26578.98
223.91	26582.99
223.983	26549.43
224.056	26517.61
224.129	26505.11
224.202	26504.29
224.275	26481.93
224.348	26456.29
224.42	26433.4
224.493	26403.71
224.566	26385.51
224.639	26388.74
224.712	26372.47
224.785	26343.55
224.858	26326.36
224.931	26305.65
225.004	26282.28
225.077	26267.84
225.15	26235.55
225.223	26221.84
225.296	26224.68
225.369	26189.49
225.442	26149.32
225.514	26137.35
225.587	26126.06
225.66	26103.13
225.733	26087.39
225.806	26065.37
225.879	26052.1
225.952	26024.1
226.025	26015.65
226.097	26009.09
226.17	25971.58
226.243	25919.2
226.316	25906.07
226.389	25888.7
226.461	25878.17
226.534	25850.47
226.607	25830.63
226.68	25810.65
226.753	25782.12
226.825	25728.87
226.898	25717.92
226.971	25703.05
227.044	25685.82
227.117	25658.55
227.189	25634.32
227.262	25615.11
227.335	25594.46
227.407	25557.44
227.48	25529.35
227.553	25496.15
227.626	25451.16
227.698	25430.12
227.771	25419.17
227.844	25382.88
227.916	25350.98
227.989	25307.16
228.062	25278.98
228.134	25258.08
228.207	25238.34
228.28	25201.62
228.352	25173.35
228.425	25144.44
228.498	25119.69
228.57	25073.46
228.643	25054.98
228.716	25032.88
228.788	24987.72
228.861	24954.52
228.934	24936.28
229.006	24909.89
229.079	24880.51
229.151	24849.24
229.224	24803.7
229.296	24776.24
229.369	24770.12
229.442	24749.13
229.514	24714.59
229.587	24707.4
229.659	24659.2
229.732	24634.45
229.804	24615.78
229.877	24606.66
229.949	24588.67
230.022	24576.7
230.094	24556.78
230.167	24534.15
230.239	24489.44
230.312	24462.47
230.384	24460.11
230.457	24435.94
230.529	24406.76
230.602	24378.54
230.674	24350.56
230.747	24331.7
230.819	24313.03
230.892	24250.66
230.964	24231.85
231.037	24205.32
231.109	24153.23
231.181	24124.82
231.254	24070.17
231.326	24034.87
231.399	23986.53
231.471	23934.64
231.544	23872.8
231.616	23839.33
231.688	23803.06
231.761	23763.32
231.833	23730.58
231.905	23653.7
231.978	23612.32
232.05	23576.01
232.122	23535.4
232.195	23501.16
232.267	23485.15
232.339	23429.11
232.412	23404.28
232.484	23354.26
232.556	23308.7
232.629	23293.6
232.701	23267.57
232.773	23237.86
232.846	23198.52
232.918	23161
232.99	23129.37
233.062	23104.35
233.135	23078.79
233.207	23022.9
233.279	22994.27
233.351	22964.42
233.424	22929.47
233.496	22882.17
233.568	22874.89
233.64	22828.94
233.713	22786.51
233.785	22739.6
233.857	22702.33
233.929	22639.61
234.001	22614.15
234.074	22591.78
234.146	22540.97
234.218	22503.6
234.29	22454.53
234.362	22407.38
234.434	22357.34
234.507	22304.99
234.579	22244.39
234.651	22195.85
234.723	22170.59
234.795	22146.77
234.867	22100.3
234.939	22080.15
235.012	22037.73
235.084	21989.91
235.156	21952.4
235.228	21909.94
235.3	21866.79
235.372	21838.35
235.444	21813.87
235.516	21758.34
235.588	21716.4
235.66	21667.57
235.732	21602.84
235.804	21625.74
235.876	21603.52
235.948	21583.71
236.02	21549.05
236.092	21513.82
236.164	21475.16
236.236	21423.54
236.308	21358.33
236.38	21322.08
236.452	21274.46
236.524	21241.54
236.596	21215.85
236.668	21189.1
236.74	21148.23
236.812	21108.04
236.884	21077.48
236.956	21045.19
237.028	20989.96
237.1	20932.61
237.172	20906.24
237.244	20886.58
237.316	20807.05
237.388	20754.18
237.46	20695.34
237.532	20662.76
237.604	20612.64
237.675	20586.37
237.747	20550.23
237.819	20509.5
237.891	20460.3
237.963	20405.55
238.035	20357.65
238.107	20265.55
238.178	20240.88
238.25	20186.52
238.322	20164.64
238.394	20094.52
238.466	20051.77
238.538	20015
238.609	19985.22
238.681	19926.43
238.753	19878.91
238.825	19850.67
238.897	19813.71
238.968	19798.48
239.04	19754.62
239.112	19740.46
239.184	19689.71
239.255	19643.11
239.327	19612.03
239.399	19571.31
239.471	19543.07
239.542	19505.87
239.614	19492.47
239.686	19412.28
239.758	19389.49
239.829	19326.69
239.901	19304.62
239.973	19257.25
240.044	19215.71
240.116	19178.03
240.188	19134.51
240.259	19096.73
240.331	19035
240.403	19008.45
240.474	18947.06
240.546	18899.44
240.618	18833.91
240.689	18790
240.761	18752.46
240.833	18724.23
240.904	18680.42
240.976	18639.94
241.048	18599.12
241.119	18564.38
241.191	18539.8
241.262	18516.48
241.334	18481.64
241.405	18431.71
241.477	18385.4
241.549	18351.43
241.62	18316.15
241.692	18283.48
241.763	18250.08
241.835	18206.04
241.906	18157.51
241.978	18103.68
242.049	18073.17
242.121	18044.84
242.192	18016.31
242.264	17964.98
242.335	17908.36
242.407	17871.98
242.478	17822.58
242.55	17789.04
242.621	17739.83
242.693	17693.76
242.764	17647.5
242.836	17594.83
242.907	17561.62
242.979	17531.98
243.05	17498.63
243.122	17461.91
243.193	17417.24
243.264	17355.12
243.336	17320.27
243.407	17289.14
243.479	17267.98
243.55	17236.51
243.622	17202.2
243.693	17156.9
243.764	17143.16
243.836	17094.82
243.907	17059.74
243.978	17021.86
244.05	16989.85
244.121	16933.71
244.192	16906.48
244.264	16850.76
244.335	16824.35
244.407	16770.18
244.478	16732.78
244.549	16684.3
244.62	16630.56
244.692	16591.9
244.763	16568.96
244.834	16513.87
244.906	16469.53
244.977	16436.86
245.048	16411.41
245.119	16372.95
245.191	16326.49
245.262	16262.34
245.333	16250.29
245.405	16206.47
245.476	16179.15
245.547	16143.09
245.618	16120.01
245.689	16082.12
245.761	16055.71
245.832	16015.32
245.903	15990.69
245.974	15964.66
246.045	15926.3
246.117	15908.8
246.188	15866.82
246.259	15821.32
246.33	15794.18
246.401	15757.6
246.473	15700.53
246.544	15655.03
246.615	15635.75
246.686	15602.1
246.757	15582.2
246.828	15525.03
246.899	15510.14
246.97	15453.93
247.042	15405.63
247.113	15383.17
247.184	15371.56
247.255	15327.89
247.326	15300.36
247.397	15262.91
247.468	15222.66
247.539	15192.29
247.61	15145.83
247.681	15119.46
247.752	15105.05
247.823	15071.25
247.894	15045.71
247.965	15013.22
248.037	14974.08
248.108	14916.09
248.179	14875.69
248.25	14836.31
248.321	14812.64
248.392	14766.99
248.463	14764.54
248.534	14738.7
248.605	14715.18
248.675	14677.29
248.746	14649.33
248.817	14619.11
248.888	14590.66
248.959	14537.69
249.03	14519.22
249.101	14498.93
249.172	14464.27
249.243	14407.48
249.314	14388.59
249.385	14357.79
249.456	14332.91
249.527	14297.62
249.598	14278.15
249.669	14258.43
249.739	14232.84
249.81	14207.91
249.881	14166.07
249.952	14131.07
250.023	14090.87
250.094	14040.59
250.165	13999.04
250.235	13969.39
250.306	13943.89
250.377	13906.96
250.448	13891.54
250.519	13842.42
250.59	13821.45
250.66	13793.44
250.731	13784.71
250.802	13757.04
250.873	13723.39
250.944	13698.76
251.014	13663.86
251.085	13661.3
251.156	13640.91
251.227	13632.91
251.297	13621.44
251.368	13603.89
251.439	13586.54
251.51	13577.52
251.58	13537.22
251.651	13503.52
251.722	13491.04
251.792	13443.31
251.863	13414.82
251.934	13405.57
252.005	13411.83
252.075	13383.59
252.146	13368.26
252.217	13348.78
252.287	13330.32
252.358	13304.91
252.429	13302.07
252.499	13276.86
252.57	13246.53
252.641	13220.02
252.711	13187.77
252.782	13145.3
252.852	13144.48
252.923	13121.97
252.994	13101.58
253.064	13094.88
253.135	13066.97
253.205	13036.07
253.276	13037.32
253.347	13038.52
253.417	13000.59
253.488	12962.74
253.558	12937.92
253.629	12907.98
253.699	12891.45
253.77	12874.29
253.841	12855.29
253.911	12832.01
253.982	12812.25
254.052	12797.83
254.123	12784.14
254.193	12763.61
254.264	12782.94
254.334	12754.45
254.405	12722.34
254.475	12688.98
254.546	12665.22
254.616	12663.05
254.687	12644.06
254.757	12618.99
254.827	12588.91
254.898	12574.55
254.968	12551.31
255.039	12520.65
255.109	12515.79
255.18	12482.57
255.25	12439.38
255.321	12425.89
255.391	12390.07
255.461	12393.97
255.532	12346.78
255.602	12319.45
255.673	12277.23
255.743	12238.18
255.813	12184.19
255.884	12170.07
255.954	12158.5
256.024	12158.12
256.095	12126.54
256.165	12095.07
256.235	12086.2
256.306	12058.14
256.376	12056.7
256.446	12047.83
256.517	12037.56
256.587	12026.62
256.657	12008.59
256.728	11994.66
256.798	11969.26
256.868	11942.41
256.938	11907.9
257.009	11900.91
257.079	11890.64
257.149	11897.44
257.219	11856.76
257.29	11848.37
257.36	11812.9
257.43	11801.23
257.5	11756.31
257.571	11730.67
257.641	11716.94
257.711	11684.98
257.781	11673.41
257.852	11647.29
257.922	11610.95
257.992	11584.82
258.062	11557.88
258.132	11549.73
258.202	11528.48
258.273	11510.12
258.343	11510.5
258.413	11481.78
258.483	11462.79
258.553	11429.82
258.623	11402.68
258.693	11391.65
258.764	11392.42
258.834	11386.35
258.904	11366.25
258.974	11342.78
259.044	11331.07
259.114	11316.85
259.184	11297.91
259.254	11277.24
259.324	11237.48
259.394	11230.87
259.464	11230.87
259.535	11212.46
259.605	11188.41
259.675	11165.77
259.745	11155.02
259.815	11124.75
259.885	11107.55
259.955	11118.92
260.025	11088.66
260.095	11071.55
260.165	11057.92
260.235	11052.52
260.305	11024.13
260.375	10991.27
260.445	10998.21
260.515	10994.98
260.585	10990.3
260.655	10969.87
260.725	10961.92
260.795	10952.52
260.865	10951.27
260.934	10926.89
261.004	10916.72
261.074	10904.67
261.144	10897.44
261.214	10888
261.284	10872.82
261.354	10865.16
261.424	10828.39
261.494	10837.73
261.564	10821.06
261.634	10816.05
261.703	10777.6
261.773	10774.32
261.843	10770.95
