Data from 20250704_urea_0.5M_MAYP1162681_11-17-03-703.txt Node
Date: Fri Jul 04 11:17:03 BST 2025
User: adleo
Spectrometer: MAYP116268
Trigger mode: 0
Integration Time (sec): 1.000000E0
Scans to average: 1
Electric dark correction enabled: true
Nonlinearity correction enabled: true
Boxcar width: 10
XAxis mode: Wavelengths
Number of Pixels in Spectrum: 2068
>>>>>Begin Spectral Data<<<<<
179.565	1248.52
179.642	1298.97
179.718	1342.96
179.795	1381.74
179.871	1418.14
179.948	1439.07
180.024	1459.78
180.101	1483.45
180.177	1496.49
180.254	1519.65
180.33	1542.13
180.407	1598.39
180.483	1695.78
180.56	1789.91
180.636	1879.69
180.712	1866.04
180.789	1872.5
180.865	1884.39
180.942	1894.27
181.018	1905.3
181.095	1919.33
181.171	1922.52
181.248	1927.27
181.324	1942.82
181.4	1951.86
181.477	1962.65
181.553	1975.25
181.63	1996.41
181.706	2011.87
181.782	2021.66
181.859	2020.37
181.935	2027.46
182.011	2024.56
182.088	2041.63
182.164	2061.09
182.24	2070.75
182.317	2079.88
182.393	2081.4
182.469	2098.76
182.546	2111.17
182.622	2115.84
182.698	2110.22
182.775	2123.54
182.851	2137.62
182.927	2130.34
183.003	2125.21
183.08	2117.26
183.156	2125.25
183.232	2121.45
183.308	2109.51
183.385	2117.59
183.461	2137.81
183.537	2137.19
183.613	2148.66
183.69	2140.14
183.766	2127.63
183.842	2136.47
183.918	2143.28
183.995	2158.22
184.071	2159.83
184.147	2151.98
184.223	2142.66
184.299	2161.03
184.375	2147.57
184.452	2156.28
184.528	2208.48
184.604	2218.8
184.68	2231.74
184.756	2239.16
184.832	2245.64
184.908	2253.82
184.985	2252.25
185.061	2233.55
185.137	2241.64
185.213	2230.98
185.289	2231.08
185.365	2223.8
185.441	2224.66
185.517	2236.18
185.593	2229.42
185.669	2225.04
185.745	2236.36
185.822	2249.82
185.898	2234.88
185.974	2248.2
186.05	2238.44
186.126	2205.08
186.202	2199.23
186.278	2195.76
186.354	2185.15
186.43	2192.57
186.506	2188.2
186.582	2188.96
186.658	2196.09
186.734	2177.97
186.81	2180.97
186.886	2184.72
186.962	2199.33
187.038	2193.38
187.114	2185.72
187.19	2194.66
187.266	2186.67
187.341	2186.81
187.417	2180.3
187.493	2183.2
187.569	2182.34
187.645	2177.49
187.721	2163.02
187.797	2170.11
187.873	2176.82
187.949	2171.97
188.025	2163.78
188.101	2166.11
188.176	2172.3
188.252	2168.87
188.328	2175.86
188.404	2174.2
188.48	2171.63
188.556	2164.35
188.632	2162.07
188.707	2165.3
188.783	2162.49
188.859	2155.17
188.935	2144.94
189.011	2154.12
189.086	2148.18
189.162	2142.42
189.238	2138.81
189.314	2136.67
189.39	2131
189.465	2121.92
189.541	2136.43
189.617	2120.35
189.693	2116.88
189.768	2117.73
189.844	2141.77
189.92	2133.97
189.996	2145.77
190.071	2156.04
190.147	2153.29
190.223	2166.85
190.298	2157.9
190.374	2145.34
190.45	2158.8
190.526	2169.22
190.601	2162.42
190.677	2163.23
190.753	2191.98
190.828	2195.07
190.904	2208.77
190.98	2223.48
191.055	2233.42
191.131	2227.14
191.207	2248.41
191.282	2256.3
191.358	2248.5
191.433	2233.55
191.509	2246.58
191.585	2243.87
191.66	2243.97
191.736	2253.62
191.811	2241.35
191.887	2258.24
191.963	2280.8
192.038	2285.75
192.114	2282.09
192.189	2288.18
192.265	2284.89
192.34	2264.18
192.416	2262.52
192.491	2259.99
192.567	2262.28
192.642	2264.18
192.718	2265.56
192.793	2252.71
192.869	2247.77
192.944	2249
193.02	2256.19
193.095	2258.19
193.171	2263.33
193.246	2265.42
193.322	2258.71
193.397	2261.62
193.473	2244.39
193.548	2223.45
193.624	2226.44
193.699	2226.4
193.775	2240.96
193.85	2240.15
193.925	2245.15
194.001	2244.72
194.076	2237.68
194.152	2227.54
194.227	2218.79
194.302	2207.89
194.378	2214.17
194.453	2213.7
194.529	2230.64
194.604	2217.03
194.679	2211.66
194.755	2192.86
194.83	2201.53
194.905	2201.62
194.981	2209.1
195.056	2204.53
195.131	2212.09
195.207	2215.19
195.282	2206.58
195.357	2186.54
195.433	2203.81
195.508	2193.2
195.583	2202.24
195.659	2214.8
195.734	2222.22
195.809	2225.56
195.884	2234.55
195.96	2232.07
196.035	2247.92
196.11	2240.2
196.185	2253.77
196.261	2258.62
196.336	2290.93
196.411	2276.56
196.486	2285.07
196.561	2279.22
196.637	2287.02
196.712	2304.92
196.787	2307.68
196.862	2323.53
196.937	2335.47
197.013	2342.95
197.088	2356.7
197.163	2379.8
197.238	2397.37
197.313	2398.61
197.388	2411.18
197.464	2439.84
197.539	2453.12
197.614	2445.13
197.689	2457.31
197.764	2472.22
197.839	2493.02
197.914	2484.93
197.989	2511.64
198.065	2523.5
198.14	2574.1
198.215	2603.24
198.29	2613.58
198.365	2625.3
198.44	2637.4
198.515	2666.22
198.59	2679.08
198.665	2702.38
198.74	2712.34
198.815	2715.58
198.89	2738.25
198.965	2767.47
199.04	2765.85
199.115	2779.23
199.19	2822.2
199.265	2828.11
199.34	2838.88
199.415	2874.16
199.49	2895.79
199.565	2904.18
199.64	2929.54
199.715	2927.15
199.79	2936.31
199.865	2943.79
199.94	2941.98
200.015	2969.2
200.09	2972.73
200.165	2981.64
200.24	2989.17
200.315	3030.98
200.39	3044.86
200.464	3050.48
200.539	3050.82
200.614	3067.07
200.689	3094.87
200.764	3105.51
200.839	3122.38
200.914	3128.39
200.989	3117.51
201.063	3131.2
201.138	3113.23
201.213	3114.95
201.288	3096.35
201.363	3096.02
201.438	3098.02
201.512	3116.18
201.587	3101.59
201.662	3106.22
201.737	3118
201.812	3124.29
201.886	3086.58
201.961	3098.89
202.036	3088.69
202.111	3084.26
202.186	3055.33
202.26	3035.59
202.335	3011.93
202.41	3005.64
202.485	2985.91
202.559	2966.12
202.634	2940
202.709	2947.91
202.784	2926.5
202.858	2926.41
202.933	2911.3
203.008	2900.29
203.082	2882.13
203.157	2882.22
203.232	2840.3
203.306	2818.08
203.381	2786
203.456	2762.89
203.53	2737.85
203.605	2717.32
203.68	2695.63
203.754	2689.73
203.829	2675.34
203.904	2651.81
203.978	2643.28
204.053	2647.76
204.127	2637.18
204.202	2637.23
204.277	2621.75
204.351	2612.94
204.426	2604.89
204.5	2596.93
204.575	2564.37
204.65	2573.28
204.724	2565.37
204.799	2570.84
204.873	2566.12
204.948	2565.31
205.022	2555.17
205.097	2545.21
205.171	2558.55
205.246	2566.6
205.32	2564.65
205.395	2564.36
205.469	2555.56
205.544	2559.94
205.618	2543.37
205.693	2552.89
205.767	2538.37
205.842	2560.81
205.916	2554.76
205.991	2545.62
206.065	2548.71
206.14	2568.8
206.214	2562.51
206.289	2554.65
206.363	2572.51
206.438	2576.08
206.512	2584.8
206.586	2605.37
206.661	2612.56
206.735	2591.43
206.81	2595.19
206.884	2612.38
206.958	2601.62
207.033	2623.42
207.107	2628.86
207.181	2665.69
207.256	2662.74
207.33	2688.65
207.405	2705.15
207.479	2732.83
207.553	2744.45
207.628	2737.07
207.702	2752.46
207.776	2755.65
207.851	2769.32
207.925	2793.55
207.999	2802.03
208.073	2814.18
208.148	2825.81
208.222	2828.43
208.296	2878.37
208.371	2911
208.445	2943.32
208.519	2993.66
208.593	3027.7
208.668	3048.98
208.742	3077.85
208.816	3105.07
208.89	3145.54
208.965	3178.15
209.039	3220.77
209.113	3278.37
209.187	3337.74
209.261	3375.76
209.336	3438.63
209.41	3505.52
209.484	3557.02
209.558	3631.09
209.632	3700.58
209.707	3770.84
209.781	3859.75
209.855	3938.23
209.929	4024.87
210.003	4103.71
210.077	4177.82
210.151	4310.11
210.226	4429.89
210.3	4540.16
210.374	4657.07
210.448	4761.82
210.522	4870.16
210.596	4979.83
210.67	5093.74
210.744	5250.09
210.818	5392.35
210.892	5528.39
210.966	5644.14
211.041	5782.78
211.115	5912.9
211.189	6063.04
211.263	6218.06
211.337	6361.22
211.411	6517.87
211.485	6656.58
211.559	6813.02
211.633	6965.6
211.707	7082.92
211.781	7248.06
211.855	7377.02
211.929	7535.71
212.003	7676.97
212.077	7856.03
212.151	8044.63
212.225	8229.11
212.299	8390.61
212.373	8561.02
212.447	8738.66
212.52	8949.95
212.594	9139.97
212.668	9337.59
212.742	9515.36
212.816	9693.67
212.89	9872.04
212.964	10062.6
213.038	10255.38
213.112	10459.82
213.186	10669.61
213.26	10838.8
213.333	10979.36
213.407	11174.83
213.481	11367.42
213.555	11573.8
213.629	11750.01
213.703	11926.55
213.777	12115.06
213.85	12294.12
213.924	12522.25
213.998	12716.7
214.072	12898.62
214.146	13067.04
214.219	13246.7
214.293	13422.26
214.367	13616.28
214.441	13821.58
214.515	13998.58
214.588	14154.91
214.662	14305.5
214.736	14466.27
214.81	14655.56
214.883	14849.2
214.957	15013.33
215.031	15177.08
215.105	15324.73
215.178	15486.83
215.252	15647.72
215.326	15787.36
215.4	15936.92
215.473	16045.75
215.547	16189.53
215.621	16334.84
215.694	16494.47
215.768	16633.66
215.842	16787.94
215.915	16919.27
215.989	17039.46
216.063	17168.53
216.136	17321.3
216.21	17461.16
216.284	17613.79
216.357	17751.04
216.431	17881.88
216.504	18024.92
216.578	18184.29
216.652	18319.32
216.725	18441.34
216.799	18574.59
216.873	18701.33
216.946	18822.58
217.02	18938.96
217.093	19047.63
217.167	19132.88
217.24	19226.27
217.314	19328.48
217.387	19423.13
217.461	19519.07
217.535	19633.19
217.608	19731.79
217.682	19824.6
217.755	19933.37
217.829	20010.48
217.902	20103.2
217.976	20186.57
218.049	20264.83
218.123	20332.69
218.196	20430.38
218.27	20524.26
218.343	20589.51
218.417	20671.59
218.49	20756.75
218.563	20861.96
218.637	20947.65
218.71	21050.21
218.784	21140.39
218.857	21226.08
218.931	21308.31
219.004	21381.42
219.077	21458.83
219.151	21520.43
219.224	21576.39
219.298	21644.11
219.371	21722.34
219.444	21778.01
219.518	21847.9
219.591	21912.83
219.665	22004.47
219.738	22067.38
219.811	22105.65
219.885	22165.86
219.958	22224.91
220.031	22267.14
220.105	22303.01
220.178	22355.46
220.251	22389.25
220.325	22435
220.398	22476.95
220.471	22517.44
220.544	22576.64
220.618	22600.12
220.691	22648.24
220.764	22693.17
220.838	22730.97
220.911	22753.92
220.984	22801.36
221.057	22845.62
221.131	22885.39
221.204	22877.44
221.277	22926.76
221.35	22986.26
221.424	23007.86
221.497	23030.96
221.57	23060.13
221.643	23100.44
221.716	23128.99
221.79	23154.54
221.863	23170.55
221.936	23188.58
222.009	23210.95
222.082	23229.13
222.155	23244.8
222.229	23271.47
222.302	23303.34
222.375	23312.07
222.448	23341
222.521	23360.77
222.594	23359.66
222.667	23361.74
222.74	23380.35
222.814	23374.76
222.887	23370.13
222.96	23392.31
223.033	23420.47
223.106	23432.77
223.179	23436.82
223.252	23444.87
223.325	23457.12
223.398	23460.88
223.471	23459.39
223.544	23463.82
223.617	23460.54
223.69	23468.5
223.763	23454.32
223.837	23449.6
223.91	23446.32
223.983	23426.4
224.056	23404.37
224.129	23408.22
224.202	23418.93
224.275	23411.31
224.348	23396.8
224.42	23377.41
224.493	23361.26
224.566	23340.33
224.639	23342.79
224.712	23329.33
224.785	23298.52
224.858	23277.78
224.931	23263.7
225.004	23253.62
225.077	23243.3
225.15	23209.7
225.223	23193.35
225.296	23214.09
225.369	23178.55
225.442	23164.28
225.514	23155.31
225.587	23153.19
225.66	23144.56
225.733	23108.01
225.806	23093.59
225.879	23077.87
225.952	23055.5
226.025	23052.08
226.097	23048.07
226.17	23023.1
226.243	22980.52
226.316	22968.03
226.389	22953.86
226.461	22944.41
226.534	22925.41
226.607	22899.57
226.68	22903.48
226.753	22886.6
226.825	22832.21
226.898	22826.09
226.971	22802.13
227.044	22779.32
227.117	22754.97
227.189	22746.25
227.262	22751.89
227.335	22744.17
227.407	22718.81
227.48	22697.46
227.553	22666.74
227.626	22638.39
227.698	22610.72
227.771	22603.68
227.844	22574.71
227.916	22554.27
227.989	22512.47
228.062	22486.68
228.134	22481.28
228.207	22462.57
228.28	22436.68
228.352	22408.67
228.425	22389.83
228.498	22371.51
228.57	22348.42
228.643	22336.27
228.716	22296.64
228.788	22257.06
228.861	22211.21
228.934	22201.81
229.006	22172.7
229.079	22137.84
229.151	22107.57
229.224	22065.05
229.296	22037.34
229.369	22038.49
229.442	22029.72
229.514	22004.99
229.587	21994.58
229.659	21951.15
229.732	21917.84
229.804	21899.09
229.877	21903.28
229.949	21892.34
230.022	21892.87
230.094	21860.91
230.167	21832.95
230.239	21802.63
230.312	21780.41
230.384	21779.06
230.457	21752.46
230.529	21736.02
230.602	21718.81
230.674	21694.13
230.747	21683.38
230.819	21674.85
230.892	21613.73
230.964	21586.74
231.037	21568.52
231.109	21540.42
231.181	21528.32
231.254	21500.99
231.326	21465.23
231.399	21431.25
231.471	21392.74
231.544	21332.92
231.616	21318.51
231.688	21302.17
231.761	21263.37
231.833	21230.89
231.905	21175.41
231.978	21138.2
232.05	21112.13
232.122	21092.99
232.195	21063.5
232.267	21054.34
232.339	21016.84
232.412	21010.24
232.484	20968.12
232.556	20933.22
232.629	20917.32
232.701	20892.74
232.773	20853.89
232.846	20820.5
232.918	20791.19
232.99	20760.68
233.062	20748.93
233.135	20725.55
233.207	20675.19
233.279	20653.65
233.351	20631.38
233.424	20601.36
233.496	20568.2
233.568	20558.9
233.64	20505.79
233.713	20467.67
233.785	20420.63
233.857	20392.78
233.929	20345.11
234.001	20338.56
234.074	20337.88
234.146	20286.37
234.218	20255.48
234.29	20226.37
234.362	20191.09
234.434	20141.07
234.507	20099.86
234.579	20052.59
234.651	20014.04
234.723	19984.4
234.795	19963.43
234.867	19919.05
234.939	19910.14
235.012	19880.21
235.084	19851.05
235.156	19833.42
235.228	19794.82
235.3	19764.79
235.372	19731.69
235.444	19706.96
235.516	19638.05
235.588	19596.08
235.66	19561.04
235.732	19510.54
235.804	19543.16
235.876	19521.48
235.948	19512.18
236.02	19477.39
236.092	19439.46
236.164	19399.27
236.236	19370.5
236.308	19330.36
236.38	19308.91
236.452	19264.19
236.524	19237.64
236.596	19210.94
236.668	19184.68
236.74	19156.49
236.812	19128.59
236.884	19106.18
236.956	19074.81
237.028	19034.09
237.1	18973.56
237.172	18962.43
237.244	18942.96
237.316	18862.48
237.388	18822.34
237.46	18777.81
237.532	18755.69
237.604	18716.8
237.675	18692.32
237.747	18654.74
237.819	18601.1
237.891	18562.02
237.963	18513.35
238.035	18471.71
238.107	18398.27
238.178	18367.57
238.25	18324.97
238.322	18309.07
238.394	18248.83
238.466	18208.54
238.538	18200.88
238.609	18180.59
238.681	18121.12
238.753	18077.61
238.825	18044.16
238.897	18009.8
238.968	17994.19
239.04	17959.01
239.112	17957.47
239.184	17920.75
239.255	17891.35
239.327	17872.8
239.399	17838.63
239.471	17821.04
239.542	17787.3
239.614	17762.24
239.686	17705.09
239.758	17687.88
239.829	17635.16
239.901	17616.13
239.973	17584.27
240.044	17551.07
240.116	17521.24
240.188	17495.02
240.259	17456.85
240.331	17409.48
240.403	17382.34
240.474	17325.04
240.546	17272.85
240.618	17217.04
240.689	17169.28
240.761	17131.98
240.833	17109.96
240.904	17075.59
240.976	17039.01
241.048	17007.3
241.119	16996.12
241.191	16972.51
241.262	16951.01
241.334	16926.62
241.405	16884.31
241.477	16844.26
241.549	16799.73
241.62	16762.95
241.692	16737.17
241.763	16722.42
241.835	16697.31
241.906	16666.9
241.978	16619.72
242.049	16605.06
242.121	16574.46
242.192	16563.04
242.264	16523.37
242.335	16475.41
242.407	16448.81
242.478	16412.42
242.55	16379.69
242.621	16329.19
242.693	16295.78
242.764	16259.93
242.836	16212.98
242.907	16190.47
242.979	16167.63
243.05	16141.36
243.122	16118.9
243.193	16074.7
243.264	16016.81
243.336	15988.04
243.407	15958.88
243.479	15941.62
243.55	15918.01
243.622	15892.08
243.693	15856.79
243.764	15842.86
243.836	15804.26
243.907	15769.07
243.978	15728.63
244.05	15708.87
244.121	15659.46
244.192	15631.55
244.264	15574.63
244.335	15544.94
244.407	15500.01
244.478	15467.43
244.549	15428.39
244.62	15376.47
244.692	15345.38
244.763	15319.64
244.834	15276.55
244.906	15240.25
244.977	15216.92
245.048	15201.84
245.119	15164.53
245.191	15125.05
245.262	15068.46
245.333	15052.6
245.405	15022.72
245.476	15009.36
245.547	14978.9
245.618	14969.89
245.689	14946.75
245.761	14932.43
245.832	14898.5
245.903	14879.84
245.974	14851.88
246.045	14823.78
246.117	14817.61
246.188	14781.99
246.259	14742.99
246.33	14714.64
246.401	14679.6
246.473	14636.65
246.544	14590.91
246.615	14571.09
246.686	14535.66
246.757	14514.93
246.828	14472.85
246.899	14463.31
246.97	14407.19
247.042	14363.81
247.113	14339.42
247.184	14321.73
247.255	14286.2
247.326	14266.72
247.397	14224.98
247.468	14196.63
247.539	14172.58
247.61	14128.09
247.681	14111.94
247.752	14106.25
247.823	14065.32
247.894	14043.15
247.965	14007.76
248.037	13976.53
248.108	13932.22
248.179	13907.69
248.25	13886.76
248.321	13872.69
248.392	13829.45
248.463	13834.27
248.534	13808.86
248.605	13782.35
248.675	13758.68
248.746	13737.33
248.817	13718.81
248.888	13707.53
248.959	13669.69
249.03	13642.55
249.101	13619.36
249.172	13583.21
249.243	13533.85
249.314	13527.92
249.385	13500.92
249.456	13485.01
249.527	13456.57
249.598	13438.4
249.669	13418.05
249.739	13390
249.81	13369.46
249.881	13324.34
249.952	13290.98
250.023	13267.5
250.094	13231.3
250.165	13190.9
250.235	13156.44
250.306	13125.78
250.377	13098.78
250.448	13080.7
250.519	13041.32
250.59	13037.51
250.66	13012.88
250.731	13004.59
250.802	12975.52
250.873	12961.97
250.944	12947.9
251.014	12913.96
251.085	12913.62
251.156	12891.78
251.227	12887.59
251.297	12869.8
251.368	12866.38
251.439	12863.49
251.51	12857.08
251.58	12824.49
251.651	12804.63
251.722	12813.31
251.792	12778.55
251.863	12740.9
251.934	12738.25
252.005	12749.05
252.075	12719.93
252.146	12708.6
252.217	12694.63
252.287	12686.24
252.358	12658.33
252.429	12651.05
252.499	12630.66
252.57	12617.74
252.641	12606.22
252.711	12583.66
252.782	12549.09
252.852	12545.77
252.923	12516.6
252.994	12496.84
253.064	12493.95
253.135	12455.96
253.205	12415.71
253.276	12407.57
253.347	12412.34
253.417	12382.55
253.488	12354.59
253.558	12336.18
253.629	12322.34
253.699	12312.89
253.77	12302.05
253.841	12279.92
253.911	12264.26
253.982	12251.53
254.052	12232.39
254.123	12218.22
254.193	12193.11
254.264	12216.49
254.334	12187.9
254.405	12155.7
254.475	12123.6
254.546	12101.67
254.616	12101.28
254.687	12081.81
254.757	12070.53
254.827	12045.47
254.898	12029.61
254.968	12011.53
255.039	11980.64
255.109	11971.86
255.18	11943.28
255.25	11899.13
255.321	11895.08
255.391	11855.65
255.461	11861.39
255.532	11809.38
255.602	11784.99
255.673	11747.11
255.743	11715.29
255.813	11674.9
255.884	11673.12
255.954	11666.37
256.024	11668.83
256.095	11649.17
256.165	11624.1
256.235	11612.15
256.306	11590.65
256.376	11578.7
256.446	11571.81
256.517	11560.1
256.587	11550.84
256.657	11538.31
256.728	11525.69
256.798	11503.47
256.868	11484.04
256.938	11453.29
257.009	11449.97
257.079	11439.7
257.149	11448.76
257.219	11405.58
257.29	11397.1
257.36	11355.89
257.43	11339.36
257.5	11298.11
257.571	11272.61
257.641	11254.44
257.711	11232.61
257.781	11217.48
257.852	11210.15
257.922	11167.6
257.992	11152.22
258.062	11128.95
258.132	11112.51
258.202	11093.81
258.273	11079.21
258.343	11087.89
258.413	11063.36
258.483	11047.79
258.553	11013.53
258.623	10993.48
258.693	10986.2
258.764	10985.38
258.834	10989.05
258.904	10979.65
258.974	10953.68
259.044	10939.94
259.114	10939.03
259.184	10913.73
259.254	10891.66
259.324	10847.71
259.394	10839.86
259.464	10838.27
259.535	10819.96
259.605	10800.29
259.675	10771.92
259.745	10768.59
259.815	10731.24
259.885	10706.43
259.955	10720.26
260.025	10705.28
260.095	10685.42
260.165	10677.09
260.235	10674.73
260.305	10651.21
260.375	10616.42
260.445	10626.88
260.515	10622.69
260.585	10618.35
260.655	10608.38
260.725	10609.19
260.795	10604.28
260.865	10609.44
260.934	10585.58
261.004	10573.44
261.074	10559.08
261.144	10569.59
261.214	10552.91
261.284	10539.04
261.354	10537.3
261.424	10505.74
261.494	10506.08
261.564	10491.96
261.634	10476.88
261.703	10443.63
261.773	10437.23
261.843	10435.97
261.913	10423.01
261.983	10390.16
262.053	10380.42
