Data from 20250704_urea_1M_MAYP1162681_11-38-50-627.txt Node
Date: Fri Jul 04 11:38:50 BST 2025
User: adleo
Spectrometer: MAYP116268
Trigger mode: 0
Integration Time (sec): 1.000000E0
Scans to average: 1
Electric dark correction enabled: true
Nonlinearity correction enabled: true
Boxcar width: 10
XAxis mode: Wavelengths
Number of Pixels in Spectrum: 2068
>>>>>Begin Spectral Data<<<<<
179.565	1254.08
179.642	1310.03
179.718	1356.83
179.795	1397.94
179.871	1431.25
179.948	1449.47
180.024	1471.66
180.101	1494.98
180.177	1508.6
180.254	1532.14
180.33	1556.77
180.407	1612.6
180.483	1711.09
180.56	1805.45
180.636	1893.66
180.712	1884.25
180.789	1895.8
180.865	1906.64
180.942	1914.67
181.018	1925.46
181.095	1939.35
181.171	1944.68
181.248	1948.34
181.324	1964.32
181.4	1970.5
181.477	1982.01
181.553	1995.94
181.63	2016.24
181.706	2033.13
181.782	2044.2
181.859	2044.92
181.935	2050.48
182.011	2048.72
182.088	2069.75
182.164	2089.97
182.24	2101.43
182.317	2110.75
182.393	2107.04
182.469	2122.21
182.546	2136.67
182.622	2143.71
182.698	2136.67
182.775	2149.09
182.851	2162.88
182.927	2152.42
183.003	2150.61
183.08	2147.04
183.156	2153.56
183.232	2150.13
183.308	2139.9
183.385	2149.27
183.461	2167.78
183.537	2165.55
183.613	2178.06
183.69	2166.26
183.766	2154.88
183.842	2163.97
183.918	2169.68
183.995	2181.81
184.071	2186.62
184.147	2180.29
184.223	2168.73
184.299	2183.39
184.375	2170.64
184.452	2179.35
184.528	2231.88
184.604	2239.44
184.68	2250.67
184.756	2261
184.832	2267.9
184.908	2270.47
184.985	2270.56
185.061	2255.53
185.137	2268.28
185.213	2255.43
185.289	2254.82
185.365	2249.06
185.441	2247.44
185.517	2261.1
185.593	2257.44
185.669	2253.44
185.745	2264.29
185.822	2279.56
185.898	2270.9
185.974	2281.5
186.05	2270.46
186.126	2235.87
186.202	2231.21
186.278	2226.83
186.354	2217.07
186.43	2223.83
186.506	2220.88
186.582	2217.65
186.658	2221.22
186.734	2199.52
186.81	2204.28
186.886	2211.08
186.962	2221.64
187.038	2217.17
187.114	2210.41
187.19	2218.98
187.266	2208.75
187.341	2208.22
187.417	2202.28
187.493	2200.56
187.569	2201.28
187.645	2195.81
187.721	2184.15
187.797	2191.85
187.873	2195.8
187.949	2189.43
188.025	2182
188.101	2190.23
188.176	2194.56
188.252	2192.56
188.328	2201.79
188.404	2201.5
188.48	2193.04
188.556	2186.8
188.632	2188.52
188.707	2189.14
188.783	2186.42
188.859	2180
188.935	2171.53
189.011	2179.1
189.086	2173.34
189.162	2167.06
189.238	2165.26
189.314	2163.16
189.39	2158.26
189.465	2151.79
189.541	2168.97
189.617	2153.79
189.693	2146.37
189.768	2148.89
189.844	2173.64
189.92	2164.23
189.996	2173.08
190.071	2184.83
190.147	2183.31
190.223	2192.06
190.298	2183.92
190.374	2171.94
190.45	2187.16
190.526	2195.24
190.601	2187.58
190.677	2190.58
190.753	2215.76
190.828	2218.9
190.904	2233.8
190.98	2246.79
191.055	2257.78
191.131	2249.98
191.207	2270.48
191.282	2281.09
191.358	2273.77
191.433	2259.62
191.509	2273.61
191.585	2272.56
191.66	2275.42
191.736	2285.55
191.811	2275.8
191.887	2294.6
191.963	2316.44
192.038	2321.25
192.114	2321.96
192.189	2327.24
192.265	2323.53
192.34	2304.78
192.416	2304.87
192.491	2301.3
192.567	2306.49
192.642	2306.87
192.718	2305.73
192.793	2292.69
192.869	2284.84
192.944	2286.17
193.02	2292.22
193.095	2296.88
193.171	2300.59
193.246	2301.21
193.322	2296.45
193.397	2298.07
193.473	2278.93
193.548	2261.66
193.624	2267.04
193.699	2268.13
193.775	2283.36
193.85	2282.75
193.925	2291.12
194.001	2287.84
194.076	2280.04
194.152	2270.23
194.227	2263.66
194.302	2255.24
194.378	2261.47
194.453	2260.05
194.529	2274.04
194.604	2261.76
194.679	2253.1
194.755	2235.35
194.83	2246.11
194.905	2245.54
194.981	2252.4
195.056	2250.26
195.131	2257.68
195.207	2254.92
195.282	2242.17
195.357	2221.98
195.433	2237.68
195.508	2223.93
195.583	2234.45
195.659	2250.73
195.734	2255.72
195.809	2255.63
195.884	2265.71
195.96	2265.67
196.035	2283.41
196.11	2277.18
196.185	2286.36
196.261	2292.79
196.336	2326.58
196.411	2312.44
196.486	2317.82
196.561	2311.92
196.637	2317.58
196.712	2332.67
196.787	2335
196.862	2351.18
196.937	2365.13
197.013	2372.7
197.088	2386.78
197.163	2406.74
197.238	2423.08
197.313	2422.79
197.388	2438.07
197.464	2466.89
197.539	2479.22
197.614	2472.12
197.689	2484.31
197.764	2500.88
197.839	2521.84
197.914	2510.88
197.989	2532.69
198.065	2547.55
198.14	2598.1
198.215	2624.53
198.29	2636.06
198.365	2653.16
198.44	2664.31
198.515	2691.32
198.59	2707.33
198.665	2735.06
198.74	2745.21
198.815	2746.07
198.89	2770.36
198.965	2801.2
199.04	2799.35
199.115	2815.16
199.19	2860.05
199.265	2864.29
199.34	2873.34
199.415	2907.3
199.49	2933.31
199.565	2943.61
199.64	2967.68
199.715	2965.77
199.79	2977.93
199.865	2986.03
199.94	2983.22
200.015	3016.36
200.09	3023.75
200.165	3030.57
200.24	3036
200.315	3078.05
200.39	3092.16
200.464	3098.12
200.539	3097.6
200.614	3113.14
200.689	3136.65
200.764	3140.9
200.839	3161.35
200.914	3169.45
200.989	3156.47
201.063	3169.88
201.138	3153.44
201.213	3155.73
201.288	3138.61
201.363	3142.13
201.438	3141.52
201.512	3158.25
201.587	3142.74
201.662	3143.32
201.737	3159.01
201.812	3164.54
201.886	3128.36
201.961	3141.34
202.036	3128.99
202.111	3127.95
202.186	3098.4
202.26	3079.46
202.335	3055.71
202.41	3050.66
202.485	3031.59
202.559	3012.28
202.634	2984.44
202.709	2993.87
202.784	2972.61
202.858	2971.7
202.933	2950.54
203.008	2944.44
203.082	2921.37
203.157	2917.27
203.232	2875.82
203.306	2852.97
203.381	2819.23
203.456	2796.92
203.53	2770.3
203.605	2749.44
203.68	2723.23
203.754	2717.85
203.829	2704.79
203.904	2686.11
203.978	2672.67
204.053	2676.92
204.127	2662.77
204.202	2661.15
204.277	2642.48
204.351	2634
204.426	2626.14
204.5	2619.09
204.575	2580.28
204.65	2593.14
204.724	2583.9
204.799	2591.23
204.873	2585.89
204.948	2587.7
205.022	2574.42
205.097	2567.27
205.171	2582.08
205.246	2593.04
205.32	2589.71
205.395	2585.37
205.469	2577.28
205.544	2580.14
205.618	2560.42
205.693	2574.18
205.767	2560.09
205.842	2581
205.916	2572.91
205.991	2562.9
206.065	2569.33
206.14	2590.66
206.214	2586.65
206.289	2581.94
206.363	2596.32
206.438	2598.56
206.512	2608.47
206.586	2630.28
206.661	2638.19
206.735	2616.05
206.81	2611.91
206.884	2630.48
206.958	2621.43
207.033	2639.24
207.107	2647.05
207.181	2682.26
207.256	2678.31
207.33	2700.17
207.405	2716.62
207.479	2741.97
207.553	2749.73
207.628	2731.78
207.702	2739.64
207.776	2732.01
207.851	2733.63
207.925	2747.51
207.999	2745.27
208.073	2740.45
208.148	2743.93
208.222	2733.02
208.296	2767.31
208.371	2787.72
208.445	2798.72
208.519	2826.98
208.593	2840.51
208.668	2838.7
208.742	2841.75
208.816	2843.13
208.89	2856.39
208.965	2854.86
209.039	2860.44
209.113	2881.75
209.187	2908.18
209.261	2910.28
209.336	2932.49
209.41	2954.8
209.484	2960.52
209.558	2988.94
209.632	3007.72
209.707	3023.07
209.781	3051.96
209.855	3074.43
209.929	3098.92
210.003	3113.99
210.077	3123.38
210.151	3183.25
210.226	3227.87
210.3	3267.69
210.374	3305.84
210.448	3328.61
210.522	3356.53
210.596	3384.73
210.67	3414.23
210.744	3479.54
210.818	3533.46
210.892	3582.5
210.966	3607.03
211.041	3653.16
211.115	3679.37
211.189	3738.07
211.263	3794.39
211.337	3839.77
211.411	3895.73
211.485	3939.38
211.559	3995.09
211.633	4049.35
211.707	4067.96
211.781	4134.99
211.855	4159.67
211.929	4213.92
212.003	4258.42
212.077	4336.65
212.151	4420.86
212.225	4503.6
212.299	4576.35
212.373	4649.61
212.447	4731.98
212.52	4851.26
212.594	4945.28
212.668	5053.52
212.742	5141.48
212.816	5238.09
212.89	5334.35
212.964	5441.13
213.038	5549.85
213.112	5677.45
213.186	5814.41
213.26	5918.6
213.333	5997.38
213.407	6132.26
213.481	6261.78
213.555	6414.35
213.629	6537.77
213.703	6664.89
213.777	6814.06
213.85	6934.41
213.924	7116.2
213.998	7257.36
214.072	7402.36
214.146	7542.88
214.219	7692.89
214.293	7844.3
214.367	8004.8
214.441	8177.32
214.515	8333.41
214.588	8481.31
214.662	8610.46
214.736	8755.32
214.81	8931.63
214.883	9115.28
214.957	9273.46
215.031	9440.26
215.105	9585.56
215.178	9745.25
215.252	9911.79
215.326	10050.03
215.4	10205.89
215.473	10331.02
215.547	10485.28
215.621	10645.11
215.694	10823.82
215.768	10976.42
215.842	11135.53
215.915	11289.07
215.989	11433.8
216.063	11582.87
216.136	11742.88
216.21	11911.31
216.284	12085.12
216.357	12247.94
216.431	12404.45
216.504	12579.9
216.578	12767.26
216.652	12937.85
216.725	13096.15
216.799	13258.55
216.873	13422.16
216.946	13581.86
217.02	13729.75
217.093	13882.47
217.167	14004.72
217.24	14142
217.314	14280.11
217.387	14419.18
217.461	14558.06
217.535	14721.47
217.608	14851.81
217.682	14989.72
217.755	15147.01
217.829	15275.51
217.902	15413.95
217.976	15542.65
218.049	15657.37
218.123	15761.86
218.196	15887.04
218.27	16012.64
218.343	16118.87
218.417	16245.34
218.49	16365.94
218.563	16495.01
218.637	16620.51
218.71	16761
218.784	16878.74
218.857	17009.55
218.931	17134.03
219.004	17252.98
219.077	17361.27
219.151	17475.49
219.224	17580.64
219.298	17679.82
219.371	17793.46
219.444	17873.85
219.518	17981.31
219.591	18084.44
219.665	18212.39
219.738	18316.15
219.811	18390.79
219.885	18502.26
219.958	18594.25
220.031	18680.8
220.105	18777.47
220.178	18868.31
220.251	18952.79
220.325	19040.93
220.398	19123.43
220.471	19193.26
220.544	19277.2
220.618	19352
220.691	19431.12
220.764	19506.49
220.838	19581.04
220.911	19640.46
220.984	19743.16
221.057	19818.53
221.131	19896.5
221.204	19924.16
221.277	20000.64
221.35	20106.76
221.424	20158.81
221.497	20223.1
221.57	20288.73
221.643	20341.5
221.716	20400.1
221.79	20443.09
221.863	20487.09
221.936	20532.06
222.009	20580.01
222.082	20627
222.155	20656.25
222.229	20709.74
222.302	20754.08
222.375	20790.81
222.448	20840.93
222.521	20868.93
222.594	20902.96
222.667	20923.87
222.74	20968.31
222.814	21000.17
222.887	21017.71
222.96	21060.75
223.033	21101.04
223.106	21130.59
223.179	21169.97
223.252	21193.78
223.325	21222.64
223.398	21245.01
223.471	21275.23
223.544	21306.99
223.617	21324.53
223.69	21351.14
223.763	21365.45
223.837	21395.82
223.91	21418.47
223.983	21414.95
224.056	21415.72
224.129	21429.32
224.202	21458.38
224.275	21475.59
224.348	21472.74
224.42	21466.09
224.493	21453.9
224.566	21451.39
224.639	21469.32
224.712	21466.28
224.785	21470.62
224.858	21471.01
224.931	21473.85
225.004	21460.98
225.077	21469.8
225.15	21448.84
225.223	21456.11
225.296	21478.05
225.369	21460.74
225.442	21444.02
225.514	21450.81
225.587	21459.73
225.66	21459.39
225.733	21452.5
225.806	21453.61
225.879	21451.87
225.952	21440.88
226.025	21445.66
226.097	21454.77
226.17	21441.85
226.243	21410.71
226.316	21404.11
226.389	21410.76
226.461	21408.3
226.534	21419.39
226.607	21401.89
226.68	21422.18
226.753	21407.43
226.825	21382.71
226.898	21382.37
226.971	21387.38
227.044	21386.66
227.117	21380.1
227.189	21373.98
227.262	21372.2
227.335	21364.97
227.407	21357.93
227.48	21358.95
227.553	21351.76
227.626	21334.6
227.698	21325.06
227.771	21326.17
227.844	21305.73
227.916	21287.32
227.989	21271.42
228.062	21254.98
228.134	21268.72
228.207	21249.82
228.28	21235.12
228.352	21219.7
228.425	21214.3
228.498	21206.4
228.57	21177.24
228.643	21172.9
228.716	21160.85
228.788	21137.72
228.861	21111.6
228.934	21100.22
229.006	21084.17
229.079	21075.64
229.151	21050.24
229.224	21019.06
229.296	21019.06
229.369	21033.08
229.442	21032.79
229.514	21001.61
229.587	20998.24
229.659	20961.37
229.732	20952.65
229.804	20948.4
229.877	20958
229.949	20945.66
230.022	20952.79
230.094	20943.44
230.167	20931.44
230.239	20896.98
230.312	20877.61
230.384	20895.05
230.457	20882.96
230.529	20879.78
230.602	20865.46
230.674	20859.77
230.747	20861.65
230.819	20854.96
230.892	20801.51
230.964	20779
231.037	20776.93
231.109	20750.57
231.181	20738.9
231.254	20707.53
231.326	20683.53
231.399	20656.68
231.471	20635.48
231.544	20591.04
231.616	20580.92
231.688	20553.93
231.761	20538.41
231.833	20516.34
231.905	20461.88
231.978	20436.63
232.05	20400.53
232.122	20381.06
232.195	20345.5
232.267	20330.75
232.339	20291.86
232.412	20288.44
232.484	20263.47
232.556	20228.68
232.629	20228.05
232.701	20209.79
232.773	20187.43
232.846	20161.31
232.918	20136.87
232.99	20114.08
233.062	20096.73
233.135	20071.24
233.207	20033.02
233.279	20013.22
233.351	19989.94
233.424	19963.05
233.496	19930.23
233.568	19926.81
233.64	19887.68
233.713	19861.08
233.785	19837.22
233.857	19823.34
233.929	19778.24
234.001	19768.31
234.074	19764.79
234.146	19710.63
234.218	19690.82
234.29	19659.64
234.362	19624.27
234.434	19574.68
234.507	19530.92
234.579	19484.47
234.651	19452.81
234.723	19436.66
234.795	19419.32
234.867	19395.17
234.939	19386.88
235.012	19365.78
235.084	19346.69
235.156	19316.96
235.228	19285.59
235.3	19241.45
235.372	19214.36
235.444	19200.53
235.516	19148.63
235.588	19120.83
235.66	19097.12
235.732	19041.07
235.804	19073.26
235.876	19066.23
235.948	19065.99
236.02	19040.93
236.092	19014.81
236.164	18985.56
236.236	18959.58
236.308	18917.71
236.38	18897.18
236.452	18857.04
236.524	18831.69
236.596	18807.11
236.668	18791.79
236.74	18763.93
236.812	18745.38
236.884	18729.33
236.956	18698.54
237.028	18663.22
237.1	18617.29
237.172	18600.28
237.244	18598.26
237.316	18536.43
237.388	18488.87
237.46	18445.93
237.532	18441.35
237.604	18399.57
237.675	18391.42
237.747	18363.14
237.819	18331.67
237.891	18295.38
237.963	18257.31
238.035	18222.81
238.107	18155.92
238.178	18128.88
238.25	18099.78
238.322	18099.29
238.394	18043.73
238.466	18013.22
238.538	17994.04
238.609	17977.61
238.681	17930.05
238.753	17885.76
238.825	17856.27
238.897	17834.97
238.968	17822.92
239.04	17765.86
239.112	17769.62
239.184	17723.59
239.255	17690.01
239.327	17667.07
239.399	17635.45
239.471	17613.81
239.542	17582.92
239.614	17575.07
239.686	17519.98
239.758	17500.22
239.829	17440.27
239.901	17424.32
239.973	17393.72
240.044	17364.27
240.116	17333.43
240.188	17311.31
240.259	17280.95
240.331	17232.27
240.403	17201.57
240.474	17150.25
240.546	17125.76
240.618	17069.57
240.689	17033.42
240.761	17001.04
240.833	16989.47
240.904	16952.26
240.976	16921.56
241.048	16893.22
241.119	16864.98
241.191	16850.38
241.262	16829.61
241.334	16805.13
241.405	16771.2
241.477	16738.37
241.549	16701.65
241.62	16673.89
241.692	16641.65
241.763	16631.28
241.835	16602.56
241.906	16575.14
241.978	16530.99
242.049	16506.94
242.121	16489.06
242.192	16478.74
242.264	16439.99
242.335	16385.09
242.407	16371.12
242.478	16332.51
242.55	16307.35
242.621	16263.11
242.693	16223.34
242.764	16191.58
242.836	16152.83
242.907	16125.94
242.979	16098.17
243.05	16077.5
243.122	16049.11
243.193	16019.13
243.264	15964.04
243.336	15930.2
243.407	15917.33
243.479	15904.61
243.55	15877.71
243.622	15854.29
243.693	15817.66
243.764	15801.75
243.836	15757.02
243.907	15718.56
243.978	15685.63
244.05	15656.33
244.121	15614.06
244.192	15596.08
244.264	15547.35
244.335	15524.02
244.407	15476.49
244.478	15446.51
244.549	15414.55
244.62	15372.71
244.692	15344.37
244.763	15319.5
244.834	15288.6
244.906	15243.97
244.977	15221.02
245.048	15213.45
245.119	15174.8
245.191	15136.09
245.262	15080.51
245.333	15073.23
245.405	15049.61
245.476	15031.73
245.547	15015.29
245.618	14998.86
245.689	14967.19
245.761	14948.24
245.832	14917.49
245.903	14895.75
245.974	14879.99
246.045	14843.74
246.117	14834.96
246.188	14793.51
246.259	14762.37
246.33	14731.08
246.401	14697.34
246.473	14652.89
246.544	14609.75
246.615	14589.41
246.686	14557.31
246.757	14551.57
246.828	14515.03
246.899	14497.63
246.97	14454.48
247.042	14411.2
247.113	14396.78
247.184	14392.06
247.255	14362.03
247.326	14335.56
247.397	14308.33
247.468	14275.98
247.539	14256.99
247.61	14213.46
247.681	14201.21
247.752	14184.97
247.823	14148.62
247.894	14126.93
247.965	14084.99
248.037	14055.87
248.108	14019.62
248.179	13997.74
248.25	13970.98
248.321	13951.07
248.392	13917.18
248.463	13912.17
248.534	13883.44
248.605	13856.2
248.675	13825.69
248.746	13804
248.817	13786.45
248.888	13763.41
248.959	13724.41
249.03	13706.57
249.101	13683.05
249.172	13650.26
249.243	13601.19
249.314	13602.06
249.385	13587.16
249.456	13577.62
249.527	13546.19
249.598	13523.38
249.669	13497.45
249.739	13472.33
249.81	13455.94
249.881	13420.61
249.952	13398.77
250.023	13380.5
250.094	13347.91
250.165	13309.59
250.235	13280.04
250.306	13253.52
250.377	13222.82
250.448	13204.02
250.519	13156.87
250.59	13149.59
250.66	13122.5
250.731	13121.97
250.802	13095.07
250.873	13065.04
250.944	13046.86
251.014	13019.29
251.085	13028.4
251.156	13005.02
251.227	13002.18
251.297	12991.86
251.368	12981.79
251.439	12972.96
251.51	12962.5
251.58	12930.16
251.651	12901.86
251.722	12899.02
251.792	12862.28
251.863	12840.93
251.934	12837.07
252.005	12847.1
252.075	12824.3
252.146	12818.22
252.217	12799.71
252.287	12789.4
252.358	12770.5
252.429	12766.07
252.499	12746.93
252.57	12722.39
252.641	12720.51
252.711	12695.35
252.782	12651.82
252.852	12651.38
252.923	12625.98
252.994	12607.81
253.064	12606.26
253.135	12580.67
253.205	12548.08
253.276	12547.65
253.347	12546.01
253.417	12516.03
253.488	12488.5
253.558	12466.42
253.629	12446.13
253.699	12439.72
253.77	12429.4
253.841	12407.33
253.911	12391.66
253.982	12369.1
254.052	12359.99
254.123	12338.88
254.193	12314.39
254.264	12336.8
254.334	12301.86
254.405	12268.4
254.475	12236.44
254.546	12207.96
254.616	12213.55
254.687	12205.35
254.757	12184.05
254.827	12160.43
254.898	12146.4
254.968	12127.41
255.039	12100.08
255.109	12083.88
255.18	12055.35
255.25	12007.1
255.321	11992.16
255.391	11965.89
255.461	11972.06
255.532	11918.55
255.602	11897.63
255.673	11864.81
255.743	11831.5
255.813	11793.86
255.884	11785.09
255.954	11769.9
256.024	11770.82
256.095	11749.18
256.165	11710.62
256.235	11702.52
256.306	11673.12
256.376	11672.74
256.446	11658.81
256.517	11650.9
256.587	11639.33
256.657	11625.07
256.728	11617.11
256.798	11598.46
256.868	11571.76
256.938	11539.71
257.009	11535.42
257.079	11518.74
257.149	11522.65
257.219	11483.08
257.29	11470.07
257.36	11435.03
257.43	11433.63
257.5	11393.05
257.571	11367.12
257.641	11358.45
257.711	11327.41
257.781	11323.94
257.852	11299.36
257.922	11264.61
257.992	11236.61
258.062	11223.21
258.132	11208.51
258.202	11183.69
258.273	11171.6
258.343	11171.21
258.413	11150.97
258.483	11131.55
258.553	11109.72
258.623	11090.15
258.693	11083.64
258.764	11078.87
258.834	11072.56
258.904	11056.99
258.974	11036.95
259.044	11015.07
259.114	11005.58
259.184	10994.4
259.254	10970.54
259.324	10937.24
259.394	10935.51
259.464	10944.04
259.535	10927.36
259.605	10907.32
259.675	10885.39
259.745	10875.85
259.815	10849.73
259.885	10823.71
259.955	10836.63
260.025	10808.78
260.095	10787.19
260.165	10774.47
260.235	10778.47
260.305	10762.04
260.375	10728.36
260.445	10738.52
260.515	10743.05
260.585	10733.75
260.655	10714.14
260.725	10711.2
260.795	10706.77
260.865	10709.8
260.934	10682.19
261.004	10671.83
261.074	10664.7
261.144	10676.84
261.214	10667.4
261.284	10652.03
261.354	10649.57
261.424	10625.57
261.494	10632.32
261.564	10621.52
261.634	10614.39
261.703	10571.85
261.773	10562.98
261.843	10563.37
261.913	10541.98
261.983	10507.91
262.053	10506.71
262.123	10493.07
262.192	10464.26
