Data from 20250704_urea_0.1M_MAYP1162681_11-27-57-647.txt Node
Date: Fri Jul 04 11:27:57 BST 2025
User: adleo
Spectrometer: MAYP116268
Trigger mode: 0
Integration Time (sec): 1.000000E0
Scans to average: 1
Electric dark correction enabled: true
Nonlinearity correction enabled: true
Boxcar width: 10
XAxis mode: Wavelengths
Number of Pixels in Spectrum: 2068
>>>>>Begin Spectral Data<<<<<
179.565	1237.94
179.642	1299.21
179.718	1343.53
179.795	1384.8
179.871	1418.44
179.948	1437.14
180.024	1458.81
180.101	1481.95
180.177	1496.61
180.254	1522.69
180.33	1545.05
180.407	1600.27
180.483	1697.42
180.56	1792.59
180.636	1880.14
180.712	1867.97
180.789	1878.05
180.865	1889.02
180.942	1898.34
181.018	1908.94
181.095	1924.16
181.171	1931.01
181.248	1931.58
181.324	1947.7
181.4	1955.93
181.477	1967.96
181.553	1984.12
181.63	2005.57
181.706	2021.26
181.782	2031.67
181.859	2030.2
181.935	2038.14
182.011	2034.57
182.088	2052.74
182.164	2070.82
182.24	2083.85
182.317	2094.83
182.393	2094.26
182.469	2108.63
182.546	2120.09
182.622	2128.98
182.698	2123.13
182.775	2136.79
182.851	2152.86
182.927	2144.25
183.003	2138.12
183.08	2131.7
183.156	2137.65
183.232	2133.32
183.308	2121.28
183.385	2127.7
183.461	2143.59
183.537	2143.21
183.613	2157.2
183.69	2149.73
183.766	2140.49
183.842	2148.91
183.918	2156.72
183.995	2168.23
184.071	2175.6
184.147	2168.99
184.223	2154.39
184.299	2168.19
184.375	2155.49
184.452	2160.49
184.528	2211.45
184.604	2222.2
184.68	2236.56
184.756	2245.75
184.832	2251.98
184.908	2256.79
184.985	2257.21
185.061	2244.89
185.137	2255.31
185.213	2244.04
185.289	2245.27
185.365	2237.38
185.441	2235.05
185.517	2245.71
185.593	2244.71
185.669	2241.09
185.745	2253.75
185.822	2273.82
185.898	2264.06
185.974	2272.34
186.05	2264.49
186.126	2230.66
186.202	2227.04
186.278	2220.95
186.354	2213.29
186.43	2221.28
186.506	2222.05
186.582	2219.76
186.658	2224.19
186.734	2201.45
186.81	2204.21
186.886	2205.82
186.962	2218.67
187.038	2220.38
187.114	2212.96
187.19	2219.43
187.266	2207.77
187.341	2209.68
187.417	2202.83
187.493	2200.35
187.569	2204.54
187.645	2197.31
187.721	2185.6
187.797	2192.45
187.873	2198.83
187.949	2192.31
188.025	2182.12
188.101	2185.6
188.176	2189.4
188.252	2185.83
188.328	2196.49
188.404	2196.82
188.48	2193.39
188.556	2184.5
188.632	2178.79
188.707	2178.83
188.783	2175.74
188.859	2170.61
188.935	2157.09
189.011	2163.8
189.086	2161.71
189.162	2154.05
189.238	2150.53
189.314	2147.01
189.39	2141.96
189.465	2131.83
189.541	2146.01
189.617	2131.31
189.693	2124.51
189.768	2129.36
189.844	2154.26
189.92	2143.84
189.996	2154.12
190.071	2166.3
190.147	2164.92
190.223	2175.15
190.298	2168.3
190.374	2156.98
190.45	2168.72
190.526	2179.67
190.601	2173.82
190.677	2171.82
190.753	2200.76
190.828	2208.18
190.904	2225.74
190.98	2238.59
191.055	2252.39
191.131	2245.68
191.207	2268.8
191.282	2278.41
191.358	2270.42
191.433	2251.33
191.509	2266.26
191.585	2261.93
191.66	2260.6
191.736	2271.16
191.811	2260.41
191.887	2276.78
191.963	2297.48
192.038	2305.71
192.114	2305.71
192.189	2308.86
192.265	2308.52
192.34	2284.05
192.416	2281.67
192.491	2274.15
192.567	2278.58
192.642	2280.05
192.718	2278.01
192.793	2264.02
192.869	2261.64
192.944	2265.92
193.02	2277.82
193.095	2281.58
193.171	2287.38
193.246	2287.34
193.322	2283.62
193.397	2284.38
193.473	2269.77
193.548	2251.69
193.624	2254.02
193.699	2252.31
193.775	2267.92
193.85	2268.06
193.925	2278.39
194.001	2277.06
194.076	2273.87
194.152	2262.63
194.227	2254.21
194.302	2247.12
194.378	2252.07
194.453	2247.27
194.529	2260.21
194.604	2243.94
194.679	2234.37
194.755	2215.3
194.83	2228.11
194.905	2226.2
194.981	2236.77
195.056	2230.15
195.131	2239.29
195.207	2242.91
195.282	2232.54
195.357	2213.59
195.433	2230.77
195.508	2217.4
195.583	2222.44
195.659	2234.05
195.734	2241.91
195.809	2243.38
195.884	2249.52
195.96	2248.9
196.035	2266.46
196.11	2260.36
196.185	2274.26
196.261	2283.11
196.336	2314.61
196.411	2299.28
196.486	2304.61
196.561	2299.04
196.637	2309.7
196.712	2325.41
196.787	2323.32
196.862	2339.12
196.937	2347.78
197.013	2354.87
197.088	2367.91
197.163	2394.34
197.238	2414.39
197.313	2411.92
197.388	2423.44
197.464	2456.1
197.539	2467.62
197.614	2460.39
197.689	2472.53
197.764	2489.01
197.839	2508.43
197.914	2503.91
197.989	2527.72
198.065	2545.1
198.14	2595.85
198.215	2619.18
198.29	2631.05
198.365	2645.96
198.44	2656.77
198.515	2686.78
198.59	2702.31
198.665	2727.41
198.74	2736.04
198.815	2734.76
198.89	2761.19
198.965	2794.22
199.04	2790.17
199.115	2807.66
199.19	2848.68
199.265	2851.72
199.34	2857.82
199.415	2891.73
199.49	2912.21
199.565	2922.84
199.64	2945.01
199.715	2941.62
199.79	2952.49
199.865	2962.26
199.94	2961.69
200.015	2996.31
200.09	3000.07
200.165	3005.03
200.24	3011.47
200.315	3050.84
200.39	3067.53
200.464	3071.01
200.539	3072.44
200.614	3090.51
200.689	3115.88
200.764	3121.22
200.839	3142.72
200.914	3152.06
200.989	3142.76
201.063	3158.4
201.138	3139.44
201.213	3142.49
201.288	3125.56
201.363	3131
201.438	3126.9
201.512	3143.82
201.587	3125.79
201.662	3134.04
201.737	3147.87
201.812	3161.23
201.886	3127.48
201.961	3138.08
202.036	3127.87
202.111	3122.29
202.186	3093.32
202.26	3077.43
202.335	3061.46
202.41	3056.35
202.485	3040.77
202.559	3022.84
202.634	2999.47
202.709	3014.24
202.784	2995.89
202.858	3001.37
202.933	2985.45
203.008	2986.45
203.082	2970.72
203.157	2975.77
203.232	2940.88
203.306	2929.01
203.381	2903.83
203.456	2892.24
203.53	2881.31
203.605	2875.17
203.68	2868.25
203.754	2877.35
203.829	2877.4
203.904	2875.45
203.978	2881.55
204.053	2908.16
204.127	2916.88
204.202	2940.86
204.277	2949.3
204.351	2970.24
204.426	2990.94
204.5	3014.35
204.575	3012.06
204.65	3058.53
204.724	3089.84
204.799	3141
204.873	3182.2
204.948	3229.44
205.022	3265.55
205.097	3311.68
205.171	3380.55
205.246	3449.56
205.32	3512.75
205.395	3579.81
205.469	3640.53
205.544	3719.81
205.618	3778.3
205.693	3869.28
205.767	3935.37
205.842	4039.83
205.916	4123.54
205.991	4206.81
206.065	4309.93
206.14	4428.59
206.214	4531.76
206.289	4634.59
206.363	4751.53
206.438	4863.08
206.512	4980.03
206.586	5121.17
206.661	5250.31
206.735	5352.49
206.81	5479.23
206.884	5627.8
206.958	5746.03
207.033	5895.39
207.107	6042.83
207.181	6225.13
207.256	6368.22
207.33	6533
207.405	6695.56
207.479	6866.29
207.553	7031.62
207.628	7181.36
207.702	7350.94
207.776	7502.21
207.851	7668.55
207.925	7856.63
207.999	8021.39
208.073	8196.32
208.148	8373.13
208.222	8538.42
208.296	8752.19
208.371	8944.69
208.445	9132.62
208.519	9343.75
208.593	9541.96
208.668	9721.01
208.742	9902.71
208.816	10090.16
208.89	10292.37
208.965	10477.23
209.039	10669.7
209.113	10864.92
209.187	11063.76
209.261	11250.18
209.336	11462.31
209.41	11672.76
209.484	11861.36
209.558	12074.52
209.632	12269.09
209.707	12470.18
209.781	12687.62
209.855	12884.86
209.929	13088.37
210.003	13278.58
210.077	13459.45
210.151	13689.13
210.226	13900.7
210.3	14102.77
210.374	14300.7
210.448	14477.75
210.522	14667.24
210.596	14853.55
210.67	15043.56
210.744	15269.34
210.818	15466.77
210.892	15661.84
210.966	15825.43
211.041	16012.64
211.115	16174.54
211.189	16369.6
211.263	16542.39
211.337	16706.21
211.411	16882.22
211.485	17036.44
211.559	17206.81
211.633	17366.58
211.707	17498.82
211.781	17667.01
211.855	17778.72
211.929	17917.86
212.003	18063.93
212.077	18231.15
212.151	18397.08
212.225	18556.98
212.299	18698.8
212.373	18833.98
212.447	18966.69
212.52	19134.64
212.594	19274.34
212.668	19431.06
212.742	19548.6
212.816	19677.51
212.89	19795.96
212.964	19921.98
213.038	20054.61
213.112	20193.07
213.186	20343.38
213.26	20437.45
213.333	20512.58
213.407	20644.54
213.481	20776.44
213.555	20899.38
213.629	20995.73
213.703	21098.29
213.777	21210.6
213.85	21295.62
213.924	21448.51
213.998	21567.77
214.072	21666.44
214.146	21752.82
214.219	21845.61
214.293	21944.03
214.367	22055.53
214.441	22170.21
214.515	22262.92
214.588	22332.82
214.662	22392.93
214.736	22461.68
214.81	22563.54
214.883	22662.94
214.957	22741.62
215.031	22812.29
215.105	22875.25
215.178	22938.27
215.252	23010.78
215.326	23058.86
215.4	23112.33
215.473	23137.26
215.547	23175.83
215.621	23236.89
215.694	23314.19
215.768	23362.21
215.842	23425.96
215.915	23482.2
215.989	23517.74
216.063	23577.16
216.136	23646.56
216.21	23709.78
216.284	23777.64
216.357	23836.86
216.431	23894.06
216.504	23953.29
216.578	24032.2
216.652	24103.38
216.725	24161.6
216.799	24219.92
216.873	24274.86
216.946	24332.54
217.02	24369.35
217.093	24417.68
217.167	24443.29
217.24	24471.76
217.314	24516.09
217.387	24550.67
217.461	24582.9
217.535	24643.01
217.608	24669.98
217.682	24709.01
217.755	24762.42
217.829	24795.57
217.902	24844.3
217.976	24883
218.049	24923.82
218.123	24947.41
218.196	24986.74
218.27	25027.17
218.343	25045.36
218.417	25086.04
218.49	25130.34
218.563	25187.03
218.637	25230.95
218.71	25281.42
218.784	25323.11
218.857	25369.1
218.931	25409.11
219.004	25439.22
219.077	25472.23
219.151	25504.85
219.224	25536.71
219.298	25568.47
219.371	25610.36
219.444	25621.9
219.518	25648.78
219.591	25676.58
219.665	25736.97
219.738	25761.44
219.811	25777.9
219.885	25817.14
219.958	25849.09
220.031	25863.04
220.105	25895.62
220.178	25913.58
220.251	25936.22
220.325	25970.4
220.398	26001.34
220.471	26029.05
220.544	26053.04
220.618	26063.03
220.691	26092.58
220.764	26107.06
220.838	26120.58
220.911	26129.27
220.984	26171.99
221.057	26195.21
221.131	26206.6
221.204	26183.77
221.277	26226.69
221.35	26276.22
221.424	26273.86
221.497	26290.18
221.57	26316.92
221.643	26317.26
221.716	26339.86
221.79	26333.05
221.863	26320.4
221.936	26318.42
222.009	26316.34
222.082	26331.99
222.155	26339.66
222.229	26348.64
222.302	26354.78
222.375	26360.57
222.448	26363.85
222.521	26352.36
222.594	26343.28
222.667	26336.48
222.74	26348.02
222.814	26333.82
222.887	26318.75
222.96	26339.76
223.033	26336.91
223.106	26328.55
223.179	26340.72
223.252	26332.85
223.325	26350.04
223.398	26361.09
223.471	26358.58
223.544	26360.03
223.617	26359.79
223.69	26352.07
223.763	26331.26
223.837	26327.4
223.91	26324.79
223.983	26304.9
224.056	26291.82
224.129	26292.2
224.202	26301.71
224.275	26290.12
224.348	26266.61
224.42	26229.63
224.493	26203.32
224.566	26192.99
224.639	26180.92
224.712	26152.87
224.785	26136.84
224.858	26103.05
224.931	26076.64
225.004	26061.24
225.077	26049.85
225.15	25999.93
225.223	25977.92
225.296	25991.78
225.369	25962.86
225.442	25928.4
225.514	25917.54
225.587	25901.66
225.66	25887.51
225.733	25863.14
225.806	25843.25
225.879	25819.11
225.952	25798.26
226.025	25778.72
226.097	25759.21
226.17	25734.07
226.243	25704
226.316	25685.12
226.389	25665.87
226.461	25654.38
226.534	25626.29
226.607	25589.61
226.68	25592.02
226.753	25571.22
226.825	25513.93
226.898	25499.55
226.971	25477.97
227.044	25447.18
227.117	25424.98
227.189	25396.32
227.262	25378.89
227.335	25360.6
227.407	25330.83
227.48	25321.56
227.553	25301.15
227.626	25264.18
227.698	25238.27
227.771	25217.09
227.844	25184.13
227.916	25162.75
227.989	25119.9
228.062	25082.65
228.134	25074.55
228.207	25040.04
228.28	25015.87
228.352	24996.91
228.425	24975.1
228.498	24952.52
228.57	24917.3
228.643	24893.75
228.716	24863.69
228.788	24832.28
228.861	24791.03
228.934	24779.79
229.006	24745.82
229.079	24709.97
229.151	24667.23
229.224	24616.34
229.296	24580.35
229.369	24570.02
229.442	24549.67
229.514	24514.98
229.587	24495.3
229.659	24449.42
229.732	24422.02
229.804	24395.01
229.877	24388.35
229.949	24363.12
230.022	24354.92
230.094	24333.94
230.167	24303.54
230.239	24267.46
230.312	24233.84
230.384	24227.38
230.457	24197.66
230.529	24167.18
230.602	24135.06
230.674	24119.62
230.747	24112.92
230.819	24096.52
230.892	24021.91
230.964	23990.41
231.037	23967.07
231.109	23940.35
231.181	23913.15
231.254	23862.61
231.326	23818.96
231.399	23767.45
231.471	23723.8
231.544	23660.71
231.616	23633.13
231.688	23599.61
231.761	23551.44
231.833	23516.23
231.905	23449.2
231.978	23401.75
232.05	23357.86
232.122	23334.04
232.195	23295.51
232.267	23269.71
232.339	23222.36
232.412	23217.63
232.484	23178.14
232.556	23138.41
232.629	23119.46
232.701	23096.75
232.773	23071.77
232.846	23042.36
232.918	23017.67
232.99	22981.22
233.062	22958.8
233.135	22928.91
233.207	22888.5
233.279	22871.58
233.351	22842.26
233.424	22807.07
233.496	22765.13
233.568	22753.99
233.64	22701.73
233.713	22662.15
233.785	22620.15
233.857	22590.36
233.929	22543.16
234.001	22521.51
234.074	22489.65
234.146	22425.67
234.218	22390.43
234.29	22344.97
234.362	22289.73
234.434	22233.08
234.507	22182.56
234.579	22127.56
234.651	22067.5
234.723	22022.14
234.795	21985.89
234.867	21934.64
234.939	21911.07
235.012	21881.33
235.084	21845.37
235.156	21813.27
235.228	21777.11
235.3	21734.17
235.372	21701.15
235.444	21673.38
235.516	21612.94
235.588	21580.54
235.66	21544.59
235.732	21484.82
235.804	21507.76
235.876	21484.58
235.948	21457.06
236.02	21421.34
236.092	21385.68
236.164	21360.42
236.236	21320.9
236.308	21272.03
236.38	21234.97
236.452	21178.33
236.524	21144.26
236.596	21118.23
236.668	21082.61
236.74	21038.32
236.812	21001.26
236.884	20963.81
236.956	20917.69
237.028	20861.35
237.1	20809.83
237.172	20793.15
237.244	20773.87
237.316	20692.56
237.388	20643.94
237.46	20589.24
237.532	20555.69
237.604	20499.89
237.675	20462.49
237.747	20422.25
237.819	20378.2
237.891	20328.85
237.963	20289.62
238.035	20240.9
238.107	20158.4
238.178	20130.54
238.25	20083.31
238.322	20069.14
238.394	20004.09
238.466	19960.67
238.538	19932.43
238.609	19897.68
238.681	19824.53
238.753	19772.48
238.825	19735.71
238.897	19704.43
238.968	19676.1
239.04	19628.1
239.112	19624.87
239.184	19575.28
239.255	19534.23
239.327	19496.97
239.399	19463.05
239.471	19423.82
239.542	19382.43
239.614	19358.38
239.686	19285.76
239.758	19256.22
239.829	19191.06
239.901	19166.25
239.973	19122.44
240.044	19091.36
240.116	19046.11
240.188	19009.2
240.259	18965.58
240.331	18912.29
240.403	18869.98
240.474	18818.89
240.546	18774.95
240.618	18707.96
240.689	18665.07
240.761	18631.34
240.833	18600.21
240.904	18553.46
240.976	18512.55
241.048	18476.46
241.119	18445.33
241.191	18418.53
241.262	18393.14
241.334	18351.45
241.405	18311.5
241.477	18266.97
241.549	18221.29
241.62	18185.15
241.692	18154.5
241.763	18130.98
241.835	18090.64
241.906	18052.57
241.978	18003.18
242.049	17966.99
242.121	17929.93
242.192	17906.41
242.264	17851.18
242.335	17787.86
242.407	17763.13
242.478	17720.48
242.55	17680.82
242.621	17627.14
242.693	17583.67
242.764	17537.55
242.836	17496.01
242.907	17459.77
242.979	17422.71
243.05	17385.84
243.122	17350.9
243.193	17314.27
243.264	17251.09
243.336	17211.91
243.407	17182.13
243.479	17158.46
243.55	17139.67
243.622	17110.27
243.693	17067.57
243.764	17041.54
243.836	16999.08
243.907	16960.19
243.978	16922.07
244.05	16884.62
244.121	16826.98
244.192	16794.74
244.264	16742.83
244.335	16701.24
244.407	16639.93
244.478	16601.81
244.549	16558.38
244.62	16501.94
244.692	16455.24
244.763	16421.89
244.834	16379.67
244.906	16326.65
244.977	16290.99
245.048	16259.66
245.119	16216.91
245.191	16173.77
245.262	16117.52
245.333	16103.45
245.405	16062.92
245.476	16036.74
245.547	16007.97
245.618	15985.56
245.689	15945.5
245.761	15908.97
245.832	15874.94
245.903	15863.52
245.974	15842.5
246.045	15806.06
246.117	15792.71
246.188	15750.83
246.259	15709.66
246.33	15679.54
246.401	15649.75
246.473	15603.38
246.544	15557.64
246.615	15533.1
246.686	15494.74
246.757	15477.67
246.828	15431.88
246.899	15410.82
246.97	15365.12
247.042	15310.7
247.113	15286.79
247.184	15278.12
247.255	15247.85
247.326	15214.97
247.397	15173.23
247.468	15135.39
247.539	15107.34
247.61	15065.4
247.681	15043.42
247.752	15027.17
247.823	14983.36
247.894	14951.06
247.965	14909.61
248.037	14875.67
248.108	14825.2
248.179	14785.96
248.25	14754.49
248.321	14727.39
248.392	14679.96
248.463	14666.99
248.534	14640.1
248.605	14619.18
248.675	14581
248.746	14545.13
248.817	14520.55
248.888	14495.72
248.959	14452.48
249.03	14427.95
249.101	14398.64
249.172	14361.28
249.243	14305.94
249.314	14290.85
249.385	14262.89
249.456	14239.32
249.527	14210.06
249.598	14186.97
249.669	14165.42
249.739	14141.85
249.81	14123.87
249.881	14086.51
249.952	14061.1
250.023	14032.47
250.094	13980.98
250.165	13949.7
250.235	13928.49
250.306	13903.61
250.377	13867.27
250.448	13841.86
250.519	13792.45
250.59	13777.46
250.66	13745.11
250.731	13736.34
250.802	13713.39
250.873	13693.05
250.944	13669.43
251.014	13631.92
251.085	13628.55
251.156	13600.35
251.227	13587.62
251.297	13574.46
251.368	13560.77
251.439	13541.2
251.51	13527.22
251.58	13494.48
251.651	13461.95
251.722	13445.8
251.792	13403.81
251.863	13369.39
251.934	13359.07
252.005	13366.06
252.075	13336.95
252.146	13329.28
252.217	13321.38
252.287	13306.86
252.358	13274.52
252.429	13272.45
252.499	13246.08
252.57	13230.31
252.641	13220.29
252.711	13187.17
252.782	13144.17
252.852	13139.2
252.923	13112.5
252.994	13093.02
253.064	13083.77
253.135	13049.68
253.205	13015.41
253.276	13007.89
253.347	13004.42
253.417	12971.83
253.488	12948.64
253.558	12918.9
253.629	12887.33
253.699	12866.94
253.77	12843.36
253.841	12817.96
253.911	12797.23
253.982	12775.1
254.052	12751.72
254.123	12731.53
254.193	12712.73
254.264	12730.95
254.334	12694.41
254.405	12654.88
254.475	12625.04
254.546	12604.79
254.616	12599.35
254.687	12586
254.757	12566.86
254.827	12540.15
254.898	12522.32
254.968	12489.78
255.039	12464.47
255.109	12457.96
255.18	12422.58
255.25	12375.97
255.321	12360.93
255.391	12320.34
255.461	12324.44
255.532	12281.59
255.602	12246.3
255.673	12202.92
255.743	12162.96
255.813	12116.59
255.884	12111.09
255.954	12097.36
256.024	12091.72
256.095	12073.93
256.165	12040.72
256.235	12029.34
256.306	12006.11
256.376	11995.75
256.446	11986.88
256.517	11981.24
256.587	11969.09
256.657	11950.29
256.728	11938
256.798	11925.08
256.868	11905.9
256.938	11874.91
257.009	11864.3
257.079	11862.04
257.149	11870.81
257.219	11835.38
257.29	11826.9
257.36	11788.39
257.43	11779.95
257.5	11737.4
257.571	11705.82
257.641	11695.61
257.711	11655.75
257.781	11644.37
257.852	11632.71
257.922	11589.62
257.992	11564.27
258.062	11539.78
258.132	11527.88
258.202	11507.92
258.273	11482.86
258.343	11478.28
258.413	11457.75
258.483	11436.45
258.553	11403
258.623	11377.65
258.693	11356.44
258.764	11356.68
258.834	11351.72
258.904	11325.55
258.974	11305.07
259.044	11285.69
259.114	11270.46
259.184	11263.86
259.254	11241.93
259.324	11200.78
259.394	11196.53
259.464	11191.91
259.535	11164.25
259.605	11142.9
259.675	11119.57
259.745	11108.83
259.815	11077.6
259.885	11049.26
259.955	11059.43
260.025	11030.42
260.095	11005.56
260.165	10995.44
260.235	10996.98
260.305	10970.09
260.375	10947.97
260.445	10948.6
260.515	10947.15
260.585	10943.25
260.655	10926.19
260.725	10922.28
260.795	10912.26
260.865	10911.92
260.934	10894.09
261.004	10890.67
261.074	10876.22
261.144	10882.48
261.214	10878.19
261.284	10865.57
261.354	10860.7
261.424	10834.82
261.494	10843.2
261.564	10830.39
261.634	10829.47
261.703	10788.51
261.773	10779.45
