Data from 20250704_urea_0.5M_MAYP1162681_11-12-03-730.txt Node
Date: Fri Jul 04 11:12:03 BST 2025
User: adleo
Spectrometer: MAYP116268
Trigger mode: 0
Integration Time (sec): 1.000000E0
Scans to average: 1
Electric dark correction enabled: true
Nonlinearity correction enabled: true
Boxcar width: 10
XAxis mode: Wavelengths
Number of Pixels in Spectrum: 2068
>>>>>Begin Spectral Data<<<<<
179.565	1242.16
179.642	1298.88
179.718	1342.73
179.795	1381.52
179.871	1414.94
179.948	1433.27
180.024	1454.02
180.101	1475.63
180.177	1491.02
180.254	1514.76
180.33	1537.66
180.407	1593.83
180.483	1690.74
180.56	1784.15
180.636	1871.85
180.712	1856.77
180.789	1865
180.865	1878.4
180.942	1885.34
181.018	1896.89
181.095	1910.97
181.171	1916.72
181.248	1919.24
181.324	1935.12
181.4	1944.39
181.477	1955.14
181.553	1966.45
181.63	1987.71
181.706	2007.11
181.782	2016.95
181.859	2016.53
181.935	2023.18
182.011	2018.9
182.088	2038.64
182.164	2057.34
182.24	2067.61
182.317	2078.21
182.393	2077.4
182.469	2090.53
182.546	2106.46
182.622	2108.27
182.698	2102.28
182.775	2113.22
182.851	2125.49
182.927	2116.74
183.003	2110.41
183.08	2106.42
183.156	2119.78
183.232	2114.98
183.308	2100.57
183.385	2107.65
183.461	2126.06
183.537	2126.68
183.613	2141.9
183.69	2130.44
183.766	2119.83
183.842	2129.01
183.918	2134.86
183.995	2151.89
184.071	2158.31
184.147	2148.51
184.223	2139.81
184.299	2153.28
184.375	2142.53
184.452	2150.28
184.528	2207.54
184.604	2219.24
184.68	2229.75
184.756	2235.56
184.832	2243.03
184.908	2249.35
184.985	2248.45
185.061	2232.84
185.137	2242.84
185.213	2229.32
185.289	2230.37
185.365	2222.86
185.441	2223.28
185.517	2238.09
185.593	2230.9
185.669	2225.24
185.745	2240.46
185.822	2254.26
185.898	2247.4
185.974	2259.77
186.05	2249.78
186.126	2207.32
186.202	2202.75
186.278	2200.94
186.354	2190.14
186.43	2197.85
186.506	2196.81
186.582	2195.52
186.658	2200.14
186.734	2177.4
186.81	2182.49
186.886	2185.34
186.962	2198.71
187.038	2193.33
187.114	2186.48
187.19	2193.43
187.266	2183.82
187.341	2182.96
187.417	2178.35
187.493	2176.78
187.569	2177.2
187.645	2173.97
187.721	2165.69
187.797	2170.11
187.873	2171.06
187.949	2167.12
188.025	2159.07
188.101	2162.74
188.176	2169.73
188.252	2167.87
188.328	2177.53
188.404	2175.34
188.48	2171.29
188.556	2165.25
188.632	2166.39
188.707	2166.87
188.783	2164.63
188.859	2159.5
188.935	2150.27
189.011	2158.31
189.086	2153.6
189.162	2146.94
189.238	2142.13
189.314	2135.71
189.39	2129.81
189.465	2124.91
189.541	2139.71
189.617	2124.49
189.693	2119.07
189.768	2118.35
189.844	2142.96
189.92	2136.49
189.996	2144.06
190.071	2154.05
190.147	2152.48
190.223	2160.28
190.298	2151.76
190.374	2137.02
190.45	2149.9
190.526	2157.99
190.601	2150.67
190.677	2153.04
190.753	2179.08
190.828	2182.79
190.904	2202.11
190.98	2217.62
191.055	2227.81
191.131	2221.29
191.207	2241.89
191.282	2250.69
191.358	2246.83
191.433	2229.93
191.509	2239.16
191.585	2236.4
191.66	2239.35
191.736	2248.25
191.811	2237.83
191.887	2255.39
191.963	2280.66
192.038	2285.89
192.114	2286.42
192.189	2288.65
192.265	2284.13
192.34	2260.66
192.416	2260.14
192.491	2254.67
192.567	2256.67
192.642	2258.09
192.718	2257.62
192.793	2247.2
192.869	2243.67
192.944	2243.87
193.02	2252.86
193.095	2259
193.171	2264.66
193.246	2261.66
193.322	2261.04
193.397	2264.04
193.473	2246.95
193.548	2228.68
193.624	2235.44
193.699	2230.96
193.775	2250.86
193.85	2252.14
193.925	2262.71
194.001	2264.42
194.076	2258.28
194.152	2247
194.227	2239.96
194.302	2230.02
194.378	2232.25
194.453	2228.5
194.529	2239.54
194.604	2224.59
194.679	2217.5
194.755	2200.05
194.83	2214.85
194.905	2210.76
194.981	2220.61
195.056	2212.24
195.131	2218.9
195.207	2216.9
195.282	2209.53
195.357	2188.68
195.433	2207
195.508	2194.91
195.583	2199.1
195.659	2210.71
195.734	2221.56
195.809	2223.46
195.884	2235.69
195.96	2235.69
196.035	2252.96
196.11	2248.44
196.185	2259.86
196.261	2263.05
196.336	2295.84
196.411	2280.51
196.486	2284.84
196.561	2279.32
196.637	2288.69
196.712	2308.87
196.787	2311.02
196.862	2326.34
196.937	2335.76
197.013	2337.43
197.088	2350.51
197.163	2375.42
197.238	2394.33
197.313	2391.85
197.388	2403.8
197.464	2433.8
197.539	2444.23
197.614	2436.8
197.689	2452.7
197.764	2467.99
197.839	2491.89
197.914	2482.03
197.989	2504.74
198.065	2516.64
198.14	2564.05
198.215	2592.25
198.29	2599.68
198.365	2611.97
198.44	2622.01
198.515	2652.12
198.59	2669.74
198.665	2696.14
198.74	2704.86
198.815	2707.96
198.89	2732.25
198.965	2762.27
199.04	2754.27
199.115	2772.89
199.19	2815.58
199.265	2818.06
199.34	2828.02
199.415	2862.59
199.49	2887.74
199.565	2896.84
199.64	2923.01
199.715	2922.72
199.79	2930.4
199.865	2937.55
199.94	2938.17
200.015	2969.25
200.09	2974.21
200.165	2978.97
200.24	2985.55
200.315	3025.59
200.39	3038.37
200.464	3045.81
200.539	3050
200.614	3066.59
200.689	3089.72
200.764	3098.16
200.839	3115.51
200.914	3122.66
200.989	3110.45
201.063	3124.61
201.138	3111.17
201.213	3111.41
201.288	3090.62
201.363	3091.34
201.438	3092.53
201.512	3109.69
201.587	3092.86
201.662	3097.58
201.737	3113.22
201.812	3121.57
201.886	3083.73
201.961	3094.46
202.036	3082.54
202.111	3075.15
202.186	3045.18
202.26	3028.2
202.335	3002.4
202.41	2996.82
202.485	2981.33
202.559	2960.88
202.634	2933.04
202.709	2942.05
202.784	2922.07
202.858	2923.84
202.933	2910.92
203.008	2905.15
203.082	2884.28
203.157	2885.66
203.232	2843.73
203.306	2821.13
203.381	2786.48
203.456	2768.03
203.53	2745.47
203.605	2725.71
203.68	2704.31
203.754	2699.5
203.829	2684.11
203.904	2666.1
203.978	2653.71
204.053	2655.67
204.127	2642.05
204.202	2641.62
204.277	2624.04
204.351	2618.47
204.426	2607.13
204.5	2598.74
204.575	2562.41
204.65	2571.18
204.724	2561.12
204.799	2567.93
204.873	2563.07
204.948	2561.74
205.022	2547.27
205.097	2540.45
205.171	2554.31
205.246	2564.12
205.32	2562.65
205.395	2563.55
205.469	2554.94
205.544	2560.8
205.618	2546.46
205.693	2559.94
205.767	2544.61
205.842	2563.14
205.916	2558.76
205.991	2551.8
206.065	2557.61
206.14	2574.18
206.214	2571.27
206.289	2565.27
206.363	2578.98
206.438	2583.56
206.512	2592.89
206.586	2617.61
206.661	2623.28
206.735	2599.38
206.81	2598.57
206.884	2618.95
206.958	2607.57
207.033	2625.42
207.107	2632.86
207.181	2667.79
207.256	2665.22
207.33	2691.75
207.405	2712.59
207.479	2736.07
207.553	2748.17
207.628	2736.31
207.702	2752.22
207.776	2753.89
207.851	2767.09
207.925	2792.5
207.999	2797.98
208.073	2808.66
208.148	2821.1
208.222	2824.06
208.296	2874.7
208.371	2907.08
208.445	2939.27
208.519	2986.18
208.593	3024.08
208.668	3045.88
208.742	3072.32
208.816	3099.02
208.89	3141.16
208.965	3167.03
209.039	3206.36
209.113	3263.04
209.187	3322.89
209.261	3362.96
209.336	3430.98
209.41	3499.21
209.484	3545.74
209.558	3620.48
209.632	3693.6
209.707	3767.98
209.781	3854.02
209.855	3933.56
209.929	4024.69
210.003	4099.51
210.077	4182.34
210.151	4309.89
210.226	4428.33
210.3	4543.25
210.374	4660.88
210.448	4761.17
210.522	4872.08
210.596	4988.11
210.67	5106.91
210.744	5267.58
210.818	5412.86
210.892	5544.46
210.966	5660.89
211.041	5802.14
211.115	5930.28
211.189	6085.49
211.263	6239.29
211.337	6386.24
211.411	6548.09
211.485	6689.5
211.559	6854.93
211.633	7005.57
211.707	7127.07
211.781	7295.96
211.855	7419.54
211.929	7575.63
212.003	7720.64
212.077	7898.73
212.151	8076.2
212.225	8252.22
212.299	8423.17
212.373	8594.46
212.447	8771.28
212.52	8981.42
212.594	9176.34
212.668	9377.67
212.742	9543.89
212.816	9722.98
212.89	9900.59
212.964	10090.43
213.038	10276.42
213.112	10481.94
213.186	10686.39
213.26	10862.33
213.333	11011.13
213.407	11212.67
213.481	11412.59
213.555	11627.55
213.629	11812.38
213.703	11998.13
213.777	12193.09
213.85	12360.59
213.924	12578.31
213.998	12775.12
214.072	12962.01
214.146	13136.55
214.219	13322.86
214.293	13511.87
214.367	13701.74
214.441	13905.41
214.515	14080.82
214.588	14242.26
214.662	14389.48
214.736	14547.01
214.81	14737.61
214.883	14926.13
214.957	15093.54
215.031	15250.59
215.105	15401.22
215.178	15553.83
215.252	15722.48
215.326	15863.7
215.4	16011.58
215.473	16126.54
215.547	16270.65
215.621	16408.92
215.694	16568.4
215.768	16696.36
215.842	16833.92
215.915	16971.27
215.989	17088.82
216.063	17211.33
216.136	17358.61
216.21	17496.01
216.284	17654.51
216.357	17788.83
216.431	17923.14
216.504	18055.86
216.578	18207.85
216.652	18341.39
216.725	18476.62
216.799	18601.38
216.873	18720.27
216.946	18846.05
217.02	18970.81
217.093	19082.66
217.167	19175.48
217.24	19272.24
217.314	19377.68
217.387	19481.1
217.461	19581.19
217.535	19698.97
217.608	19794.53
217.682	19894.29
217.755	20004.69
217.829	20089.13
217.902	20180.5
217.976	20265.41
218.049	20353.89
218.123	20427.29
218.196	20517.89
218.27	20588.69
218.343	20658.43
218.417	20757.71
218.49	20834.29
218.563	20927.45
218.637	21004.95
218.71	21102.55
218.784	21182.08
218.857	21270.76
218.931	21348.74
219.004	21419.02
219.077	21493.77
219.151	21569.88
219.224	21638.95
219.298	21700.51
219.371	21779.56
219.444	21828.1
219.518	21892.4
219.591	21954.63
219.665	22039.57
219.738	22100.3
219.811	22150.19
219.885	22208.23
219.958	22259.19
220.031	22303.3
220.105	22354.3
220.178	22404.44
220.251	22447.54
220.325	22498.59
220.398	22549.6
220.471	22598.82
220.544	22653.2
220.618	22682.61
220.691	22730.73
220.764	22767.27
220.838	22807.63
220.911	22829.76
220.984	22894.41
221.057	22923.24
221.131	22956.85
221.204	22959.31
221.277	23009.26
221.35	23074.35
221.424	23102.61
221.497	23122.52
221.57	23153.91
221.643	23180.62
221.716	23204.2
221.79	23229.32
221.863	23244.08
221.936	23254.83
222.009	23265.01
222.082	23277.45
222.155	23297.36
222.229	23320.61
222.302	23342.55
222.375	23358.12
222.448	23377.84
222.521	23380.4
222.594	23392.12
222.667	23382.76
222.74	23400.94
222.814	23405.43
222.887	23407.16
222.96	23422.98
223.033	23443.43
223.106	23450.66
223.179	23462.96
223.252	23478.77
223.325	23481.33
223.398	23497
223.471	23495.36
223.544	23498.21
223.617	23510.17
223.69	23509.45
223.763	23494.59
223.837	23497.53
223.91	23494.5
223.983	23470.58
224.056	23447.48
224.129	23454.91
224.202	23478.78
224.275	23468.26
224.348	23449.12
224.42	23422.02
224.493	23400.08
224.566	23380.93
224.639	23385.13
224.712	23367.81
224.785	23355.23
224.858	23339.36
224.931	23313.61
225.004	23296.2
225.077	23285.6
225.15	23241.67
225.223	23223.15
225.296	23234.82
225.369	23190.08
225.442	23168.23
225.514	23167.12
225.587	23166.3
225.66	23155.21
225.733	23134.33
225.806	23124.01
225.879	23098.46
225.952	23073.44
226.025	23070.88
226.097	23075.75
226.17	23051.4
226.243	23004.83
226.316	22976.76
226.389	22959.21
226.461	22941.76
226.534	22932.74
226.607	22900.92
226.68	22895.23
226.753	22881.73
226.825	22829.46
226.898	22827.34
226.971	22807.58
227.044	22789.3
227.117	22763.65
227.189	22736.8
227.262	22715.68
227.335	22709.85
227.407	22687.96
227.48	22680.97
227.553	22654.98
227.626	22626.87
227.698	22605.75
227.771	22604.21
227.844	22572.97
227.916	22562.17
227.989	22527.27
228.062	22493.33
228.134	22503.84
228.207	22478.48
228.28	22447.96
228.352	22433.93
228.425	22422.56
228.498	22409.35
228.57	22374.64
228.643	22377.68
228.716	22354.25
228.788	22319.68
228.861	22279.23
228.934	22260.53
229.006	22225
229.079	22192.22
229.151	22155.15
229.224	22114.08
229.296	22083.28
229.369	22084.58
229.442	22060.96
229.514	22030.4
229.587	22022.49
229.659	21977.42
229.732	21957.17
229.804	21942.18
229.877	21943.92
229.949	21918.66
230.022	21914.32
230.094	21896.44
230.167	21858.36
230.239	21821.91
230.312	21812.8
230.384	21814.78
230.457	21798.58
230.529	21780.75
230.602	21765.42
230.674	21745.23
230.747	21731.44
230.819	21723.2
230.892	21666.32
230.964	21644.24
231.037	21623.33
231.109	21595.23
231.181	21580.14
231.254	21550.21
231.326	21519.84
231.399	21476.65
231.471	21442.48
231.544	21388.64
231.616	21367.53
231.688	21337.26
231.761	21304.39
231.833	21267.47
231.905	21216.96
231.978	21185.34
232.05	21159.55
232.122	21126.15
232.195	21086.53
232.267	21077.76
232.339	21032.07
232.412	21024.79
232.484	20982.43
232.556	20954.43
232.629	20948.07
232.701	20930.76
232.773	20897.9
232.846	20865.22
232.918	20835.63
232.99	20811.67
233.062	20785.17
233.135	20751.62
233.207	20706.13
233.279	20678.9
233.351	20652.83
233.424	20616.1
233.496	20568.92
233.568	20550.08
233.64	20508.73
233.713	20482.61
233.785	20437.45
233.857	20419.28
233.929	20368.39
234.001	20357.89
234.074	20340.83
234.146	20284.68
234.218	20249.6
234.29	20218.95
234.362	20183.43
234.434	20134.71
234.507	20085.36
234.579	20042.37
234.651	20009.02
234.723	20002.37
234.795	19980.45
234.867	19948.88
234.939	19927
235.012	19913.07
235.084	19884.4
235.156	19858.14
235.228	19817.08
235.3	19785.75
235.372	19755.92
235.444	19742
235.516	19690.29
235.588	19657.9
235.66	19624.51
235.732	19577.81
235.804	19599.16
235.876	19573.81
235.948	19566.63
236.02	19529.14
236.092	19484.04
236.164	19446.3
236.236	19403.7
236.308	19365.2
236.38	19346.26
236.452	19301.11
236.524	19263.08
236.596	19249.98
236.668	19226.99
236.74	19194.32
236.812	19161.02
236.884	19128.63
236.956	19089.94
237.028	19045.07
237.1	19005.46
237.172	18990.62
237.244	18972.89
237.316	18898.43
237.388	18856.6
237.46	18807.55
237.532	18800.61
237.604	18770.87
237.675	18756.75
237.747	18721.82
237.819	18688.85
237.891	18640.18
237.963	18597.29
238.035	18560.09
238.107	18484.62
238.178	18462.75
238.25	18425.4
238.322	18409.88
238.394	18367.38
238.466	18322.9
238.538	18292.68
238.609	18258.66
238.681	18198.33
238.753	18149.12
238.825	18123.49
238.897	18098.19
238.968	18083.49
239.04	18037.85
239.112	18022
239.184	17981.18
239.255	17936.02
239.327	17894.14
239.399	17861.04
239.471	17835.78
239.542	17807.06
239.614	17786.73
239.686	17721.76
239.758	17712.32
239.829	17671.45
239.901	17635.93
239.973	17612.08
240.044	17590.39
240.116	17556.66
240.188	17519.79
240.259	17493.09
240.331	17452.56
240.403	17422.92
240.474	17367.69
240.546	17325
240.618	17273.52
240.689	17232.95
240.761	17214.73
240.833	17209.09
240.904	17174.97
240.976	17136.8
241.048	17097.42
241.119	17069.28
241.191	17046.63
241.262	17019.25
241.334	16978.05
241.405	16947.49
241.477	16906.91
241.549	16864.02
241.62	16837.66
241.692	16819.97
241.763	16798.38
241.835	16759.72
241.906	16723.19
241.978	16680.59
242.049	16663
242.121	16651.24
242.192	16630.42
242.264	16575.62
242.335	16512.19
242.407	16484.91
242.478	16448.33
242.55	16418.35
242.621	16373.77
242.693	16334.58
242.764	16292.22
242.836	16252.17
242.907	16223.78
242.979	16192.93
243.05	16162.61
243.122	16132.39
243.193	16089.55
243.264	16019.08
243.336	15988.71
243.407	15967.46
243.479	15953.91
243.55	15912.32
243.622	15869.18
243.693	15832.55
243.764	15823.68
243.836	15786.28
243.907	15747.48
243.978	15717.16
244.05	15701.06
244.121	15653.53
244.192	15635.12
244.264	15589.52
244.335	15569.86
244.407	15522.47
244.478	15496.54
244.549	15466.71
244.62	15420.87
244.692	15395.46
244.763	15386.4
244.834	15344.76
244.906	15303.64
244.977	15282.53
245.048	15276.31
245.119	15250.18
245.191	15205.74
245.262	15147.85
245.333	15134.88
245.405	15107.6
245.476	15090.3
245.547	15053.9
245.618	15034.48
245.689	15011.63
245.761	14988.25
245.832	14953.74
245.903	14933.73
245.974	14909.73
246.045	14876.8
246.117	14864.17
246.188	14822.86
246.259	14784.78
246.33	14759.67
246.401	14718.79
246.473	14668.61
246.544	14627.3
246.615	14612.79
246.686	14581.26
246.757	14566.85
246.828	14526.36
246.899	14507.75
246.97	14458.58
247.042	14422.48
247.113	14408.45
247.184	14389.36
247.255	14346.75
247.326	14324.28
247.397	14293.86
247.468	14267.93
247.539	14241.56
247.61	14203.86
247.681	14185.93
247.752	14166.89
247.823	14126.98
247.894	14111.21
247.965	14066.53
248.037	14039.14
248.108	13985.59
248.179	13963.22
248.25	13939.98
248.321	13921.23
248.392	13882.67
248.463	13880.64
248.534	13852.59
248.605	13834.75
248.675	13803.03
248.746	13797.87
248.817	13770.64
248.888	13751.88
248.959	13710.91
249.03	13692.45
249.101	13667.43
249.172	13637.97
249.243	13594.2
249.314	13597.33
249.385	13575.79
249.456	13568.31
249.527	13541.41
249.598	13528.83
249.669	13505.79
249.739	13484.29
249.81	13462.84
249.881	13428.61
249.952	13404.84
250.023	13382.86
250.094	13337.89
250.165	13306.02
250.235	13268.08
250.306	13244.7
250.377	13207.73
250.448	13187.43
250.519	13141.49
250.59	13126.4
250.66	13095.79
250.731	13088.76
250.802	13052.46
250.873	13028.83
250.944	13015.34
251.014	12979.23
251.085	12974.65
251.156	12948.91
251.227	12939.17
251.297	12933.63
251.368	12928.52
251.439	12919.65
251.51	12909.33
251.58	12877.76
251.651	12852.45
251.722	12847.34
251.792	12813.55
251.863	12798.22
251.934	12789.59
252.005	12795.42
252.075	12780.48
252.146	12771.99
252.217	12763.51
252.287	12753.48
252.358	12729.09
252.429	12719.11
252.499	12697.61
252.57	12680.36
252.641	12674.67
252.711	12649.02
252.782	12617.06
252.852	12615.86
252.923	12586.02
252.994	12562.98
253.064	12559.12
253.135	12528.46
253.205	12500.65
253.276	12496.94
253.347	12490.14
253.417	12462.08
253.488	12441.55
253.558	12408.14
253.629	12380.48
253.699	12358.5
253.77	12347.6
253.841	12328.27
253.911	12311.59
253.982	12293.37
254.052	12277.56
254.123	12258.95
254.193	12243.19
254.264	12256.5
254.334	12220.3
254.405	12190.8
254.475	12164.57
254.546	12142.3
254.616	12139.51
254.687	12130.88
254.757	12114.78
254.827	12086.92
254.898	12067.21
254.968	12046.53
255.039	12019.87
255.109	12013.75
255.18	11987.58
255.25	11938.9
255.321	11923.09
255.391	11883.66
255.461	11887.42
255.532	11845.1
255.602	11816.18
255.673	11776.08
255.743	11745.27
255.813	11702.23
255.884	11696.59
255.954	11685.32
256.024	11684.35
256.095	11664.88
256.165	11624.97
256.235	11609.02
256.306	11584.48
256.376	11580.39
256.446	11569.49
256.517	11568.53
256.587	11567.86
256.657	11560.82
256.728	11555.13
256.798	11543.03
256.868	11526.89
256.938	11500.48
257.009	11496.77
257.079	11493.54
257.149	11497.87
257.219	11457.05
257.29	11446.64
257.36	11409.1
257.43	11397.58
257.5	11353.24
257.571	11325.67
257.641	11322.83
257.711	11292.23
257.781	11290.68
257.852	11279.31
257.922	11243.69
257.992	11217.72
258.062	11190.83
258.132	11173.33
258.202	11154.63
258.273	11138.3
258.343	11134.54
258.413	11112.51
258.483	11091.4
258.553	11061.67
258.623	11037.43
258.693	11024.8
258.764	11023.12
258.834	11026.06
258.904	11005.43
258.974	10985.87
259.044	10968.57
259.114	10949.1
259.184	10936.18
259.254	10915.75
259.324	10876.86
259.394	10870.45
259.464	10874.74
259.535	10856.67
259.605	10841.44
259.675	10815.14
259.745	10799.62
259.815	10778.22
259.885	10756.49
259.955	10772.35
260.025	10748.06
260.095	10734.38
260.165	10728.26
260.235	10732.64
260.305	10706
260.375	10681.47
260.445	10688.99
260.515	10694.43
260.585	10691.88
260.655	10681.04
260.725	10674.44
260.795	10675.79
260.865	10674.77
260.934	10649.62
261.004	10641.33
261.074	10625.48
261.144	10630.49
261.214	10631.41
261.284	10608.04
261.354	10606.01
261.424	10576.28
261.494	10578.16
261.564	10563.8
261.634	10557.88
261.703	10523.76
261.773	10511.38
261.843	10510.66
261.913	10494.56
261.983	10457.13
262.053	10447.54
