Data from 20250625_urea_1M_1_MAYP1162681_19-15-05-742.txt Node
Date: Wed Jun 25 19:15:05 BST 2025
User: adleo
Spectrometer: MAYP116268
Trigger mode: 0
Integration Time (sec): 1.000000E0
Scans to average: 1
Electric dark correction enabled: true
Nonlinearity correction enabled: true
Boxcar width: 10
XAxis mode: Wavelengths
Number of Pixels in Spectrum: 2068
>>>>>Begin Spectral Data<<<<<
179.565	1163.61
179.642	1222.12
179.718	1264.41
179.795	1303.51
179.871	1333.74
179.948	1354.39
180.024	1372.2
180.101	1394.96
180.177	1407.18
180.254	1427.21
180.33	1450.38
180.407	1500.13
180.483	1594.05
180.56	1680.85
180.636	1763.41
180.712	1750.15
180.789	1756.52
180.865	1768.77
180.942	1777.28
181.018	1788.73
181.095	1802.52
181.171	1807.22
181.248	1806.27
181.324	1821.96
181.4	1824.38
181.477	1834.32
181.553	1842.02
181.63	1863.79
181.706	1878.48
181.782	1887.98
181.859	1889.08
181.935	1890.98
182.011	1889.22
182.088	1902.48
182.164	1919.99
182.24	1929.68
182.317	1940.76
182.393	1937.95
182.469	1951.84
182.546	1968.05
182.622	1970
182.698	1963.77
182.775	1977.46
182.851	1989.73
182.927	1980.12
183.003	1979.74
183.08	1975.37
183.156	1985.73
183.232	1984.97
183.308	1974.08
183.385	1979.98
183.461	1993.29
183.537	1994.24
183.613	2006.28
183.69	1999.09
183.766	1989.68
183.842	1996.76
183.918	2000.99
183.995	2014.64
184.071	2016.97
184.147	2011.07
184.223	2001.47
184.299	2016.69
184.375	2005.18
184.452	2012.8
184.528	2072.23
184.604	2080.93
184.68	2094.34
184.756	2102.04
184.832	2104.28
184.908	2107.08
184.985	2110.84
185.061	2098.57
185.137	2109.89
185.213	2096.67
185.289	2096.43
185.365	2091.49
185.441	2093.63
185.517	2108.67
185.593	2105.81
185.669	2105.05
185.745	2112.28
185.822	2129.59
185.898	2118.98
185.974	2128.77
186.05	2118.5
186.126	2077.57
186.202	2069.68
186.278	2065.59
186.354	2056.17
186.43	2061.5
186.506	2060.07
186.582	2056.93
186.658	2061.21
186.734	2042.62
186.81	2045.33
186.886	2051.51
186.962	2061.16
187.038	2056.17
187.114	2045.22
187.19	2050.36
187.266	2038.33
187.341	2038.66
187.417	2029.82
187.493	2030.96
187.569	2034.34
187.645	2031.67
187.721	2017.78
187.797	2029.01
187.873	2032.95
187.949	2025.01
188.025	2017.83
188.101	2024.53
188.176	2029.91
188.252	2027.91
188.328	2032.14
188.404	2032.43
188.48	2026.86
188.556	2016.88
188.632	2017.3
188.707	2018.83
188.783	2019.06
188.859	2015.36
188.935	2005.47
189.011	2014.02
189.086	2008.27
189.162	2000.47
189.238	1994.15
189.314	1991.06
189.39	1986.35
189.465	1979.5
189.541	1998.95
189.617	1985.88
189.693	1977.6
189.768	1979.74
189.844	2002.72
189.92	1995.4
189.996	2006.96
190.071	2016.9
190.147	2020.99
190.223	2029.21
190.298	2023.46
190.374	2010.1
190.45	2022.55
190.526	2029.97
190.601	2023.22
190.677	2024.41
190.753	2050.1
190.828	2057.47
190.904	2073.65
190.98	2086.49
191.055	2094.67
191.131	2084.11
191.207	2103.32
191.282	2111.74
191.358	2103.23
191.433	2090.24
191.509	2105.4
191.585	2101.07
191.66	2100.5
191.736	2109.35
191.811	2099.84
191.887	2114.35
191.963	2134.99
192.038	2139.94
192.114	2141.89
192.189	2146.31
192.265	2140.56
192.34	2117.19
192.416	2115.05
192.491	2109.96
192.567	2113.05
192.642	2118.1
192.718	2120.43
192.793	2108.73
192.869	2105.68
192.944	2107.39
193.02	2113.25
193.095	2115.24
193.171	2119.76
193.246	2121.19
193.322	2116.67
193.397	2117.91
193.473	2105.15
193.548	2091.41
193.624	2097.12
193.699	2096.83
193.775	2113.25
193.85	2117.19
193.925	2129.7
194.001	2126.42
194.076	2120.43
194.152	2107.92
194.227	2096.69
194.302	2088.03
194.378	2091.13
194.453	2090.98
194.529	2102.59
194.604	2090.36
194.679	2084.32
194.755	2067.02
194.83	2078.34
194.905	2074.59
194.981	2083.05
195.056	2077.01
195.131	2082.96
195.207	2079.34
195.282	2067.22
195.357	2046.81
195.433	2061.98
195.508	2048.32
195.583	2058.45
195.659	2070.39
195.734	2080.1
195.809	2083.57
195.884	2088.61
195.96	2091.08
196.035	2104.64
196.11	2102.07
196.185	2115.06
196.261	2114.77
196.336	2145.17
196.411	2132.27
196.486	2137.46
196.561	2129.47
196.637	2137.12
196.712	2150.49
196.787	2152.21
196.862	2171.09
196.937	2182.27
197.013	2187.22
197.088	2195.83
197.163	2215.91
197.238	2235.24
197.313	2233.29
197.388	2245.95
197.464	2276.74
197.539	2288.35
197.614	2280.03
197.689	2292.74
197.764	2305.78
197.839	2330.19
197.914	2324.72
197.989	2342.56
198.065	2356.79
198.14	2410.76
198.215	2434.6
198.29	2449.99
198.365	2467.65
198.44	2475.36
198.515	2501.69
198.59	2514.69
198.665	2540.4
198.74	2549.02
198.815	2546.26
198.89	2571.74
198.965	2600.37
199.04	2596.13
199.115	2608.75
199.19	2651.7
199.265	2656.08
199.34	2665.08
199.415	2697.54
199.49	2717.26
199.565	2729.26
199.64	2754.17
199.715	2746.35
199.79	2754.88
199.865	2759.69
199.94	2755.31
200.015	2788.67
200.09	2797.77
200.165	2806.97
200.24	2812.16
200.315	2850.65
200.39	2867.09
200.464	2868.48
200.539	2868.38
200.614	2887.06
200.689	2908.03
200.764	2914.51
200.839	2929.66
200.914	2935
200.989	2924.6
201.063	2938.67
201.138	2921.62
201.213	2920.33
201.288	2902.12
201.363	2907.51
201.438	2902.46
201.512	2917.75
201.587	2898.16
201.662	2898.11
201.737	2909.41
201.812	2919.85
201.886	2887.65
201.961	2896
202.036	2881.8
202.111	2879.08
202.186	2848.41
202.26	2835.01
202.335	2814.13
202.41	2808.41
202.485	2791.5
202.559	2771.59
202.634	2744.95
202.709	2753.28
202.784	2734.85
202.858	2737.42
202.933	2720.07
203.008	2713.93
203.082	2695.68
203.157	2696.97
203.232	2655.64
203.306	2634.53
203.381	2600.6
203.456	2578.17
203.53	2554.62
203.605	2537.91
203.68	2515.14
203.754	2508.19
203.829	2492.76
203.904	2475.38
203.978	2461.86
204.053	2467.71
204.127	2456.1
204.202	2452.86
204.277	2439.34
204.351	2432.86
204.426	2424.86
204.5	2412.91
204.575	2382.12
204.65	2392.6
204.724	2385.07
204.799	2396.06
204.873	2394.73
204.948	2394.59
205.022	2386.07
205.097	2378.59
205.171	2394.96
205.246	2402.77
205.32	2405.39
205.395	2405.96
205.469	2397.59
205.544	2405.97
205.618	2390.02
205.693	2399.73
205.767	2389.88
205.842	2408.5
205.916	2402.07
205.991	2392.5
206.065	2400.26
206.14	2418.15
206.214	2410.91
206.289	2403.29
206.363	2412.29
206.438	2411.24
206.512	2420.05
206.586	2435.37
206.661	2446.33
206.735	2421.73
206.81	2425.16
206.884	2437.01
206.958	2422.83
207.033	2436.77
207.107	2443.58
207.181	2474.83
207.256	2470.59
207.33	2488.97
207.405	2498.59
207.479	2516.06
207.553	2523.4
207.628	2510.78
207.702	2518.69
207.776	2516.11
207.851	2520.4
207.925	2538.46
207.999	2538.03
208.073	2535.5
208.148	2536.88
208.222	2524.12
208.296	2557.2
208.371	2574.02
208.445	2587.98
208.519	2619.07
208.593	2633.22
208.668	2631.17
208.742	2633.5
208.816	2639.27
208.89	2654.99
208.965	2655.23
209.039	2669.38
209.113	2687.58
209.187	2710.24
209.261	2710.91
209.336	2733.82
209.41	2755.22
209.484	2760.94
209.558	2789.92
209.632	2809.07
209.707	2829.08
209.781	2859.1
209.855	2884.22
209.929	2908.46
210.003	2928.58
210.077	2940.12
210.151	2997.28
210.226	3044.94
210.3	3085.98
210.374	3125.6
210.448	3150.79
210.522	3183.42
210.596	3214.05
210.67	3247.49
210.744	3322.52
210.818	3382.28
210.892	3432.12
210.966	3460.17
211.041	3508.34
211.115	3541.04
211.189	3607.07
211.263	3671.49
211.337	3724.12
211.411	3785.84
211.485	3829.53
211.559	3894.17
211.633	3957.98
211.707	3996.67
211.781	4071.69
211.855	4110.18
211.929	4173.46
212.003	4230.25
212.077	4321.82
212.151	4418.14
212.225	4519.11
212.299	4597.38
212.373	4685.92
212.447	4782.32
212.52	4920.1
212.594	5036.37
212.668	5162.84
212.742	5266.78
212.816	5383.26
212.89	5505.49
212.964	5635.75
213.038	5773.99
213.112	5921.32
213.186	6076.56
213.26	6197.83
213.333	6297.82
213.407	6455.18
213.481	6619.29
213.555	6792.72
213.629	6948.49
213.703	7099.31
213.777	7264.21
213.85	7417.02
213.924	7631.04
213.998	7811.32
214.072	7987.68
214.146	8154.01
214.219	8338.18
214.293	8525.14
214.367	8717.45
214.441	8919.2
214.515	9099.63
214.588	9268.45
214.662	9432.06
214.736	9606.36
214.81	9811.18
214.883	10019.87
214.957	10209.58
215.031	10391.5
215.105	10571.65
215.178	10760.57
215.252	10960.33
215.326	11143.43
215.4	11332.23
215.473	11486.84
215.547	11670.95
215.621	11864.22
215.694	12075.52
215.768	12255.5
215.842	12442.18
215.915	12625.15
215.989	12800.71
216.063	12991.16
216.136	13195.01
216.21	13388.74
216.284	13599.34
216.357	13803.1
216.431	13995.43
216.504	14202.71
216.578	14432.06
216.652	14632.3
216.725	14824.24
216.799	15006.78
216.873	15186.97
216.946	15366.38
217.02	15540.24
217.093	15718.15
217.167	15864.24
217.24	16016.02
217.314	16177.73
217.387	16344.26
217.461	16504.42
217.535	16679.71
217.608	16831.77
217.682	16997.51
217.755	17173.86
217.829	17321.91
217.902	17472.46
217.976	17626.3
218.049	17763.11
218.123	17874.58
218.196	18028.56
218.27	18161.37
218.343	18299.54
218.417	18444.54
218.49	18582.9
218.563	18738.07
218.637	18879.27
218.71	19036.71
218.784	19179.02
218.857	19325.09
218.931	19461.9
219.004	19594.38
219.077	19718.71
219.151	19846.8
219.224	19953.98
219.298	20073.3
219.371	20193.16
219.444	20294.55
219.518	20401.3
219.591	20501.35
219.665	20644
219.738	20746.66
219.811	20837.31
219.885	20936.25
219.958	21043.64
220.031	21136.31
220.105	21224.61
220.178	21303.56
220.251	21381.45
220.325	21474.62
220.398	21555.31
220.471	21623.32
220.544	21710.95
220.618	21779.44
220.691	21853.67
220.764	21937.4
220.838	22005.37
220.911	22073.68
220.984	22156.69
221.057	22231.89
221.131	22309.11
221.204	22337.56
221.277	22421.73
221.35	22509.81
221.424	22568.72
221.497	22630.19
221.57	22690.21
221.643	22747.3
221.716	22806.84
221.79	22838.75
221.863	22882.34
221.936	22925.83
222.009	22972.4
222.082	23007.07
222.155	23046.56
222.229	23111.56
222.302	23151.91
222.375	23184.94
222.448	23217.59
222.521	23246.04
222.594	23269.66
222.667	23280.37
222.74	23320.87
222.814	23327.14
222.887	23346.96
222.96	23389.25
223.033	23407.1
223.106	23435.3
223.179	23460.77
223.252	23477.6
223.325	23512.8
223.398	23525.77
223.471	23541.01
223.544	23562.52
223.617	23577.85
223.69	23605.48
223.763	23593.81
223.837	23605.72
223.91	23627.91
223.983	23636.83
224.056	23640.83
224.129	23648.65
224.202	23678.11
224.275	23684.33
224.348	23678.45
224.42	23677.48
224.493	23654.91
224.566	23655.35
224.639	23662.34
224.712	23650.28
224.785	23654
224.858	23644.25
224.931	23635.19
225.004	23616.09
225.077	23614.07
225.15	23583.78
225.223	23567.87
225.296	23587.45
225.369	23559.58
225.442	23529.97
225.514	23513.62
225.587	23502.82
225.66	23499.44
225.733	23485.65
225.806	23473.5
225.879	23462.89
225.952	23434.92
226.025	23429.57
226.097	23427.49
226.17	23402.51
226.243	23369.63
226.316	23355.01
226.389	23337.03
226.461	23325.26
226.534	23318.22
226.607	23292.95
226.68	23296.76
226.753	23282.88
226.825	23231.61
226.898	23226.94
226.971	23208.86
227.044	23202.63
227.117	23177.18
227.189	23158.42
227.262	23142.31
227.335	23131.99
227.407	23110.44
227.48	23101.81
227.553	23080.11
227.626	23046.31
227.698	23036.33
227.771	23025.96
227.844	22986.09
227.916	22972.92
227.989	22937.78
228.062	22911.16
228.134	22911.4
228.207	22894.62
228.28	22863.33
228.352	22845.4
228.425	22825.82
228.498	22817.72
228.57	22775.15
228.643	22766.91
228.716	22745.5
228.788	22715.22
228.861	22671.68
228.934	22659
229.006	22622.22
229.079	22598.89
229.151	22575.45
229.224	22532.06
229.296	22510.85
229.369	22537.08
229.442	22523.73
229.514	22496.25
229.587	22490.61
229.659	22442.59
229.732	22415.79
229.804	22403.01
229.877	22397.47
229.949	22385.22
230.022	22374.18
230.094	22356.1
230.167	22335.57
230.239	22295.46
230.312	22274.54
230.384	22275.26
230.457	22253.13
230.529	22243.64
230.602	22219.44
230.674	22198.03
230.747	22182.95
230.819	22172.63
230.892	22096.99
230.964	22081.37
231.037	22065.56
231.109	22038.52
231.181	22027.19
231.254	21993.06
231.326	21962.74
231.399	21928.52
231.471	21887.59
231.544	21837.7
231.616	21817.6
231.688	21796.2
231.761	21770.12
231.833	21733.92
231.905	21686.73
231.978	21659.5
232.05	21620.89
232.122	21596.26
232.195	21556.45
232.267	21538.71
232.339	21493.54
232.412	21483.04
232.484	21435.51
232.556	21400.71
232.629	21390.73
232.701	21364.03
232.773	21339.45
232.846	21304.27
232.918	21282.58
232.99	21258.77
233.062	21238.14
233.135	21215.48
233.207	21167.24
233.279	21147.33
233.351	21125.02
233.424	21093.02
233.496	21051.57
233.568	21032.29
233.64	20991.61
233.713	20962.17
233.785	20932.91
233.857	20909.63
233.929	20857.44
234.001	20844.23
234.074	20826.11
234.146	20774.44
234.218	20740.27
234.29	20706.97
234.362	20664.85
234.434	20609.91
234.507	20557.77
234.579	20511.31
234.651	20465.81
234.723	20446.63
234.795	20422
234.867	20390.2
234.939	20376.65
235.012	20350.78
235.084	20333.81
235.156	20316.27
235.228	20280.7
235.3	20240.61
235.372	20215.45
235.444	20204.7
235.516	20153.19
235.588	20119.26
235.66	20094.2
235.732	20053
235.804	20070.83
235.876	20050.64
235.948	20058.01
236.02	20033.53
236.092	20003.8
236.164	19971.84
236.236	19929.87
236.308	19882.21
236.38	19851.71
236.452	19811.22
236.524	19782.46
236.596	19766.55
236.668	19735.23
236.74	19704.24
236.812	19676.58
236.884	19646.9
236.956	19620.39
237.028	19580.92
237.1	19544.01
237.172	19528.2
237.244	19519.24
237.316	19448.49
237.388	19408.06
237.46	19350.91
237.532	19335.1
237.604	19297.66
237.675	19292.36
237.747	19265.85
237.819	19227.06
237.891	19200.03
237.963	19149.33
238.035	19114.11
238.107	19036.52
238.178	19020.04
238.25	18986.55
238.322	18969.01
238.394	18920.29
238.466	18871.71
238.538	18843.13
238.609	18822.03
238.681	18763.77
238.753	18716.01
238.825	18686.61
238.897	18660.59
238.968	18642.23
239.04	18604.5
239.112	18593.99
239.184	18537.85
239.255	18504.89
239.327	18487.01
239.399	18445.57
239.471	18429.38
239.542	18400.36
239.614	18388.85
239.686	18334.2
239.758	18317.57
239.829	18277.72
239.901	18258.64
239.973	18228.81
240.044	18212.04
240.116	18170.79
240.188	18133.58
240.259	18108.47
240.331	18069.39
240.403	18046.31
240.474	18000.53
240.546	17956.67
240.618	17912.77
240.689	17881.69
240.761	17851.86
240.833	17833.4
240.904	17800.29
240.976	17760.87
241.048	17726.56
241.119	17706.7
241.191	17681.84
241.262	17670.51
241.334	17635.43
241.405	17607.67
241.477	17565.6
241.549	17524.73
241.62	17501.74
241.692	17479.19
241.763	17454.37
241.835	17423.38
241.906	17393.69
241.978	17341.31
242.049	17328.44
242.121	17304.34
242.192	17287.57
242.264	17241.31
242.335	17193.26
242.407	17175.96
242.478	17147.04
242.55	17124.58
242.621	17081.11
242.693	17034.36
242.764	16988.24
242.836	16953.88
242.907	16920.43
242.979	16903.32
243.05	16878.02
243.122	16845.83
243.193	16812.72
243.264	16757.77
243.336	16725.43
243.407	16699.41
243.479	16700.08
243.55	16672.27
243.622	16645.48
243.693	16618.25
243.764	16617.48
243.836	16582.15
243.907	16549.81
243.978	16522.77
244.05	16490.33
244.121	16440.5
244.192	16415.1
244.264	16377.46
244.335	16355.57
244.407	16306.03
244.478	16284.53
244.549	16251.8
244.62	16214.79
244.692	16185.48
244.763	16172.71
244.834	16144.03
244.906	16111.79
244.977	16082.39
245.048	16059.64
245.119	16024.02
245.191	15978.62
245.262	15917.31
245.333	15900.15
245.405	15872.92
245.476	15856.14
245.547	15830.55
245.618	15822.74
245.689	15805.29
245.761	15769.48
245.832	15737.67
245.903	15724.32
245.974	15696.7
246.045	15669.18
246.117	15661.56
246.188	15623.77
246.259	15582.32
246.33	15550.07
246.401	15520.19
246.473	15476.52
246.544	15448.46
246.615	15434.15
246.686	15405.8
246.757	15396.31
246.828	15355.48
246.899	15337.02
246.97	15287.56
247.042	15252.14
247.113	15229.53
247.184	15222.35
247.255	15198.39
247.326	15171.45
247.397	15145.03
247.468	15119.53
247.539	15095.67
247.61	15045.59
247.681	15035.13
247.752	15027.46
247.823	14996.13
247.894	14968.41
247.965	14941.08
248.037	14906.04
248.108	14868.15
248.179	14842.94
248.25	14811.37
248.321	14796.33
248.392	14764.03
248.463	14760.13
248.534	14739.25
248.605	14719.11
248.675	14692.02
248.746	14664.35
248.817	14645.16
248.888	14623.03
248.959	14579.22
249.03	14562.1
249.101	14544.22
249.172	14514.91
249.243	14469.89
249.314	14461.16
249.385	14439.76
249.456	14418.45
249.527	14385.48
249.598	14359.06
249.669	14338.77
249.739	14327.34
249.81	14307.92
249.881	14274.22
249.952	14253.3
250.023	14237.3
250.094	14193.77
250.165	14161.03
250.235	14144.5
250.306	14120.93
250.377	14089.3
250.448	14077.64
250.519	14027.46
250.59	14020.71
250.66	13994.87
250.731	13989.57
250.802	13969.8
250.873	13950.95
250.944	13930.66
251.014	13911.18
251.085	13912.44
251.156	13892.19
251.227	13881.78
251.297	13876.81
251.368	13863.27
251.439	13841.38
251.51	13825.33
251.58	13800.5
251.651	13772.78
251.722	13762.42
251.792	13724.24
251.863	13704.42
251.934	13693.19
252.005	13709.78
252.075	13687.75
252.146	13674.44
252.217	13663.11
252.287	13642.72
252.358	13629.08
252.429	13622.33
252.499	13597.98
252.57	13581.16
252.641	13570.22
252.711	13547.37
252.782	13511.21
252.852	13511.41
252.923	13498.15
252.994	13475.2
253.064	13468.55
253.135	13441.7
253.205	13409.83
253.276	13412.82
253.347	13408.82
253.417	13387.95
253.488	13355.79
253.558	13326.63
253.629	13305.9
253.699	13286.71
253.77	13279.48
253.841	13245.69
253.911	13227.9
253.982	13213.49
254.052	13196.28
254.123	13180.85
254.193	13158.92
254.264	13173.62
254.334	13136.07
254.405	13102.81
254.475	13075.18
254.546	13059.32
254.616	13054.65
254.687	13046.16
254.757	13033.39
254.827	13011.31
254.898	12990.25
254.968	12976.41
255.039	12961.42
255.109	12946.43
255.18	12920.93
255.25	12880.77
255.321	12873.39
255.391	12847.41
255.461	12849.34
255.532	12802.1
255.602	12771.25
255.673	12734.03
255.743	12700.29
255.813	12660.52
255.884	12649.67
255.954	12638.68
256.024	12632.95
256.095	12608.6
256.165	12576.31
256.235	12560.49
256.306	12536.54
256.376	12530.41
256.446	12511.23
256.517	12491.9
256.587	12492.43
256.657	12479.08
256.728	12468.66
256.798	12446.64
256.868	12427.26
256.938	12393.66
257.009	12389.85
257.079	12384.26
257.149	12396.36
257.219	12371.92
257.29	12360.01
257.36	12324.78
257.43	12313.35
257.5	12277.06
257.571	12259.89
257.641	12253.15
257.711	12224.61
257.781	12216.61
257.852	12209.14
257.922	12179.15
257.992	12161.75
258.062	12134.81
258.132	12121.7
258.202	12103.24
258.273	12087.86
258.343	12084.1
258.413	12061.49
258.483	12045.78
258.553	12020.86
258.623	11986.54
258.693	11963.4
258.764	11964.41
258.834	11966.25
258.904	11954.48
258.974	11925.95
259.044	11905.9
259.114	11895.39
259.184	11878.67
259.254	11855.1
259.324	11811.81
259.394	11797.16
259.464	11800.68
259.535	11784.58
259.605	11766.17
259.675	11734.89
259.745	11725.44
259.815	11701.77
259.885	11676.71
259.955	11685.97
260.025	11659.36
260.095	11644.08
260.165	11636.18
260.235	11635.26
260.305	11606.83
260.375	11573.04
260.445	11577.52
260.515	11577.23
260.585	11571.21
260.655	11554.82
260.725	11543.88
260.795	11536.07
260.865	11544.36
260.934	11512.07
261.004	11502.38
261.074	11479.44
261.144	11476.89
261.214	11476.84
261.284	11457.95
261.354	11457.85
261.424	11429.94
261.494	11434.37
261.564	11421.84
261.634	11405.12
261.703	11375.43
261.773	11372.15
261.843	11364.11
261.913	11345.5
261.983	11311.19
262.053	11296.25
262.123	11281.79
