Data from 20250625_urea_1M_1_MAYP1162681_23-35-05-526.txt Node
Date: Wed Jun 25 23:35:05 BST 2025
User: adleo
Spectrometer: MAYP116268
Trigger mode: 0
Integration Time (sec): 1.000000E0
Scans to average: 1
Electric dark correction enabled: true
Nonlinearity correction enabled: true
Boxcar width: 10
XAxis mode: Wavelengths
Number of Pixels in Spectrum: 2068
>>>>>Begin Spectral Data<<<<<
179.565	1137.15
179.642	1188.68
179.718	1229.53
179.795	1268.46
179.871	1301.34
179.948	1315.45
180.024	1336.94
180.101	1359.31
180.177	1371.77
180.254	1392.35
180.33	1414.74
180.407	1464.06
180.483	1554.89
180.56	1638.94
180.636	1720.31
180.712	1708.43
180.789	1715.51
180.865	1727.62
180.942	1737.98
181.018	1750.1
181.095	1763.22
181.171	1768.3
181.248	1769.73
181.324	1787.32
181.4	1791.12
181.477	1802.38
181.553	1816.87
181.63	1837.27
181.706	1849.48
181.782	1860.13
181.859	1859.84
181.935	1864.22
182.011	1858.99
182.088	1875.44
182.164	1894.6
182.24	1906.24
182.317	1915.42
182.393	1912.99
182.469	1926.54
182.546	1936.57
182.622	1939.33
182.698	1934.67
182.775	1949.84
182.851	1964.53
182.927	1954.64
183.003	1951.26
183.08	1942.52
183.156	1952.83
183.232	1950.5
183.308	1940.47
183.385	1948.03
183.461	1965.86
183.537	1966.05
183.613	1980.93
183.69	1972.61
183.766	1962.15
183.842	1968.43
183.918	1975.94
183.995	1988.87
184.071	1993.34
184.147	1988.25
184.223	1978.03
184.299	1990.4
184.375	1976.8
184.452	1980.51
184.528	2033.21
184.604	2043.58
184.68	2054.32
184.756	2059.7
184.832	2060.27
184.908	2065.88
184.985	2065.49
185.061	2050.75
185.137	2061.55
185.213	2049.57
185.289	2049.76
185.365	2045.1
185.441	2044.86
185.517	2057.61
185.593	2052.29
185.669	2046.58
185.745	2057.61
185.822	2074.2
185.898	2065.74
185.974	2074.29
186.05	2067.16
186.126	2029.15
186.202	2021.69
186.278	2020.17
186.354	2009.51
186.43	2015.08
186.506	2015.08
186.582	2010.89
186.658	2017.65
186.734	1998.48
186.81	1999.86
186.886	2001.86
186.962	2012.94
187.038	2007.23
187.114	1998.62
187.19	2006.89
187.266	2000.9
187.341	2001.24
187.417	1993.58
187.493	1991.11
187.569	1997.15
187.645	1990.35
187.721	1978.17
187.797	1987.54
187.873	1990.68
187.949	1986.97
188.025	1982.07
188.101	1984.07
188.176	1991.01
188.252	1984.31
188.328	1990.63
188.404	1989.92
188.48	1986.16
188.556	1977.98
188.632	1978.17
188.707	1976.7
188.783	1977.12
188.859	1972.32
188.935	1961.24
189.011	1969.71
189.086	1967.66
189.162	1960.96
189.238	1962.29
189.314	1960.57
189.39	1956.2
189.465	1949.35
189.541	1965
189.617	1952.11
189.693	1947.6
189.768	1951.21
189.844	1976.14
189.92	1967.44
189.996	1977.23
190.071	1985.84
190.147	1985.51
190.223	1993.35
190.298	1987.65
190.374	1973.38
190.45	1983.6
190.526	1990.59
190.601	1985.93
190.677	1986.88
190.753	2011.53
190.828	2013.43
190.904	2026.89
190.98	2039.26
191.055	2048.82
191.131	2041.3
191.207	2061.99
191.282	2070.26
191.358	2059.23
191.433	2046.24
191.509	2062.12
191.585	2058.31
191.66	2061.12
191.736	2070.11
191.811	2064.21
191.887	2076.58
191.963	2097.22
192.038	2102.83
192.114	2103.97
192.189	2109.06
192.265	2106.78
192.34	2081.84
192.416	2081.37
192.491	2079.47
192.567	2085.89
192.642	2087.89
192.718	2090.55
192.793	2077.09
192.869	2075.71
192.944	2077.71
193.02	2086.61
193.095	2086.94
193.171	2095.31
193.246	2093.45
193.322	2089.79
193.397	2088.22
193.473	2077.28
193.548	2063.06
193.624	2069.67
193.699	2069.48
193.775	2082.09
193.85	2083.66
193.925	2093.03
194.001	2091.56
194.076	2082.04
194.152	2068.72
194.227	2061.54
194.302	2050.08
194.378	2053.65
194.453	2048.8
194.529	2064.73
194.604	2049.7
194.679	2045.66
194.755	2025.64
194.83	2039.01
194.905	2036.3
194.981	2044.91
195.056	2037.87
195.131	2042.15
195.207	2035.16
195.282	2026.26
195.357	2008.47
195.433	2023.5
195.508	2008.9
195.583	2017.32
195.659	2034.54
195.734	2043
195.809	2043.91
195.884	2051.71
195.96	2051.52
196.035	2067.64
196.11	2061.88
196.185	2072.2
196.261	2075.06
196.336	2103.12
196.411	2087.99
196.486	2092.03
196.561	2086.8
196.637	2097.59
196.712	2111.72
196.787	2118.29
196.862	2129.6
196.937	2138.64
197.013	2140.78
197.088	2153.86
197.163	2173.32
197.238	2186.65
197.313	2183.99
197.388	2200.12
197.464	2228.63
197.539	2238.24
197.614	2232.05
197.689	2244.62
197.764	2261.89
197.839	2280.74
197.914	2277.36
197.989	2300.68
198.065	2317.19
198.14	2364
198.215	2387.61
198.29	2401.89
198.365	2414.99
198.44	2425.45
198.515	2452.54
198.59	2467.87
198.665	2495.34
198.74	2504.35
198.815	2506.3
198.89	2528.48
198.965	2554.26
199.04	2550.54
199.115	2567.49
199.19	2606.54
199.265	2610.2
199.34	2619.63
199.415	2650.61
199.49	2671.51
199.565	2678.94
199.64	2700.38
199.715	2697.13
199.79	2705.42
199.865	2711.09
199.94	2706.28
200.015	2737.39
200.09	2742.11
200.165	2749.3
200.24	2752.55
200.315	2791.65
200.39	2809
200.464	2814.52
200.539	2814.62
200.614	2830.53
200.689	2855.7
200.764	2861.42
200.839	2876.38
200.914	2878.14
200.989	2871.03
201.063	2882.81
201.138	2867.76
201.213	2869.38
201.288	2851.27
201.363	2856.32
201.438	2855.75
201.512	2873.09
201.587	2856.98
201.662	2860.7
201.737	2873.8
201.812	2883.96
201.886	2850.62
201.961	2856.1
202.036	2844.33
202.111	2841.43
202.186	2811.9
202.26	2795.4
202.335	2778.48
202.41	2775.29
202.485	2760.72
202.559	2740.32
202.634	2713.69
202.709	2720.55
202.784	2697.25
202.858	2699.83
202.933	2680.44
203.008	2672.48
203.082	2655.72
203.157	2658.53
203.232	2620.91
203.306	2600.8
203.381	2567.31
203.456	2546.73
203.53	2523.57
203.605	2507.39
203.68	2486.9
203.754	2482.19
203.829	2466.33
203.904	2443.1
203.978	2430.48
204.053	2432.33
204.127	2420.62
204.202	2421.77
204.277	2408.77
204.351	2404.53
204.426	2395.87
204.5	2387.3
204.575	2356.6
204.65	2365.51
204.724	2353.22
204.799	2357.88
204.873	2354.93
204.948	2355.12
205.022	2344.18
205.097	2338.79
205.171	2352.64
205.246	2358.93
205.32	2357.41
205.395	2356.36
205.469	2346.8
205.544	2351.18
205.618	2338.09
205.693	2349.56
205.767	2337.76
205.842	2355.04
205.916	2351.04
205.991	2340.91
206.065	2345.62
206.14	2363.41
206.214	2359.84
206.289	2355.46
206.363	2368.07
206.438	2369.97
206.512	2378.59
206.586	2396.73
206.661	2404.06
206.735	2380.08
206.81	2380.75
206.884	2395.55
206.958	2381.65
207.033	2398.49
207.107	2407.73
207.181	2437.83
207.256	2432.5
207.33	2451.92
207.405	2463.26
207.479	2479.87
207.553	2486.92
207.628	2473.83
207.702	2481.59
207.776	2475.16
207.851	2481.31
207.925	2496.64
207.999	2494.26
208.073	2491.83
208.148	2492.98
208.222	2482.69
208.296	2515.24
208.371	2533.54
208.445	2543.78
208.519	2574.2
208.593	2588.11
208.668	2581.58
208.742	2584.63
208.816	2588.3
208.89	2603.97
208.965	2606.88
209.039	2616.98
209.113	2635.13
209.187	2657.69
209.261	2658.88
209.336	2682.32
209.41	2703.71
209.484	2706.57
209.558	2732.06
209.632	2751.31
209.707	2768.37
209.781	2796.1
209.855	2819.26
209.929	2839.92
210.003	2857.6
210.077	2864.94
210.151	2922.04
210.226	2967.16
210.3	3005.81
210.374	3042.36
210.448	3061.49
210.522	3085.53
210.596	3116.58
210.67	3150.44
210.744	3218.24
210.818	3272.56
210.892	3318.04
210.966	3338.07
211.041	3385.08
211.115	3414.81
211.189	3472.42
211.263	3528.85
211.337	3576.25
211.411	3632.99
211.485	3678.19
211.559	3741.57
211.633	3798.9
211.707	3824.09
211.781	3892.57
211.855	3921.49
211.929	3978.72
212.003	4030.85
212.077	4113.87
212.151	4198.57
212.225	4283.27
212.299	4354.12
212.373	4429.08
212.447	4517.01
212.52	4641.59
212.594	4737.49
212.668	4850.28
212.742	4936.05
212.816	5035.39
212.89	5142.12
212.964	5255.53
213.038	5372.4
213.112	5503.98
213.186	5645.54
213.26	5755.41
213.333	5841.8
213.407	5986.01
213.481	6132.03
213.555	6280.01
213.629	6415.07
213.703	6548.37
213.777	6698.07
213.85	6839.69
213.924	7023.94
213.998	7185.09
214.072	7341
214.146	7496.31
214.219	7655.79
214.293	7824.48
214.367	7999.83
214.441	8183.23
214.515	8344.26
214.588	8499.77
214.662	8651.07
214.736	8807.14
214.81	8990.38
214.883	9179.03
214.957	9347.23
215.031	9516.03
215.105	9676.97
215.178	9848.95
215.252	10036.98
215.326	10200.95
215.4	10355.33
215.473	10503.63
215.547	10669.09
215.621	10834.42
215.694	11023.88
215.768	11181.26
215.842	11350.55
215.915	11521.06
215.989	11670.32
216.063	11833.57
216.136	12008.47
216.21	12174.47
216.284	12355.65
216.357	12530.52
216.431	12705.4
216.504	12885.92
216.578	13083.17
216.652	13270.67
216.725	13437.32
216.799	13598.51
216.873	13760.48
216.946	13933.73
217.02	14089
217.093	14244.36
217.167	14390.62
217.24	14532.48
217.314	14688.52
217.387	14837.28
217.461	14982.85
217.535	15143.07
217.608	15295.15
217.682	15441.78
217.755	15600.51
217.829	15743.86
217.902	15883.15
217.976	16026.79
218.049	16156.78
218.123	16268.84
218.196	16402.78
218.27	16531.71
218.343	16653.55
218.417	16786.23
218.49	16915.73
218.563	17051.88
218.637	17180.95
218.71	17315.46
218.784	17442.4
218.857	17577.24
218.931	17696.86
219.004	17812.76
219.077	17935.99
219.151	18040.47
219.224	18154.15
219.298	18259.21
219.371	18381.42
219.444	18475.73
219.518	18580.4
219.591	18684.83
219.665	18817.45
219.738	18913.59
219.811	18993.63
219.885	19099.17
219.958	19206.82
220.031	19298.96
220.105	19398.62
220.178	19490.95
220.251	19570.61
220.325	19660.63
220.398	19741.98
220.471	19828.53
220.544	19904.57
220.618	19973.49
220.691	20056.42
220.764	20130.35
220.838	20209.48
220.911	20263.07
220.984	20358.2
221.057	20425.05
221.131	20490.15
221.204	20511.89
221.277	20595.07
221.35	20691.99
221.424	20743.56
221.497	20792.96
221.57	20841.92
221.643	20893.35
221.716	20949.21
221.79	20996.97
221.863	21039.28
221.936	21081.74
222.009	21124.98
222.082	21181.27
222.155	21219.78
222.229	21277.33
222.302	21308.36
222.375	21341.38
222.448	21385.87
222.521	21423.42
222.594	21455.37
222.667	21485.01
222.74	21528.68
222.814	21551.91
222.887	21579.44
222.96	21612.41
223.033	21651.16
223.106	21696.9
223.179	21726.64
223.252	21741.39
223.325	21762.6
223.398	21789.26
223.471	21819.33
223.544	21855.68
223.617	21875.3
223.69	21901.52
223.763	21916.66
223.837	21955.55
223.91	21975.99
223.983	21976.14
224.056	21976.47
224.129	21990.6
224.202	22015.57
224.275	22036.87
224.348	22022.32
224.42	22020.68
224.493	22022.32
224.566	22021.26
224.639	22029.11
224.712	22030.85
224.785	22035.43
224.858	22043.48
224.931	22038.47
225.004	22025.4
225.077	22029.64
225.15	22012.05
225.223	22008.05
225.296	22025.55
225.369	22004.58
225.442	22005.45
225.514	22022.61
225.587	22029.07
225.66	22028.78
225.733	22027.86
225.806	22025.11
225.879	22035.96
225.952	22018.12
226.025	22033.89
226.097	22050.52
226.17	22039.24
226.243	22015.72
226.316	22024.88
226.389	22025.84
226.461	22040.73
226.534	22046.9
226.607	22026.32
226.68	22036.06
226.753	22038.57
226.825	22008.15
226.898	22019.33
226.971	22004.63
227.044	21982.45
227.117	21970.93
227.189	21971.17
227.262	21967.85
227.335	21970.36
227.407	21965.39
227.48	21970.45
227.553	21960.67
227.626	21934.73
227.698	21920.75
227.771	21920.13
227.844	21883.97
227.916	21871.15
227.989	21830.23
228.062	21814.13
228.134	21827.72
228.207	21813.31
228.28	21783.28
228.352	21769.11
228.425	21748.48
228.498	21747.08
228.57	21732.19
228.643	21733.58
228.716	21716.33
228.788	21688.75
228.861	21653.18
228.934	21641.52
229.006	21619.1
229.079	21593.75
229.151	21578.13
229.224	21551.82
229.296	21534.61
229.369	21580.5
229.442	21587.25
229.514	21575.39
229.587	21577.37
229.659	21535.62
229.732	21520.01
229.804	21515.81
229.877	21517.02
229.949	21513.21
230.022	21517.12
230.094	21499.48
230.167	21487.76
230.239	21450.75
230.312	21433.25
230.384	21439.76
230.457	21427.85
230.529	21423.23
230.602	21405.59
230.674	21397.15
230.747	21399.9
230.819	21400.81
230.892	21328.8
230.964	21304.22
231.037	21289.76
231.109	21262.38
231.181	21264.31
231.254	21237.95
231.326	21221.32
231.399	21202.67
231.471	21169.22
231.544	21113.16
231.616	21104.54
231.688	21079.28
231.761	21057.26
231.833	21035.13
231.905	20999.28
231.978	20974.17
232.05	20944.38
232.122	20924.96
232.195	20885.39
232.267	20862.35
232.339	20827.55
232.412	20814.69
232.484	20791.7
232.556	20761.96
232.629	20764.28
232.701	20732.27
232.773	20714.01
232.846	20690.59
232.918	20667.89
232.99	20648.95
233.062	20639.89
233.135	20619.6
233.207	20585.38
233.279	20573.04
233.351	20558.2
233.424	20530.73
233.496	20501.81
233.568	20493.81
233.64	20458.1
233.713	20437.96
233.785	20415.5
233.857	20394.97
233.929	20354.49
234.001	20347.45
234.074	20344.41
234.146	20297.76
234.218	20285.62
234.29	20258.82
234.362	20217.52
234.434	20176.37
234.507	20139.5
234.579	20099.21
234.651	20064.42
234.723	20045.34
234.795	20028.03
234.867	19992.57
234.939	19975.07
235.012	19946.4
235.084	19923.65
235.156	19896.14
235.228	19855.27
235.3	19822.79
235.372	19797.15
235.444	19782.6
235.516	19714.07
235.588	19672.92
235.66	19633.59
235.732	19579.52
235.804	19602.12
235.876	19586.95
235.948	19559.91
236.02	19535.96
236.092	19500.44
236.164	19478.71
236.236	19440.64
236.308	19401.56
236.38	19368.11
236.452	19318.72
236.524	19286.43
236.596	19259.4
236.668	19246.1
236.74	19220.12
236.812	19187.98
236.884	19165.19
236.956	19134.73
237.028	19108.85
237.1	19082.2
237.172	19071.51
237.244	19067.8
237.316	18995.9
237.388	18959.03
237.46	18927.61
237.532	18908
237.604	18880.43
237.675	18854.07
237.747	18840.87
237.819	18803.33
237.891	18781.16
237.963	18748.44
238.035	18714.61
238.107	18659.87
238.178	18637.65
238.25	18605.61
238.322	18601.22
238.394	18548.21
238.466	18514.53
238.538	18485.18
238.609	18459.01
238.681	18411.45
238.753	18364.46
238.825	18332.9
238.897	18305.57
238.968	18293.77
239.04	18250.25
239.112	18246.49
239.184	18194.64
239.255	18151.03
239.327	18126.3
239.399	18102.74
239.471	18088.23
239.542	18072.04
239.614	18047.66
239.686	17989.15
239.758	17964.87
239.829	17920.05
239.901	17903.13
239.973	17870.7
240.044	17844.15
240.116	17804.48
240.188	17776.58
240.259	17746.85
240.331	17716.44
240.403	17692.15
240.474	17644.44
240.546	17607.52
240.618	17547.33
240.689	17521.31
240.761	17491.19
240.833	17473.26
240.904	17436.3
240.976	17401.26
241.048	17367.43
241.119	17342.37
241.191	17324.44
241.262	17310.51
241.334	17278.66
241.405	17243.28
241.477	17202.85
241.549	17176.05
241.62	17146.75
241.692	17117.06
241.763	17096.1
241.835	17061.4
241.906	17033.88
241.978	16986.02
242.049	16971.28
242.121	16956
242.192	16946.36
242.264	16900.72
242.335	16859.27
242.407	16822.88
242.478	16789.15
242.55	16763.75
242.621	16729.96
242.693	16693.48
242.764	16659.65
242.836	16629.38
242.907	16601.72
242.979	16586.15
243.05	16551.21
243.122	16535.4
243.193	16504.84
243.264	16452.45
243.336	16420.16
243.407	16395.68
243.479	16385.84
243.55	16358.85
243.622	16332.49
243.693	16296.49
243.764	16288.82
243.836	16243.85
243.907	16221.83
243.978	16191.46
244.05	16161.05
244.121	16117.72
244.192	16096.32
244.264	16060.51
244.335	16026.48
244.407	15981.75
244.478	15952.69
244.549	15919.09
244.62	15866.17
244.692	15832.33
244.763	15812.09
244.834	15773.82
244.906	15736.65
244.977	15716.6
245.048	15708.07
245.119	15672.02
245.191	15636.49
245.262	15583.28
245.333	15575.95
245.405	15546.65
245.476	15524.57
245.547	15501.82
245.618	15480.56
245.689	15448.17
245.761	15412.79
245.832	15385.08
245.903	15383.1
245.974	15357.22
246.045	15339.82
246.117	15334.08
246.188	15299.95
246.259	15268.81
246.33	15252.81
246.401	15216.76
246.473	15167.44
246.544	15124.55
246.615	15106.42
246.686	15071.14
246.757	15058.56
246.828	15015.36
246.899	15004.04
246.97	14956.27
247.042	14920.64
247.113	14904.5
247.184	14894.66
247.255	14871.48
247.326	14845.25
247.397	14804.96
247.468	14779.55
247.539	14742.53
247.61	14697.99
247.681	14686.04
247.752	14671.38
247.823	14633.25
247.894	14609.39
247.965	14576.52
248.037	14545.23
248.108	14507.58
248.179	14483.38
248.25	14453.83
248.321	14442.65
248.392	14399.56
248.463	14406.16
248.534	14375.02
248.605	14349.47
248.675	14320.64
248.746	14294.85
248.817	14265.79
248.888	14246.7
248.959	14209.1
249.03	14191.36
249.101	14172.56
249.172	14132.74
249.243	14085.25
249.314	14077.06
249.385	14054.21
249.456	14043.03
249.527	14015.31
249.598	13996.46
249.669	13975.59
249.739	13958.76
249.81	13933.4
249.881	13896.96
249.952	13864.47
250.023	13843.64
250.094	13806.38
250.165	13772.3
250.235	13752.05
250.306	13737.3
250.377	13707.46
250.448	13690.49
250.519	13651.35
250.59	13647.01
250.66	13628.79
250.731	13622.76
250.802	13602.03
250.873	13584.92
250.944	13561.97
251.014	13536.38
251.085	13534.83
251.156	13516.56
251.227	13503.89
251.297	13495.21
251.368	13494.87
251.439	13483.88
251.51	13475.11
251.58	13451.24
251.651	13431.58
251.722	13425.21
251.792	13387.32
251.863	13354.93
251.934	13341.24
252.005	13349.96
252.075	13325.23
252.146	13315.3
252.217	13309.47
252.287	13296.45
252.358	13284.59
252.429	13284.06
252.499	13253.55
252.57	13236.92
252.641	13226.55
252.711	13201.53
252.782	13166.3
252.852	13159.4
252.923	13139.54
252.994	13122.04
253.064	13116.84
253.135	13087.86
253.205	13057.88
253.276	13057.35
253.347	13057.73
253.417	13029.39
253.488	13001.67
253.558	12973.42
253.629	12949.9
253.699	12925.99
253.77	12912.59
253.841	12882.17
253.911	12861.44
253.982	12850.79
254.052	12834.25
254.123	12815.31
254.193	12802.19
254.264	12818.54
254.334	12789.08
254.405	12756.3
254.475	12722.22
254.546	12693.88
254.616	12689.15
254.687	12672.67
254.757	12655.51
254.827	12635.55
254.898	12630.39
254.968	12613.76
255.039	12590.86
255.109	12577.56
255.18	12552.97
255.25	12509.11
255.321	12500.91
255.391	12463.36
255.461	12470.74
255.532	12418.73
255.602	12391.2
255.673	12354.08
255.743	12334.8
255.813	12290.12
255.884	12281.63
255.954	12272.91
256.024	12274.6
256.095	12256.62
256.165	12222.63
256.235	12207.98
256.306	12186
256.376	12169.61
256.446	12157.03
256.517	12146.28
256.587	12147.68
256.657	12133.31
256.728	12121.26
256.798	12101.4
256.868	12087.52
256.938	12050.5
257.009	12050.17
257.079	12039.56
257.149	12044.91
257.219	11998.73
257.29	11990.3
257.36	11959.21
257.43	11947.5
257.5	11905.37
257.571	11883.44
257.641	11882.19
257.711	11850.23
257.781	11839.05
257.852	11831.48
257.922	11796.44
257.992	11772.48
258.062	11735.85
258.132	11727.51
258.202	11709.24
258.273	11687.99
258.343	11686.64
258.413	11668.23
258.483	11647.84
258.553	11625.04
258.623	11594.15
258.693	11586.68
258.764	11588.27
258.834	11579.54
258.904	11570.24
258.974	11548.41
259.044	11530.09
259.114	11515.49
259.184	11505.71
259.254	11486.72
259.324	11443.97
259.394	11430.71
259.464	11438.52
259.535	11419.96
259.605	11403.77
259.675	11375.14
259.745	11365.22
259.815	11336.83
259.885	11308.68
259.955	11321.07
260.025	11297.84
260.095	11283.72
260.165	11264.88
260.235	11266.32
260.305	11247.14
260.375	11220.39
260.445	11226.37
260.515	11223.72
260.585	11215.77
260.655	11203.82
260.725	11191.57
260.795	11190.22
260.865	11193.79
260.934	11160.1
261.004	11157.21
261.074	11138.51
261.144	11141.6
261.214	11140.15
261.284	11128.39
261.354	11129.79
261.424	11100.25
261.494	11105.4
261.564	11090.03
261.634	11086.66
261.703	11042.66
261.773	11026.03
261.843	11013.74
261.913	11000.01
261.983	10965.17
262.053	10953.84
262.123	10935.63
262.192	10912.79
