Data from 20250625_urea_1M_1_MAYP1162681_10-05-05-479.txt Node
Date: Thu Jun 26 10:05:05 BST 2025
User: adleo
Spectrometer: MAYP116268
Trigger mode: 0
Integration Time (sec): 1.000000E0
Scans to average: 1
Electric dark correction enabled: true
Nonlinearity correction enabled: true
Boxcar width: 10
XAxis mode: Wavelengths
Number of Pixels in Spectrum: 2068
>>>>>Begin Spectral Data<<<<<
179.565	1120.08
179.642	1172.48
179.718	1213.28
179.795	1249.46
179.871	1282.22
179.948	1300.65
180.024	1319.21
180.101	1341.24
180.177	1355.18
180.254	1374.51
180.33	1395.23
180.407	1443.18
180.483	1532.25
180.56	1617.44
180.636	1697.67
180.712	1685.26
180.789	1695.86
180.865	1710.87
180.942	1716.62
181.018	1728.02
181.095	1744.04
181.171	1750.69
181.248	1753.5
181.324	1768.57
181.4	1774.6
181.477	1782.97
181.553	1794.75
181.63	1814.14
181.706	1828.83
181.782	1836.95
181.859	1837.38
181.935	1842.28
182.011	1839.38
182.088	1854.26
182.164	1871.52
182.24	1882.69
182.317	1892.48
182.393	1887.67
182.469	1899.75
182.546	1913.68
182.622	1914.53
182.698	1909.73
182.775	1921.43
182.851	1933.74
182.927	1928.56
183.003	1925.33
183.08	1920.48
183.156	1929.27
183.232	1927.99
183.308	1918.81
183.385	1925.04
183.461	1940.63
183.537	1941.63
183.613	1952.76
183.69	1943.96
183.766	1933.83
183.842	1942.06
183.918	1948.52
183.995	1964.88
184.071	1970.16
184.147	1963.5
184.223	1954.19
184.299	1964.12
184.375	1953.86
184.452	1958.75
184.528	2012.51
184.604	2020.21
184.68	2034.38
184.756	2040.47
184.832	2043.75
184.908	2047.41
184.985	2047.65
185.061	2033.67
185.137	2040.61
185.213	2030.44
185.289	2033.43
185.365	2027.58
185.441	2025.06
185.517	2040.14
185.593	2037.1
185.669	2030.16
185.745	2042.04
185.822	2054.59
185.898	2047.17
185.974	2055.11
186.05	2047.22
186.126	2003.97
186.202	1999.41
186.278	1991.75
186.354	1981.53
186.43	1988.8
186.506	1985.95
186.582	1987.05
186.658	1996.46
186.734	1981.44
186.81	1984.48
186.886	1986.33
186.962	1996.08
187.038	1990.8
187.114	1980.57
187.19	1981.95
187.266	1971.82
187.341	1972.97
187.417	1968.54
187.493	1969.02
187.569	1970.97
187.645	1966.31
187.721	1957.94
187.797	1967.31
187.873	1972.35
187.949	1967.93
188.025	1960.74
188.101	1964.88
188.176	1966.83
188.252	1961.88
188.328	1967.44
188.404	1964.26
188.48	1959.7
188.556	1953.66
188.632	1957.32
188.707	1956.41
188.783	1955.13
188.859	1954.7
188.935	1943.29
189.011	1951.71
189.086	1946.95
189.162	1939.06
189.238	1936.59
189.314	1934.16
189.39	1929.64
189.465	1922.04
189.541	1939.96
189.617	1925.08
189.693	1919.67
189.768	1922.85
189.844	1943.92
189.92	1935.32
189.996	1948.97
190.071	1960.38
190.147	1958.72
190.223	1966.99
190.298	1961.71
190.374	1950.16
190.45	1961.28
190.526	1968.8
190.601	1963.47
190.677	1963.28
190.753	1993.73
190.828	1996.35
190.904	2007.52
190.98	2021.74
191.055	2029.87
191.131	2020.08
191.207	2038
191.282	2047.37
191.358	2038.71
191.433	2024.96
191.509	2039.22
191.585	2031.71
191.66	2030.9
191.736	2043.5
191.811	2033.23
191.887	2047.31
191.963	2071.37
192.038	2075.89
192.114	2075.23
192.189	2078.89
192.265	2075.18
192.34	2050.72
192.416	2049.91
192.491	2049.25
192.567	2049.67
192.642	2055.53
192.718	2055.38
192.793	2043.4
192.869	2040.5
192.944	2043.07
193.02	2050.82
193.095	2051.25
193.171	2060.33
193.246	2061.47
193.322	2055.72
193.397	2058.24
193.473	2047.01
193.548	2028.98
193.624	2033.12
193.699	2032.93
193.775	2048.63
193.85	2052.62
193.925	2059.57
194.001	2060.09
194.076	2051.67
194.152	2039.69
194.227	2030.55
194.302	2021.66
194.378	2028.7
194.453	2024.8
194.529	2038.21
194.604	2024.52
194.679	2021.24
194.755	1999.08
194.83	2010.12
194.905	2005.56
194.981	2012.21
195.056	2003.18
195.131	2009.03
195.207	2004.37
195.282	1995.19
195.357	1975.83
195.433	1990.43
195.508	1979.82
195.583	1987.81
195.659	2003.6
195.734	2011.55
195.809	2013.97
195.884	2018.58
195.96	2017.44
196.035	2034.52
196.11	2033.23
196.185	2045.03
196.261	2047.36
196.336	2080.65
196.411	2067.09
196.486	2073.08
196.561	2066.13
196.637	2076.69
196.712	2092.06
196.787	2095.53
196.862	2112.13
196.937	2120.02
197.013	2125.21
197.088	2134.29
197.163	2155.28
197.238	2169.23
197.313	2167.8
197.388	2179.41
197.464	2210.72
197.539	2223.42
197.614	2215.05
197.689	2221.18
197.764	2237.22
197.839	2258.54
197.914	2252.78
197.989	2276.19
198.065	2291.66
198.14	2339.8
198.215	2363.22
198.29	2373.07
198.365	2388.11
198.44	2397.01
198.515	2424.67
198.59	2435.33
198.665	2460.94
198.74	2464.23
198.815	2462.56
198.89	2487.17
198.965	2512.56
199.04	2513.94
199.115	2526.46
199.19	2564.83
199.265	2571.83
199.34	2578.07
199.415	2606.94
199.49	2628.32
199.565	2635.32
199.64	2659.14
199.715	2656.9
199.79	2663.05
199.865	2670.62
199.94	2668.95
200.015	2700.25
200.09	2705.64
200.165	2714.69
200.24	2721.07
200.315	2760.6
200.39	2780.75
200.464	2783.37
200.539	2784.09
200.614	2796
200.689	2819.83
200.764	2829.46
200.839	2845.94
200.914	2851.51
200.989	2843.41
201.063	2855.89
201.138	2839.37
201.213	2838.7
201.288	2822.26
201.363	2828.5
201.438	2829.08
201.512	2846.42
201.587	2828.83
201.662	2834.07
201.737	2845.8
201.812	2857.04
201.886	2825.05
201.961	2834.68
202.036	2824.34
202.111	2825.01
202.186	2794.39
202.26	2777.23
202.335	2758.26
202.41	2750.02
202.485	2736.26
202.559	2718.53
202.634	2692.85
202.709	2702.42
202.784	2684.37
202.858	2681.56
202.933	2664.84
203.008	2657.79
203.082	2636.69
203.157	2637.4
203.232	2596.83
203.306	2577.2
203.381	2542.71
203.456	2523.09
203.53	2495.97
203.605	2476.98
203.68	2453.93
203.754	2450.08
203.829	2434.17
203.904	2411.84
203.978	2399.89
204.053	2404.65
204.127	2390.99
204.202	2386.14
204.277	2370.53
204.351	2362.67
204.426	2356.96
204.5	2348.67
204.575	2315.98
204.65	2326.36
204.724	2317.26
204.799	2321.97
204.873	2316.31
204.948	2316.78
205.022	2308.17
205.097	2301.5
205.171	2316.59
205.246	2325.11
205.32	2324.87
205.395	2327.59
205.469	2319.36
205.544	2325.02
205.618	2309.65
205.693	2322.02
205.767	2312.55
205.842	2332.26
205.916	2326.36
205.991	2317.08
206.065	2324.74
206.14	2343.01
206.214	2337.49
206.289	2331.68
206.363	2346.24
206.438	2348.48
206.512	2354.05
206.586	2369.51
206.661	2378.66
206.735	2355.63
206.81	2357.54
206.884	2373.29
206.958	2360.11
207.033	2374.67
207.107	2382.76
207.181	2409.71
207.256	2406.14
207.33	2423.71
207.405	2436.19
207.479	2455.42
207.553	2464.13
207.628	2445.34
207.702	2453.67
207.776	2449.33
207.851	2456.9
207.925	2469.96
207.999	2469.43
208.073	2468.76
208.148	2472.38
208.222	2458.77
208.296	2494.55
208.371	2509.28
208.445	2519.66
208.519	2550.56
208.593	2564.37
208.668	2561.56
208.742	2563.03
208.816	2564.27
208.89	2580.71
208.965	2580.14
209.039	2587.19
209.113	2601.38
209.187	2625.6
209.261	2623.46
209.336	2642.23
209.41	2660.43
209.484	2662.48
209.558	2683.87
209.632	2698.49
209.707	2710.87
209.781	2736.55
209.855	2754.66
209.929	2776.84
210.003	2785.99
210.077	2788.65
210.151	2840.46
210.226	2878.41
210.3	2912.13
210.374	2939.67
210.448	2951.25
210.522	2969.42
210.596	2986.63
210.67	3008.94
210.744	3062.6
210.818	3102.59
210.892	3133.92
210.966	3143.46
211.041	3171.69
211.115	3188.71
211.189	3227.25
211.263	3261.64
211.337	3286.2
211.411	3315.89
211.485	3329.97
211.559	3367.28
211.633	3393.13
211.707	3387.54
211.781	3424.8
211.855	3417.97
211.929	3440.97
212.003	3456.48
212.077	3497.6
212.151	3551.42
212.225	3595.78
212.299	3622.35
212.373	3654.63
212.447	3695.72
212.52	3764.61
212.594	3819.95
212.668	3873.45
212.742	3909.96
212.816	3957.61
212.89	4009.51
212.964	4064.41
213.038	4128.26
213.112	4197.47
213.186	4272.33
213.26	4314.63
213.333	4334.43
213.407	4414.09
213.481	4493.05
213.555	4572.43
213.629	4639.45
213.703	4692.98
213.777	4768.39
213.85	4835.48
213.924	4950.93
213.998	5033.71
214.072	5108.66
214.146	5175.11
214.219	5263.76
214.293	5353.98
214.367	5444.14
214.441	5541.73
214.515	5626.27
214.588	5689.04
214.662	5748.93
214.736	5825.23
214.81	5928.39
214.883	6030.86
214.957	6111.2
215.031	6186.85
215.105	6265.37
215.178	6349.38
215.252	6448.46
215.326	6526.24
215.4	6600.36
215.473	6650.61
215.547	6728.52
215.621	6820.01
215.694	6926.57
215.768	7004.02
215.842	7088.73
215.915	7175.87
215.989	7248.25
216.063	7337.48
216.136	7446.06
216.21	7549.36
216.284	7663.66
216.357	7768.92
216.431	7870.62
216.504	7977.58
216.578	8101.72
216.652	8212.04
216.725	8312.98
216.799	8423.66
216.873	8524.03
216.946	8634.16
217.02	8731.26
217.093	8835.61
217.167	8910.89
217.24	8996.1
217.314	9094.11
217.387	9182.24
217.461	9275.75
217.535	9393.42
217.608	9480.63
217.682	9582.19
217.755	9694.17
217.829	9776.96
217.902	9870.74
217.976	9960.66
218.049	10049.05
218.123	10126.61
218.196	10225.22
218.27	10307.21
218.343	10382.13
218.417	10482.35
218.49	10569.31
218.563	10674.25
218.637	10767.59
218.71	10888.29
218.784	10982.55
218.857	11085.77
218.931	11187.54
219.004	11281.42
219.077	11370.19
219.151	11463.88
219.224	11544.56
219.298	11627.66
219.371	11728.29
219.444	11814.86
219.518	11904.12
219.591	11994.01
219.665	12108.63
219.738	12199.3
219.811	12281.24
219.885	12369.21
219.958	12456.75
220.031	12547.46
220.105	12638.76
220.178	12721.82
220.251	12788.3
220.325	12876.17
220.398	12954.22
220.471	13035.93
220.544	13120.14
220.618	13188.16
220.691	13270.64
220.764	13342.66
220.838	13418.15
220.911	13479.86
220.984	13557.03
221.057	13641.68
221.131	13709.37
221.204	13756.94
221.277	13842.17
221.35	13946.39
221.424	14011.86
221.497	14076.02
221.57	14141.39
221.643	14208.44
221.716	14282.05
221.79	14345.68
221.863	14412.2
221.936	14468.89
222.009	14533.34
222.082	14599.72
222.155	14655.16
222.229	14733.39
222.302	14804.06
222.375	14859.78
222.448	14920.96
222.521	14983.67
222.594	15038.96
222.667	15091.26
222.74	15156.67
222.814	15206.37
222.887	15253.55
222.96	15315.93
223.033	15381.43
223.106	15436.29
223.179	15490.27
223.252	15536.35
223.325	15582.58
223.398	15624.9
223.471	15676.81
223.544	15721.16
223.617	15767.04
223.69	15821.56
223.763	15843.73
223.837	15890.72
223.91	15946.83
223.983	15984.81
224.056	16013.39
224.129	16054.6
224.202	16107.09
224.275	16135.34
224.348	16168.16
224.42	16185.8
224.493	16210.09
224.566	16232.98
224.639	16265.61
224.712	16292.46
224.785	16325.91
224.858	16362.15
224.931	16394.98
225.004	16422.59
225.077	16464.62
225.15	16471.18
225.223	16501.15
225.296	16554.8
225.369	16566.84
225.442	16583.62
225.514	16623.76
225.587	16672.73
225.66	16702.95
225.733	16734.18
225.806	16774.76
225.879	16796.11
225.952	16823.34
226.025	16863.06
226.097	16907.83
226.17	16945.08
226.243	16959.11
226.316	16994.05
226.389	17027.93
226.461	17065.86
226.534	17093.18
226.607	17111.02
226.68	17162.2
226.753	17199.64
226.825	17211.98
226.898	17252.66
226.971	17277.48
227.044	17298.78
227.117	17312.95
227.189	17343.07
227.262	17378.92
227.335	17397.09
227.407	17419.45
227.48	17449.77
227.553	17477.77
227.626	17489.91
227.698	17510.2
227.771	17538.25
227.844	17541.86
227.916	17560.9
227.989	17560.66
228.062	17580.66
228.134	17627.21
228.207	17639.84
228.28	17644.08
228.352	17654.01
228.425	17673.52
228.498	17697.24
228.57	17707.6
228.643	17734.2
228.716	17744.7
228.788	17749.57
228.861	17769.62
228.934	17795.88
229.006	17812.9
229.079	17828.75
229.151	17840.65
229.224	17845.42
229.296	17864.46
229.369	17910.05
229.442	17938.34
229.514	17948.26
229.587	17977.9
229.659	17968.84
229.732	17994.53
229.804	18020.98
229.877	18066.24
229.949	18089.08
230.022	18119.2
230.094	18132.5
230.167	18151.05
230.239	18152.35
230.312	18164.69
230.384	18197.7
230.457	18204.59
230.529	18218.57
230.602	18223.39
230.674	18236.83
230.747	18255.62
230.819	18274.18
230.892	18247.05
230.964	18256.93
231.037	18269.65
231.109	18270.37
231.181	18285.7
231.254	18278.03
231.326	18272.35
231.399	18271.53
231.471	18268.78
231.544	18249.26
231.616	18271.14
231.688	18262.08
231.761	18267.05
231.833	18271.24
231.905	18247.87
231.978	18253.46
232.05	18248.16
232.122	18251.82
232.195	18248.64
232.267	18262.71
232.339	18265.84
232.412	18279.77
232.484	18270.71
232.556	18268.44
232.629	18293.45
232.701	18304.73
232.773	18308.73
232.846	18311.43
232.918	18299.43
232.99	18303.62
233.062	18317.07
233.135	18313.41
233.207	18309.16
233.279	18321.45
233.351	18324.68
233.424	18313.45
233.496	18302.42
233.568	18325.21
233.64	18305.69
233.713	18306.03
233.785	18301.98
233.857	18295.09
233.929	18271.05
234.001	18281.31
234.074	18292.88
234.146	18268.54
234.218	18244.93
234.29	18230.18
234.362	18230.23
234.434	18206.18
234.507	18186.13
234.579	18153.94
234.651	18135.58
234.723	18131.53
234.795	18117.51
234.867	18098.96
234.939	18109.08
235.012	18101.37
235.084	18080.64
235.156	18082.72
235.228	18056.31
235.3	18036.02
235.372	18029.85
235.444	18040.98
235.516	17996.84
235.588	17986.58
235.66	17969.52
235.732	17954.24
235.804	17995.01
235.876	17981.08
235.948	17982.48
236.02	17962.67
236.092	17961.32
236.164	17951.64
236.236	17938.91
236.308	17917.81
236.38	17903.11
236.452	17873.81
236.524	17864.22
236.596	17871.74
236.668	17862
236.74	17852.12
236.812	17835.78
236.884	17820.94
236.956	17802.1
237.028	17788.65
237.1	17758.63
237.172	17756.41
237.244	17754.63
237.316	17697.14
237.388	17671.36
237.46	17649.14
237.532	17643.16
237.604	17620.71
237.675	17612.08
237.747	17586.44
237.819	17562.34
237.891	17552.85
237.963	17528.03
238.035	17503.84
238.107	17435.94
238.178	17432.27
238.25	17409.72
238.322	17408.22
238.394	17361.33
238.466	17338.1
238.538	17324.08
238.609	17305.04
238.681	17262.25
238.753	17226.58
238.825	17213.96
238.897	17193.43
238.968	17194.25
239.04	17175.21
239.112	17175.02
239.184	17131.88
239.255	17114.05
239.327	17093.86
239.399	17064.12
239.471	17055.78
239.542	17040.6
239.614	17042.1
239.686	16988.6
239.758	16972.22
239.829	16941.42
239.901	16936.79
239.973	16908.94
240.044	16894.38
240.116	16876.36
240.188	16848.84
240.259	16827.34
240.331	16788.26
240.403	16771.34
240.474	16727.34
240.546	16685.12
240.618	16636.49
240.689	16619.72
240.761	16598.51
240.833	16600.29
240.904	16574.17
240.976	16540.58
241.048	16504.96
241.119	16485.1
241.191	16472.96
241.262	16465.2
241.334	16433.2
241.405	16406.45
241.477	16381.96
241.549	16352.56
241.62	16323.11
241.692	16312.99
241.763	16293.95
241.835	16272.41
241.906	16253.66
241.978	16218.09
242.049	16209.42
242.121	16193.51
242.192	16175.24
242.264	16139.19
242.335	16083.81
242.407	16070.17
242.478	16053.11
242.55	16034.6
242.621	15995.85
242.693	15960.08
242.764	15925.48
242.836	15895.45
242.907	15872.07
242.979	15850.87
243.05	15824.4
243.122	15808.26
243.193	15780.64
243.264	15740.83
243.336	15709.88
243.407	15682.31
243.479	15679.47
243.55	15660.14
243.622	15642.55
243.693	15619.75
243.764	15606.15
243.836	15572.46
243.907	15540.21
243.978	15502.57
244.05	15481.99
244.121	15439.18
244.192	15427.95
244.264	15388.96
244.335	15365.19
244.407	15322.63
244.478	15296.17
244.549	15265.27
244.62	15220.11
244.692	15184.63
244.763	15169.93
244.834	15149.15
244.906	15118.49
244.977	15090.97
245.048	15077.14
245.119	15039.68
245.191	15007.29
245.262	14955.14
245.333	14948.58
245.405	14925.2
245.476	14914.74
245.547	14894.45
245.618	14888.13
245.689	14861.86
245.761	14846.73
245.832	14819.64
245.903	14805.08
245.974	14792.83
246.045	14772.15
246.117	14764.3
246.188	14731.85
246.259	14688.33
246.33	14653.33
246.401	14624.07
246.473	14582.13
246.544	14546.12
246.615	14532.77
246.686	14505.87
246.757	14505.29
246.828	14469.62
246.899	14458
246.97	14413.12
247.042	14379.96
247.113	14358.41
247.184	14349.11
247.255	14317.92
247.326	14293.72
247.397	14271.98
247.468	14243.59
247.539	14216.54
247.61	14186.56
247.681	14178.51
247.752	14177.01
247.823	14144.62
247.894	14124.47
247.965	14091.64
248.037	14060.07
248.108	14019.24
248.179	13992.87
248.25	13960.57
248.321	13948.08
248.392	13910.34
248.463	13906.43
248.534	13874.18
248.605	13859
248.675	13833.02
248.746	13814.99
248.817	13795.94
248.888	13772.42
248.959	13732.46
249.03	13713.75
249.101	13690.76
249.172	13659.09
249.243	13614.83
249.314	13607.41
249.385	13583.79
249.456	13560.79
249.527	13532.16
249.598	13513.98
249.669	13486.65
249.739	13475.32
249.81	13454.98
249.881	13418.63
249.952	13395.78
250.023	13377.61
250.094	13338.99
250.165	13304.67
250.235	13274.64
250.306	13255.74
250.377	13222.62
250.448	13202.76
250.519	13166.22
250.59	13153.54
250.66	13125.83
250.731	13116.57
250.802	13089.72
250.873	13073.67
250.944	13061.18
251.014	13036.79
251.085	13045.03
251.156	13030.86
251.227	13017.46
251.297	13007.53
251.368	13002.42
251.439	12985.83
251.51	12976.96
251.58	12941.68
251.651	12906.01
251.722	12899.79
251.792	12859.63
251.863	12836.06
251.934	12825.36
252.005	12826.32
252.075	12805.21
252.146	12801.93
252.217	12797.88
252.287	12797.69
252.358	12770.98
252.429	12771.51
252.499	12745.1
252.57	12718.29
252.641	12705.81
252.711	12677.9
252.782	12642.8
252.852	12639.96
252.923	12621.02
252.994	12600.87
253.064	12601.88
253.135	12583.7
253.205	12557.43
253.276	12558.4
253.347	12553.77
253.417	12530.58
253.488	12504.17
253.558	12479.78
253.629	12459.1
253.699	12436.87
253.77	12418.32
253.841	12396.38
253.911	12374.64
253.982	12359.46
254.052	12349.19
254.123	12333.33
254.193	12312.75
254.264	12329.77
254.334	12296.36
254.405	12260.74
254.475	12233.65
254.546	12210.37
254.616	12204.49
254.687	12186.6
254.757	12164.28
254.827	12149.05
254.898	12135.17
254.968	12116.47
255.039	12091.45
255.109	12076.75
255.18	12045.66
255.25	12001.99
255.321	11998.18
255.391	11965.94
255.461	11972.54
255.532	11921.83
255.602	11896.77
255.673	11868.23
255.743	11842.73
255.813	11804.37
255.884	11800.56
255.954	11789.23
256.024	11795.11
256.095	11774.92
256.165	11748.94
256.235	11743.88
256.306	11715.92
256.376	11704.59
256.446	11699.29
256.517	11689.75
256.587	11685.07
256.657	11671.19
256.728	11657.89
256.798	11633.6
256.868	11612.2
256.938	11586.61
257.009	11586.56
257.079	11578.32
257.149	11587.18
257.219	11547.03
257.29	11538.22
257.36	11501.64
257.43	11491.95
257.5	11447.32
257.571	11427.03
257.641	11419.27
257.711	11387.07
257.781	11377.58
257.852	11370.25
257.922	11335.02
257.992	11320.85
258.062	11293.86
258.132	11288.13
258.202	11276.27
258.273	11260.99
258.343	11264.9
258.413	11233.14
258.483	11213.67
258.553	11186.2
258.623	11157.62
258.693	11143.98
258.764	11142.39
258.834	11146.39
258.904	11127.45
258.974	11103.36
259.044	11097.43
259.114	11084.66
259.184	11075.02
259.254	11057.29
259.324	11015.41
259.394	11004.71
259.464	11002.73
259.535	10989.43
259.605	10968.08
259.675	10941.77
259.745	10931.08
259.815	10905.05
259.885	10892.24
259.955	10902.26
260.025	10873.83
260.095	10852.44
260.165	10839.57
260.235	10834.9
260.305	10804.2
260.375	10780.73
260.445	10786.81
260.515	10779.53
260.585	10769.89
260.655	10752.54
260.725	10746.42
260.795	10746.62
260.865	10745.12
260.934	10716.02
261.004	10706.67
261.074	10686.91
261.144	10692.26
261.214	10682.62
261.284	10662
261.354	10649.57
261.424	10624.27
261.494	10635.79
261.564	10624.32
261.634	10614.1
261.703	10579.89
261.773	10576.23
261.843	10571.65
261.913	10550.12
261.983	10515.47
262.053	10503.72
262.123	10484.35
262.192	10454.96
