Data from 20250625_urea_1M_1_MAYP1162681_20-45-06-330.txt Node
Date: Wed Jun 25 20:45:06 BST 2025
User: adleo
Spectrometer: MAYP116268
Trigger mode: 0
Integration Time (sec): 1.000000E0
Scans to average: 1
Electric dark correction enabled: true
Nonlinearity correction enabled: true
Boxcar width: 10
XAxis mode: Wavelengths
Number of Pixels in Spectrum: 2068
>>>>>Begin Spectral Data<<<<<
179.565	1187.45
179.642	1240.91
179.718	1283.15
179.795	1324.77
179.871	1356.45
179.948	1376.07
180.024	1393.38
180.101	1417.85
180.177	1430.98
180.254	1452.03
180.33	1474.25
180.407	1526.71
180.483	1620.45
180.56	1708.15
180.636	1792.85
180.712	1780.11
180.789	1785.34
180.865	1798.4
180.942	1808.76
181.018	1818.08
181.095	1831.72
181.171	1837.9
181.248	1838.33
181.324	1854.35
181.4	1859.82
181.477	1871.94
181.553	1883.49
181.63	1905.31
181.706	1919.15
181.782	1929.56
181.859	1927.51
181.935	1930.94
182.011	1925.18
182.088	1939.59
182.164	1956.52
182.24	1968.02
182.317	1976.63
182.393	1973.49
182.469	1984.62
182.546	1996.51
182.622	2004.64
182.698	2000.21
182.775	2012.39
182.851	2025.46
182.927	2018.04
183.003	2015.33
183.08	2007.58
183.156	2014.91
183.232	2012.53
183.308	2001.64
183.385	2007.58
183.461	2027.41
183.537	2028.74
183.613	2043.96
183.69	2035.97
183.766	2027.74
183.842	2033.97
183.918	2042.1
183.995	2055.09
184.071	2062.17
184.147	2057.13
184.223	2043.44
184.299	2057.33
184.375	2045.25
184.452	2055.77
184.528	2110.68
184.604	2119.38
184.68	2132.46
184.756	2138.12
184.832	2142.3
184.908	2144.97
184.985	2144.97
185.061	2128.75
185.137	2137.88
185.213	2126.23
185.289	2128.08
185.365	2121.05
185.441	2118.29
185.517	2129.33
185.593	2127.09
185.669	2119.72
185.745	2128.95
185.822	2144.21
185.898	2133.22
185.974	2141.97
186.05	2130.74
186.126	2090.77
186.202	2080.4
186.278	2075.6
186.354	2070.17
186.43	2075.83
186.506	2074.41
186.582	2072.13
186.658	2080.59
186.734	2063.04
186.81	2067.84
186.886	2071.17
186.962	2083.54
187.038	2081.73
187.114	2073.59
187.19	2078.87
187.266	2070.88
187.341	2072.45
187.417	2064.8
187.493	2066.94
187.569	2071.27
187.645	2067.56
187.721	2055
187.797	2065.51
187.873	2071.88
187.949	2064.13
188.025	2056.61
188.101	2061.04
188.176	2063.94
188.252	2058.32
188.328	2065.46
188.404	2061.41
188.48	2056.56
188.556	2048.86
188.632	2048.81
188.707	2048.76
188.783	2048.34
188.859	2043.82
188.935	2031.12
189.011	2042.3
189.086	2036.26
189.162	2028.74
189.238	2026.79
189.314	2024.32
189.39	2021.04
189.465	2011.95
189.541	2026.46
189.617	2015.33
189.693	2009.1
189.768	2017.43
189.844	2041.74
189.92	2033.56
189.996	2045.31
190.071	2054.73
190.147	2053.63
190.223	2065.62
190.298	2057.44
190.374	2044.65
190.45	2058.39
190.526	2066.66
190.601	2061.57
190.677	2064.9
190.753	2090.22
190.828	2091.17
190.904	2105.53
190.98	2118.19
191.055	2127.18
191.131	2120.81
191.207	2136.88
191.282	2147.72
191.358	2134.36
191.433	2121.79
191.509	2134.73
191.585	2129.02
191.66	2132.3
191.736	2145
191.811	2134.49
191.887	2152.28
191.963	2175.07
192.038	2179.35
192.114	2179.02
192.189	2183.11
192.265	2176.31
192.34	2157.89
192.416	2158.03
192.491	2156.13
192.567	2159.13
192.642	2162.31
192.718	2163.5
192.793	2156.22
192.869	2152.47
192.944	2157.32
193.02	2164.26
193.095	2167.12
193.171	2175.3
193.246	2172.21
193.322	2165.17
193.397	2164.45
193.473	2149.75
193.548	2131.91
193.624	2138.28
193.699	2138.52
193.775	2149.23
193.85	2151.8
193.925	2157.55
194.001	2156.41
194.076	2146.76
194.152	2134.1
194.227	2128.39
194.302	2120.3
194.378	2122.16
194.453	2118.21
194.529	2130.34
194.604	2115.98
194.679	2109.65
194.755	2089.58
194.83	2103.29
194.905	2103.19
194.981	2112.14
195.056	2105.48
195.131	2110.85
195.207	2107.81
195.282	2098.15
195.357	2080.74
195.433	2095.01
195.508	2084.07
195.583	2095.24
195.659	2111.33
195.734	2117.51
195.809	2115.89
195.884	2120.03
195.96	2119.51
196.035	2136.73
196.11	2133.59
196.185	2142.2
196.261	2145.48
196.336	2176.45
196.411	2161.08
196.486	2164.36
196.561	2156.6
196.637	2166.45
196.712	2184.34
196.787	2187.15
196.862	2202.94
196.937	2215.41
197.013	2222.59
197.088	2233.11
197.163	2249.24
197.238	2265.05
197.313	2265.86
197.388	2279.71
197.464	2310.98
197.539	2326.16
197.614	2318.26
197.689	2330.97
197.764	2346.68
197.839	2368.1
197.914	2362.72
197.989	2384.61
198.065	2399.61
198.14	2448.43
198.215	2471.8
198.29	2483.71
198.365	2497.28
198.44	2509.51
198.515	2535.75
198.59	2548.13
198.665	2572.23
198.74	2580.95
198.815	2581.8
198.89	2606.23
198.965	2633.05
199.04	2632.43
199.115	2643.86
199.19	2688.73
199.265	2690.21
199.34	2702.17
199.415	2734
199.49	2755.91
199.565	2767.35
199.64	2791.65
199.715	2789.88
199.79	2797.46
199.865	2800.7
199.94	2799.08
200.015	2828.44
200.09	2834.3
200.165	2844.55
200.24	2851.6
200.315	2893.34
200.39	2911.02
200.464	2914.55
200.539	2918.12
200.614	2931.85
200.689	2955.3
200.764	2960.17
200.839	2976.89
200.914	2982.42
200.989	2970.45
201.063	2987.95
201.138	2971.42
201.213	2972.27
201.288	2952.45
201.363	2955.12
201.438	2956.16
201.512	2971.46
201.587	2956.39
201.662	2961.83
201.737	2973.13
201.812	2982.38
201.886	2948.36
201.961	2954.99
202.036	2943.56
202.111	2940.93
202.186	2911.92
202.26	2895.86
202.335	2875.02
202.41	2871.02
202.485	2855.44
202.559	2838.52
202.634	2808.73
202.709	2816.78
202.784	2796.67
202.858	2797.48
202.933	2783.28
203.008	2776.23
203.082	2757.22
203.157	2757.12
203.232	2713.64
203.306	2691.52
203.381	2659.93
203.456	2637.92
203.53	2616.75
203.605	2599.66
203.68	2575.12
203.754	2571.6
203.829	2555.36
203.904	2534.79
203.978	2522.45
204.053	2525.83
204.127	2514.02
204.202	2507.74
204.277	2489.83
204.351	2485.17
204.426	2476.93
204.5	2466.88
204.575	2433.33
204.65	2442.99
204.724	2433.42
204.799	2443.5
204.873	2439.03
204.948	2437.22
205.022	2424.99
205.097	2414.32
205.171	2428.26
205.246	2437.46
205.32	2435.79
205.395	2437.89
205.469	2429.89
205.544	2434.7
205.618	2413.9
205.693	2426.8
205.767	2417.71
205.842	2439.37
205.916	2429.76
205.991	2422.47
206.065	2427.38
206.14	2444.27
206.214	2438.88
206.289	2433.36
206.363	2443.12
206.438	2444.83
206.512	2451.79
206.586	2470.02
206.661	2479.07
206.735	2453.94
206.81	2451.75
206.884	2464.6
206.958	2450.65
207.033	2463.55
207.107	2471.46
207.181	2506.18
207.256	2500.32
207.33	2519.13
207.405	2531.33
207.479	2550.47
207.553	2559.23
207.628	2546.76
207.702	2556.71
207.776	2552.52
207.851	2554.85
207.925	2573.63
207.999	2572.01
208.073	2570.48
208.148	2575.06
208.222	2563.91
208.296	2595.9
208.371	2618.3
208.445	2631.21
208.519	2660.59
208.593	2678.55
208.668	2675.21
208.742	2677.78
208.816	2678.93
208.89	2694.08
208.965	2694.27
209.039	2704.9
209.113	2724.1
209.187	2747.91
209.261	2748
209.336	2770.01
209.41	2794.61
209.484	2794.32
209.558	2823.15
209.632	2842.98
209.707	2861.37
209.781	2893.83
209.855	2920
209.929	2942.48
210.003	2959.88
210.077	2968.94
210.151	3026.59
210.226	3077.16
210.3	3122.27
210.374	3164.79
210.448	3184.26
210.522	3217.66
210.596	3248.09
210.67	3281.78
210.744	3353.23
210.818	3413.39
210.892	3460.83
210.966	3486.74
211.041	3538.87
211.115	3568.8
211.189	3635.8
211.263	3694.39
211.337	3745.88
211.411	3808.71
211.485	3854.88
211.559	3922.87
211.633	3987.87
211.707	4021.88
211.781	4094.37
211.855	4126.17
211.929	4191.37
212.003	4250.92
212.077	4337.1
212.151	4435
212.225	4529.23
212.299	4606.48
212.373	4688.84
212.447	4786.58
212.52	4920.34
212.594	5034.07
212.668	5157.31
212.742	5254.54
212.816	5368.04
212.89	5480.67
212.964	5605.94
213.038	5743.76
213.112	5891.97
213.186	6045.52
213.26	6164.15
213.333	6266.3
213.407	6417.88
213.481	6576.77
213.555	6747.36
213.629	6897.2
213.703	7046.88
213.777	7213.31
213.85	7367.41
213.924	7573.22
213.998	7748.82
214.072	7920.12
214.146	8086.45
214.219	8269.97
214.293	8449.98
214.367	8638.66
214.441	8844.05
214.515	9025.14
214.588	9188.92
214.662	9347.42
214.736	9520.32
214.81	9722.82
214.883	9925.43
214.957	10115.57
215.031	10294.79
215.105	10473.97
215.178	10659.98
215.252	10848.85
215.326	11020.87
215.4	11205.65
215.473	11362.57
215.547	11547.06
215.621	11731.12
215.694	11935.33
215.768	12111.64
215.842	12302.36
215.915	12488.28
215.989	12645.51
216.063	12830.85
216.136	13026.12
216.21	13218.07
216.284	13419.27
216.357	13607.27
216.431	13792.56
216.504	13982.34
216.578	14198.39
216.652	14396.46
216.725	14577.37
216.799	14771.39
216.873	14954.46
216.946	15131.03
217.02	15299.02
217.093	15462.42
217.167	15615.27
217.24	15761.8
217.314	15926.64
217.387	16085.94
217.461	16238.63
217.535	16423.42
217.608	16563.39
217.682	16726.82
217.755	16897.05
217.829	17041.73
217.902	17192.39
217.976	17339.33
218.049	17487.91
218.123	17610.61
218.196	17755.14
218.27	17894.99
218.343	18013.01
218.417	18159.28
218.49	18293.68
218.563	18444.62
218.637	18576.23
218.71	18723.59
218.784	18862.53
218.857	18997.85
218.931	19118.37
219.004	19249.55
219.077	19369.49
219.151	19499.17
219.224	19604.9
219.298	19710.15
219.371	19832.8
219.444	19935.78
219.518	20047.93
219.591	20154.43
219.665	20287.4
219.738	20385.23
219.811	20477.85
219.885	20594.67
219.958	20700.08
220.031	20794.54
220.105	20881.67
220.178	20979.32
220.251	21062.22
220.325	21148.3
220.398	21233.17
220.471	21325.13
220.544	21402.58
220.618	21473.82
220.691	21553.4
220.764	21626.13
220.838	21704.46
220.911	21773.77
220.984	21858.9
221.057	21922.67
221.131	21990.39
221.204	22014.69
221.277	22095.48
221.35	22185.24
221.424	22222.6
221.497	22265.6
221.57	22318.63
221.643	22378.02
221.716	22436.11
221.79	22472.65
221.863	22515.99
221.936	22551.38
222.009	22586.91
222.082	22635.8
222.155	22665.93
222.229	22720.94
222.302	22758.59
222.375	22787.71
222.448	22822.67
222.521	22857.29
222.594	22895.28
222.667	22913.41
222.74	22963.79
222.814	22981.87
222.887	22991.32
222.96	23027.63
223.033	23060.18
223.106	23091.37
223.179	23116.45
223.252	23125.66
223.325	23153.86
223.398	23188.1
223.471	23213.22
223.544	23239.79
223.617	23252.32
223.69	23273.88
223.763	23268.14
223.837	23289.79
223.91	23313.27
223.983	23305.22
224.056	23285.74
224.129	23291.67
224.202	23308.26
224.275	23303.92
224.348	23296.44
224.42	23293.26
224.493	23292.1
224.566	23292.35
224.639	23296.93
224.712	23292.83
224.785	23299.43
224.858	23288.34
224.931	23268.43
225.004	23256.08
225.077	23247.45
225.15	23214.86
225.223	23209.12
225.296	23226.58
225.369	23203.82
225.442	23177.39
225.514	23171.22
225.587	23179.9
225.66	23178.21
225.733	23174.45
225.806	23162.93
225.879	23149.71
225.952	23129.85
226.025	23129.95
226.097	23124.54
226.17	23104.05
226.243	23070.06
226.316	23050
226.389	23047.16
226.461	23037.13
226.534	23017.55
226.607	22995.52
226.68	23003.67
226.753	22989.73
226.825	22944.02
226.898	22941.95
226.971	22926.81
227.044	22914.8
227.117	22890.41
227.189	22874.3
227.262	22861.91
227.335	22857.14
227.407	22829.7
227.48	22814.57
227.553	22796.44
227.626	22759.84
227.698	22740.84
227.771	22728.41
227.844	22707.05
227.916	22685.83
227.989	22649.82
228.062	22633.96
228.134	22634.59
228.207	22612.36
228.28	22584.4
228.352	22576.64
228.425	22558.8
228.498	22556.29
228.57	22527.32
228.643	22531.27
228.716	22495.84
228.788	22457.7
228.861	22421.3
228.934	22421.78
229.006	22406.12
229.079	22371.6
229.151	22353.04
229.224	22317.65
229.296	22297.41
229.369	22320.07
229.442	22310.52
229.514	22292.06
229.587	22280.44
229.659	22242.6
229.732	22223.03
229.804	22218.4
229.877	22216.13
229.949	22200.47
230.022	22186.87
230.094	22169.04
230.167	22144.79
230.239	22123.05
230.312	22098.51
230.384	22094.22
230.457	22072.39
230.529	22050.11
230.602	22033.48
230.674	22013.67
230.747	22006.3
230.819	21999.94
230.892	21923.24
230.964	21897.59
231.037	21877.93
231.109	21855.85
231.181	21835.75
231.254	21809.77
231.326	21766.53
231.399	21726.19
231.471	21682.85
231.544	21631.66
231.616	21619.76
231.688	21589.97
231.761	21558.06
231.833	21530.88
231.905	21480.02
231.978	21455.39
232.05	21427.54
232.122	21406.52
232.195	21369.94
232.267	21355.91
232.339	21313.78
232.412	21302.02
232.484	21264.53
232.556	21217.1
232.629	21211.41
232.701	21193.44
232.773	21157.77
232.846	21129.53
232.918	21099.55
232.99	21080.61
233.062	21061.14
233.135	21033.42
233.207	20995.35
233.279	20977.71
233.351	20961.61
233.424	20925.66
233.496	20891.49
233.568	20878.52
233.64	20828.26
233.713	20806.18
233.785	20773.7
233.857	20749.94
233.929	20711.48
234.001	20699.38
234.074	20698.66
234.146	20646.8
234.218	20614.56
234.29	20588.63
234.362	20558.9
234.434	20520.82
234.507	20484.44
234.579	20441.5
234.651	20402.94
234.723	20375.72
234.795	20340.92
234.867	20302.8
234.939	20293.02
235.012	20247.91
235.084	20218.46
235.156	20200.15
235.228	20156.59
235.3	20111.57
235.372	20079.33
235.444	20061.6
235.516	20010.56
235.588	19978.57
235.66	19945.36
235.732	19899.97
235.804	19930.09
235.876	19910.86
235.948	19894.47
236.02	19865.03
236.092	19836.84
236.164	19806.28
236.236	19767.4
236.308	19738.34
236.38	19702.48
236.452	19671.45
236.524	19651.11
236.596	19637.67
236.668	19613.43
236.74	19589.14
236.812	19563.07
236.884	19542.25
236.956	19500.81
237.028	19457.73
237.1	19418.11
237.172	19401.01
237.244	19388.52
237.316	19309.83
237.388	19271.28
237.46	19231.9
237.532	19207.47
237.604	19161.26
237.675	19145.93
237.747	19124.92
237.819	19090.28
237.891	19063.53
237.963	19012.21
238.035	18975.05
238.107	18901.52
238.178	18875.69
238.25	18842.68
238.322	18831.25
238.394	18788.99
238.466	18760.95
238.538	18737.04
238.609	18716.13
238.681	18664.95
238.753	18624.28
238.825	18594.21
238.897	18556.72
238.968	18535.8
239.04	18495.32
239.112	18500.96
239.184	18451.18
239.255	18413.26
239.327	18382.12
239.399	18354.61
239.471	18340.1
239.542	18319.86
239.614	18302.08
239.686	18242.52
239.758	18218.61
239.829	18172.26
239.901	18143.82
239.973	18101.85
240.044	18080.74
240.116	18034.77
240.188	18007.3
240.259	17977.13
240.331	17939.3
240.403	17920.12
240.474	17872.36
240.546	17829.18
240.618	17764.22
240.689	17724.37
240.761	17700.9
240.833	17683.6
240.904	17645.28
240.976	17610.05
241.048	17577.19
241.119	17554.63
241.191	17536.66
241.262	17522.15
241.334	17482.39
241.405	17446.15
241.477	17415.21
241.549	17366.54
241.62	17345.77
241.692	17315.74
241.763	17299.45
241.835	17259.5
241.906	17230.78
241.978	17190.82
242.049	17184.99
242.121	17168.37
242.192	17149.86
242.264	17102.77
242.335	17059.01
242.407	17041.57
242.478	17000.99
242.55	16965.52
242.621	16919.39
242.693	16881.56
242.764	16845.56
242.836	16823.2
242.907	16801.22
242.979	16790.47
243.05	16779.73
243.122	16751.34
243.193	16721.51
243.264	16670.61
243.336	16647.67
243.407	16620.78
243.479	16609.98
243.55	16578.08
243.622	16549.3
243.693	16523.71
243.764	16518.36
243.836	16477.83
243.907	16440.57
243.978	16418.35
244.05	16395.07
244.121	16351.89
244.192	16329.09
244.264	16278.92
244.335	16251.88
244.407	16206.81
244.478	16170.08
244.549	16133.5
244.62	16090.51
244.692	16054.17
244.763	16031.9
244.834	15997.49
244.906	15966.11
244.977	15938.01
245.048	15925.19
245.119	15899.5
245.191	15861.76
245.262	15803.68
245.333	15789.8
245.405	15756.15
245.476	15728.92
245.547	15705.4
245.618	15701.11
245.689	15678.36
245.761	15661.92
245.832	15630.35
245.903	15613.09
245.974	15588.13
246.045	15556.41
246.117	15548.46
246.188	15514.81
246.259	15474.08
246.33	15445.64
246.401	15406.26
246.473	15370.93
246.544	15336.66
246.615	15317.04
246.686	15282.1
246.757	15272.45
246.828	15230.04
246.899	15222.66
246.97	15178.6
247.042	15143.75
247.113	15113.92
247.184	15110.88
247.255	15082.34
247.326	15060.8
247.397	15029.51
247.468	15001.27
247.539	14972.78
247.61	14928.53
247.681	14918.89
247.752	14908.09
247.823	14885.05
247.894	14865.62
247.965	14830.38
248.037	14787.77
248.108	14743.57
248.179	14720.04
248.25	14690.49
248.321	14681.58
248.392	14644.56
248.463	14651.4
248.534	14629.61
248.605	14609.17
248.675	14573.6
248.746	14545.16
248.817	14517.68
248.888	14499.99
248.959	14466.63
249.03	14453.04
249.101	14436.07
249.172	14394.71
249.243	14343.42
249.314	14321.73
249.385	14302.2
249.456	14279.6
249.527	14259.74
249.598	14244.02
249.669	14220.79
249.739	14200.06
249.81	14177.74
249.881	14141.63
249.952	14117.34
250.023	14083.69
250.094	14052.16
250.165	14015.57
250.235	13996.05
250.306	13973.59
250.377	13937.14
250.448	13910.77
250.519	13867.97
250.59	13859.43
250.66	13844.3
250.731	13843.09
250.802	13817.69
250.873	13789.97
250.944	13771.55
251.014	13740.7
251.085	13743.01
251.156	13730.48
251.227	13729.47
251.297	13715.49
251.368	13708.88
251.439	13692.78
251.51	13691.05
251.58	13654.27
251.651	13635.32
251.722	13625.39
251.792	13592.37
251.863	13572.17
251.934	13570.19
252.005	13576.85
252.075	13556.65
252.146	13547.34
252.217	13536.98
252.287	13529.65
252.358	13514.71
252.429	13511.86
252.499	13484.72
252.57	13461.73
252.641	13445.58
252.711	13418.34
252.782	13382.72
252.852	13388.94
252.923	13366.38
252.994	13341.69
253.064	13335.43
253.135	13306.21
253.205	13274.83
253.276	13272.33
253.347	13266.44
253.417	13238.19
253.488	13214.72
253.558	13192.25
253.629	13163.52
253.699	13150.84
253.77	13140.19
253.841	13117.87
253.911	13108.91
253.982	13094.2
254.052	13076.99
254.123	13065.18
254.193	13044.89
254.264	13067.4
254.334	13027.24
254.405	12996.01
254.475	12971.47
254.546	12951.46
254.616	12941.29
254.687	12926.4
254.757	12909.33
254.827	12890
254.898	12871.64
254.968	12846.67
255.039	12814.27
255.109	12812.58
255.18	12778.41
255.25	12738.68
255.321	12723.21
255.391	12683.92
255.461	12686.29
255.532	12647.19
255.602	12617.79
255.673	12584.81
255.743	12553.33
255.813	12515.4
255.884	12507.64
255.954	12498.43
256.024	12508.22
256.095	12491.39
256.165	12463.87
256.235	12451.72
256.306	12429.31
256.376	12424.73
256.446	12422.36
256.517	12406.79
256.587	12397.83
256.657	12384.33
256.728	12362.4
256.798	12343.46
256.868	12321.09
256.938	12298.82
257.009	12294.1
257.079	12281.42
257.149	12288.07
257.219	12254.91
257.29	12235.24
257.36	12198.75
257.43	12190.12
257.5	12135.8
257.571	12112.23
257.641	12098.73
257.711	12067.35
257.781	12054.1
257.852	12036.31
257.922	11997.84
257.992	11987.34
258.062	11964.68
258.132	11963.19
258.202	11950.65
258.273	11940.24
258.343	11940.19
258.413	11915.08
258.483	11888.72
258.553	11864.33
258.623	11833.72
258.693	11813.23
258.764	11817.96
258.834	11817.19
258.904	11795.11
258.974	11777.71
259.044	11765.71
259.114	11761.03
259.184	11750.19
259.254	11728.55
259.324	11695.82
259.394	11686.09
259.464	11684.69
259.535	11663.72
259.605	11633.16
259.675	11603.67
259.745	11592.2
259.815	11560
259.885	11538.31
259.955	11553.01
260.025	11532.19
260.095	11512.77
260.165	11501.35
260.235	11505.35
260.305	11481.01
260.375	11453.1
260.445	11464.04
260.515	11454.07
260.585	11445.63
260.655	11421.2
260.725	11414.69
260.795	11404.09
260.865	11399.41
260.934	11366.88
261.004	11356.08
261.074	11346.88
261.144	11345.53
261.214	11332.76
261.284	11319.26
261.354	11315.31
261.424	11286.63
261.494	11282.3
261.564	11265.09
261.634	11260.51
261.703	11220.8
261.773	11213.71
261.843	11205.52
261.913	11184.65
261.983	11157.72
262.053	11148.7
262.123	11134.92
262.192	11111.93
