Data from 20250625_urea_1M_1_MAYP1162681_02-45-05-604.txt Node
Date: Thu Jun 26 02:45:05 BST 2025
User: adleo
Spectrometer: MAYP116268
Trigger mode: 0
Integration Time (sec): 1.000000E0
Scans to average: 1
Electric dark correction enabled: true
Nonlinearity correction enabled: true
Boxcar width: 10
XAxis mode: Wavelengths
Number of Pixels in Spectrum: 2068
>>>>>Begin Spectral Data<<<<<
179.565	1115.37
179.642	1165.41
179.718	1203.68
179.795	1243.97
179.871	1271.84
179.948	1287.18
180.024	1306.65
180.101	1328.94
180.177	1340.17
180.254	1359.4
180.33	1379.7
180.407	1425.88
180.483	1512.59
180.56	1596.11
180.636	1675.81
180.712	1662.32
180.789	1669.49
180.865	1677.99
180.942	1687.07
181.018	1697.19
181.095	1708.97
181.171	1713.25
181.248	1715.77
181.324	1731.26
181.4	1734.54
181.477	1746.04
181.553	1761.29
181.63	1780.35
181.706	1794.85
181.782	1806.35
181.859	1808.2
181.935	1813.95
182.011	1813.57
182.088	1831.82
182.164	1848.99
182.24	1857.83
182.317	1869.9
182.393	1868.76
182.469	1883.25
182.546	1893.47
182.622	1896.99
182.698	1895.47
182.775	1907.69
182.851	1919.52
182.927	1909.68
183.003	1906.17
183.08	1900.84
183.156	1906.45
183.232	1904.36
183.308	1893.71
183.385	1897.42
183.461	1913.92
183.537	1911.97
183.613	1922.66
183.69	1914.3
183.766	1905.64
183.842	1914.15
183.918	1917.38
183.995	1931.45
184.071	1935.59
184.147	1931.46
184.223	1921.38
184.299	1933.03
184.375	1924.38
184.452	1930.13
184.528	1984.25
184.604	1995.18
184.68	2005.74
184.756	2013.73
184.832	2016.63
184.908	2019.24
184.985	2023
185.061	2006.07
185.137	2016.25
185.213	2004.36
185.289	2002.79
185.365	1995.38
185.441	1994.09
185.517	2007.32
185.593	2004.89
185.669	2003.18
185.745	2013.4
185.822	2028.47
185.898	2019.62
185.974	2022.57
186.05	2018.53
186.126	1981.86
186.202	1972.59
186.278	1970.26
186.354	1962.7
186.43	1967.88
186.506	1967.46
186.582	1963.94
186.658	1973.3
186.734	1956.66
186.81	1957.8
186.886	1959.13
186.962	1970.5
187.038	1969.02
187.114	1961.74
187.19	1966.45
187.266	1954.9
187.341	1957.42
187.417	1947.96
187.493	1946.77
187.569	1952.1
187.645	1944.16
187.721	1932.65
187.797	1940.11
187.873	1942.39
187.949	1934.03
188.025	1929.65
188.101	1932.69
188.176	1937.12
188.252	1930.37
188.328	1938.02
188.404	1936.97
188.48	1934.93
188.556	1925.56
188.632	1923.04
188.707	1922.71
188.783	1922.95
188.859	1918.1
188.935	1905.26
189.011	1916.62
189.086	1913.25
189.162	1905.26
189.238	1904.74
189.314	1904.02
189.39	1901.31
189.465	1895.7
189.541	1913.77
189.617	1897.99
189.693	1893.62
189.768	1898.8
189.844	1923.15
189.92	1912.13
189.996	1924.63
190.071	1933.19
190.147	1937.23
190.223	1949.21
190.298	1942.56
190.374	1928.86
190.45	1940.13
190.526	1946.54
190.601	1941.84
190.677	1941.74
190.753	1970.19
190.828	1971.57
190.904	1982.84
190.98	1997.96
191.055	2006.66
191.131	1998.29
191.207	2020.64
191.282	2031.72
191.358	2021.83
191.433	2008.55
191.509	2021.81
191.585	2017.06
191.66	2021.1
191.736	2028.95
191.811	2014.97
191.887	2028.47
191.963	2052.63
192.038	2058.44
192.114	2061.15
192.189	2063.19
192.265	2062.62
192.34	2041.73
192.416	2041.3
192.491	2037.59
192.567	2038.69
192.642	2043.83
192.718	2041.97
192.793	2029.22
192.869	2022.85
192.944	2026.37
193.02	2034.36
193.095	2038.64
193.171	2045.78
193.246	2045.4
193.322	2041.4
193.397	2044.49
193.473	2033.88
193.548	2013.05
193.624	2019.19
193.699	2018.43
193.775	2033.31
193.85	2033.79
193.925	2041.64
194.001	2041.26
194.076	2033.79
194.152	2020.38
194.227	2011.39
194.302	2005.21
194.378	2007.44
194.453	2004.83
194.529	2015.48
194.604	1999.5
194.679	1994.32
194.755	1975.21
194.83	1984.91
194.905	1980.92
194.981	1987.39
195.056	1982.58
195.131	1989.95
195.207	1987.86
195.282	1979.3
195.357	1961.37
195.433	1975.35
195.508	1961.84
195.583	1969.41
195.659	1985.96
195.734	1996.09
195.809	1996.37
195.884	2004.03
195.96	2004.88
196.035	2019.67
196.11	2016.86
196.185	2031.32
196.261	2034.89
196.336	2067.32
196.411	2054.48
196.486	2060.38
196.561	2056.81
196.637	2063.66
196.712	2078.45
196.787	2083.3
196.862	2098.86
196.937	2109.55
197.013	2116.64
197.088	2126.01
197.163	2147.38
197.238	2159.95
197.313	2158.52
197.388	2171.51
197.464	2200.06
197.539	2215.52
197.614	2208.48
197.689	2218.47
197.764	2230.94
197.839	2249.21
197.914	2241.02
197.989	2264.01
198.065	2275.09
198.14	2319.28
198.215	2345.07
198.29	2355.12
198.365	2366.54
198.44	2374.92
198.515	2399.86
198.59	2411.38
198.665	2439.52
198.74	2444.71
198.815	2444.23
198.89	2466.13
198.965	2492.94
199.04	2488.8
199.115	2498.65
199.19	2539.88
199.265	2546.02
199.34	2554.16
199.415	2584.32
199.49	2604.98
199.565	2611.41
199.64	2635.8
199.715	2635.03
199.79	2640.46
199.865	2645.7
199.94	2643.94
200.015	2674.77
200.09	2682.01
200.165	2687.2
200.24	2692.3
200.315	2731.35
200.39	2751.45
200.464	2756.93
200.539	2760.94
200.614	2776.94
200.689	2801.29
200.764	2804.96
200.839	2817.39
200.914	2822.2
200.989	2814.62
201.063	2826.06
201.138	2808.83
201.213	2809.54
201.288	2792.39
201.363	2795.53
201.438	2797.3
201.512	2811.82
201.587	2792.9
201.662	2796
201.737	2809.49
201.812	2816.78
201.886	2784.83
201.961	2794.51
202.036	2782.17
202.111	2776.88
202.186	2748.78
202.26	2730.77
202.335	2713.52
202.41	2709.13
202.485	2694.75
202.559	2678.94
202.634	2655.45
202.709	2666.3
202.784	2648.16
202.858	2649.11
202.933	2632.77
203.008	2626.2
203.082	2609.67
203.157	2608.91
203.232	2568.63
203.306	2549
203.381	2519.28
203.456	2496.61
203.53	2470.78
203.605	2455.08
203.68	2433.5
203.754	2423.7
203.829	2408.18
203.904	2389.47
203.978	2379.33
204.053	2385.95
204.127	2373.28
204.202	2368.38
204.277	2352.96
204.351	2345.39
204.426	2333.54
204.5	2326.97
204.575	2296.61
204.65	2303.56
204.724	2295.23
204.799	2304.07
204.873	2298.93
204.948	2296.55
205.022	2288.66
205.097	2279.7
205.171	2292.17
205.246	2298.55
205.32	2301.98
205.395	2302.31
205.469	2290.7
205.544	2293.75
205.618	2273.62
205.693	2280.42
205.767	2271.91
205.842	2288.8
205.916	2285.28
205.991	2281.95
206.065	2283.47
206.14	2296.08
206.214	2290.32
206.289	2287.7
206.363	2299.21
206.438	2304.12
206.512	2312.26
206.586	2327.25
206.661	2337.82
206.735	2315.98
206.81	2315.75
206.884	2328.12
206.958	2314.51
207.033	2332.21
207.107	2340.54
207.181	2372.73
207.256	2367.16
207.33	2384.1
207.405	2398.3
207.479	2416.91
207.553	2422.53
207.628	2409.11
207.702	2420.86
207.776	2417.49
207.851	2419.91
207.925	2433.92
207.999	2430.01
208.073	2428.77
208.148	2430.58
208.222	2420.58
208.296	2450.66
208.371	2468.9
208.445	2479.14
208.519	2511.46
208.593	2522.84
208.668	2519.84
208.742	2523.94
208.816	2529.75
208.89	2544.8
208.965	2544.37
209.039	2551.56
209.113	2568.85
209.187	2593.5
209.261	2592.12
209.336	2615.51
209.41	2634.47
209.484	2636.8
209.558	2662.53
209.632	2678.58
209.707	2693.01
209.781	2718.35
209.855	2740.27
209.929	2761.97
210.003	2779.27
210.077	2784.08
210.151	2838.31
210.226	2879.94
210.3	2916.82
210.374	2950.89
210.448	2967.72
210.522	2992.66
210.596	3020.22
210.67	3044.3
210.744	3109.03
210.818	3162.05
210.892	3202.98
210.966	3222.25
211.041	3262.65
211.115	3284.74
211.189	3336.17
211.263	3386.37
211.337	3424.4
211.411	3475.39
211.485	3506.67
211.559	3558.84
211.633	3609.33
211.707	3628.54
211.781	3686.47
211.855	3699.9
211.929	3745.11
212.003	3784.5
212.077	3854.24
212.151	3928.58
212.225	4007.44
212.299	4061.41
212.373	4121.84
212.447	4186.46
212.52	4292.82
212.594	4376.93
212.668	4473.56
212.742	4547.88
212.816	4632.07
212.89	4722.04
212.964	4812.28
213.038	4912.71
213.112	5021.4
213.186	5134.63
213.26	5220.07
213.333	5287.49
213.407	5410.29
213.481	5530.75
213.555	5660.37
213.629	5771.61
213.703	5878.02
213.777	5998.02
213.85	6108.21
213.924	6267.05
213.998	6400.93
214.072	6527.34
214.146	6654.03
214.219	6789.05
214.293	6928.33
214.367	7073.44
214.441	7229.47
214.515	7365.25
214.588	7492.53
214.662	7608.39
214.736	7736.41
214.81	7897.7
214.883	8051.74
214.957	8188.71
215.031	8320.2
215.105	8455.07
215.178	8593.62
215.252	8739.48
215.326	8873.04
215.4	9010.93
215.473	9124.18
215.547	9265.69
215.621	9411.8
215.694	9571.06
215.768	9703.49
215.842	9844.75
215.915	9980.54
215.989	10102.51
216.063	10257.16
216.136	10411.42
216.21	10563.89
216.284	10728.62
216.357	10878.52
216.431	11029.78
216.504	11190.24
216.578	11374.71
216.652	11538.7
216.725	11687.43
216.799	11844.26
216.873	11988.37
216.946	12132.19
217.02	12273.7
217.093	12419.46
217.167	12539.68
217.24	12658.79
217.314	12792.7
217.387	12918.75
217.461	13046.3
217.535	13200.75
217.608	13309.55
217.682	13445.87
217.755	13585.43
217.829	13696.73
217.902	13825.92
217.976	13948.61
218.049	14065.12
218.123	14163.51
218.196	14288.6
218.27	14404.63
218.343	14504.6
218.417	14625.31
218.49	14746.88
218.563	14873.51
218.637	14987.56
218.71	15121.85
218.784	15247.22
218.857	15367.05
218.931	15479.17
219.004	15596.74
219.077	15699.59
219.151	15813.44
219.224	15911.43
219.298	16020.94
219.371	16138.3
219.444	16218.32
219.518	16320.93
219.591	16419.64
219.665	16545.33
219.738	16635.94
219.811	16715.52
219.885	16819.67
219.958	16923.87
220.031	17012.5
220.105	17100.21
220.178	17186.09
220.251	17249.95
220.325	17337.56
220.398	17422.82
220.471	17522.63
220.544	17613.03
220.618	17685.9
220.691	17773.47
220.764	17853.95
220.838	17922.86
220.911	17985.56
220.984	18091.43
221.057	18167.96
221.131	18236.15
221.204	18273.84
221.277	18361.54
221.35	18455.42
221.424	18508.43
221.497	18572.28
221.57	18644.04
221.643	18711.65
221.716	18770.39
221.79	18829.95
221.863	18880.22
221.936	18934.04
222.009	18977.37
222.082	19023.34
222.155	19068.01
222.229	19126.95
222.302	19173.07
222.375	19223.86
222.448	19288.14
222.521	19318.79
222.594	19357.54
222.667	19400.18
222.74	19457.92
222.814	19477.87
222.887	19518.73
222.96	19578.2
223.033	19621.09
223.106	19648.32
223.179	19687.45
223.252	19723.06
223.325	19769.08
223.398	19806.57
223.471	19843.05
223.544	19878.71
223.617	19912.21
223.69	19946.57
223.763	19966.04
223.837	20004.97
223.91	20039.77
223.983	20048.11
224.056	20071.09
224.129	20102.61
224.202	20133.6
224.275	20155.43
224.348	20177.35
224.42	20186.56
224.493	20188.34
224.566	20198.56
224.639	20220.2
224.712	20233.16
224.785	20251.43
224.858	20265.59
224.931	20272.53
225.004	20280.15
225.077	20293.26
225.15	20289.01
225.223	20307.91
225.296	20341.93
225.369	20328.92
225.442	20322.75
225.514	20337.06
225.587	20345.88
225.66	20353.88
225.733	20358.7
225.806	20365.64
225.879	20373.69
225.952	20380.68
226.025	20409.35
226.097	20426.51
226.17	20436.97
226.243	20421.93
226.316	20426.94
226.389	20426.27
226.461	20440.92
226.534	20444.87
226.607	20441.26
226.68	20472.63
226.753	20485.35
226.825	20476.1
226.898	20488.05
226.971	20500.1
227.044	20515.04
227.117	20524.24
227.189	20535.57
227.262	20551.91
227.335	20558.65
227.407	20556.05
227.48	20550.7
227.553	20541.02
227.626	20533.64
227.698	20539.38
227.771	20545.4
227.844	20532.34
227.916	20536.68
227.989	20516.58
228.062	20517.83
228.134	20546.12
228.207	20536.97
228.28	20515.67
228.352	20501.5
228.425	20504.39
228.498	20496.58
228.57	20467.71
228.643	20470.32
228.716	20464.44
228.788	20451.81
228.861	20444
228.934	20458.03
229.006	20458.75
229.079	20450.94
229.151	20441.69
229.224	20417.26
229.296	20416.48
229.369	20437.06
229.442	20454.65
229.514	20450.08
229.587	20455.67
229.659	20430.7
229.732	20433.35
229.804	20448.92
229.877	20459.91
229.949	20471.52
230.022	20484.53
230.094	20490.03
230.167	20485.35
230.239	20460.24
230.312	20448.1
230.384	20452.05
230.457	20443.47
230.529	20445.5
230.602	20452.68
230.674	20451.62
230.747	20450.9
230.819	20454.51
230.892	20414.85
230.964	20402.85
231.037	20403.52
231.109	20394.9
231.181	20397.5
231.254	20367.18
231.326	20350.85
231.399	20332.77
231.471	20307.47
231.544	20275.18
231.616	20272.29
231.688	20266.51
231.761	20248.97
231.833	20237.31
231.905	20205.36
231.978	20190.08
232.05	20161.74
232.122	20141.07
232.195	20116.44
232.267	20115.81
232.339	20103.86
232.412	20112.1
232.484	20088.97
232.556	20058.03
232.629	20053.5
232.701	20037.84
232.773	20023.67
232.846	19993.99
232.918	19984.35
232.99	19963
233.062	19956.54
233.135	19943.15
233.207	19907.44
233.279	19911.82
233.351	19898.09
233.424	19874.57
233.496	19851.34
233.568	19852.59
233.64	19821.85
233.713	19811.1
233.785	19785.95
233.857	19763.88
233.929	19729.08
234.001	19713.66
234.074	19715.83
234.146	19676.89
234.218	19651.11
234.29	19634.82
234.362	19604.56
234.434	19563.89
234.507	19532.03
234.579	19491.02
234.651	19458.4
234.723	19439.7
234.795	19431.6
234.867	19405.05
234.939	19388.52
235.012	19354.98
235.084	19333.1
235.156	19317.2
235.228	19285.68
235.3	19264.24
235.372	19245.69
235.444	19235.52
235.516	19190.75
235.588	19161.74
235.66	19143.52
235.732	19111.43
235.804	19127.86
235.876	19122.08
235.948	19117.21
236.02	19098.13
236.092	19074.85
236.164	19047.58
236.236	19018.18
236.308	18967.68
236.38	18942.96
236.452	18918.67
236.524	18905.13
236.596	18897.08
236.668	18871.54
236.74	18848.6
236.812	18829.18
236.884	18793.91
236.956	18760.22
237.028	18739.94
237.1	18705.67
237.172	18682.59
237.244	18667.36
237.316	18613.49
237.388	18573.54
237.46	18522.17
237.532	18510.6
237.604	18481.01
237.675	18476.48
237.747	18453.88
237.819	18421.59
237.891	18401.74
237.963	18367.57
238.035	18328.2
238.107	18259.19
238.178	18242.56
238.25	18206.61
238.322	18191.34
238.394	18156.79
238.466	18123.68
238.538	18096.79
238.609	18066.91
238.681	18025.95
238.753	17990.43
238.825	17956.07
238.897	17934.24
238.968	17935.2
239.04	17898.43
239.112	17899.4
239.184	17846.24
239.255	17814.97
239.327	17790
239.399	17758.34
239.471	17739.93
239.542	17722.68
239.614	17711.06
239.686	17660.46
239.758	17645.23
239.829	17601.48
239.901	17589.86
239.973	17569.33
240.044	17545.09
240.116	17519.84
240.188	17484.8
240.259	17458.97
240.331	17424.27
240.403	17399.02
240.474	17358.44
240.546	17315.84
240.618	17255.11
240.689	17229.81
240.761	17205.14
240.833	17193.91
240.904	17164.03
240.976	17128.27
241.048	17095.79
241.119	17075.5
241.191	17055.54
241.262	17032.65
241.334	17002.77
241.405	16960.99
241.477	16923.64
241.549	16888.89
241.62	16865.9
241.692	16845.32
241.763	16821.99
241.835	16797.41
241.906	16769.41
241.978	16724.93
242.049	16715.96
242.121	16702.57
242.192	16685.02
242.264	16641.65
242.335	16600
242.407	16570.51
242.478	16539.42
242.55	16513.01
242.621	16473.44
242.693	16438.88
242.764	16410.3
242.836	16375.7
242.907	16357.19
242.979	16332.37
243.05	16310.39
243.122	16278
243.193	16251.78
243.264	16204.11
243.336	16172.06
243.407	16146.08
243.479	16135.29
243.55	16105.02
243.622	16083.62
243.693	16054.6
243.764	16046.6
243.836	16000.86
243.907	15967.7
243.978	15940.13
244.05	15920.13
244.121	15876.22
244.192	15860.94
244.264	15823.92
244.335	15797.51
244.407	15742.99
244.478	15720.34
244.549	15687.42
244.62	15651.27
244.692	15625.58
244.763	15602.15
244.834	15570.82
244.906	15540.21
244.977	15507
245.048	15493.65
245.119	15458.51
245.191	15423.13
245.262	15365.68
245.333	15352.9
245.405	15331.74
245.476	15314.92
245.547	15284.6
245.618	15264.93
245.689	15235.19
245.761	15206.18
245.832	15182.32
245.903	15163.57
245.974	15137.68
246.045	15097.29
246.117	15089.67
246.188	15053.04
246.259	15015.68
246.33	14987.67
246.401	14956.77
246.473	14917.68
246.544	14882.4
246.615	14864.42
246.686	14840.03
246.757	14836.22
246.828	14802.23
246.899	14787.77
246.97	14739.62
247.042	14699.17
247.113	14682.88
247.184	14675.89
247.255	14639.98
247.326	14609.8
247.397	14589.07
247.468	14563.81
247.539	14553.21
247.61	14508.91
247.681	14486.64
247.752	14476.13
247.823	14440.46
247.894	14410.96
247.965	14373.79
248.037	14343.66
248.108	14305.29
248.179	14273.76
248.25	14244.5
248.321	14224.11
248.392	14184.2
248.463	14181.16
248.534	14156.48
248.605	14131.94
248.675	14100.37
248.746	14081.81
248.817	14066.62
248.888	14043.53
248.959	13999.13
249.03	13973.92
249.101	13957.82
249.172	13935.26
249.243	13891.54
249.314	13884.26
249.385	13870.91
249.456	13863
249.527	13833.93
249.598	13815.66
249.669	13790.5
249.739	13769.05
249.81	13750.34
249.881	13716.93
249.952	13687.34
250.023	13665.35
250.094	13634.55
250.165	13596.18
250.235	13576.94
250.306	13550.62
250.377	13521.02
250.448	13506.9
250.519	13469.68
250.59	13456.33
250.66	13422.92
250.731	13417.23
250.802	13393.03
250.873	13374.09
250.944	13353.02
251.014	13321.25
251.085	13319.37
251.156	13299.42
251.227	13290.26
251.297	13280.62
251.368	13275.07
251.439	13264.61
251.51	13258.49
251.58	13227.54
251.651	13202.52
251.722	13192.35
251.792	13164.63
251.863	13137.4
251.934	13131.37
252.005	13135.85
252.075	13113.48
252.146	13104.76
252.217	13100.61
252.287	13091.94
252.358	13066.24
252.429	13059.88
252.499	13036.6
252.57	13017.6
252.641	13003.67
252.711	12976.48
252.782	12941.39
252.852	12938.93
252.923	12917.67
252.994	12895.93
253.064	12886.29
253.135	12860.74
253.205	12833.84
253.276	12820.83
253.347	12820.63
253.417	12790.75
253.488	12765.39
253.558	12744.57
253.629	12723.84
253.699	12700.22
253.77	12679.68
253.841	12657.22
253.911	12645.84
253.982	12629.79
254.052	12606.6
254.123	12594.55
254.193	12584.14
254.264	12604.19
254.334	12566.11
254.405	12534.01
254.475	12502.34
254.546	12478.67
254.616	12471.73
254.687	12453.17
254.757	12438.85
254.827	12416
254.898	12404.58
254.968	12381.92
255.039	12352.81
255.109	12343.7
255.18	12316.56
255.25	12273.03
255.321	12265.17
255.391	12222.71
255.461	12223.91
255.532	12187.71
255.602	12162.12
255.673	12125.48
255.743	12095.35
255.813	12052.12
255.884	12051.88
255.954	12043.2
256.024	12045.56
256.095	12029.42
256.165	11995.14
256.235	11983.09
256.306	11956.73
256.376	11947.81
256.446	11939.18
256.517	11921.16
256.587	11914.31
256.657	11903.66
256.728	11895.27
256.798	11876.23
256.868	11859.32
256.938	11833.62
257.009	11830.68
257.079	11818.73
257.149	11820.27
257.219	11777.09
257.29	11776.03
257.36	11732.36
257.43	11725.61
257.5	11686.67
257.571	11660.73
257.641	11655.19
257.711	11622.61
257.781	11616.1
257.852	11599.86
257.922	11561.59
257.992	11556.96
258.062	11535.13
258.132	11523.9
258.202	11503.75
258.273	11485.25
258.343	11481.97
258.413	11460.62
258.483	11441.1
258.553	11416.61
258.623	11391.79
258.693	11387.07
258.764	11388.9
258.834	11395.21
258.904	11377.62
258.974	11358.2
259.044	11347.45
259.114	11337.72
259.184	11322.68
259.254	11301.38
259.324	11268.08
259.394	11263.16
259.464	11256.8
259.535	11233.33
259.605	11212.75
259.675	11190.1
259.745	11177.09
259.815	11156.08
259.885	11139.16
259.955	11150.25
260.025	11128.85
260.095	11111.79
260.165	11091.74
260.235	11082.59
260.305	11059.02
260.375	11036.18
260.445	11034.64
260.515	11025.91
260.585	11023.46
260.655	11011.12
260.725	11005.63
260.795	10996.61
260.865	11002.11
260.934	10974.74
261.004	10965.15
261.074	10947.61
261.144	10941.78
261.214	10935.13
261.284	10916.52
261.354	10908.28
261.424	10879.08
261.494	10879.61
261.564	10862.07
261.634	10862.55
261.703	10826.75
261.773	10818.51
261.843	10807.47
261.913	10790.85
261.983	10759.1
262.053	10743.53
262.123	10728.01
262.192	10698.29
262.262	10693.18
