Data from 20250625_urea_1M_1_MAYP1162681_12-15-05-807.txt Node
Date: Thu Jun 26 12:15:05 BST 2025
User: adleo
Spectrometer: MAYP116268
Trigger mode: 0
Integration Time (sec): 1.000000E0
Scans to average: 1
Electric dark correction enabled: true
Nonlinearity correction enabled: true
Boxcar width: 10
XAxis mode: Wavelengths
Number of Pixels in Spectrum: 2068
>>>>>Begin Spectral Data<<<<<
179.565	1141.9
179.642	1192.01
179.718	1231.96
179.795	1268.35
179.871	1298.88
179.948	1317.61
180.024	1336.84
180.101	1359.09
180.177	1371.17
180.254	1390.53
180.33	1413.6
180.407	1462.11
180.483	1550.9
180.56	1635.37
180.636	1714.7
180.712	1701.44
180.789	1708.57
180.865	1718.83
180.942	1724.29
181.018	1733.8
181.095	1745.68
181.171	1750.29
181.248	1753.99
181.324	1770.01
181.4	1775.67
181.477	1786.46
181.553	1798.39
181.63	1819.92
181.706	1833.47
181.782	1843.3
181.859	1844.39
181.935	1846.82
182.011	1844.11
182.088	1863.08
182.164	1882.96
182.24	1897.21
182.317	1906.29
182.393	1904.1
182.469	1919.27
182.546	1935.43
182.622	1940.71
182.698	1937.81
182.775	1952.17
182.851	1962.58
182.927	1954.02
183.003	1950.27
183.08	1941.57
183.156	1948.32
183.232	1944.75
183.308	1933.86
183.385	1938.52
183.461	1957.83
183.537	1959.25
183.613	1969.76
183.69	1958.35
183.766	1945.94
183.842	1953.5
183.918	1959.82
183.995	1974.75
184.071	1978.74
184.147	1973.23
184.223	1960.63
184.299	1973.52
184.375	1961.02
184.452	1967.82
184.528	2022
184.604	2033.17
184.68	2048
184.756	2057.28
184.832	2060.51
184.908	2064.6
184.985	2067.07
185.061	2049.24
185.137	2057.04
185.213	2048.1
185.289	2051.38
185.365	2046.72
185.441	2040.73
185.517	2053.72
185.593	2047.11
185.669	2042.25
185.745	2049.2
185.822	2066.55
185.898	2059.18
185.974	2066.07
186.05	2058.7
186.126	2019.16
186.202	2012.7
186.278	2009.61
186.354	1998.57
186.43	2002.28
186.506	2002
186.582	2000.57
186.658	2007.84
186.734	1989.97
186.81	1990.68
186.886	1993.53
186.962	2003.66
187.038	2000.86
187.114	1992.77
187.19	2004.14
187.266	1995.43
187.341	1998.81
187.417	1987.5
187.493	1984.41
187.569	1988.21
187.645	1983.69
187.721	1974.28
187.797	1978.08
187.873	1980.88
187.949	1972.8
188.025	1970.71
188.101	1973.37
188.176	1977.13
188.252	1971.09
188.328	1977.7
188.404	1979.6
188.48	1970.61
188.556	1962.82
188.632	1963.91
188.707	1963.58
188.783	1958.53
188.859	1955.02
188.935	1944.93
189.011	1955.82
189.086	1952.35
189.162	1944.65
189.238	1940.99
189.314	1939.28
189.39	1936.66
189.465	1931.29
189.541	1948.69
189.617	1933.05
189.693	1929.24
189.768	1931.95
189.844	1953.79
189.92	1947.56
189.996	1955.64
190.071	1967.77
190.147	1967.62
190.223	1975.28
190.298	1966.91
190.374	1954.31
190.45	1965.58
190.526	1971.9
190.601	1969.24
190.677	1968.91
190.753	1998.21
190.828	2003.63
190.904	2017.14
190.98	2033.46
191.055	2042.25
191.131	2034.45
191.207	2054.81
191.282	2062.89
191.358	2056.23
191.433	2045.1
191.509	2055.37
191.585	2051.85
191.66	2055.56
191.736	2062.4
191.811	2057.89
191.887	2076.73
191.963	2098.79
192.038	2102.41
192.114	2102.6
192.189	2106.88
192.265	2105.12
192.34	2083.94
192.416	2081.85
192.491	2075.48
192.567	2076.24
192.642	2077.38
192.718	2077.47
192.793	2066.96
192.869	2064.16
192.944	2066.49
193.02	2074.14
193.095	2077.33
193.171	2085.42
193.246	2083.28
193.322	2083.66
193.397	2082.13
193.473	2068.91
193.548	2052.69
193.624	2058.59
193.699	2059.58
193.775	2072.72
193.85	2072.95
193.925	2079.52
194.001	2076.52
194.076	2070.96
194.152	2058.88
194.227	2052.79
194.302	2045.89
194.378	2045.61
194.453	2041.66
194.529	2051.79
194.604	2037.53
194.679	2033.06
194.755	2010.47
194.83	2022.75
194.905	2020.99
194.981	2028.07
195.056	2017.9
195.131	2023.18
195.207	2022.42
195.282	2012.38
195.357	1993.02
195.433	2008.62
195.508	1998.3
195.583	2007.81
195.659	2020.51
195.734	2029.26
195.809	2029.97
195.884	2037.53
195.96	2039.1
196.035	2053.99
196.11	2050.94
196.185	2063.12
196.261	2065.68
196.336	2096.98
196.411	2080.23
196.486	2082.94
196.561	2079.61
196.637	2090.12
196.712	2104.58
196.787	2105.16
196.862	2119.9
196.937	2128.03
197.013	2133.98
197.088	2143.49
197.163	2166.24
197.238	2182.57
197.313	2181.28
197.388	2194.13
197.464	2220.88
197.539	2235.48
197.614	2229.11
197.689	2240.38
197.764	2253.14
197.839	2273.74
197.914	2268.7
197.989	2291.87
198.065	2306.05
198.14	2353.67
198.215	2377.52
198.29	2390.14
198.365	2403.42
198.44	2411.36
198.515	2438.64
198.59	2452.59
198.665	2476.82
198.74	2484.54
198.815	2484.49
198.89	2509.2
198.965	2535.49
199.04	2533.59
199.115	2544.82
199.19	2585.39
199.265	2591.06
199.34	2602.87
199.415	2637.47
199.49	2661.13
199.565	2669.8
199.64	2693.57
199.715	2689.75
199.79	2696.76
199.865	2704.14
199.94	2700.28
200.015	2730.58
200.09	2738.16
200.165	2745.31
200.24	2751.41
200.315	2790.13
200.39	2807.19
200.464	2810.48
200.539	2811.24
200.614	2824.53
200.689	2846.74
200.764	2852.98
200.839	2866.18
200.914	2868.13
200.989	2855.88
201.063	2866.46
201.138	2853.74
201.213	2851.69
201.288	2832.3
201.363	2838.97
201.438	2836.83
201.512	2854.26
201.587	2837.77
201.662	2840.01
201.737	2852.93
201.812	2860.22
201.886	2825.16
201.961	2833.98
202.036	2823.5
202.111	2822.6
202.186	2796.5
202.26	2782.68
202.335	2763.47
202.41	2762.04
202.485	2747.99
202.559	2730.13
202.634	2704.73
202.709	2713.35
202.784	2696.39
202.858	2696.82
202.933	2677.95
203.008	2674.33
203.082	2657.95
203.157	2660.43
203.232	2620.95
203.306	2598.89
203.381	2569.07
203.456	2549.26
203.53	2528.19
203.605	2507.49
203.68	2485.53
203.754	2479.15
203.829	2462.1
203.904	2442.39
203.978	2428.91
204.053	2435.2
204.127	2420.97
204.202	2418.2
204.277	2402.11
204.351	2397.88
204.426	2391.92
204.5	2383.59
204.575	2347.43
204.65	2356
204.724	2345.52
204.799	2354.08
204.873	2351.04
204.948	2349.7
205.022	2339.04
205.097	2329.61
205.171	2345.03
205.246	2349.22
205.32	2349.79
205.395	2351.55
205.469	2343.85
205.544	2346.42
205.618	2328
205.693	2338.85
205.767	2327.66
205.842	2345.28
205.916	2337.38
205.991	2329.24
206.065	2333.62
206.14	2350.84
206.214	2346.41
206.289	2342.55
206.363	2354.31
206.438	2355.45
206.512	2359.88
206.586	2376.39
206.661	2383.63
206.735	2359.13
206.81	2363.84
206.884	2377.65
206.958	2364.37
207.033	2377.69
207.107	2383.98
207.181	2416.98
207.256	2415.84
207.33	2435.21
207.405	2446.64
207.479	2464.69
207.553	2471.11
207.628	2456.08
207.702	2465.64
207.776	2456.69
207.851	2460.45
207.925	2476.27
207.999	2475.98
208.073	2474.08
208.148	2477.13
208.222	2467.75
208.296	2502.91
208.371	2519.45
208.445	2528.31
208.519	2554.87
208.593	2568.77
208.668	2569.06
208.742	2567.68
208.816	2566.35
208.89	2578.26
208.965	2577.97
209.039	2588.78
209.113	2605.36
209.187	2627.87
209.261	2628.4
209.336	2652.02
209.41	2668.93
209.484	2671.27
209.558	2693.33
209.632	2710.71
209.707	2721.33
209.781	2745.06
209.855	2762.74
209.929	2778.62
210.003	2791.53
210.077	2794.68
210.151	2842.85
210.226	2880.99
210.3	2910.81
210.374	2942.54
210.448	2955.6
210.522	2975.01
210.596	2991.27
210.67	3006.81
210.744	3064.52
210.818	3101.12
210.892	3129.03
210.966	3137.42
211.041	3161.55
211.115	3171.61
211.189	3209.58
211.263	3245.63
211.337	3265.09
211.411	3293.34
211.485	3308.04
211.559	3341.77
211.633	3368.81
211.707	3360.84
211.781	3388.63
211.855	3385.48
211.929	3403.76
212.003	3413.92
212.077	3448.15
212.151	3490.8
212.225	3531.57
212.299	3549.82
212.373	3577.7
212.447	3611.9
212.52	3676.48
212.594	3725.02
212.668	3779.85
212.742	3807.37
212.816	3847.03
212.89	3891.13
212.964	3938.93
213.038	3991.9
213.112	4053.68
213.186	4119.55
213.26	4157.91
213.333	4170.15
213.407	4232.48
213.481	4295.53
213.555	4365.03
213.629	4423.55
213.703	4471.16
213.777	4537.88
213.85	4589.57
213.924	4690.5
213.998	4759.25
214.072	4823.14
214.146	4873.56
214.219	4943.35
214.293	5017.99
214.367	5093.59
214.441	5184.91
214.515	5254.63
214.588	5311.85
214.662	5357.61
214.736	5420.06
214.81	5509.36
214.883	5603.7
214.957	5678.87
215.031	5750.96
215.105	5814.95
215.178	5883.26
215.252	5964.51
215.326	6026.93
215.4	6093.27
215.473	6133.45
215.547	6206.31
215.621	6283.42
215.694	6381.27
215.768	6447.09
215.842	6526.79
215.915	6605.12
215.989	6663.39
216.063	6737.07
216.136	6830.31
216.21	6923.1
216.284	7023.57
216.357	7117.66
216.431	7206.03
216.504	7298.4
216.578	7417.91
216.652	7519.63
216.725	7613.19
216.799	7717.74
216.873	7811.4
216.946	7911.51
217.02	8006.29
217.093	8097.53
217.167	8168.49
217.24	8244.94
217.314	8329.69
217.387	8412.48
217.461	8498.72
217.535	8605.06
217.608	8690.53
217.682	8778.66
217.755	8876.27
217.829	8960.23
217.902	9049.38
217.976	9133.29
218.049	9212.58
218.123	9267.33
218.196	9361.26
218.27	9444.76
218.343	9514.36
218.417	9601.72
218.49	9687.2
218.563	9782.13
218.637	9869.65
218.71	9984
218.784	10080.11
218.857	10180.68
218.931	10274.81
219.004	10360.27
219.077	10449.02
219.151	10536.76
219.224	10620.25
219.298	10700.63
219.371	10792.76
219.444	10854.63
219.518	10939.72
219.591	11025.83
219.665	11136.62
219.738	11219.7
219.811	11284.23
219.885	11370.35
219.958	11469.63
220.031	11546.79
220.105	11626.89
220.178	11701.65
220.251	11764.02
220.325	11845.04
220.398	11919.7
220.471	11991.91
220.544	12083.97
220.618	12140.37
220.691	12215.51
220.764	12287.53
220.838	12363.3
220.911	12428.57
220.984	12527.97
221.057	12614.35
221.131	12693.84
221.204	12739.2
221.277	12825.53
221.35	12929.41
221.424	12993.19
221.497	13048.77
221.57	13124.6
221.643	13198.74
221.716	13272.69
221.79	13341.86
221.863	13405.26
221.936	13469.23
222.009	13530.78
222.082	13591.04
222.155	13659.4
222.229	13739.18
222.302	13804.07
222.375	13865.67
222.448	13928.87
222.521	13979.92
222.594	14029.04
222.667	14072.72
222.74	14147.97
222.814	14197.28
222.887	14252.57
222.96	14314.23
223.033	14373.72
223.106	14423.85
223.179	14481.21
223.252	14538.05
223.325	14582.3
223.398	14629.35
223.471	14681.5
223.544	14737.37
223.617	14782.35
223.69	14838.84
223.763	14870.13
223.837	14923.25
223.91	14980.37
223.983	15006.64
224.056	15042.45
224.129	15091.38
224.202	15149.47
224.275	15186.15
224.348	15210.39
224.42	15233.05
224.493	15265.97
224.566	15302.85
224.639	15346.37
224.712	15376.11
224.785	15412.89
224.858	15455.45
224.931	15485.63
225.004	15514.4
225.077	15548.96
225.15	15560.63
225.223	15594.13
225.296	15660.11
225.369	15674.86
225.442	15694.67
225.514	15742.05
225.587	15781.05
225.66	15822.84
225.733	15861.64
225.806	15894.31
225.879	15932.49
225.952	15956.25
226.025	15998.57
226.097	16044.55
226.17	16081.13
226.243	16096.56
226.316	16120.61
226.389	16155.7
226.461	16200.23
226.534	16246.69
226.607	16280.43
226.68	16343.67
226.753	16371.29
226.825	16373.89
226.898	16423.29
226.971	16452.21
227.044	16490.43
227.117	16527.49
227.189	16565.18
227.262	16599.74
227.335	16637.47
227.407	16665.57
227.48	16699.89
227.553	16725.96
227.626	16746.74
227.698	16771.27
227.771	16806.07
227.844	16825.68
227.916	16857.01
227.989	16864.38
228.062	16874.94
228.134	16919.37
228.207	16929.97
228.28	16945.73
228.352	16968.58
228.425	16987.9
228.498	17017.54
228.57	17023.09
228.643	17058.51
228.716	17067.42
228.788	17072.87
228.861	17084.49
228.934	17124
229.006	17143.67
229.079	17166.13
229.151	17181.11
229.224	17187.28
229.296	17209.79
229.369	17254.13
229.442	17272.2
229.514	17287.81
229.587	17318.56
229.659	17317.6
229.732	17332.83
229.804	17367.48
229.877	17408.01
229.949	17442.95
230.022	17478.75
230.094	17499
230.167	17514.27
230.239	17525.4
230.312	17537.12
230.384	17572.3
230.457	17584.78
230.529	17610.42
230.602	17625.93
230.674	17647.86
230.747	17665.45
230.819	17694.99
230.892	17676.2
230.964	17691.19
231.037	17704.78
231.109	17715.09
231.181	17733.26
231.254	17738.22
231.326	17741.31
231.399	17741.02
231.471	17732.25
231.544	17714.13
231.616	17739.09
231.688	17739.72
231.761	17738.66
231.833	17753.16
231.905	17737.93
231.978	17736.39
232.05	17735.57
232.122	17733.6
232.195	17725.55
232.267	17754.61
232.339	17742.17
232.412	17768.05
232.484	17770.27
232.556	17769.02
232.629	17792.44
232.701	17804.05
232.773	17816.44
232.846	17816.63
232.918	17821.4
232.99	17829.74
233.062	17851.47
233.135	17854.12
233.207	17848.48
233.279	17856
233.351	17867.57
233.424	17873.16
233.496	17872.24
233.568	17890.17
233.64	17882.12
233.713	17881.06
233.785	17869.74
233.857	17880.29
233.929	17865.35
234.001	17870.22
234.074	17882.46
234.146	17850.61
234.218	17847.81
234.29	17835.09
234.362	17819.95
234.434	17803.86
234.507	17790.17
234.579	17757.79
234.651	17744.73
234.723	17747.04
234.795	17736.63
234.867	17724.34
234.939	17736.29
235.012	17726.22
235.084	17715.28
235.156	17722.32
235.228	17707.72
235.3	17697.5
235.372	17680.73
235.444	17681.45
235.516	17654.56
235.588	17646.95
235.66	17642.66
235.732	17615.19
235.804	17663.43
235.876	17660.87
235.948	17668.73
236.02	17654.99
236.092	17643.91
236.164	17621.11
236.236	17601.64
236.308	17595.52
236.38	17590.03
236.452	17551.86
236.524	17542.32
236.596	17553.16
236.668	17547.72
236.74	17537.45
236.812	17525.26
236.884	17523.62
236.956	17512.01
237.028	17483.77
237.1	17463.86
237.172	17469.89
237.244	17469.02
237.316	17414.47
237.388	17395.24
237.46	17368.1
237.532	17370.13
237.604	17356.1
237.675	17366.27
237.747	17361.6
237.819	17333.84
237.891	17304.25
237.963	17286.42
238.035	17261.88
238.107	17202.27
238.178	17188.82
238.25	17178.03
238.322	17178.37
238.394	17139.57
238.466	17112.73
238.538	17110.7
238.609	17100.48
238.681	17062.46
238.753	17038.07
238.825	17023.86
238.897	17017.45
238.968	17013.06
239.04	16990.07
239.112	17001.45
239.184	16964
239.255	16935.23
239.327	16920.43
239.399	16909.73
239.471	16888.72
239.542	16884.38
239.614	16882.12
239.686	16830.45
239.758	16812.76
239.829	16782.35
239.901	16781.97
239.973	16765.34
240.044	16752.66
240.116	16728.08
240.188	16704.23
240.259	16687.46
240.331	16659.16
240.403	16636.66
240.474	16593.91
240.546	16554.96
240.618	16505.47
240.689	16477.08
240.761	16461.75
240.833	16460.36
240.904	16431.05
240.976	16414.23
241.048	16383.43
241.119	16366.71
241.191	16361.17
241.262	16351.53
241.334	16317.89
241.405	16291.86
241.477	16261.93
241.549	16229.39
241.62	16203.9
241.692	16192.47
241.763	16175.75
241.835	16145.63
241.906	16120.56
241.978	16085.38
242.049	16069.09
242.121	16056.89
242.192	16051.73
242.264	16011.3
242.335	15963.58
242.407	15941.94
242.478	15913.89
242.55	15895.28
242.621	15859.66
242.693	15828.43
242.764	15798.35
242.836	15773.91
242.907	15748.22
242.979	15731.93
243.05	15717.52
243.122	15698.14
243.193	15666.67
243.264	15613.7
243.336	15586.37
243.407	15571.81
243.479	15570.89
243.55	15552.48
243.622	15535.95
243.693	15512.96
243.764	15508.76
243.836	15486.98
243.907	15453.77
243.978	15426.39
244.05	15406.62
244.121	15367.53
244.192	15349.46
244.264	15311.86
244.335	15289.06
244.407	15247.94
244.478	15221.91
244.549	15185.23
244.62	15147.87
244.692	15127.63
244.763	15118.33
244.834	15094.47
244.906	15058.99
244.977	15033.2
245.048	15020.43
245.119	14979.02
245.191	14932.79
245.262	14876.35
245.333	14856.15
245.405	14833.54
245.476	14817.49
245.547	14789.82
245.618	14770.64
245.689	14747.45
245.761	14723.4
245.832	14698.28
245.903	14684.78
245.974	14668.25
246.045	14648
246.117	14649.02
246.188	14602.31
246.259	14564.03
246.33	14532.79
246.401	14506.67
246.473	14458.9
246.544	14431.71
246.615	14415.17
246.686	14389.87
246.757	14386.78
246.828	14351.3
246.899	14347.54
246.97	14308.59
247.042	14279.28
247.113	14267.62
247.184	14264.72
247.255	14238.89
247.326	14214.59
247.397	14190.44
247.468	14161.28
247.539	14135.34
247.61	14088.73
247.681	14078.84
247.752	14071.13
247.823	14049.63
247.894	14029.91
247.965	14002.97
248.037	13966.86
248.108	13928.15
248.179	13903.32
248.25	13878.45
248.321	13864.9
248.392	13821.95
248.463	13815.93
248.534	13793.12
248.605	13776.4
248.675	13745.21
248.746	13725.59
248.817	13705.92
248.888	13683.99
248.959	13636.36
249.03	13619
249.101	13592.83
249.172	13558.07
249.243	13504.03
249.314	13484.6
249.385	13467.59
249.456	13450.33
249.527	13420.97
249.598	13408.73
249.669	13385.49
249.739	13368.04
249.81	13350.88
249.881	13325.52
249.952	13302.04
250.023	13272.4
250.094	13233.45
250.165	13197.97
250.235	13166.39
250.306	13142.1
250.377	13106.86
250.448	13095.62
250.519	13054.07
250.59	13054.12
250.66	13034.21
250.731	13041.44
250.802	13017.58
250.873	12990.92
250.944	12983.21
251.014	12962.09
251.085	12961.03
251.156	12945.12
251.227	12932.25
251.297	12923.87
251.368	12910.9
251.439	12905.74
251.51	12896.24
251.58	12870.31
251.651	12847.89
251.722	12847.36
251.792	12817.86
251.863	12801.47
251.934	12797.04
252.005	12801.91
252.075	12776.6
252.146	12768.64
252.217	12759.34
252.287	12752.93
252.358	12734.03
252.429	12715.38
252.499	12696.34
252.57	12676.96
252.641	12670.21
252.711	12642.92
252.782	12609.28
252.852	12614.53
252.923	12582.23
252.994	12565.65
253.064	12555.82
253.135	12522.89
253.205	12490.4
253.276	12482.4
253.347	12474.02
253.417	12449.91
253.488	12431.07
253.558	12408.94
253.629	12391.59
253.699	12375
253.77	12364.16
253.841	12339.43
253.911	12340.2
253.982	12318.7
254.052	12307.71
254.123	12289.25
254.193	12274.79
254.264	12287.56
254.334	12256.18
254.405	12231.84
254.475	12202.34
254.546	12185.66
254.616	12186.96
254.687	12175.44
254.757	12161.22
254.827	12138.76
254.898	12127.48
254.968	12107.29
255.039	12078.37
255.109	12065.69
255.18	12034.45
255.25	11986.59
255.321	11980.76
255.391	11936.41
255.461	11945.76
255.532	11900.07
255.602	11875.29
255.673	11839.29
255.743	11804.58
255.813	11755.95
255.884	11741.64
255.954	11731.56
256.024	11732.29
256.095	11712.57
256.165	11676.57
256.235	11664.95
256.306	11638.54
256.376	11625.53
256.446	11611.21
256.517	11600.61
256.587	11589.71
256.657	11576.85
256.728	11564.8
256.798	11539.06
256.868	11518.14
256.938	11484.84
257.009	11480.98
257.079	11466.96
257.149	11470.76
257.219	11446.57
257.29	11441.46
257.36	11414.18
257.43	11405.56
257.5	11361.65
257.571	11340.78
257.641	11340.35
257.711	11309.16
257.781	11303.48
257.852	11291.72
257.922	11262.75
257.992	11254.85
258.062	11237.06
258.132	11224
258.202	11208.44
258.273	11202.9
258.343	11206.12
258.413	11183.47
258.483	11164.63
258.553	11144.68
258.623	11118.03
258.693	11095.52
258.764	11094.37
258.834	11091.19
258.904	11077.84
258.974	11054.75
259.044	11034.56
259.114	11022.52
259.184	11012.59
259.254	10990.86
259.324	10954.13
259.394	10948.3
259.464	10945.51
259.535	10925.75
259.605	10906.19
259.675	10883.78
259.745	10866.48
259.815	10836.07
259.885	10815.35
259.955	10818.1
260.025	10789.53
260.095	10778.78
260.165	10768.23
260.235	10762.2
260.305	10738.93
260.375	10709.1
260.445	10718.98
260.515	10719.13
260.585	10711.85
260.655	10692.53
260.725	10692.86
260.795	10690.84
260.865	10686.89
260.934	10655.66
261.004	10646.56
261.074	10635.52
261.144	10636.58
261.214	10627.81
261.284	10616.73
261.354	10619.33
261.424	10602.66
261.494	10609.31
261.564	10595.05
261.634	10593.7
261.703	10562.57
261.773	10556.11
261.843	10553.18
261.913	10530.96
261.983	10501.38
262.053	10492.18
262.123	10474.64
262.192	10441.74
262.262	10429.93
262.332	10399.67
262.402	10396.73
