Data from 20250625_urea_1M_1_MAYP1162681_01-25-05-998.txt Node
Date: Thu Jun 26 01:25:05 BST 2025
User: adleo
Spectrometer: MAYP116268
Trigger mode: 0
Integration Time (sec): 1.000000E0
Scans to average: 1
Electric dark correction enabled: true
Nonlinearity correction enabled: true
Boxcar width: 10
XAxis mode: Wavelengths
Number of Pixels in Spectrum: 2068
>>>>>Begin Spectral Data<<<<<
179.565	1119.61
179.642	1174.15
179.718	1214
179.795	1251.08
179.871	1278.36
179.948	1297.12
180.024	1315.9
180.101	1338.14
180.177	1349.38
180.254	1369.01
180.33	1390.54
180.407	1438.48
180.483	1528.55
180.56	1612.59
180.636	1694.2
180.712	1681.84
180.789	1690.44
180.865	1701.99
180.942	1709.87
181.018	1720.42
181.095	1730.54
181.171	1737.67
181.248	1736.72
181.324	1750.89
181.4	1756.07
181.477	1769.47
181.553	1780.21
181.63	1798.84
181.706	1810.77
181.782	1821.31
181.859	1820.7
181.935	1826.07
182.011	1822.6
182.088	1837.52
182.164	1856.26
182.24	1866.1
182.317	1874.65
182.393	1873.37
182.469	1886.44
182.546	1899.51
182.622	1901.17
182.698	1897.85
182.775	1907.45
182.851	1920.24
182.927	1915.2
183.003	1910.21
183.08	1902.17
183.156	1909.92
183.232	1909.35
183.308	1902.22
183.385	1907.59
183.461	1926.04
183.537	1924.57
183.613	1938.26
183.69	1928.8
183.766	1916.91
183.842	1924.85
183.918	1930.03
183.995	1943.1
184.071	1946.96
184.147	1940.87
184.223	1931.22
184.299	1945.68
184.375	1935.84
184.452	1942.74
184.528	1994.29
184.604	2005.89
184.68	2015.78
184.756	2023.44
184.832	2028.38
184.908	2031.66
184.985	2032.71
185.061	2016.21
185.137	2027.05
185.213	2013.03
185.289	2012.17
185.365	2006.75
185.441	2003.42
185.517	2016.98
185.593	2013.89
185.669	2010.04
185.745	2020.07
185.822	2036.9
185.898	2026.53
185.974	2034.94
186.05	2027.85
186.126	1992.28
186.202	1984.19
186.278	1983.29
186.354	1975.78
186.43	1978.44
186.506	1976.4
186.582	1972.97
186.658	1980.44
186.734	1963.75
186.81	1969.36
186.886	1976.73
186.962	1987.18
187.038	1983.52
187.114	1975.1
187.19	1980.62
187.266	1973.73
187.341	1973.87
187.417	1964.6
187.493	1965.36
187.569	1968.07
187.645	1963.41
187.721	1949.67
187.797	1959.89
187.873	1960.41
187.949	1955.13
188.025	1950.9
188.101	1953.8
188.176	1959.6
188.252	1955.13
188.328	1959.03
188.404	1955.94
188.48	1947.43
188.556	1941.25
188.632	1941.49
188.707	1940.01
188.783	1936.59
188.859	1930.65
188.935	1917.76
189.011	1928.08
189.086	1922.51
189.162	1917.14
189.238	1913.48
189.314	1912.29
189.39	1905.64
189.465	1903.12
189.541	1913.2
189.617	1900.07
189.693	1895.08
189.768	1901.03
189.844	1924
189.92	1917.06
189.996	1928.33
190.071	1940.98
190.147	1941.07
190.223	1949.35
190.298	1945.26
190.374	1933.61
190.45	1946.59
190.526	1956.48
190.601	1950.01
190.677	1948.96
190.753	1974.08
190.828	1976.65
190.904	1988.87
190.98	2002.38
191.055	2009.37
191.131	2006.56
191.207	2024.77
191.282	2034.66
191.358	2024.54
191.433	2012.83
191.509	2025.43
191.585	2020.91
191.66	2021.96
191.736	2029.23
191.811	2021.86
191.887	2037.03
191.963	2060.15
192.038	2063.71
192.114	2064.85
192.189	2069.66
192.265	2068.33
192.34	2047.96
192.416	2046.68
192.491	2044.11
192.567	2044.3
192.642	2048.05
192.718	2044.35
192.793	2032.65
192.869	2026.56
192.944	2028.22
193.02	2034.08
193.095	2036.79
193.171	2044.4
193.246	2046.35
193.322	2041.21
193.397	2042.3
193.473	2030.6
193.548	2014
193.624	2019.9
193.699	2018.71
193.775	2030.51
193.85	2032.65
193.925	2039.69
194.001	2037.12
194.076	2028.08
194.152	2020.28
194.227	2016.53
194.302	2010.16
194.378	2013.82
194.453	2012.91
194.529	2025.8
194.604	2010.96
194.679	2005.73
194.755	1985.24
194.83	1995.62
194.905	1997.76
194.981	2004.13
195.056	1996.28
195.131	2001.28
195.207	1998.47
195.282	1985.68
195.357	1970.32
195.433	1983.39
195.508	1970.41
195.583	1982.77
195.659	1998.33
195.734	2007.89
195.809	2004.37
195.884	2012.5
195.96	2014.45
196.035	2030.9
196.11	2028.05
196.185	2039.7
196.261	2041.65
196.336	2071.8
196.411	2058
196.486	2061.47
196.561	2058
196.637	2068.03
196.712	2084.21
196.787	2089.11
196.862	2110.17
196.937	2118.83
197.013	2127.63
197.088	2140.57
197.163	2159.89
197.238	2175.17
197.313	2171.32
197.388	2187.11
197.464	2217.24
197.539	2227.61
197.614	2217.19
197.689	2228.37
197.764	2242.46
197.839	2263.39
197.914	2258.2
197.989	2277
198.065	2293.56
198.14	2341.8
198.215	2364.22
198.29	2372.98
198.365	2385.45
198.44	2391.25
198.515	2415.86
198.59	2427.91
198.665	2448.33
198.74	2456.52
198.815	2457.05
198.89	2481.56
198.965	2507.66
199.04	2504.8
199.115	2519.75
199.19	2558.74
199.265	2562.93
199.34	2573.17
199.415	2603.33
199.49	2625.32
199.565	2634.28
199.64	2653.95
199.715	2646.66
199.79	2653.04
199.865	2661.47
199.94	2659.14
200.015	2693.44
200.09	2701.87
200.165	2705.64
200.24	2716.26
200.315	2754.69
200.39	2770.66
200.464	2774.42
200.539	2777.42
200.614	2791.91
200.689	2812.11
200.764	2824.08
200.839	2838.37
200.914	2842.22
200.989	2834.6
201.063	2845.61
201.138	2831.75
201.213	2832.04
201.288	2817.03
201.363	2823.46
201.438	2820.84
201.512	2836.32
201.587	2815.25
201.662	2818.45
201.737	2834.41
201.812	2843.04
201.886	2809.37
201.961	2819.62
202.036	2809.43
202.111	2802.37
202.186	2773.37
202.26	2757.26
202.335	2736.05
202.41	2731.24
202.485	2718.33
202.559	2699.56
202.634	2674.17
202.709	2682.55
202.784	2664.59
202.858	2661.74
202.933	2643.25
203.008	2641.02
203.082	2623.63
203.157	2626.97
203.232	2588.21
203.306	2567.91
203.381	2536.66
203.456	2513.71
203.53	2488.87
203.605	2466.84
203.68	2446.93
203.754	2443.51
203.829	2428.79
203.904	2409.85
203.978	2399.23
204.053	2403.18
204.127	2392.85
204.202	2389.33
204.277	2373.52
204.351	2366.43
204.426	2359.67
204.5	2353.39
204.575	2317.22
204.65	2325.27
204.724	2313.79
204.799	2322.07
204.873	2315.78
204.948	2311.83
205.022	2303.65
205.097	2295.7
205.171	2313.06
205.246	2320.78
205.32	2318.83
205.395	2319.92
205.469	2311.93
205.544	2317.03
205.618	2296.51
205.693	2303.89
205.767	2295.47
205.842	2313.89
205.916	2306.51
205.991	2297.14
206.065	2301.76
206.14	2317.35
206.214	2314.35
206.289	2309.21
206.363	2318.59
206.438	2322.21
206.512	2332.49
206.586	2346.43
206.661	2357.05
206.735	2333.5
206.81	2335.69
206.884	2348.26
206.958	2337.6
207.033	2353.16
207.107	2361.06
207.181	2393.87
207.256	2392.77
207.33	2412.19
207.405	2425.1
207.479	2445.76
207.553	2457.23
207.628	2444.95
207.702	2457.66
207.776	2450.95
207.851	2454.66
207.925	2470.71
207.999	2465.81
208.073	2461.29
208.148	2469.62
208.222	2454.52
208.296	2487.17
208.371	2503.23
208.445	2514.8
208.519	2540.03
208.593	2551.31
208.668	2546.98
208.742	2551.32
208.816	2551.27
208.89	2562.32
208.965	2564.08
209.039	2574.14
209.113	2589.71
209.187	2611.75
209.261	2611.04
209.336	2635.9
209.41	2657.34
209.484	2661.58
209.558	2686.92
209.632	2703.16
209.707	2716.21
209.781	2744.94
209.855	2768.34
209.929	2793.29
210.003	2806.44
210.077	2815.11
210.151	2870.78
210.226	2914.12
210.3	2949
210.374	2985.26
210.448	3007.34
210.522	3033.48
210.596	3060.71
210.67	3091.13
210.744	3155.44
210.818	3209.42
210.892	3250.36
210.966	3271.2
211.041	3312.38
211.115	3342.19
211.189	3398.12
211.263	3449.85
211.337	3493.43
211.411	3545.09
211.485	3576.05
211.559	3634.62
211.633	3687.12
211.707	3707.96
211.781	3766.47
211.855	3791.51
211.929	3846.97
212.003	3892.01
212.077	3961.04
212.151	4042.52
212.225	4124
212.299	4183.67
212.373	4247.12
212.447	4322.86
212.52	4433.71
212.594	4523.87
212.668	4627.91
212.742	4708.56
212.816	4800.25
212.89	4893.32
212.964	4996.29
213.038	5108.21
213.112	5226.72
213.186	5346.73
213.26	5444.33
213.333	5518.29
213.407	5646.89
213.481	5770.92
213.555	5910.53
213.629	6031.11
213.703	6151.93
213.777	6283.85
213.85	6406.55
213.924	6579.09
213.998	6723.95
214.072	6864.05
214.146	6999.53
214.219	7145.67
214.293	7294.48
214.367	7452.87
214.441	7621.31
214.515	7765.48
214.588	7906.19
214.662	8030.94
214.736	8180.19
214.81	8346.88
214.883	8523.21
214.957	8673.76
215.031	8827.59
215.105	8970.23
215.178	9126.48
215.252	9280.45
215.326	9423.84
215.4	9572.37
215.473	9694.13
215.547	9847.05
215.621	10003.37
215.694	10173.94
215.768	10314.42
215.842	10469.54
215.915	10621.75
215.989	10759.41
216.063	10916.31
216.136	11075.9
216.21	11240.51
216.284	11406.77
216.357	11572.6
216.431	11726.73
216.504	11897.77
216.578	12079.05
216.652	12249.86
216.725	12406.99
216.799	12564.47
216.873	12716.84
216.946	12878.75
217.02	13030.2
217.093	13177.95
217.167	13305.89
217.24	13441.25
217.314	13584.37
217.387	13723.1
217.461	13856.82
217.535	14007.85
217.608	14134.58
217.682	14277.08
217.755	14420.73
217.829	14542.15
217.902	14670.14
217.976	14809.35
218.049	14936.07
218.123	15044.58
218.196	15174.87
218.27	15290.8
218.343	15410.34
218.417	15542.17
218.49	15664.98
218.563	15802.21
218.637	15918.56
218.71	16059.06
218.784	16181.43
218.857	16308.68
218.931	16432.35
219.004	16546.24
219.077	16668.37
219.151	16781.78
219.224	16878.27
219.298	16979.48
219.371	17100.78
219.444	17194.96
219.518	17288.16
219.591	17378.91
219.665	17503.54
219.738	17602.24
219.811	17686.38
219.885	17784.84
219.958	17871.68
220.031	17961.41
220.105	18048.83
220.178	18143.24
220.251	18219.04
220.325	18315.14
220.398	18403.76
220.471	18477.73
220.544	18571.51
220.618	18645.29
220.691	18730.01
220.764	18806.92
220.838	18891.68
220.911	18954.33
220.984	19038.95
221.057	19127.62
221.131	19200.24
221.204	19239.52
221.277	19319.23
221.35	19421.82
221.424	19481.19
221.497	19556.37
221.57	19615.07
221.643	19673.38
221.716	19732.94
221.79	19785.61
221.863	19830.62
221.936	19868.36
222.009	19924.5
222.082	19968.3
222.155	20006.33
222.229	20059.24
222.302	20110.27
222.375	20156.44
222.448	20202.9
222.521	20253.93
222.594	20281.88
222.667	20310.61
222.74	20354.99
222.814	20388.97
222.887	20419.72
222.96	20467.04
223.033	20509.98
223.106	20547.24
223.179	20589.36
223.252	20621.07
223.325	20650.47
223.398	20683.87
223.471	20723.29
223.544	20741.79
223.617	20775.82
223.69	20802.37
223.763	20818.13
223.837	20850.62
223.91	20880.55
223.983	20897.9
224.056	20904.35
224.129	20933.37
224.202	20959.97
224.275	20975.78
224.348	20980.45
224.42	20989.18
224.493	20981.22
224.566	20983.25
224.639	21002.29
224.712	21006.96
224.785	21011.78
224.858	21025.56
224.931	21026.48
225.004	21027.93
225.077	21047.69
225.15	21023.44
225.223	21030.58
225.296	21067.35
225.369	21045.9
225.442	21035.64
225.514	21041.57
225.587	21049.23
225.66	21052.12
225.733	21056.65
225.806	21065.13
225.879	21067.26
225.952	21051.3
226.025	21073.47
226.097	21085.96
226.17	21078.68
226.243	21055.01
226.316	21061.91
226.389	21068.32
226.461	21067.16
226.534	21063.11
226.607	21063.93
226.68	21090.53
226.753	21085.09
226.825	21055.54
226.898	21078.97
226.971	21078.15
227.044	21081.52
227.117	21085.42
227.189	21085.57
227.262	21107.11
227.335	21108.32
227.407	21106.68
227.48	21114.34
227.553	21114.34
227.626	21107.21
227.698	21104.27
227.771	21113.72
227.844	21096.8
227.916	21086.58
227.989	21080.12
228.062	21081.57
228.134	21093.33
228.207	21077.33
228.28	21078.05
228.352	21074.72
228.425	21069.33
228.498	21076.12
228.57	21065.86
228.643	21059.88
228.716	21051.98
228.788	21027.35
228.861	21008.45
228.934	21002.19
229.006	20981.18
229.079	20963.39
229.151	20947.49
229.224	20938.91
229.296	20940.45
229.369	20964.31
229.442	20962.43
229.514	20945.46
229.587	20951.44
229.659	20914.71
229.732	20912.74
229.804	20917.51
229.877	20922.09
229.949	20918.52
230.022	20928.93
230.094	20914.23
230.167	20909.13
230.239	20889.8
230.312	20879.34
230.384	20905.03
230.457	20900.98
230.529	20911.39
230.602	20907.78
230.674	20897.56
230.747	20887.49
230.819	20879.73
230.892	20833.75
230.964	20822.33
231.037	20810.37
231.109	20789.31
231.181	20785.89
231.254	20760.54
231.326	20722.85
231.399	20715.34
231.471	20688.92
231.544	20644.92
231.616	20640.05
231.688	20621.26
231.761	20594.9
231.833	20580.34
231.905	20529.84
231.978	20514.41
232.05	20485.35
232.122	20459.52
232.195	20437.93
232.267	20434.17
232.339	20414.41
232.412	20407.23
232.484	20378.99
232.556	20355.28
232.629	20355.38
232.701	20350.03
232.773	20332.15
232.846	20321.88
232.918	20289.35
232.99	20273.69
233.062	20250.17
233.135	20243.18
233.207	20218.13
233.279	20209.21
233.351	20189.6
233.424	20164.63
233.496	20129.4
233.568	20129.36
233.64	20097.84
233.713	20073.79
233.785	20037.21
233.857	20003
233.929	19965.22
234.001	19960.4
234.074	19955.19
234.146	19902.71
234.218	19878.67
234.29	19857.27
234.362	19830.96
234.434	19799.73
234.507	19762.24
234.579	19726.24
234.651	19682.1
234.723	19660.8
234.795	19644.56
234.867	19616.8
234.939	19606.68
235.012	19585.72
235.084	19551.31
235.156	19534.92
235.228	19500.03
235.3	19476.61
235.372	19466.83
235.444	19458.88
235.516	19409.1
235.588	19383.65
235.66	19366.07
235.732	19326.02
235.804	19354.55
235.876	19335.37
235.948	19323.27
236.02	19302.45
236.092	19282.5
236.164	19254.94
236.236	19219.18
236.308	19181.88
236.38	19166.56
236.452	19129.02
236.524	19098.66
236.596	19084.64
236.668	19063.05
236.74	19038.33
236.812	19015.92
236.884	18981.75
236.956	18953.71
237.028	18923.49
237.1	18883.16
237.172	18872.65
237.244	18867.4
237.316	18801.86
237.388	18758.54
237.46	18719.79
237.532	18701.24
237.604	18662.83
237.675	18652.62
237.747	18641.82
237.819	18602.02
237.891	18562.11
237.963	18529.34
238.035	18500.67
238.107	18440.77
238.178	18424.05
238.25	18401.69
238.322	18400.53
238.394	18363.62
238.466	18324.15
238.538	18313.07
238.609	18295.77
238.681	18239.53
238.753	18191.43
238.825	18166.18
238.897	18140.88
238.968	18121.22
239.04	18084.79
239.112	18084.31
239.184	18037.37
239.255	17998.24
239.327	17978.72
239.399	17951.3
239.471	17928.75
239.542	17909.61
239.614	17899.73
239.686	17838.34
239.758	17811.93
239.829	17753.52
239.901	17734.53
239.973	17711.31
240.044	17678.54
240.116	17642.39
240.188	17620.46
240.259	17587.26
240.331	17540.47
240.403	17522.73
240.474	17473.48
240.546	17430.06
240.618	17383.31
240.689	17348.66
240.761	17324.13
240.833	17312.42
240.904	17279.98
240.976	17245.86
241.048	17211.55
241.119	17182.68
241.191	17166.25
241.262	17156.46
241.334	17122.49
241.405	17090.87
241.477	17052.7
241.549	17019.64
241.62	16990.43
241.692	16964.99
241.763	16953.52
241.835	16928.84
241.906	16896.99
241.978	16854.57
242.049	16839.05
242.121	16817.41
242.192	16809.46
242.264	16762.18
242.335	16708.44
242.407	16681.84
242.478	16654.61
242.55	16622.22
242.621	16583.91
242.693	16547.28
242.764	16507.61
242.836	16472.04
242.907	16441.24
242.979	16415.17
243.05	16383.99
243.122	16357.67
243.193	16320.37
243.264	16262.63
243.336	16238.58
243.407	16213.99
243.479	16209.71
243.55	16192.45
243.622	16175.39
243.693	16144.2
243.764	16126.47
243.836	16091.62
243.907	16068.34
243.978	16035.27
244.05	16018.12
244.121	15973.58
244.192	15961.14
244.264	15910.44
244.335	15893.76
244.407	15858.34
244.478	15834.57
244.549	15803.34
244.62	15766.51
244.692	15741.98
244.763	15734.46
244.834	15702.31
244.906	15667.46
244.977	15642.35
245.048	15625.05
245.119	15579.11
245.191	15540.84
245.262	15496.35
245.333	15486.23
245.405	15449.4
245.476	15438.41
245.547	15407.47
245.618	15388.57
245.689	15357.1
245.761	15344.85
245.832	15314.92
245.903	15288.26
245.974	15262.77
246.045	15240.26
246.117	15227.48
246.188	15187.62
246.259	15143.9
246.33	15105.62
246.401	15076.65
246.473	15031.34
246.544	14993.41
246.615	14991.14
246.686	14959.67
246.757	14954.51
246.828	14914.11
246.899	14905.58
246.97	14848.17
247.042	14811.97
247.113	14799.2
247.184	14795.63
247.255	14758.46
247.326	14730.41
247.397	14708.14
247.468	14678.49
247.539	14651.06
247.61	14609.85
247.681	14594.23
247.752	14576.88
247.823	14547.18
247.894	14523.32
247.965	14488.66
248.037	14460.22
248.108	14406.86
248.179	14382.37
248.25	14344.91
248.321	14325.53
248.392	14282.54
248.463	14284.8
248.534	14264.41
248.605	14244.21
248.675	14211.72
248.746	14198.32
248.817	14182.03
248.888	14159.61
248.959	14122.2
249.03	14103.07
249.101	14082.82
249.172	14050.91
249.243	14013.45
249.314	14006.75
249.385	13984
249.456	13974.26
249.527	13944.56
249.598	13923.11
249.669	13895.83
249.739	13883.87
249.81	13873.65
249.881	13842.46
249.952	13818.75
250.023	13789.68
250.094	13749.76
250.165	13710.47
250.235	13673.11
250.306	13650.7
250.377	13616.76
250.448	13600.95
250.519	13557.18
250.59	13548.16
250.66	13532.16
250.731	13521.41
250.802	13496.29
250.873	13476.72
250.944	13460.09
251.014	13433.29
251.085	13442.98
251.156	13423.69
251.227	13411.02
251.297	13394.62
251.368	13387.73
251.439	13375.63
251.51	13367.58
251.58	13338.37
251.651	13311.66
251.722	13311.18
251.792	13271.36
251.863	13249.33
251.934	13238.48
252.005	13256.85
252.075	13233.66
252.146	13220.26
252.217	13208.36
252.287	13187.24
252.358	13162.61
252.429	13154.36
252.499	13127.56
252.57	13097.53
252.641	13086.97
252.711	13066.53
252.782	13028.3
252.852	13020.5
252.923	12998.18
252.994	12985.26
253.064	12979.28
253.135	12963.18
253.205	12933.53
253.276	12933.68
253.347	12931.51
253.417	12903.93
253.488	12869.27
253.558	12850.81
253.629	12827.53
253.699	12810.94
253.77	12808.68
253.841	12787.32
253.911	12770.31
253.982	12758.16
254.052	12748.86
254.123	12732.22
254.193	12709.57
254.264	12729.28
254.334	12704.99
254.405	12669.7
254.475	12634.99
254.546	12611.18
254.616	12600
254.687	12582.98
254.757	12560.33
254.827	12526.49
254.898	12517.81
254.968	12497.61
255.039	12464.69
255.109	12453.26
255.18	12430.75
255.25	12382.5
255.321	12368.86
255.391	12337.67
255.461	12332.66
255.532	12286.86
255.602	12264.16
255.673	12227.57
255.743	12200.44
255.813	12156.72
255.884	12156.43
255.954	12138.74
256.024	12143.51
256.095	12129.34
256.165	12099.26
256.235	12089.28
256.306	12069.86
256.376	12059.25
256.446	12048.41
256.517	12038.86
256.587	12032.4
256.657	12010.23
256.728	12000.21
256.798	11980.59
256.868	11959.19
256.938	11933.06
257.009	11929.06
257.079	11917.97
257.149	11920.91
257.219	11877.29
257.29	11859.75
257.36	11815.07
257.43	11810.88
257.5	11772.22
257.571	11746.87
257.641	11742.72
257.711	11711.92
257.781	11703.44
257.852	11687.48
257.922	11646.56
257.992	11632.2
258.062	11604.87
258.132	11602.46
258.202	11583.86
258.273	11571.37
258.343	11566.94
258.413	11545.35
258.483	11520.91
258.553	11496.96
258.623	11469.44
258.693	11454.88
258.764	11457.29
258.834	11457.05
258.904	11445.39
258.974	11415.27
259.044	11394.83
259.114	11382.16
259.184	11369.91
259.254	11353.43
259.324	11317.96
259.394	11312.37
259.464	11307.89
259.535	11292.99
259.605	11268.37
259.675	11241.28
259.745	11232.51
259.815	11210.34
259.885	11193.43
259.955	11206.25
260.025	11183.74
260.095	11169.43
260.165	11162.73
260.235	11164.18
260.305	11145.86
260.375	11110.54
260.445	11123.4
260.515	11119.16
260.585	11110.97
260.655	11093.57
260.725	11080.76
260.795	11074.78
260.865	11076.42
260.934	11050.92
261.004	11043.31
261.074	11023.36
261.144	11024.08
261.214	11018.49
261.284	10997.1
261.354	10983.8
261.424	10959.46
261.494	10950.11
261.564	10938.16
261.634	10928.38
261.703	10893.39
261.773	10877.63
261.843	10872.77
261.913	10851.85
261.983	10822.8
262.053	10809.4
262.123	10795.28
