Data from 20250625_urea_1M_1_MAYP1162681_07-55-06-120.txt Node
Date: Thu Jun 26 07:55:06 BST 2025
User: adleo
Spectrometer: MAYP116268
Trigger mode: 0
Integration Time (sec): 1.000000E0
Scans to average: 1
Electric dark correction enabled: true
Nonlinearity correction enabled: true
Boxcar width: 10
XAxis mode: Wavelengths
Number of Pixels in Spectrum: 2068
>>>>>Begin Spectral Data<<<<<
179.565	1119.94
179.642	1169.16
179.718	1208.27
179.795	1244.57
179.871	1274.17
179.948	1292.28
180.024	1311.9
180.101	1332.99
180.177	1343.3
180.254	1364.81
180.33	1385.22
180.407	1432.4
180.483	1523.28
180.56	1607.61
180.636	1687.41
180.712	1674.48
180.789	1682.99
180.865	1696.24
180.942	1707.4
181.018	1717.81
181.095	1731.69
181.171	1737.06
181.248	1739.43
181.324	1755.64
181.4	1762.67
181.477	1773.65
181.553	1783.96
181.63	1802.74
181.706	1817.28
181.782	1828.35
181.859	1828.97
181.935	1834.62
182.011	1832.53
182.088	1846.46
182.164	1864.58
182.24	1876.79
182.317	1882.68
182.393	1882.4
182.469	1891.76
182.546	1905.64
182.622	1909.4
182.698	1906.02
182.775	1917.43
182.851	1931.98
182.927	1922
183.003	1918.29
183.08	1914.82
183.156	1925.37
183.232	1921.52
183.308	1912.16
183.385	1919.57
183.461	1933.17
183.537	1934.64
183.613	1949.29
183.69	1941.63
183.766	1931.22
183.842	1937.16
183.918	1943.53
183.995	1954.37
184.071	1959.55
184.147	1953.09
184.223	1942.39
184.299	1950.72
184.375	1941.87
184.452	1945.63
184.528	2000.94
184.604	2010.21
184.68	2016.77
184.756	2024.58
184.832	2030.52
184.908	2034.75
184.985	2033.75
185.061	2021.77
185.137	2030.09
185.213	2016.11
185.289	2016.4
185.365	2009.03
185.441	2006.37
185.517	2018.97
185.593	2019.64
185.669	2015.21
185.745	2024.87
185.822	2042.6
185.898	2035.04
185.974	2042.69
186.05	2037.27
186.126	1997.07
186.202	1988.85
186.278	1987.99
186.354	1980.62
186.43	1984.05
186.506	1982.76
186.582	1982.52
186.658	1987.8
186.734	1971.07
186.81	1973.16
186.886	1974.87
186.962	1985.28
187.038	1984.33
187.114	1975.81
187.19	1979.62
187.266	1970.35
187.341	1969.11
187.417	1957.8
187.493	1958.65
187.569	1961.74
187.645	1957.42
187.721	1947.76
187.797	1957.08
187.873	1959.79
187.949	1946.91
188.025	1941.58
188.101	1945.48
188.176	1951.09
188.252	1945.58
188.328	1950.66
188.404	1949
188.48	1945.05
188.556	1938.35
188.632	1938.68
188.707	1939.87
188.783	1937.4
188.859	1934.69
188.935	1927.56
189.011	1939.73
189.086	1934.5
189.162	1929.27
189.238	1925.94
189.314	1923.56
189.39	1919.47
189.465	1914.2
189.541	1933.21
189.617	1921
189.693	1912.96
189.768	1914.67
189.844	1936.41
189.92	1928.14
189.996	1938.41
190.071	1949.82
190.147	1952.67
190.223	1958.05
190.298	1950.06
190.374	1934.8
190.45	1945.06
190.526	1951.67
190.601	1944.78
190.677	1943.02
190.753	1967.38
190.828	1969.95
190.904	1984.17
190.98	1996.68
191.055	2005.57
191.131	1998.2
191.207	2015.65
191.282	2024.87
191.358	2015.12
191.433	2005.42
191.509	2019.53
191.585	2016.06
191.66	2016.63
191.736	2020.1
191.811	2015.78
191.887	2030.47
191.963	2054.1
192.038	2059.05
192.114	2058.15
192.189	2061.86
192.265	2062.28
192.34	2041.11
192.416	2041.54
192.491	2036.59
192.567	2039.44
192.642	2043.3
192.718	2045.58
192.793	2035.4
192.869	2033.17
192.944	2037.54
193.02	2043.53
193.095	2044.01
193.171	2052.29
193.246	2052.33
193.322	2051.95
193.397	2049.1
193.473	2038.59
193.548	2022.37
193.624	2028.08
193.699	2027.55
193.775	2044.16
193.85	2045.87
193.925	2051.34
194.001	2048.87
194.076	2042.07
194.152	2030.22
194.227	2023.23
194.302	2012.68
194.378	2017.72
194.453	2015.91
194.529	2026.9
194.604	2014.53
194.679	2011.58
194.755	1990.52
194.83	2000.13
194.905	1999.04
194.981	2007.22
195.056	2001.8
195.131	2006.65
195.207	2004.84
195.282	1995.47
195.357	1976.02
195.433	1988.52
195.508	1978.15
195.583	1989.04
195.659	2005.83
195.734	2014.73
195.809	2014.54
195.884	2022.1
195.96	2021.62
196.035	2036.27
196.11	2034.37
196.185	2045.54
196.261	2046.54
196.336	2078.26
196.411	2065.32
196.486	2068.89
196.561	2064.04
196.637	2071.69
196.712	2085.92
196.787	2088.3
196.862	2104.23
196.937	2113.41
197.013	2119.21
197.088	2130.91
197.163	2149.66
197.238	2161.61
197.313	2159.71
197.388	2170.46
197.464	2200.15
197.539	2214.24
197.614	2205.53
197.689	2217.28
197.764	2232.13
197.839	2253.4
197.914	2244.03
197.989	2267.96
198.065	2279.9
198.14	2328.52
198.215	2351.75
198.29	2363.98
198.365	2378.07
198.44	2386.25
198.515	2413.34
198.59	2429
198.665	2454.9
198.74	2461.57
198.815	2462.76
198.89	2484.32
198.965	2515
199.04	2509
199.115	2520.71
199.19	2563.27
199.265	2565.99
199.34	2575.13
199.415	2608.91
199.49	2632.19
199.565	2638.96
199.64	2662.77
199.715	2657.29
199.79	2662.86
199.865	2669.15
199.94	2668.1
200.015	2698.16
200.09	2704.78
200.165	2705.64
200.24	2710.12
200.315	2748.36
200.39	2764.32
200.464	2771.9
200.539	2772.85
200.614	2790.52
200.689	2809.16
200.764	2814.83
200.839	2831.55
200.914	2833.26
200.989	2823.11
201.063	2836.59
201.138	2819.21
201.213	2821.55
201.288	2803.4
201.363	2809.4
201.438	2811.11
201.512	2824.98
201.587	2811.68
201.662	2813.92
201.737	2830.12
201.812	2839.65
201.886	2810.37
201.961	2819.67
202.036	2806.71
202.111	2801.75
202.186	2772.99
202.26	2760.26
202.335	2741.2
202.41	2735.82
202.485	2721.15
202.559	2698.19
202.634	2672.13
202.709	2681.32
202.784	2659.5
202.858	2660.5
202.933	2643.83
203.008	2639.45
203.082	2621.78
203.157	2618.16
203.232	2577.97
203.306	2558.68
203.381	2523.81
203.456	2500.47
203.53	2478.69
203.605	2461.6
203.68	2442.55
203.754	2436.37
203.829	2423.08
203.904	2404.37
203.978	2388.23
204.053	2392.51
204.127	2383.56
204.202	2381.52
204.277	2368.95
204.351	2362.24
204.426	2355.53
204.5	2351.38
204.575	2315.6
204.65	2323.12
204.724	2315.65
204.799	2322.11
204.873	2314.21
204.948	2314.69
205.022	2302.36
205.097	2294.27
205.171	2306.55
205.246	2311.31
205.32	2310.07
205.395	2307.88
205.469	2297.42
205.544	2305.32
205.618	2289.71
205.693	2301.18
205.767	2289.14
205.842	2305.99
205.916	2303.28
205.991	2295.47
206.065	2294.52
206.14	2309.03
206.214	2305.46
206.289	2297.7
206.363	2310.93
206.438	2316.07
206.512	2324.87
206.586	2344.67
206.661	2351.53
206.735	2333.26
206.81	2334.97
206.884	2351.44
206.958	2339.92
207.033	2354.53
207.107	2360.05
207.181	2389.53
207.256	2382.91
207.33	2402.47
207.405	2418
207.479	2435.71
207.553	2442.85
207.628	2429.77
207.702	2443.62
207.776	2438.71
207.851	2444.9
207.925	2458.95
207.999	2455.57
208.073	2450.1
208.148	2451.24
208.222	2442.53
208.296	2470.84
208.371	2485.28
208.445	2494.61
208.519	2522.27
208.593	2533.41
208.668	2532.89
208.742	2536.65
208.816	2539.89
208.89	2551.23
208.965	2546.75
209.039	2554.18
209.113	2569.32
209.187	2592.26
209.261	2589.59
209.336	2610.41
209.41	2632.42
209.484	2635.61
209.558	2662.67
209.632	2679.1
209.707	2691.86
209.781	2715.59
209.855	2737.99
209.929	2758.11
210.003	2770.17
210.077	2770.98
210.151	2823.34
210.226	2859.67
210.3	2891.15
210.374	2920.88
210.448	2935.23
210.522	2952.73
210.596	2976.33
210.67	2999.21
210.744	3057.97
210.818	3100.63
210.892	3133.92
210.966	3144.41
211.041	3173.46
211.115	3186.19
211.189	3229.41
211.263	3265.47
211.337	3292.04
211.411	3328.12
211.485	3350.18
211.559	3390.92
211.633	3429.03
211.707	3428.89
211.781	3474.32
211.855	3478
211.929	3507.15
212.003	3527.05
212.077	3575.95
212.151	3627.4
212.225	3680.13
212.299	3712.73
212.373	3750.85
212.447	3798.54
212.52	3873.99
212.594	3937.9
212.668	4008.2
212.742	4056.63
212.816	4115.58
212.89	4177.1
212.964	4240.92
213.038	4314.51
213.112	4395.18
213.186	4479.08
213.26	4537.08
213.333	4565.51
213.407	4650.09
213.481	4739.57
213.555	4834.87
213.629	4909.34
213.703	4980.32
213.777	5063.97
213.85	5135.83
213.924	5260.05
213.998	5353.57
214.072	5442.89
214.146	5526.6
214.219	5619.24
214.293	5714.55
214.367	5816.67
214.441	5931.17
214.515	6018.69
214.588	6101.36
214.662	6174.69
214.736	6263.52
214.81	6375.93
214.883	6494.98
214.957	6589.88
215.031	6680.28
215.105	6766.87
215.178	6869.66
215.252	6970.63
215.326	7061.39
215.4	7155.59
215.473	7222.41
215.547	7320.76
215.621	7424.18
215.694	7539.34
215.768	7636.03
215.842	7739.84
215.915	7840.51
215.989	7926.47
216.063	8036.67
216.136	8151.36
216.21	8266.33
216.284	8395.09
216.357	8511.78
216.431	8623.42
216.504	8749.51
216.578	8889.77
216.652	9018.5
216.725	9133.76
216.799	9254.7
216.873	9376.12
216.946	9503.03
217.02	9612.33
217.093	9718.67
217.167	9808.68
217.24	9897.69
217.314	9999.94
217.387	10099.01
217.461	10206.49
217.535	10333.24
217.608	10421.68
217.682	10526.57
217.755	10641.15
217.829	10731.35
217.902	10838.9
217.976	10936.67
218.049	11034.73
218.123	11122.98
218.196	11227.07
218.27	11319.93
218.343	11412.13
218.417	11509.39
218.49	11600.53
218.563	11719.53
218.637	11824.02
218.71	11945.24
218.784	12059.81
218.857	12174.29
218.931	12272.86
219.004	12371.67
219.077	12469.58
219.151	12585.21
219.224	12674.92
219.298	12765.4
219.371	12867.31
219.444	12945.06
219.518	13041.52
219.591	13123.37
219.665	13238.73
219.738	13324.53
219.811	13407.45
219.885	13513.7
219.958	13607.21
220.031	13689.98
220.105	13778.3
220.178	13865.07
220.251	13939.02
220.325	14021.21
220.398	14105.66
220.471	14191.42
220.544	14272.75
220.618	14334.01
220.691	14414.52
220.764	14493.48
220.838	14571.04
220.911	14644.69
220.984	14739.9
221.057	14818.91
221.131	14902.15
221.204	14937.05
221.277	15030.28
221.35	15129.96
221.424	15186.12
221.497	15253.94
221.57	15332.07
221.643	15395.36
221.716	15466.6
221.79	15532.69
221.863	15595.11
221.936	15652.08
222.009	15720.77
222.082	15783.96
222.155	15837.56
222.229	15896.99
222.302	15952.56
222.375	16010.59
222.448	16062.6
222.521	16119.04
222.594	16174.66
222.667	16217.9
222.74	16291.11
222.814	16330.87
222.887	16370.83
222.96	16430.16
223.033	16489.78
223.106	16536.86
223.179	16593.45
223.252	16632.58
223.325	16676.78
223.398	16729.02
223.471	16779
223.544	16820.74
223.617	16862.09
223.69	16917.37
223.763	16950.19
223.837	17010.34
223.91	17051.78
223.983	17086.63
224.056	17105.86
224.129	17143.31
224.202	17188.8
224.275	17211.31
224.348	17244.75
224.42	17270.39
224.493	17293.33
224.566	17319.65
224.639	17359.98
224.712	17381.24
224.785	17411.65
224.858	17437.53
224.931	17454.44
225.004	17472.66
225.077	17506.97
225.15	17513.57
225.223	17541.24
225.296	17590.92
225.369	17594.15
225.442	17611.79
225.514	17634.44
225.587	17666.97
225.66	17699.4
225.733	17730.58
225.806	17766.25
225.879	17788.17
225.952	17806.49
226.025	17839.59
226.097	17872.41
226.17	17892.02
226.243	17899.69
226.316	17917.95
226.389	17943.25
226.461	17972.74
226.534	17997.71
226.607	18014.77
226.68	18059.54
226.753	18078.62
226.825	18081.51
226.898	18116.79
226.971	18134.76
227.044	18170.42
227.117	18193.32
227.189	18204.4
227.262	18232.88
227.335	18253.94
227.407	18265.46
227.48	18295.67
227.553	18307.82
227.626	18316.88
227.698	18331.19
227.771	18351.91
227.844	18363.23
227.916	18392.44
227.989	18395.62
228.062	18403.28
228.134	18442.84
228.207	18445.69
228.28	18453.83
228.352	18462.27
228.425	18477.11
228.498	18504.43
228.57	18501.44
228.643	18525.3
228.716	18533.92
228.788	18529.59
228.861	18532.72
228.934	18556.09
229.006	18551.18
229.079	18568.33
229.151	18569.63
229.224	18562.93
229.296	18578.74
229.369	18618.79
229.442	18628.91
229.514	18634.01
229.587	18653.53
229.659	18638.26
229.732	18660.52
229.804	18676.86
229.877	18704.13
229.949	18719.41
230.022	18735.21
230.094	18746.78
230.167	18754.15
230.239	18760.18
230.312	18761.81
230.384	18791.02
230.457	18806.2
230.529	18822.24
230.602	18817.33
230.674	18824.99
230.747	18851.16
230.819	18868.8
230.892	18840.51
230.964	18846.63
231.037	18857.66
231.109	18863.16
231.181	18870.96
231.254	18864.41
231.326	18861.86
231.399	18862.96
231.471	18848.12
231.544	18826.63
231.616	18834.05
231.688	18827.11
231.761	18826.05
231.833	18829.52
231.905	18801.72
231.978	18796.8
232.05	18795.69
232.122	18803.64
232.195	18796.61
232.267	18794.92
232.339	18778.01
232.412	18782.92
232.484	18766.2
232.556	18750.39
232.629	18760.61
232.701	18758.63
232.773	18750.68
232.846	18742.1
232.918	18729.72
232.99	18728.51
233.062	18737.53
233.135	18731.31
233.207	18719.17
233.279	18718.11
233.351	18713.43
233.424	18698.11
233.496	18676.71
233.568	18686.11
233.64	18653.15
233.713	18646.4
233.785	18639.07
233.857	18647.94
233.929	18633
234.001	18637.77
234.074	18640.47
234.146	18614.45
234.218	18601.49
234.29	18589.54
234.362	18575.61
234.434	18548.24
234.507	18533.63
234.579	18503.52
234.651	18488.96
234.723	18480
234.795	18471.52
234.867	18456.34
234.939	18463.33
235.012	18447.28
235.084	18432.19
235.156	18430.56
235.228	18405.35
235.3	18385.16
235.372	18360.58
235.444	18359.72
235.516	18326.51
235.588	18319.77
235.66	18300.2
235.732	18273.7
235.804	18306.27
235.876	18298.9
235.948	18302.61
236.02	18280.83
236.092	18262.18
236.164	18245.6
236.236	18216.78
236.308	18190.37
236.38	18175.97
236.452	18143.24
236.524	18133.99
236.596	18131.44
236.668	18122.62
236.74	18113.03
236.812	18096.35
236.884	18084.35
236.956	18060.11
237.028	18027.3
237.1	17989.56
237.172	17991.49
237.244	17987.49
237.316	17934.72
237.388	17902
237.46	17871.78
237.532	17862.63
237.604	17842.77
237.675	17838.63
237.747	17835.98
237.819	17806.82
237.891	17786.29
237.963	17764.56
238.035	17739.83
238.107	17678.01
238.178	17673.14
238.25	17656.61
238.322	17654.05
238.394	17606.73
238.466	17578.1
238.538	17570.05
238.609	17557.96
238.681	17508.42
238.753	17476.13
238.825	17453.62
238.897	17434.15
238.968	17425.43
239.04	17390.97
239.112	17384.51
239.184	17336.13
239.255	17307.79
239.327	17287.31
239.399	17257.62
239.471	17233.04
239.542	17208.27
239.614	17199.64
239.686	17141.33
239.758	17119.69
239.829	17084.41
239.901	17074.24
239.973	17055.88
240.044	17033.76
240.116	17003.83
240.188	16982.87
240.259	16955.16
240.331	16926.67
240.403	16909.32
240.474	16867.39
240.546	16833.71
240.618	16794.81
240.689	16773.32
240.761	16750.86
240.833	16748.5
240.904	16718.66
240.976	16701.55
241.048	16684.88
241.119	16659.43
241.191	16642.85
241.262	16633.02
241.334	16598.61
241.405	16571.23
241.477	16532.29
241.549	16504.29
241.62	16481.78
241.692	16460.67
241.763	16453.87
241.835	16427.9
241.906	16404.95
241.978	16364.03
242.049	16355.89
242.121	16341.62
242.192	16325.43
242.264	16276.99
242.335	16232.98
242.407	16226.43
242.478	16190.28
242.55	16156.78
242.621	16118.46
242.693	16085.16
242.764	16051.13
242.836	16023.32
242.907	15990.59
242.979	15977.24
243.05	15953.58
243.122	15927.41
243.193	15899.31
243.264	15852.36
243.336	15818.23
243.407	15800.93
243.479	15804.64
243.55	15783.48
243.622	15762.47
243.693	15735.81
243.764	15734.85
243.836	15692.82
243.907	15659.03
243.978	15633.48
244.05	15615.5
244.121	15573.71
244.192	15563.21
244.264	15521.42
244.335	15499.05
244.407	15459.04
244.478	15429.25
244.549	15399.18
244.62	15369.29
244.692	15342.54
244.763	15316.85
244.834	15287.06
244.906	15242.66
244.977	15214.18
245.048	15196.39
245.119	15156.05
245.191	15121.63
245.262	15071.26
245.333	15067.4
245.405	15039.2
245.476	15018.47
245.547	14994.81
245.618	14992.3
245.689	14960.53
245.761	14937.49
245.832	14907.99
245.903	14904.04
245.974	14884.95
246.045	14863.45
246.117	14847.93
246.188	14811.92
246.259	14777.94
246.33	14753.31
246.401	14731.9
246.473	14690.11
246.544	14651.07
246.615	14639.21
246.686	14603.73
246.757	14592.06
246.828	14550.46
246.899	14542.17
246.97	14502.35
247.042	14465.86
247.113	14445.76
247.184	14447.78
247.255	14422.91
247.326	14395.1
247.397	14366.46
247.468	14343.66
247.539	14316.91
247.61	14278.54
247.681	14255.69
247.752	14243.54
247.823	14214.33
247.894	14186.56
247.965	14148.86
248.037	14124.32
248.108	14081.71
248.179	14061.99
248.25	14038.76
248.321	14025.02
248.392	13985.2
248.463	13983.08
248.534	13955.41
248.605	13931.5
248.675	13898
248.746	13868.78
248.817	13852.49
248.888	13826.27
248.959	13777.24
249.03	13763.65
249.101	13739.21
249.172	13717.9
249.243	13678.51
249.314	13662.32
249.385	13644.38
249.456	13633.87
249.527	13607.7
249.598	13589.28
249.669	13560.94
249.739	13536.01
249.81	13516.78
249.881	13478.84
249.952	13451.75
250.023	13434.49
250.094	13404.89
250.165	13372.31
250.235	13353.36
250.306	13329.3
250.377	13298.69
250.448	13284.42
250.519	13229.61
250.59	13229.52
250.66	13200.64
250.731	13196.79
250.802	13178.66
250.873	13163.28
250.944	13143.47
251.014	13112.38
251.085	13112.38
251.156	13094.59
251.227	13089.14
251.297	13083.21
251.368	13082.44
251.439	13072.41
251.51	13059.35
251.58	13025.12
251.651	12991.38
251.722	12982.03
251.792	12946.5
251.863	12926.69
251.934	12919.07
252.005	12940.81
252.075	12914.63
252.146	12911.21
252.217	12903.84
252.287	12886.43
252.358	12859.87
252.429	12850.67
252.499	12831.77
252.57	12811.76
252.641	12805.3
252.711	12780.62
252.782	12740.32
252.852	12731.07
252.923	12703.78
252.994	12683.39
253.064	12672.69
253.135	12651.1
253.205	12620.1
253.276	12619.09
253.347	12617.06
253.417	12589.63
253.488	12552.08
253.558	12524.85
253.629	12501.42
253.699	12478.52
253.77	12470.42
253.841	12450.9
253.911	12436.58
253.982	12426.85
254.052	12420.68
254.123	12404.34
254.193	12384.52
254.264	12399.71
254.334	12368.09
254.405	12340.8
254.475	12310
254.546	12295.16
254.616	12296.6
254.687	12284.45
254.757	12266.57
254.827	12239.53
254.898	12227.53
254.968	12210.37
255.039	12192.68
255.109	12174.07
255.18	12149.44
255.25	12107.46
255.321	12098.49
255.391	12068.12
255.461	12065.86
255.532	12015.53
255.602	11989.55
255.673	11952.87
255.743	11927.03
255.813	11886.26
255.884	11881.2
255.954	11875.9
256.024	11872.86
256.095	11846.44
256.165	11824.32
256.235	11816.08
256.306	11792.12
256.376	11788.27
256.446	11775.88
256.517	11759.2
256.587	11759.25
256.657	11744.79
256.728	11728.16
256.798	11711.25
256.868	11691.73
256.938	11660.88
257.009	11659.19
257.079	11648.44
257.149	11657.65
257.219	11617.5
257.29	11602.27
257.36	11565.01
257.43	11551.28
257.5	11510.02
257.571	11488.38
257.641	11472.57
257.711	11436.28
257.781	11433.1
257.852	11413.44
257.922	11385.43
257.992	11371.75
258.062	11350.73
258.132	11339.12
258.202	11323.84
258.273	11302.49
258.343	11301.38
258.413	11274.01
258.483	11252.66
258.553	11230.05
258.623	11203.3
258.693	11189.14
258.764	11196.32
258.834	11198.39
258.904	11185.62
258.974	11160.08
259.044	11140.42
259.114	11131.45
259.184	11123.74
259.254	11095.31
259.324	11066.01
259.394	11053.53
259.464	11053.62
259.535	11028.23
259.605	11004.81
259.675	10976.38
259.745	10965.29
259.815	10942.45
259.885	10928.62
259.955	10937.54
260.025	10914.16
260.095	10898.55
260.165	10887.56
260.235	10882.99
260.305	10863.81
260.375	10837.01
260.445	10848.77
260.515	10848.53
260.585	10838.65
260.655	10817.55
260.725	10822.17
260.795	10806.61
260.865	10805.84
260.934	10775.09
261.004	10768.64
261.074	10755
261.144	10762.27
261.214	10756.83
261.284	10730.18
261.354	10724.16
261.424	10695.87
261.494	10695.82
261.564	10678.24
261.634	10676.12
261.703	10645.04
261.773	10627.64
261.843	10624.7
261.913	10605.33
261.983	10577
262.053	10573
262.123	10552.72
262.192	10519.86
262.262	10521.88
262.332	10492.25
