Data from 20250625_urea_1M_1_MAYP1162681_11-05-06-178.txt Node
Date: Thu Jun 26 11:05:06 BST 2025
User: adleo
Spectrometer: MAYP116268
Trigger mode: 0
Integration Time (sec): 1.000000E0
Scans to average: 1
Electric dark correction enabled: true
Nonlinearity correction enabled: true
Boxcar width: 10
XAxis mode: Wavelengths
Number of Pixels in Spectrum: 2068
>>>>>Begin Spectral Data<<<<<
179.565	1134.73
179.642	1189.77
179.718	1229.58
179.795	1263.85
179.871	1291.56
179.948	1305.95
180.024	1326.34
180.101	1344.84
180.177	1356.84
180.254	1377.06
180.33	1398.68
180.407	1444.81
180.483	1534.65
180.56	1620.45
180.636	1700.69
180.712	1689.28
180.789	1698.5
180.865	1709.66
180.942	1716.22
181.018	1726.91
181.095	1740.31
181.171	1743.21
181.248	1741.93
181.324	1756.09
181.4	1765.55
181.477	1779.52
181.553	1793.21
181.63	1812.36
181.706	1829
181.782	1838.26
181.859	1840.49
181.935	1846.06
182.011	1846.44
182.088	1861.03
182.164	1877.25
182.24	1887.04
182.317	1896.3
182.393	1893.69
182.469	1905.91
182.546	1922.07
182.622	1925.78
182.698	1923.07
182.775	1936.52
182.851	1947.41
182.927	1941.8
183.003	1937.23
183.08	1928.58
183.156	1935.95
183.232	1932.29
183.308	1921.26
183.385	1928.86
183.461	1942.37
183.537	1940.28
183.613	1951.92
183.69	1941.94
183.766	1933.19
183.842	1943.75
183.918	1949.36
183.995	1961.19
184.071	1965.81
184.147	1956.11
184.223	1947.17
184.299	1956.3
184.375	1944.27
184.452	1955.07
184.528	2007.77
184.604	2016.71
184.68	2030.26
184.756	2037.63
184.832	2042.82
184.908	2046.86
184.985	2048
185.061	2034.07
185.137	2043.29
185.213	2032.69
185.289	2036.06
185.365	2026.37
185.441	2022.42
185.517	2033.79
185.593	2030.13
185.669	2027.51
185.745	2040.3
185.822	2055.13
185.898	2045.43
185.974	2053.37
186.05	2044.05
186.126	2007.09
186.202	1999.34
186.278	1995.1
186.354	1988.16
186.43	1992.49
186.506	1992.11
186.582	1990.16
186.658	1996.86
186.734	1979.51
186.81	1982.55
186.886	1982.32
186.962	1996.86
187.038	1991.21
187.114	1982.83
187.19	1991.25
187.266	1982.5
187.341	1985.64
187.417	1978.27
187.493	1981.51
187.569	1985.64
187.645	1980.41
187.721	1965.53
187.797	1973.18
187.873	1976.75
187.949	1968.48
188.025	1964.91
188.101	1968
188.176	1972.75
188.252	1968.71
188.328	1975.94
188.404	1973.89
188.48	1970.66
188.556	1961.34
188.632	1964.71
188.707	1967.24
188.783	1963.81
188.859	1958.87
188.935	1944.03
189.011	1948.64
189.086	1940.37
189.162	1931.62
189.238	1927.29
189.314	1925.68
189.39	1921.26
189.465	1912.56
189.541	1928.72
189.617	1911.94
189.693	1905.57
189.768	1904.86
189.844	1925.88
189.92	1916.42
189.996	1926.36
190.071	1936.87
190.147	1937.72
190.223	1947.76
190.298	1939.77
190.374	1927.79
190.45	1938.01
190.526	1946.66
190.601	1942.62
190.677	1947.09
190.753	1974.21
190.828	1978.82
190.904	1994.7
190.98	2007.88
191.055	2020.05
191.131	2013.06
191.207	2033.93
191.282	2044.63
191.358	2037.31
191.433	2027.17
191.509	2040.72
191.585	2034.44
191.66	2035.34
191.736	2043.62
191.811	2034.01
191.887	2050.71
191.963	2073.73
192.038	2081.38
192.114	2080.24
192.189	2085.28
192.265	2080.43
192.34	2059.12
192.416	2058.5
192.491	2053.93
192.567	2058.36
192.642	2059.83
192.718	2060.07
192.793	2052.36
192.869	2046.13
192.944	2050.93
193.02	2055.03
193.095	2059.83
193.171	2066.58
193.246	2068.15
193.322	2062.68
193.397	2063.02
193.473	2052.5
193.548	2035.61
193.624	2040.18
193.699	2041.09
193.775	2058.31
193.85	2060.54
193.925	2066.2
194.001	2066.77
194.076	2060.02
194.152	2047.84
194.227	2040.09
194.302	2032.62
194.378	2032.01
194.453	2032.53
194.529	2042.23
194.604	2028.82
194.679	2022.16
194.755	2007
194.83	2018.32
194.905	2018.22
194.981	2023.6
195.056	2013.57
195.131	2019.61
195.207	2017.27
195.282	2007.62
195.357	1987.74
195.433	2002.86
195.508	1993.44
195.583	2000.1
195.659	2015.18
195.734	2023.41
195.809	2025.12
195.884	2028.73
195.96	2029.59
196.035	2042.62
196.11	2041.05
196.185	2053.98
196.261	2057.03
196.336	2084.8
196.411	2069.01
196.486	2075.81
196.561	2069.63
196.637	2079.14
196.712	2093.79
196.787	2095.6
196.862	2109.39
196.937	2118.52
197.013	2121.8
197.088	2133.03
197.163	2154.35
197.238	2168.3
197.313	2167.77
197.388	2179.38
197.464	2210.79
197.539	2223.06
197.614	2215.69
197.689	2225.82
197.764	2241.34
197.839	2261.04
197.914	2253.42
197.989	2279.55
198.065	2292.06
198.14	2342.25
198.215	2366.62
198.29	2378.48
198.365	2391.04
198.44	2403.89
198.515	2428.27
198.59	2444.12
198.665	2467.11
198.74	2472.11
198.815	2474.35
198.89	2493.92
198.965	2523.92
199.04	2520.07
199.115	2531.11
199.19	2574.25
199.265	2577.15
199.34	2584.68
199.415	2616.84
199.49	2640.21
199.565	2644.88
199.64	2667.89
199.715	2664.5
199.79	2674.22
199.865	2680.46
199.94	2680.84
200.015	2710.05
200.09	2717.63
200.165	2725.11
200.24	2734.45
200.315	2772.54
200.39	2787.93
200.464	2794.46
200.539	2795.22
200.614	2811.85
200.689	2835.77
200.764	2839.39
200.839	2856.3
200.914	2860.35
200.989	2848.91
201.063	2859.53
201.138	2844.35
201.213	2844.73
201.288	2826.86
201.363	2829.24
201.438	2827.14
201.512	2839.43
201.587	2821.47
201.662	2828.04
201.737	2840.63
201.812	2846.54
201.886	2815.87
201.961	2824.65
202.036	2813.6
202.111	2810.12
202.186	2781.3
202.26	2763.1
202.335	2746.04
202.41	2744.18
202.485	2729.75
202.559	2713.6
202.634	2687.26
202.709	2694.4
202.784	2673.68
202.858	2672.39
202.933	2651.96
203.008	2647.72
203.082	2631.81
203.157	2633.76
203.232	2591.95
203.306	2568.84
203.381	2539.07
203.456	2517.73
203.53	2495.09
203.605	2475.77
203.68	2452.62
203.754	2448.24
203.829	2436.34
203.904	2416.39
203.978	2402.96
204.053	2406.44
204.127	2395.11
204.202	2395.2
204.277	2384.16
204.351	2377.83
204.426	2370.45
204.5	2364.26
204.575	2328.67
204.65	2336.52
204.724	2324.43
204.799	2331.13
204.873	2326.28
204.948	2323.76
205.022	2310.86
205.097	2301.72
205.171	2317.18
205.246	2325.75
205.32	2326.37
205.395	2324.94
205.469	2315.57
205.544	2318.62
205.618	2301.82
205.693	2312.53
205.767	2300.68
205.842	2316.77
205.916	2313.63
205.991	2306.02
206.065	2312.49
206.14	2329.9
206.214	2326.94
206.289	2323.75
206.363	2332.94
206.438	2341.18
206.512	2349.41
206.586	2371.45
206.661	2381.69
206.735	2360.99
206.81	2360.42
206.884	2369.7
206.958	2356.38
207.033	2371.22
207.107	2379.32
207.181	2411.6
207.256	2405.08
207.33	2425.64
207.405	2437.93
207.479	2455.64
207.553	2460.92
207.628	2445.22
207.702	2456.55
207.776	2449.93
207.851	2456.45
207.925	2473.07
207.999	2464.55
208.073	2460.7
208.148	2460.84
208.222	2446.93
208.296	2476.39
208.371	2493.92
208.445	2505.26
208.519	2538.06
208.593	2553.58
208.668	2553.06
208.742	2553.77
208.816	2555.29
208.89	2568.54
208.965	2567.35
209.039	2573.92
209.113	2591.45
209.187	2613.53
209.261	2611.05
209.336	2629.01
209.41	2644.59
209.484	2648.45
209.558	2673.46
209.632	2686.08
209.707	2698.7
209.781	2723.28
209.855	2742.2
209.929	2761.47
210.003	2773.47
210.077	2773
210.151	2819.98
210.226	2855.74
210.3	2888.56
210.374	2916.24
210.448	2924.77
210.522	2942.98
210.596	2963.58
210.67	2985.17
210.744	3038.59
210.818	3077.05
210.892	3110.43
210.966	3116.25
211.041	3141.76
211.115	3152.44
211.189	3196.56
211.263	3233.29
211.337	3254.37
211.411	3286.82
211.485	3298.37
211.559	3332
211.633	3358.03
211.707	3354.88
211.781	3386.88
211.855	3380.87
211.929	3404.77
212.003	3417.93
212.077	3459.62
212.151	3503.17
212.225	3544.24
212.299	3565.93
212.373	3597.73
212.447	3635.04
212.52	3708.5
212.594	3755.27
212.668	3814.32
212.742	3846.43
212.816	3886.67
212.89	3935.59
212.964	3986.42
213.038	4046.9
213.112	4116.48
213.186	4190.81
213.26	4228.85
213.333	4245.39
213.407	4311.65
213.481	4380.12
213.555	4456.21
213.629	4514.22
213.703	4568.21
213.777	4639.53
213.85	4699.03
213.924	4806.17
213.998	4881.6
214.072	4950.83
214.146	5015.73
214.219	5093.77
214.293	5169.83
214.367	5257.24
214.441	5356.06
214.515	5428.87
214.588	5495.7
214.662	5545.27
214.736	5613.92
214.81	5710.68
214.883	5810.28
214.957	5891.11
215.031	5968.75
215.105	6046.14
215.178	6124.93
215.252	6218.94
215.326	6283.97
215.4	6356.76
215.473	6404.64
215.547	6479.84
215.621	6563.46
215.694	6671.11
215.768	6741.66
215.842	6824.99
215.915	6900.9
215.989	6968.17
216.063	7054.09
216.136	7146.65
216.21	7249.48
216.284	7353.97
216.357	7454.29
216.431	7553.28
216.504	7658.61
216.578	7778.97
216.652	7877.77
216.725	7979.49
216.799	8078.55
216.873	8189.71
216.946	8302.65
217.02	8397.9
217.093	8492.92
217.167	8565.97
217.24	8637.92
217.314	8727.81
217.387	8824.2
217.461	8924.08
217.535	9029.7
217.608	9117.02
217.682	9209.46
217.755	9309.36
217.829	9392.96
217.902	9485.51
217.976	9570.55
218.049	9651.41
218.123	9724.33
218.196	9824.7
218.27	9907.16
218.343	9977.73
218.417	10063.19
218.49	10144.45
218.563	10247.02
218.637	10336.96
218.71	10452.11
218.784	10553.15
218.857	10659.43
218.931	10752.81
219.004	10835.4
219.077	10933.47
219.151	11025.17
219.224	11111.18
219.298	11194.8
219.371	11294.7
219.444	11372.24
219.518	11460.24
219.591	11551.91
219.665	11659.53
219.738	11747.11
219.811	11822.34
219.885	11915.03
219.958	12001.79
220.031	12079.39
220.105	12164.56
220.178	12249.2
220.251	12315.58
220.325	12394.54
220.398	12465.35
220.471	12539.68
220.544	12617
220.618	12676.82
220.691	12754.72
220.764	12835.75
220.838	12916.64
220.911	12979.11
220.984	13071.43
221.057	13151.59
221.131	13223.32
221.204	13267.29
221.277	13351.99
221.35	13455.97
221.424	13519.55
221.497	13587.57
221.57	13657.42
221.643	13730.55
221.716	13806.09
221.79	13871.17
221.863	13930.17
221.936	13995.78
222.009	14061.82
222.082	14139.44
222.155	14198.1
222.229	14281.64
222.302	14335.63
222.375	14395.36
222.448	14471.57
222.521	14520.88
222.594	14571.11
222.667	14622.45
222.74	14690.28
222.814	14739.06
222.887	14783.21
222.96	14851.08
223.033	14916.93
223.106	14974.24
223.179	15030.88
223.252	15076.19
223.325	15126.76
223.398	15179.83
223.471	15232.47
223.544	15282.74
223.617	15330.66
223.69	15380.21
223.763	15412.5
223.837	15470.39
223.91	15519.03
223.983	15544.38
224.056	15579.33
224.129	15629.55
224.202	15682
224.275	15724.32
224.348	15758.49
224.42	15780.42
224.493	15802.21
224.566	15826.16
224.639	15873.21
224.712	15897.4
224.785	15932.73
224.858	15977.22
224.931	16012.4
225.004	16034.29
225.077	16069.04
225.15	16071.59
225.223	16107.79
225.296	16161.48
225.369	16177.68
225.442	16204.38
225.514	16238.5
225.587	16275.76
225.66	16319.47
225.733	16353.74
225.806	16384.06
225.879	16410.42
225.952	16436.93
226.025	16485.03
226.097	16530.82
226.17	16553.32
226.243	16561.52
226.316	16589.04
226.389	16610.58
226.461	16635.16
226.534	16669.77
226.607	16692.42
226.68	16748.86
226.753	16784.71
226.825	16784.18
226.898	16831.27
226.971	16855.95
227.044	16886.79
227.117	16912.62
227.189	16931.13
227.262	16963.81
227.335	16997.45
227.407	17024
227.48	17055.91
227.553	17081.45
227.626	17095.09
227.698	17127.14
227.771	17165.07
227.844	17181.55
227.916	17208.73
227.989	17224.49
228.062	17248.01
228.134	17291.38
228.207	17311.72
228.28	17319.09
228.352	17342.9
228.425	17357.26
228.498	17384.59
228.57	17400.35
228.643	17437.98
228.716	17458.47
228.788	17468.15
228.861	17475.29
228.934	17501.84
229.006	17525.65
229.079	17532.63
229.151	17549.36
229.224	17546.71
229.296	17557.07
229.369	17594.32
229.442	17625.36
229.514	17634.85
229.587	17664.58
229.659	17666.8
229.732	17686.27
229.804	17714.95
229.877	17757.55
229.949	17778.99
230.022	17810.51
230.094	17816.82
230.167	17825.93
230.239	17822.6
230.312	17828.72
230.384	17865.45
230.457	17874.8
230.529	17892.77
230.602	17918.75
230.674	17934.89
230.747	17960.67
230.819	17994.74
230.892	17977.59
230.964	17985.2
231.037	17999.61
231.109	18003.18
231.181	18010.07
231.254	18000.09
231.326	18007.56
231.399	18004.86
231.471	18009.49
231.544	17988.43
231.616	18011.9
231.688	18010.12
231.761	18018.94
231.833	18024.72
231.905	18006.41
231.978	18014.55
232.05	18002.7
232.122	18003.03
232.195	17998.6
232.267	18014.99
232.339	18015.18
232.412	18033.59
232.484	18021.35
232.556	18022.12
232.629	18049.92
232.701	18068.04
232.773	18073.25
232.846	18066.55
232.918	18052.86
232.99	18051.22
233.062	18064.04
233.135	18060.91
233.207	18055.27
233.279	18060.62
233.351	18069.49
233.424	18062.45
233.496	18055.9
233.568	18078.45
233.64	18063.22
233.713	18069.44
233.785	18063.03
233.857	18061.49
233.929	18046.26
234.001	18061.97
234.074	18080.43
234.146	18052.82
234.218	18040.72
234.29	18039.61
234.362	18024.19
234.434	18008.43
234.507	17990.36
234.579	17969.11
234.651	17953.64
234.723	17954.84
234.795	17948.1
234.867	17937.3
234.939	17949.49
235.012	17941.2
235.084	17927.08
235.156	17920.72
235.228	17897.69
235.3	17873.78
235.372	17851.91
235.444	17857.26
235.516	17827.96
235.588	17808.58
235.66	17793.45
235.732	17782.03
235.804	17820
235.876	17825.01
235.948	17838.03
236.02	17826.32
236.092	17810.17
236.164	17797.69
236.236	17776.87
236.308	17762.65
236.38	17747.14
236.452	17721.74
236.524	17711.57
236.596	17716.44
236.668	17706.8
236.74	17695.14
236.812	17690.85
236.884	17692.87
236.956	17673.07
237.028	17651.72
237.1	17628.01
237.172	17630.03
237.244	17618.95
237.316	17564.78
237.388	17534.56
237.46	17497.6
237.532	17493.79
237.604	17480.63
237.675	17487.43
237.747	17477.02
237.819	17453.36
237.891	17436.73
237.963	17411.91
238.035	17387.38
238.107	17324.49
238.178	17329.36
238.25	17305.4
238.322	17304.15
238.394	17257.21
238.466	17234.32
238.538	17217.11
238.609	17209.11
238.681	17166.94
238.753	17139.52
238.825	17118.41
238.897	17111.67
238.968	17112.15
239.04	17080.77
239.112	17077.83
239.184	17038.94
239.255	17014.36
239.327	16995.62
239.399	16971.9
239.471	16962.31
239.542	16941.64
239.614	16945.11
239.686	16884.38
239.758	16873.88
239.829	16839.56
239.901	16839.22
239.973	16822.5
240.044	16803.17
240.116	16781.97
240.188	16763.89
240.259	16733.05
240.331	16702.11
240.403	16672.08
240.474	16628.13
240.546	16596.03
240.618	16549.18
240.689	16521.28
240.761	16497.47
240.833	16489.03
240.904	16461.08
240.976	16429.56
241.048	16409.17
241.119	16392.06
241.191	16378.76
241.262	16375.82
241.334	16344.88
241.405	16311.76
241.477	16272.24
241.549	16243.76
241.62	16215.85
241.692	16199.27
241.763	16194.6
241.835	16181
241.906	16160.52
241.978	16123.84
242.049	16123.7
242.121	16113.91
242.192	16102.78
242.264	16067.64
242.335	16017.8
242.407	16009.95
242.478	15981.36
242.55	15955.09
242.621	15915.91
242.693	15888.15
242.764	15844.53
242.836	15815.51
242.907	15793.29
242.979	15778.88
243.05	15764.37
243.122	15742.05
243.193	15707.59
243.264	15655.58
243.336	15620.3
243.407	15602.8
243.479	15603.72
243.55	15576.49
243.622	15553.25
243.693	15528.91
243.764	15520.67
243.836	15492.66
243.907	15462.35
243.978	15439.84
244.05	15421.23
244.121	15380.16
244.192	15371.29
244.264	15338.56
244.335	15316.87
244.407	15281.83
244.478	15265.83
244.549	15223.89
244.62	15192.03
244.692	15166.24
244.763	15157.71
244.834	15125.07
244.906	15090.37
244.977	15063.95
245.048	15050.65
245.119	15010.79
245.191	14971.07
245.262	14926.19
245.333	14917.95
245.405	14885.41
245.476	14861.74
245.547	14836.48
245.618	14819.51
245.689	14788.47
245.761	14770.68
245.832	14741.04
245.903	14718
245.974	14697.65
246.045	14680.98
246.117	14664.49
246.188	14626.79
246.259	14582.54
246.33	14559.35
246.401	14532.75
246.473	14494.62
246.544	14461.6
246.615	14456.92
246.686	14425.39
246.757	14415.61
246.828	14382.59
246.899	14376.18
246.97	14332.45
247.042	14299.67
247.113	14285.6
247.184	14285.45
247.255	14246.12
247.326	14224.86
247.397	14197.67
247.468	14167.01
247.539	14143.63
247.61	14109.89
247.681	14099.19
247.752	14101.6
247.823	14063.51
247.894	14040.9
247.965	14006.48
248.037	13982.72
248.108	13936.73
248.179	13915.23
248.25	13892.04
248.321	13874.5
248.392	13833.81
248.463	13835.21
248.534	13814.77
248.605	13795.1
248.675	13757.36
248.746	13744
248.817	13724.29
248.888	13711.56
248.959	13668.08
249.03	13653.08
249.101	13631.54
249.172	13604.97
249.243	13555.9
249.314	13552.19
249.385	13526.78
249.456	13517.48
249.527	13489.38
249.598	13475.44
249.669	13455.87
249.739	13432.64
249.81	13416.15
249.881	13387.51
249.952	13365.1
250.023	13339.4
250.094	13307.49
250.165	13274.95
250.235	13245.16
250.306	13231.08
250.377	13204.72
250.448	13195.7
250.519	13154.92
250.59	13141.95
250.66	13108.74
250.731	13105.22
250.802	13087.91
250.873	13072.92
250.944	13051.8
251.014	13019.31
251.085	13023.22
251.156	13004.42
251.227	12995.5
251.297	12985.04
251.368	12970.72
251.439	12952.64
251.51	12941.36
251.58	12909.55
251.651	12884.58
251.722	12880.58
251.792	12838.73
251.863	12804.51
251.934	12787.69
252.005	12794.24
252.075	12778.86
252.146	12774.33
252.217	12762.76
252.287	12747.58
252.358	12725.36
252.429	12718.46
252.499	12696.05
252.57	12672.47
252.641	12659.51
252.711	12637.28
252.782	12601.61
252.852	12603.78
252.923	12588.36
252.994	12571.1
253.064	12568.4
253.135	12538.03
253.205	12510.55
253.276	12510.02
253.347	12510.55
253.417	12493.73
253.488	12465.24
253.558	12433.96
253.629	12412.6
253.699	12395.92
253.77	12382.72
253.841	12362.23
253.911	12345.65
253.982	12328.87
254.052	12311.18
254.123	12298.22
254.193	12278.36
254.264	12295.18
254.334	12264.42
254.405	12225.62
254.475	12199.79
254.546	12179.44
254.616	12174.53
254.687	12160.6
254.757	12142.62
254.827	12120.93
254.898	12100.92
254.968	12082.46
255.039	12064
255.109	12058.55
255.18	12030.98
255.25	11990.88
255.321	11980.71
255.391	11953.67
255.461	11960.08
255.532	11926.87
255.602	11896.12
255.673	11857.27
255.743	11828.83
255.813	11788
255.884	11789.21
255.954	11777.35
256.024	11769.69
256.095	11754.6
256.165	11724.67
256.235	11714.07
256.306	11691.17
256.376	11684.28
256.446	11673.48
256.517	11660.28
256.587	11655.6
256.657	11638.54
256.728	11625.67
256.798	11601.76
256.868	11577.95
256.938	11547.35
257.009	11539.68
257.079	11539.01
257.149	11547.73
257.219	11510.19
257.29	11504.16
257.36	11464.64
257.43	11453.03
257.5	11415.44
257.571	11402.37
257.641	11391.87
257.711	11362.57
257.781	11352.4
257.852	11339.91
257.922	11304.68
257.992	11279.96
258.062	11250.56
258.132	11240.97
258.202	11226.42
258.273	11218.8
258.343	11213.02
258.413	11186.17
258.483	11158.9
258.553	11122.08
258.623	11099.96
258.693	11082.9
258.764	11080.97
258.834	11082.66
258.904	11073.07
258.974	11049.7
259.044	11028.97
259.114	11017.84
259.184	11001.07
259.254	10982.23
259.324	10942.18
259.394	10933.32
259.464	10938.91
259.535	10920.5
259.605	10894.67
259.675	10863.78
259.745	10847.01
259.815	10822.05
259.885	10800.46
259.955	10822.68
260.025	10808.23
260.095	10788.57
260.165	10778.74
260.235	10773.24
260.305	10756.14
260.375	10722.89
260.445	10735.17
260.515	10735.61
260.585	10732.81
260.655	10721.68
260.725	10715.85
260.795	10709.92
260.865	10718.84
260.934	10690.41
261.004	10679.47
261.074	10669.06
261.144	10673.78
261.214	10673.5
261.284	10659.38
261.354	10662.08
261.424	10633.21
261.494	10632.53
261.564	10611.38
261.634	10605.75
261.703	10570.38
261.773	10556.12
261.843	10552.89
261.913	10533.57
261.983	10500.27
262.053	10487.75
262.123	10466.64
262.192	10441.45
262.262	10433.74
262.332	10397.75
262.402	10391.58
