Data from 20250625_urea_1M_1_MAYP1162681_09-35-05-608.txt Node
Date: Thu Jun 26 09:35:05 BST 2025
User: adleo
Spectrometer: MAYP116268
Trigger mode: 0
Integration Time (sec): 1.000000E0
Scans to average: 1
Electric dark correction enabled: true
Nonlinearity correction enabled: true
Boxcar width: 10
XAxis mode: Wavelengths
Number of Pixels in Spectrum: 2068
>>>>>Begin Spectral Data<<<<<
179.565	1138.21
179.642	1187.11
179.718	1225.18
179.795	1262.38
179.871	1288.83
179.948	1305.37
180.024	1324.07
180.101	1345.67
180.177	1358.97
180.254	1379.82
180.33	1401.34
180.407	1448.95
180.483	1538.88
180.56	1624.35
180.636	1704.2
180.712	1690.47
180.789	1699.02
180.865	1710.42
180.942	1716.98
181.018	1726.29
181.095	1738.84
181.171	1743.07
181.248	1745.68
181.324	1760.08
181.4	1767.78
181.477	1780.52
181.553	1793.73
181.63	1815.78
181.706	1830.18
181.782	1839.12
181.859	1838.45
181.935	1841.92
182.011	1841.68
182.088	1856.8
182.164	1872.59
182.24	1883.99
182.317	1893.35
182.393	1888.17
182.469	1902.63
182.546	1914.79
182.622	1920.88
182.698	1917.5
182.775	1928.49
182.851	1942.08
182.927	1935.71
183.003	1930.96
183.08	1924.78
183.156	1930.67
183.232	1926.92
183.308	1915.18
183.385	1921.73
183.461	1938.9
183.537	1941.32
183.613	1952.54
183.69	1944.56
183.766	1933.43
183.842	1940.28
183.918	1947.36
183.995	1960.05
184.071	1962.76
184.147	1956.34
184.223	1943.37
184.299	1952.21
184.375	1943.56
184.452	1947.79
184.528	2000.59
184.604	2009.43
184.68	2022.31
184.756	2029.88
184.832	2032.73
184.908	2037.63
184.985	2039.29
185.061	2023.5
185.137	2033.4
185.213	2019.94
185.289	2022.51
185.365	2019.99
185.441	2018.99
185.517	2031.74
185.593	2031.45
185.669	2028.55
185.745	2040.87
185.822	2055.32
185.898	2048.14
185.974	2055.41
186.05	2047.61
186.126	2009.8
186.202	2001.95
186.278	1999.24
186.354	1990.49
186.43	1997.53
186.506	1995.49
186.582	1993.21
186.658	2001.19
186.734	1979.84
186.81	1983.46
186.886	1986.74
186.962	1994.58
187.038	1991.35
187.114	1981.6
187.19	1986.59
187.266	1976.89
187.341	1975.7
187.417	1970.76
187.493	1972.94
187.569	1974.18
187.645	1968.48
187.721	1958.3
187.797	1966.43
187.873	1967.05
187.949	1964.19
188.025	1955.39
188.101	1960.76
188.176	1965.04
188.252	1961.29
188.328	1970.6
188.404	1968.51
188.48	1962.09
188.556	1954.34
188.632	1955.86
188.707	1957.62
188.783	1954.06
188.859	1949.64
188.935	1944.03
189.011	1950.68
189.086	1946.69
189.162	1938.94
189.238	1938.13
189.314	1932.81
189.39	1928.15
189.465	1924.11
189.541	1938.8
189.617	1928.1
189.693	1925.01
189.768	1928.91
189.844	1949.18
189.92	1939.34
189.996	1947.32
190.071	1955.36
190.147	1958.4
190.223	1965.82
190.298	1960.21
190.374	1948.61
190.45	1960.64
190.526	1965.39
190.601	1961.11
190.677	1958.21
190.753	1986.28
190.828	1992.32
190.904	2008.01
190.98	2022.42
191.055	2030.7
191.131	2020.33
191.207	2036.11
191.282	2043.34
191.358	2033.4
191.433	2021.6
191.509	2034.67
191.585	2032.15
191.66	2037.58
191.736	2040.71
191.811	2033.25
191.887	2046.9
191.963	2068.82
192.038	2071.2
192.114	2072.44
192.189	2076.48
192.265	2073.49
192.34	2051.03
192.416	2048.37
192.491	2044.8
192.567	2048.94
192.642	2051.93
192.718	2052.7
192.793	2043.28
192.869	2040
192.944	2042.76
193.02	2050.03
193.095	2054.88
193.171	2061.16
193.246	2058.59
193.322	2059.92
193.397	2059.02
193.473	2046.08
193.548	2031.72
193.624	2037.8
193.699	2034.67
193.775	2048.13
193.85	2052.36
193.925	2064.35
194.001	2061.83
194.076	2056.74
194.152	2044.75
194.227	2035.9
194.302	2026.73
194.378	2031.15
194.453	2027.92
194.529	2039.47
194.604	2023.68
194.679	2017.55
194.755	1999.34
194.83	2009.95
194.905	2007.86
194.981	2015.47
195.056	2008.62
195.131	2011.86
195.207	2011.71
195.282	2003.87
195.357	1986.13
195.433	2002.1
195.508	1988.31
195.583	1996.3
195.659	2010.62
195.734	2017.18
195.809	2018.09
195.884	2025.17
195.96	2024.12
196.035	2039.82
196.11	2037.63
196.185	2049.71
196.261	2052.13
196.336	2084.42
196.411	2069.72
196.486	2072.48
196.561	2067.01
196.637	2077.05
196.712	2095.65
196.787	2098.17
196.862	2112.06
196.937	2120.33
197.013	2121.81
197.088	2131.89
197.163	2151.64
197.238	2163.82
197.313	2164.54
197.388	2176.91
197.464	2207.36
197.539	2216.45
197.614	2208.17
197.689	2220.21
197.764	2235.72
197.839	2254.04
197.914	2246.33
197.989	2271.84
198.065	2287.68
198.14	2335.87
198.215	2356.53
198.29	2365.43
198.365	2378.47
198.44	2388.75
198.515	2416.65
198.59	2433.93
198.665	2459.21
198.74	2468.07
198.815	2473.69
198.89	2494.49
198.965	2523.49
199.04	2519.4
199.115	2535.49
199.19	2574.67
199.265	2577.77
199.34	2586.39
199.415	2617.98
199.49	2640.21
199.565	2649.17
199.64	2670.93
199.715	2669.07
199.79	2678.31
199.865	2686.84
199.94	2682.89
200.015	2712.81
200.09	2716.43
200.165	2721.57
200.24	2731.01
200.315	2769.73
200.39	2783.55
200.464	2786.74
200.539	2790.65
200.614	2804.65
200.689	2828.39
200.764	2836.82
200.839	2853.73
200.914	2860.21
200.989	2850.82
201.063	2865.17
201.138	2845.17
201.213	2846.65
201.288	2826.92
201.363	2832.54
201.438	2829.68
201.512	2846.59
201.587	2829.91
201.662	2837.49
201.737	2849.07
201.812	2852.88
201.886	2818.88
201.961	2827.79
202.036	2818.55
202.111	2811.98
202.186	2785.17
202.26	2768.15
202.335	2747.33
202.41	2741.8
202.485	2725.08
202.559	2708.88
202.634	2681.87
202.709	2691.91
202.784	2673.29
202.858	2672.48
202.933	2653.52
203.008	2647.85
203.082	2630.37
203.157	2630.99
203.232	2590.66
203.306	2569.74
203.381	2544.16
203.456	2522.49
203.53	2497.9
203.605	2479.15
203.68	2457.95
203.754	2452.43
203.829	2438.58
203.904	2422.01
203.978	2409.48
204.053	2415.1
204.127	2402.96
204.202	2399.49
204.277	2382.92
204.351	2374.26
204.426	2365.55
204.5	2356.65
204.575	2322.81
204.65	2331.72
204.724	2321.72
204.799	2329.57
204.873	2323.99
204.948	2318
205.022	2308.77
205.097	2301.58
205.171	2316.38
205.246	2324.42
205.32	2326.28
205.395	2325.66
205.469	2314.91
205.544	2320.29
205.618	2299.2
205.693	2309.25
205.767	2295.83
205.842	2315.25
205.916	2311.59
205.991	2304.3
206.065	2308.59
206.14	2324.33
206.214	2322.09
206.289	2317.52
206.363	2326.71
206.438	2332.8
206.512	2341.56
206.586	2358.07
206.661	2364.74
206.735	2344.95
206.81	2344.95
206.884	2356.61
206.958	2345.42
207.033	2358.32
207.107	2365.41
207.181	2401.98
207.256	2395.79
207.33	2417.54
207.405	2428.88
207.479	2446.5
207.553	2453.63
207.628	2443.07
207.702	2453.92
207.776	2443.64
207.851	2448.97
207.925	2465.59
207.999	2466.4
208.073	2462.88
208.148	2468.36
208.222	2459.74
208.296	2486.86
208.371	2506.88
208.445	2518.45
208.519	2547.54
208.593	2562.54
208.668	2559.49
208.742	2559.96
208.816	2563.77
208.89	2579.68
208.965	2579.26
209.039	2586.35
209.113	2601.74
209.187	2620.11
209.261	2617.06
209.336	2641.11
209.41	2659.93
209.484	2662.07
209.558	2680.37
209.632	2697.04
209.707	2708.85
209.781	2733.82
209.855	2753.88
209.929	2774.87
210.003	2786.54
210.077	2790.45
210.151	2842.06
210.226	2881.59
210.3	2914.36
210.374	2947.14
210.448	2958.3
210.522	2977.09
210.596	2994.63
210.67	3013.93
210.744	3073.74
210.818	3116.49
210.892	3148.5
210.966	3157.7
211.041	3185.69
211.115	3199.9
211.189	3243.79
211.263	3280.04
211.337	3306.62
211.411	3341.26
211.485	3352.72
211.559	3388.84
211.633	3414.97
211.707	3409.34
211.781	3442.35
211.855	3439.86
211.929	3458.23
212.003	3472.02
212.077	3516.82
212.151	3570.4
212.225	3619.63
212.299	3647.83
212.373	3680.69
212.447	3720.44
212.52	3797.99
212.594	3851.94
212.668	3912.52
212.742	3949.28
212.816	3997.99
212.89	4048.61
212.964	4104.03
213.038	4172.53
213.112	4242.74
213.186	4322.3
213.26	4370.2
213.333	4393.45
213.407	4466.18
213.481	4547.11
213.555	4633.38
213.629	4692.45
213.703	4755.8
213.777	4832.7
213.85	4893.42
213.924	5011.42
213.998	5097.71
214.072	5173.44
214.146	5248.97
214.219	5339.07
214.293	5421.54
214.367	5516.7
214.441	5619.5
214.515	5702.65
214.588	5770.47
214.662	5834.44
214.736	5908.98
214.81	6018.07
214.883	6125.2
214.957	6214.95
215.031	6297.28
215.105	6379.91
215.178	6472.79
215.252	6563.91
215.326	6644.53
215.4	6727.59
215.473	6781.55
215.547	6862.69
215.621	6958.28
215.694	7068.05
215.768	7147.68
215.842	7246.1
215.915	7338.16
215.989	7413.44
216.063	7503.49
216.136	7610.32
216.21	7719.12
216.284	7841.08
216.357	7945.21
216.431	8050.44
216.504	8162.71
216.578	8290.15
216.652	8404.83
216.725	8517.81
216.799	8632.06
216.873	8731.91
216.946	8846.44
217.02	8948.76
217.093	9047.86
217.167	9121.38
217.24	9200.39
217.314	9295.57
217.387	9390.66
217.461	9484.17
217.535	9598.64
217.608	9697.55
217.682	9794.99
217.755	9901.96
217.829	9990.6
217.902	10090.17
217.976	10183.62
218.049	10272.5
218.123	10358.12
218.196	10455.34
218.27	10535.08
218.343	10620.42
218.417	10723.67
218.49	10818.26
218.563	10928.22
218.637	11031.87
218.71	11150.76
218.784	11251.91
218.857	11361.02
218.931	11456.53
219.004	11548.01
219.077	11644.6
219.151	11736.26
219.224	11820.18
219.298	11907.32
219.371	12006.37
219.444	12074.82
219.518	12174.64
219.591	12269.17
219.665	12382.2
219.738	12468.15
219.811	12540.5
219.885	12627.36
219.958	12723.82
220.031	12801.57
220.105	12881.02
220.178	12957.18
220.251	13030.55
220.325	13112.36
220.398	13191.94
220.471	13270.62
220.544	13357.29
220.618	13425.7
220.691	13510.1
220.764	13593.6
220.838	13673.38
220.911	13741.16
220.984	13835.64
221.057	13907.56
221.131	13986.72
221.204	14024.9
221.277	14114.27
221.35	14230.11
221.424	14293.31
221.497	14356.79
221.57	14431.22
221.643	14505.94
221.716	14584.75
221.79	14643.03
221.863	14709.56
221.936	14770.58
222.009	14835.85
222.082	14900.2
222.155	14962.15
222.229	15037.58
222.302	15102.61
222.375	15157.8
222.448	15216.37
222.521	15273.63
222.594	15328.97
222.667	15360.78
222.74	15436.22
222.814	15488.71
222.887	15526.64
222.96	15595.09
223.033	15656.83
223.106	15704.36
223.179	15759.4
223.252	15802.11
223.325	15858.16
223.398	15907.71
223.471	15960.35
223.544	16005.9
223.617	16054.48
223.69	16102.2
223.763	16129.91
223.837	16172.28
223.91	16224.76
223.983	16251.8
224.056	16283.23
224.129	16324.68
224.202	16383.34
224.275	16410.81
224.348	16434.14
224.42	16462.96
224.493	16475.39
224.566	16497.95
224.639	16540.75
224.712	16564.65
224.785	16599.4
224.858	16632.46
224.931	16664.18
225.004	16676.03
225.077	16716.37
225.15	16724.66
225.223	16748.66
225.296	16800.14
225.369	16813.1
225.442	16831.13
225.514	16870.74
225.587	16902.99
225.66	16940.53
225.733	16977.11
225.806	17011.28
225.879	17039.76
225.952	17058.85
226.025	17113.88
226.097	17152.29
226.17	17178.17
226.243	17191.47
226.316	17217.45
226.389	17238.17
226.461	17267.04
226.534	17308.87
226.607	17324.92
226.68	17364.54
226.753	17387.43
226.825	17395.24
226.898	17440.78
226.971	17462.95
227.044	17488.06
227.117	17521.89
227.189	17539.09
227.262	17559.67
227.335	17585.26
227.407	17604.01
227.48	17632.3
227.553	17643.96
227.626	17660.1
227.698	17674.46
227.771	17699.48
227.844	17714.8
227.916	17736.78
227.989	17743.28
228.062	17754.32
228.134	17803.57
228.207	17819.96
228.28	17832.49
228.352	17844.1
228.425	17857.35
228.498	17883.09
228.57	17886.27
228.643	17907.42
228.716	17920.05
228.788	17922.46
228.861	17928.24
228.934	17958.79
229.006	17974.12
229.079	17984.77
229.151	17990.12
229.224	17994.02
229.296	18015.56
229.369	18048.96
229.442	18078.93
229.514	18087.95
229.587	18117.87
229.659	18097.44
229.732	18117.25
229.804	18142.11
229.877	18177.82
229.949	18194.54
230.022	18226.01
230.094	18237.34
230.167	18247.41
230.239	18254.78
230.312	18269
230.384	18303.26
230.457	18306.39
230.529	18315.4
230.602	18323.21
230.674	18341.48
230.747	18357.72
230.819	18369.91
230.892	18346.44
230.964	18353.72
231.037	18366.39
231.109	18366.97
231.181	18390.24
231.254	18381.14
231.326	18381.96
231.399	18380.8
231.471	18374.97
231.544	18353.72
231.616	18378.87
231.688	18388.51
231.761	18392.17
231.833	18392.51
231.905	18363.98
231.978	18372.61
232.05	18370.1
232.122	18385.28
232.195	18383.45
232.267	18405.71
232.339	18403.16
232.412	18414.2
232.484	18404.75
232.556	18390.63
232.629	18408.8
232.701	18410.39
232.773	18412.56
232.846	18411.4
232.918	18407.69
232.99	18411.16
233.062	18421.13
233.135	18414.77
233.207	18395.21
233.279	18394.77
233.351	18395.4
233.424	18390.39
233.496	18368.08
233.568	18384.65
233.64	18355.79
233.713	18344.27
233.785	18331.65
233.857	18328.66
233.929	18310.25
234.001	18316.27
234.074	18321.53
234.146	18296.03
234.218	18281.91
234.29	18281.67
234.362	18270.68
234.434	18242.49
234.507	18222.21
234.579	18185.97
234.651	18167.36
234.723	18159.75
234.795	18142.26
234.867	18130.31
234.939	18136.23
235.012	18131.99
235.084	18123.85
235.156	18126.4
235.228	18110.31
235.3	18092.09
235.372	18077.01
235.444	18085.34
235.516	18058.55
235.588	18054.55
235.66	18035.42
235.732	18018.65
235.804	18046.21
235.876	18034.69
235.948	18043.66
236.02	18030.55
236.092	18031.9
236.164	18014.17
236.236	17996.77
236.308	17980.48
236.38	17970.41
236.452	17946.22
236.524	17929.69
236.596	17933.35
236.668	17927.32
236.74	17912.19
236.812	17895.33
236.884	17885.01
236.956	17868.53
237.028	17833.69
237.1	17801.21
237.172	17804.87
237.244	17797.74
237.316	17749.11
237.388	17729.31
237.46	17700.78
237.532	17696.49
237.604	17662.42
237.675	17661.26
237.747	17659.67
237.819	17641.84
237.891	17621.84
237.963	17594.99
238.035	17570.61
238.107	17498.75
238.178	17478.8
238.25	17453.02
238.322	17463.28
238.394	17433.4
238.466	17407.91
238.538	17398.8
238.609	17398.66
238.681	17354.99
238.753	17325.98
238.825	17302.32
238.897	17277.65
238.968	17267.24
239.04	17231.28
239.112	17235.91
239.184	17201.69
239.255	17165.26
239.327	17142.22
239.399	17121.93
239.471	17109.55
239.542	17093.11
239.614	17088.87
239.686	17048.24
239.758	17037.4
239.829	16996.97
239.901	16971.33
239.973	16946.26
240.044	16922.65
240.116	16892.58
240.188	16866.65
240.259	16843.95
240.331	16818.4
240.403	16794.5
240.474	16758.26
240.546	16732.04
240.618	16694.73
240.689	16664.61
240.761	16644.8
240.833	16635.02
240.904	16608.03
240.976	16579.21
241.048	16555.83
241.119	16545.42
241.191	16524.6
241.262	16513.71
241.334	16481.37
241.405	16465.32
241.477	16433.7
241.549	16411.68
241.62	16382.71
241.692	16369.07
241.763	16354.42
241.835	16328.2
241.906	16307.38
241.978	16268.68
242.049	16256.24
242.121	16231.8
242.192	16219.27
242.264	16173.53
242.335	16125.09
242.407	16100.94
242.478	16073.28
242.55	16053.42
242.621	16015.3
242.693	15986.86
242.764	15957.12
242.836	15926.61
242.907	15901.6
242.979	15876.97
243.05	15855.52
243.122	15839.85
243.193	15808.86
243.264	15760.56
243.336	15728.85
243.407	15713.95
243.479	15702.82
243.55	15685.13
243.622	15665.71
243.693	15635.77
243.764	15629.36
243.836	15589.4
243.907	15562.22
243.978	15538.65
244.05	15516.86
244.121	15481.24
244.192	15464.42
244.264	15420.46
244.335	15406.29
244.407	15366.76
244.478	15352.45
244.549	15322.17
244.62	15278.94
244.692	15251.9
244.763	15234.01
244.834	15201.57
244.906	15165.32
244.977	15146.04
245.048	15132.74
245.119	15097.5
245.191	15067.47
245.262	15022.64
245.333	15026.6
245.405	14997.63
245.476	14978.63
245.547	14950.63
245.618	14930.53
245.689	14903.77
245.761	14883.19
245.832	14845.83
245.903	14827.23
245.974	14795.94
246.045	14766.44
246.117	14756.17
246.188	14716.45
246.259	14681.65
246.33	14653.59
246.401	14632.1
246.473	14590.59
246.544	14555.74
246.615	14540.12
246.686	14509.51
246.757	14498.57
246.828	14456.92
246.899	14448.72
246.97	14392.37
247.042	14358.77
247.113	14338.53
247.184	14339.25
247.255	14310.04
247.326	14292.06
247.397	14268.1
247.468	14252.48
247.539	14229.92
247.61	14197.38
247.681	14188.08
247.752	14179.74
247.823	14148.6
247.894	14125.41
247.965	14092.39
248.037	14058.31
248.108	14011.84
248.179	13985.95
248.25	13951.92
248.321	13935.48
248.392	13893.34
248.463	13901.97
248.534	13876.76
248.605	13854.2
248.675	13813.95
248.746	13799.49
248.817	13779.82
248.888	13759.77
248.959	13715.32
249.03	13701.34
249.101	13673.81
249.172	13644.02
249.243	13597.6
249.314	13584.92
249.385	13564.43
249.456	13547.17
249.527	13525.92
249.598	13521.38
249.669	13504.32
249.739	13492.27
249.81	13478.48
249.881	13442.61
249.952	13415.86
250.023	13393.25
250.094	13366.69
250.165	13337.91
250.235	13315.54
250.306	13297.51
250.377	13264.83
250.448	13250.75
250.519	13209.25
250.59	13203.17
250.66	13180.71
250.731	13170.1
250.802	13153.62
250.873	13127.73
250.944	13112.4
251.014	13080.15
251.085	13075.57
251.156	13052
251.227	13041.05
251.297	13033.73
251.368	13029.24
251.439	13020.28
251.51	13011.02
251.58	12973.86
251.651	12956.69
251.722	12948.07
251.792	12901.79
251.863	12874.79
251.934	12863.46
252.005	12869.88
252.075	12848.38
252.146	12837.58
252.217	12834.64
252.287	12826.49
252.358	12809.81
252.429	12803.59
252.499	12780.79
252.57	12765.8
252.641	12758.33
252.711	12736.59
252.782	12698.99
252.852	12695.08
252.923	12667.94
252.994	12643.55
253.064	12643.98
253.135	12602.48
253.205	12567.68
253.276	12569.36
253.347	12572.69
253.417	12544.68
253.488	12515.33
253.558	12490.89
253.629	12467.27
253.699	12447.6
253.77	12431.07
253.841	12402.96
253.911	12387.59
253.982	12372.16
254.052	12352.44
254.123	12332.78
254.193	12315.71
254.264	12331.57
254.334	12302.22
254.405	12274.84
254.475	12251.65
254.546	12226.73
254.616	12232.37
254.687	12220.75
254.757	12207.5
254.827	12180.22
254.898	12168.16
254.968	12151.82
255.039	12131.77
255.109	12124.49
255.18	12100.44
255.25	12060.53
255.321	12054.41
255.391	12018.69
255.461	12024.76
255.532	11980.95
255.602	11965.14
255.673	11928.8
255.743	11898.52
255.813	11857.17
255.884	11852.45
255.954	11838.71
256.024	11838.28
256.095	11816.92
256.165	11791.67
256.235	11776.87
256.306	11753.35
256.376	11753.83
256.446	11739.51
256.517	11715.95
256.587	11709.39
256.657	11697.24
256.728	11682.21
256.798	11662.54
256.868	11645.43
256.938	11612.22
257.009	11607.5
257.079	11594.77
257.149	11604.03
257.219	11567.83
257.29	11562.53
257.36	11525.18
257.43	11521.76
257.5	11482.77
257.571	11456.02
257.641	11441.66
257.711	11411
257.781	11406.18
257.852	11387.05
257.922	11355.53
257.992	11343.62
258.062	11320.1
258.132	11304.54
258.202	11288.3
258.273	11271.62
258.343	11272.49
258.413	11247.77
258.483	11230.08
258.553	11203.67
258.623	11171.14
258.693	11155.67
258.764	11150.41
258.834	11146.46
258.904	11129.16
258.974	11101.5
259.044	11083.33
259.114	11076.78
259.184	11070.76
259.254	11047
259.324	11006.37
259.394	10988.98
259.464	10994.9
259.535	10971.29
259.605	10946.47
259.675	10921.27
259.745	10912.84
259.815	10886.62
259.885	10867.4
259.955	10875.59
260.025	10850.77
260.095	10837.09
260.165	10828.17
260.235	10823.31
260.305	10806.34
260.375	10771.7
260.445	10783.7
260.515	10789.62
260.585	10778.01
260.655	10756.13
260.725	10753.96
260.795	10753.24
260.865	10763.26
260.934	10731.41
261.004	10727.8
261.074	10719.46
261.144	10721.87
261.214	10718.45
261.284	10702.45
261.354	10693.3
261.424	10667.08
261.494	10668.09
261.564	10662.31
261.634	10655.52
261.703	10629.21
261.773	10622.13
261.843	10621.69
261.913	10601.99
261.983	10569.9
262.053	10561.27
262.123	10549.27
262.192	10522
262.262	10512.99
262.332	10483.65
