Data from 20250625_urea_1M_1_MAYP1162681_03-35-06-349.txt Node
Date: Thu Jun 26 03:35:06 BST 2025
User: adleo
Spectrometer: MAYP116268
Trigger mode: 0
Integration Time (sec): 1.000000E0
Scans to average: 1
Electric dark correction enabled: true
Nonlinearity correction enabled: true
Boxcar width: 10
XAxis mode: Wavelengths
Number of Pixels in Spectrum: 2068
>>>>>Begin Spectral Data<<<<<
179.565	1096.84
179.642	1150.7
179.718	1191.59
179.795	1227.49
179.871	1255.81
179.948	1273.99
180.024	1291.9
180.101	1312.59
180.177	1322.28
180.254	1345.17
180.33	1363.31
180.407	1410.92
180.483	1499.24
180.56	1582.66
180.636	1658.19
180.712	1647.74
180.789	1653.77
180.865	1667.07
180.942	1675.57
181.018	1687.59
181.095	1701.56
181.171	1706.03
181.248	1707.46
181.324	1721.38
181.4	1728.23
181.477	1740.44
181.553	1751.41
181.63	1772.89
181.706	1787.53
181.782	1801.12
181.859	1800.98
181.935	1808.68
182.011	1803.54
182.088	1819.04
182.164	1835.49
182.24	1850.08
182.317	1860.39
182.393	1859.3
182.469	1869.94
182.546	1882.16
182.622	1885.77
182.698	1880.73
182.775	1892.28
182.851	1901.55
182.927	1891.95
183.003	1889.95
183.08	1884.34
183.156	1891.24
183.232	1887.43
183.308	1876.31
183.385	1880.4
183.461	1895.18
183.537	1895.14
183.613	1907.78
183.69	1897.89
183.766	1887.57
183.842	1893.37
183.918	1896.37
183.995	1907.73
184.071	1913.15
184.147	1908.73
184.223	1898.18
184.299	1909.78
184.375	1900.08
184.452	1907.07
184.528	1959.52
184.604	1968.98
184.68	1977.64
184.756	1987.48
184.832	1992.66
184.908	2000.36
184.985	2001.22
185.061	1985.53
185.137	1993.66
185.213	1982.58
185.289	1985.82
185.365	1980.06
185.441	1978.07
185.517	1988.96
185.593	1987.06
185.669	1982.49
185.745	1993.14
185.822	2009.16
185.898	2002.45
185.974	2010.82
186.05	2006.35
186.126	1972.25
186.202	1962.89
186.278	1960.04
186.354	1948.81
186.43	1953.57
186.506	1951.72
186.582	1949.05
186.658	1954.9
186.734	1938.17
186.81	1940.21
186.886	1941.21
186.962	1952.52
187.038	1949.91
187.114	1945.06
187.19	1953.14
187.266	1947.72
187.341	1947.34
187.417	1941.45
187.493	1937.64
187.569	1940.78
187.645	1934.31
187.721	1921.09
187.797	1928.51
187.873	1932.6
187.949	1929.41
188.025	1924.66
188.101	1928.32
188.176	1936.3
188.252	1932.55
188.328	1940.01
188.404	1940.3
188.48	1933.83
188.556	1924.99
188.632	1926.32
188.707	1923.94
188.783	1920.04
188.859	1913.15
188.935	1901.36
189.011	1907.87
189.086	1903.79
189.162	1898.36
189.238	1895.66
189.314	1892.28
189.39	1889.81
189.465	1884.25
189.541	1897.94
189.617	1882.68
189.693	1873.79
189.768	1874.74
189.844	1896.81
189.92	1888.02
189.996	1897.62
190.071	1910.55
190.147	1914.26
190.223	1922.68
190.298	1916.4
190.374	1905.28
190.45	1914.4
190.526	1923.39
190.601	1916.73
190.677	1918.68
190.753	1940.8
190.828	1945.03
190.904	1961.24
190.98	1973.61
191.055	1984.07
191.131	1975.99
191.207	1994.91
191.282	2004.75
191.358	1994
191.433	1983.73
191.509	1997.27
191.585	1992.33
191.66	1994.14
191.736	1999.98
191.811	1992.8
191.887	2008.12
191.963	2030.42
192.038	2038.08
192.114	2038.12
192.189	2045.11
192.265	2042.74
192.34	2023.8
192.416	2023.66
192.491	2020.14
192.567	2022.61
192.642	2025.32
192.718	2022.33
192.793	2010.2
192.869	2005.69
192.944	2009.3
193.02	2017.67
193.095	2019.15
193.171	2027.56
193.246	2026.56
193.322	2023.43
193.397	2022.24
193.473	2011.72
193.548	1995.46
193.624	1998.45
193.699	1998.88
193.775	2012.3
193.85	2012.25
193.925	2019.38
194.001	2017.34
194.076	2010.54
194.152	1999.31
194.227	1991.85
194.302	1985.81
194.378	1989.09
194.453	1987.85
194.529	1999.08
194.604	1982.86
194.679	1978.53
194.755	1957
194.83	1968.89
194.905	1967.13
194.981	1975.64
195.056	1966.04
195.131	1970.56
195.207	1968.56
195.282	1957.72
195.357	1938.79
195.433	1951.91
195.508	1941.59
195.583	1949.58
195.659	1960.95
195.734	1967.94
195.809	1965.75
195.884	1974.93
195.96	1978.11
196.035	1994.71
196.11	1994.18
196.185	2006.64
196.261	2008.5
196.336	2040.69
196.411	2026.28
196.486	2030.37
196.561	2020.52
196.637	2031.65
196.712	2046.3
196.787	2051.82
196.862	2066.94
196.937	2075.78
197.013	2084.63
197.088	2094.47
197.163	2112.7
197.238	2129.69
197.313	2129.45
197.388	2145.58
197.464	2171.94
197.539	2182.07
197.614	2173.94
197.689	2181.98
197.764	2195.4
197.839	2217.28
197.914	2210.57
197.989	2232.75
198.065	2247.11
198.14	2298.63
198.215	2321.66
198.29	2332.37
198.365	2343.61
198.44	2353.93
198.515	2381.68
198.59	2393.82
198.665	2416.95
198.74	2425.24
198.815	2426.19
198.89	2451.23
198.965	2477.71
199.04	2474.95
199.115	2490.32
199.19	2529.6
199.265	2536.41
199.34	2544.07
199.415	2572.51
199.49	2594.94
199.565	2604.65
199.64	2626.13
199.715	2621.41
199.79	2627.18
199.865	2636.08
199.94	2633.85
200.015	2666.34
200.09	2671.62
200.165	2677.67
200.24	2685.25
200.315	2724.39
200.39	2740.5
200.464	2743.59
200.539	2745.07
200.614	2762.93
200.689	2784.71
200.764	2788.9
200.839	2804.62
200.914	2809.34
200.989	2799.66
201.063	2810.43
201.138	2793.53
201.213	2795.67
201.288	2779.19
201.363	2785.38
201.438	2784.95
201.512	2803.24
201.587	2784.8
201.662	2789.18
201.737	2804.29
201.812	2815.68
201.886	2782.49
201.961	2792.4
202.036	2777.88
202.111	2774.07
202.186	2740.12
202.26	2724.91
202.335	2707.52
202.41	2701.71
202.485	2689.81
202.559	2673.75
202.634	2649.36
202.709	2658.17
202.784	2639.69
202.858	2641.31
202.933	2625.73
203.008	2616.78
203.082	2597.73
203.157	2598.39
203.232	2558.17
203.306	2533.39
203.381	2499.48
203.456	2480.62
203.53	2454.31
203.605	2437.9
203.68	2417.89
203.754	2417.8
203.829	2403.13
203.904	2385.99
203.978	2373.61
204.053	2375.38
204.127	2364.67
204.202	2362.33
204.277	2345.87
204.351	2335.44
204.426	2324.78
204.5	2313.45
204.575	2282.33
204.65	2290.47
204.724	2278.57
204.799	2287.8
204.873	2287.42
204.948	2288.7
205.022	2276.85
205.097	2272.19
205.171	2288.13
205.246	2292.65
205.32	2290.42
205.395	2288.27
205.469	2276.95
205.544	2284.14
205.618	2268.01
205.693	2276.86
205.767	2265.63
205.842	2285.29
205.916	2283.58
205.991	2275.11
206.065	2282.53
206.14	2296.94
206.214	2292.85
206.289	2291.32
206.363	2301.84
206.438	2304.79
206.512	2308.89
206.586	2325.25
206.661	2332.49
206.735	2310.94
206.81	2312.27
206.884	2326.88
206.958	2313.8
207.033	2329.11
207.107	2332.78
207.181	2361.78
207.256	2356.3
207.33	2373.39
207.405	2384.91
207.479	2403.48
207.553	2410.47
207.628	2393.35
207.702	2402.58
207.776	2398.25
207.851	2400.2
207.925	2416.82
207.999	2410.44
208.073	2409.35
208.148	2410.97
208.222	2399.2
208.296	2431.33
208.371	2447.33
208.445	2457.76
208.519	2485.89
208.593	2502.65
208.668	2500.22
208.742	2506.7
208.816	2512.37
208.89	2528.56
208.965	2528.33
209.039	2539.28
209.113	2556.85
209.187	2581.65
209.261	2581.84
209.336	2601.65
209.41	2622.99
209.484	2624.9
209.558	2650.62
209.632	2665.86
209.707	2683
209.781	2710.44
209.855	2728.12
209.929	2753.21
210.003	2767.93
210.077	2774.65
210.151	2824.59
210.226	2868.31
210.3	2898.12
210.374	2932.29
210.448	2947.12
210.522	2970.39
210.596	2991.99
210.67	3020.5
210.744	3086.14
210.818	3137.05
210.892	3180.17
210.966	3198.15
211.041	3233.88
211.115	3257.92
211.189	3310.59
211.263	3356.77
211.337	3392.51
211.411	3440.77
211.485	3469.95
211.559	3519.25
211.633	3564.82
211.707	3577.05
211.781	3625.94
211.855	3646.47
211.929	3688.59
212.003	3728.88
212.077	3795.17
212.151	3866.66
212.225	3937.49
212.299	3986.81
212.373	4039.67
212.447	4103.86
212.52	4203.8
212.594	4285.98
212.668	4376.66
212.742	4443.79
212.816	4523.75
212.89	4607.15
212.964	4696.55
213.038	4788.25
213.112	4897.02
213.186	5006.57
213.26	5093.51
213.333	5157.42
213.407	5269.17
213.481	5378.82
213.555	5501.08
213.629	5600.49
213.703	5699.95
213.777	5812.06
213.85	5916.5
213.924	6068.51
213.998	6190.75
214.072	6312.9
214.146	6425.24
214.219	6559.75
214.293	6689.19
214.367	6828.3
214.441	6974.77
214.515	7097.34
214.588	7219.54
214.662	7325.28
214.736	7447.78
214.81	7589.74
214.883	7746.82
214.957	7875.86
215.031	8010.01
215.105	8127.62
215.178	8266.26
215.252	8408.14
215.326	8529.97
215.4	8657.91
215.473	8771.27
215.547	8906.78
215.621	9031.19
215.694	9185.3
215.768	9306.59
215.842	9437.02
215.915	9566.33
215.989	9685.34
216.063	9826.85
216.136	9968.27
216.21	10111.89
216.284	10268.84
216.357	10417.6
216.431	10552.6
216.504	10704.7
216.578	10873.11
216.652	11030.27
216.725	11178.07
216.799	11322.21
216.873	11464.32
216.946	11617.96
217.02	11745.49
217.093	11882.46
217.167	12012.6
217.24	12133.39
217.314	12263.14
217.387	12397.96
217.461	12521.65
217.535	12667.7
217.608	12779.73
217.682	12910.02
217.755	13050.39
217.829	13162.86
217.902	13286.36
217.976	13402.29
218.049	13516.97
218.123	13614.74
218.196	13740.74
218.27	13843.81
218.343	13950.58
218.417	14073.75
218.49	14176.96
218.563	14307.45
218.637	14421.84
218.71	14544.08
218.784	14656.5
218.857	14777.34
218.931	14889.23
219.004	15000.48
219.077	15101.9
219.151	15218.84
219.224	15315.15
219.298	15413.77
219.371	15524.63
219.444	15613.32
219.518	15716.76
219.591	15813.26
219.665	15935.83
219.738	16025.57
219.811	16114.84
219.885	16217.02
219.958	16312.93
220.031	16398.34
220.105	16492.13
220.178	16573.58
220.251	16657.2
220.325	16747.81
220.398	16825.45
220.471	16910.04
220.544	16998.95
220.618	17076.21
220.691	17154.33
220.764	17235.78
220.838	17316.7
220.911	17390.67
220.984	17483.78
221.057	17567.5
221.131	17643.69
221.204	17684.75
221.277	17767.06
221.35	17860.94
221.424	17918.53
221.497	17980.64
221.57	18051.82
221.643	18114.52
221.716	18183.72
221.79	18235.62
221.863	18294.61
221.936	18350.27
222.009	18405.78
222.082	18452.91
222.155	18505.25
222.229	18565.15
222.302	18619.8
222.375	18665.72
222.448	18717.72
222.521	18761.62
222.594	18794.25
222.667	18826.77
222.74	18886.38
222.814	18917.42
222.887	18954.77
222.96	19008.83
223.033	19064.93
223.106	19104.3
223.179	19148.39
223.252	19178.66
223.325	19217.79
223.398	19244.58
223.471	19284.67
223.544	19319.37
223.617	19354.36
223.69	19381.49
223.763	19406.4
223.837	19440.18
223.91	19469.05
223.983	19482.97
224.056	19502.88
224.129	19543.02
224.202	19595.06
224.275	19608.99
224.348	19641.09
224.42	19648.75
224.493	19648.22
224.566	19659.83
224.639	19695.49
224.712	19703.69
224.785	19723.2
224.858	19747.3
224.931	19770.33
225.004	19784.74
225.077	19803.68
225.15	19801.22
225.223	19828.88
225.296	19867.15
225.369	19862.47
225.442	19866.18
225.514	19879.34
225.587	19889.99
225.66	19906.13
225.733	19910.91
225.806	19926.95
225.879	19930.95
225.952	19943.05
226.025	19977.84
226.097	19994.61
226.17	19992.97
226.243	19981.65
226.316	19987
226.389	19988.3
226.461	20002.85
226.534	20005.46
226.607	20009.31
226.68	20033.21
226.753	20036.64
226.825	20019.05
226.898	20044.3
226.971	20058.85
227.044	20076.1
227.117	20082.13
227.189	20083.81
227.262	20096.01
227.335	20100.73
227.407	20103.24
227.48	20109.45
227.553	20116.87
227.626	20112.01
227.698	20117.98
227.771	20133.84
227.844	20122.56
227.916	20137.45
227.989	20124.63
228.062	20141.4
228.134	20163.62
228.207	20167.76
228.28	20166.41
228.352	20166.7
228.425	20162.9
228.498	20166.7
228.57	20151.09
228.643	20160.34
228.716	20155.91
228.788	20144.01
228.861	20140.54
228.934	20150.13
229.006	20151.52
229.079	20137.74
229.151	20128.49
229.224	20116.58
229.296	20118.51
229.369	20150.22
229.442	20148.49
229.514	20140.34
229.587	20133.93
229.659	20105.16
229.732	20106.13
229.804	20110.66
229.877	20133.31
229.949	20140.92
230.022	20147.67
230.094	20157.5
230.167	20158.9
230.239	20149.26
230.312	20142.42
230.384	20154.46
230.457	20145.93
230.529	20136.83
230.602	20133.79
230.674	20142.66
230.747	20143.96
230.819	20152.83
230.892	20123.19
230.964	20123.96
231.037	20116.3
231.109	20102.32
231.181	20112.25
231.254	20093.45
231.326	20077.65
231.399	20041.6
231.471	20019.05
231.544	19998.56
231.616	19998.32
231.688	19993.07
231.761	19978.76
231.833	19958.71
231.905	19925.89
231.978	19918.37
232.05	19911.39
232.122	19901.27
232.195	19880.06
232.267	19866.33
232.339	19845.17
232.412	19834.38
232.484	19812.84
232.556	19796.36
232.629	19804.93
232.701	19797.03
232.773	19783.68
232.846	19762.57
232.918	19762
232.99	19751.06
233.062	19735.64
233.135	19707.97
233.207	19674.34
233.279	19662.05
233.351	19665.28
233.424	19644.41
233.496	19620.41
233.568	19621.81
233.64	19587.45
233.713	19561.28
233.785	19553.52
233.857	19530.3
233.929	19500.56
234.001	19497.87
234.074	19503.84
234.146	19456.04
234.218	19421.58
234.29	19395.7
234.362	19366.79
234.434	19325.49
234.507	19292.96
234.579	19257.59
234.651	19236.15
234.723	19219.81
234.795	19217.83
234.867	19184.53
234.939	19185.06
235.012	19172.87
235.084	19140.25
235.156	19125.65
235.228	19099.67
235.3	19067.87
235.372	19051.58
235.444	19048.98
235.516	19007.68
235.588	18978.91
235.66	18967.05
235.732	18945.32
235.804	18982.76
235.876	18979.01
235.948	18983.82
236.02	18961.99
236.092	18943.34
236.164	18915.92
236.236	18893.76
236.308	18854.96
236.38	18837.57
236.452	18798
236.524	18760.56
236.596	18755.55
236.668	18736.27
236.74	18711.94
236.812	18703.89
236.884	18683.7
236.956	18653
237.028	18616.52
237.1	18580.91
237.172	18567.8
237.244	18556.52
237.316	18491.56
237.388	18450.27
237.46	18413.64
237.532	18411.95
237.604	18382.03
237.675	18371.57
237.747	18347.52
237.819	18311.72
237.891	18284.44
237.963	18259.91
238.035	18227.67
238.107	18155.05
238.178	18143.53
238.25	18124.26
238.322	18102.28
238.394	18055.83
238.466	18030.96
238.538	18010.67
238.609	17988.79
238.681	17945.85
238.753	17904.46
238.825	17877.81
238.897	17861.13
238.968	17846.05
239.04	17805.81
239.112	17803.21
239.184	17763.84
239.255	17736.94
239.327	17720.17
239.399	17691.21
239.471	17667.45
239.542	17651.07
239.614	17639.93
239.686	17588.18
239.758	17566.3
239.829	17524.18
239.901	17512.56
239.973	17482.92
240.044	17456.8
240.116	17433.48
240.188	17403.89
240.259	17385.43
240.331	17352.95
240.403	17323.16
240.474	17277.53
240.546	17239.07
240.618	17184.51
240.689	17161.91
240.761	17134.29
240.833	17113.52
240.904	17082.44
240.976	17056.08
241.048	17032.27
241.119	17014.92
241.191	16988.84
241.262	16976.46
241.334	16939.69
241.405	16904.41
241.477	16868.45
241.549	16836.16
241.62	16804.98
241.692	16783.92
241.763	16755.87
241.835	16720.25
241.906	16703.43
241.978	16660.01
242.049	16641.07
242.121	16626.46
242.192	16603.71
242.264	16553.11
242.335	16510.94
242.407	16486.07
242.478	16449.1
242.55	16425.1
242.621	16388.71
242.693	16362.25
242.764	16327.98
242.836	16302.97
242.907	16279.93
242.979	16257.57
243.05	16228.21
243.122	16197.12
243.193	16164.74
243.264	16115.04
243.336	16080.73
243.407	16048.19
243.479	16041.49
243.55	16016.72
243.622	15993.63
243.693	15958.93
243.764	15958.83
243.836	15920.75
243.907	15887.69
243.978	15864.55
244.05	15832.45
244.121	15786.04
244.192	15766.08
244.264	15716.29
244.335	15689.78
244.407	15641.72
244.478	15615.79
244.549	15593.33
244.62	15567.69
244.692	15532.5
244.763	15517.99
244.834	15491.72
244.906	15458.61
244.977	15432.34
245.048	15421.64
245.119	15390.45
245.191	15352.33
245.262	15295.74
245.333	15287.45
245.405	15266.86
245.476	15233.84
245.547	15206.51
245.618	15189.69
245.689	15159.37
245.761	15141.92
245.832	15117.1
245.903	15107.7
245.974	15088.22
246.045	15058.58
246.117	15043.4
246.188	15015.15
246.259	14982.32
246.33	14958.27
246.401	14929.25
246.473	14889.87
246.544	14853.28
246.615	14832.99
246.686	14802.86
246.757	14792.4
246.828	14755.52
246.899	14745.06
246.97	14710.11
247.042	14682.59
247.113	14668.03
247.184	14659.69
247.255	14629.37
247.326	14602.76
247.397	14571.48
247.468	14547.57
247.539	14517.2
247.61	14478.68
247.681	14458.25
247.752	14442.63
247.823	14404.06
247.894	14384.68
247.965	14344.24
248.037	14310.3
248.108	14270.05
248.179	14247.64
248.25	14222.62
248.321	14195.28
248.392	14158.65
248.463	14151.56
248.534	14120.28
248.605	14098.34
248.675	14068.26
248.746	14045.65
248.817	14022.51
248.888	14002.46
248.959	13959.41
249.03	13945.96
249.101	13916.32
249.172	13895.2
249.243	13850.76
249.314	13845.07
249.385	13826.56
249.456	13818.94
249.527	13798.21
249.598	13770.78
249.669	13747.93
249.739	13728.5
249.81	13709.46
249.881	13668.34
249.952	13645.06
250.023	13623.9
250.094	13587.02
250.165	13553.13
250.235	13530.04
250.306	13506.13
250.377	13471.76
250.448	13453.77
250.519	13410.82
250.59	13405.91
250.66	13369.32
250.731	13358.18
250.802	13333.35
250.873	13308.34
250.944	13284.86
251.014	13250.58
251.085	13264.08
251.156	13247.06
251.227	13238.58
251.297	13236.46
251.368	13233.37
251.439	13220.98
251.51	13206.86
251.58	13180.54
251.651	13157.3
251.722	13145.11
251.792	13113
251.863	13088.85
251.934	13079.93
252.005	13090.1
252.075	13070
252.146	13062.77
252.217	13052.79
252.287	13042.62
252.358	13014.81
252.429	13016.35
252.499	12989.79
252.57	12962.07
252.641	12953.54
252.711	12935.6
252.782	12895.3
252.852	12887.49
252.923	12861.37
252.994	12845.99
253.064	12833.5
253.135	12806.32
253.205	12782.94
253.276	12780.77
253.347	12777.83
253.417	12751.36
253.488	12722.63
253.558	12694.91
253.629	12677.17
253.699	12657.7
253.77	12648.68
253.841	12629.35
253.911	12613.16
253.982	12610.94
254.052	12596.09
254.123	12579.56
254.193	12556.37
254.264	12574.16
254.334	12539.98
254.405	12509.61
254.475	12475.53
254.546	12460.54
254.616	12458.18
254.687	12443.77
254.757	12423.76
254.827	12406.07
254.898	12385.87
254.968	12363.17
255.039	12336.8
255.109	12320.99
255.18	12297.57
255.25	12253.32
255.321	12242.33
255.391	12207.72
255.461	12201.88
255.532	12160.28
255.602	12130.49
255.673	12093.23
255.743	12070.19
255.813	12035.2
255.884	12037.8
255.954	12032.36
256.024	12037.37
256.095	12015.44
256.165	11981.12
256.235	11968.78
256.306	11945.01
256.376	11943.23
256.446	11930.17
256.517	11914.99
256.587	11911.8
256.657	11897.78
256.728	11883.17
256.798	11866.88
256.868	11845.39
256.938	11820.32
257.009	11815.26
257.079	11810.25
257.149	11817.28
257.219	11774.87
257.29	11758.29
257.36	11715.73
257.43	11706.38
257.5	11663.34
257.571	11642.8
257.641	11634.37
257.711	11605.31
257.781	11594.41
257.852	11576.82
257.922	11545.11
257.992	11532.82
258.062	11508.86
258.132	11503.32
258.202	11475.7
258.273	11456.18
258.343	11455.27
258.413	11423.6
258.483	11405.58
258.553	11374.64
258.623	11340.61
258.693	11325.04
258.764	11331.02
258.834	11332.76
258.904	11315.5
258.974	11288.66
259.044	11269.48
259.114	11260.75
259.184	11248.13
259.254	11225.81
259.324	11191.89
259.394	11183.5
259.464	11179.21
259.535	11155.55
259.605	11129.47
259.675	11116.51
259.745	11106.05
259.815	11073.91
259.885	11055.12
259.955	11055.41
260.025	11030.69
260.095	11018.16
260.165	11007.99
260.235	10997.77
260.305	10969
260.375	10939.65
260.445	10945.82
260.515	10946.69
260.585	10934.01
260.655	10916.28
260.725	10906.6
260.795	10898.4
260.865	10898.64
260.934	10877.3
261.004	10871.56
261.074	10860.53
261.144	10861.73
261.214	10856.09
261.284	10845.44
261.354	10840.24
261.424	10814.89
261.494	10819.18
261.564	10808.43
261.634	10801.88
261.703	10769.84
261.773	10762.85
261.843	10760.78
261.913	10735.67
261.983	10701.94
262.053	10695.01
262.123	10677.03
262.192	10654.63
