Data from 20250625_urea_1M_1_MAYP1162681_09-45-05-560.txt Node
Date: Thu Jun 26 09:45:05 BST 2025
User: adleo
Spectrometer: MAYP116268
Trigger mode: 0
Integration Time (sec): 1.000000E0
Scans to average: 1
Electric dark correction enabled: true
Nonlinearity correction enabled: true
Boxcar width: 10
XAxis mode: Wavelengths
Number of Pixels in Spectrum: 2068
>>>>>Begin Spectral Data<<<<<
179.565	1125.62
179.642	1178.05
179.718	1216.04
179.795	1253.24
179.871	1283.75
179.948	1299.72
180.024	1318.91
180.101	1339.97
180.177	1353.19
180.254	1374.22
180.33	1394.71
180.407	1443.84
180.483	1532.68
180.56	1617.11
180.636	1696.44
180.712	1681.61
180.789	1691.11
180.865	1705.03
180.942	1712.77
181.018	1721.99
181.095	1738.2
181.171	1743.38
181.248	1743.9
181.324	1759.97
181.4	1765.29
181.477	1774.56
181.553	1787.29
181.63	1809.06
181.706	1823.32
181.782	1831.68
181.859	1833.25
181.935	1839.24
182.011	1834.72
182.088	1849.65
182.164	1870.14
182.24	1883.16
182.317	1891.24
182.393	1886.87
182.469	1899.14
182.546	1913.25
182.622	1917.82
182.698	1913.97
182.775	1927.28
182.851	1940.45
182.927	1932.27
183.003	1929.61
183.08	1924.19
183.156	1932.79
183.232	1928.66
183.308	1918.86
183.385	1923.38
183.461	1939.69
183.537	1938.83
183.613	1952.43
183.69	1944.63
183.766	1934.17
183.842	1941.21
183.918	1947.01
183.995	1960.13
184.071	1964.07
184.147	1957.61
184.223	1949.91
184.299	1959.42
184.375	1946.34
184.452	1954.1
184.528	2008.03
184.604	2018.68
184.68	2029.05
184.756	2038.27
184.832	2041.89
184.908	2047.02
184.985	2049.63
185.061	2033.04
185.137	2044.93
185.213	2034.85
185.289	2040.13
185.365	2030.67
185.441	2027.81
185.517	2041.8
185.593	2038.75
185.669	2034.57
185.745	2045.55
185.822	2059.1
185.898	2050.11
185.974	2060.14
186.05	2049.16
186.126	2010.39
186.202	2003.26
186.278	2001.78
186.354	1988.13
186.43	1992.46
186.506	1990.66
186.582	1989.04
186.658	1994.55
186.734	1973.49
186.81	1973.21
186.886	1971.26
186.962	1982.38
187.038	1979.67
187.114	1970.59
187.19	1979
187.266	1968.93
187.341	1967.64
187.417	1958.85
187.493	1958.89
187.569	1962.32
187.645	1958.13
187.721	1949.91
187.797	1957.28
187.873	1960.13
187.949	1954.52
188.025	1949.53
188.101	1952.57
188.176	1957.13
188.252	1954.99
188.328	1963.26
188.404	1962.98
188.48	1958.98
188.556	1951.04
188.632	1951
188.707	1954.66
188.783	1950.38
188.859	1946.62
188.935	1937.3
189.011	1946.62
189.086	1942.96
189.162	1931.79
189.238	1930.22
189.314	1924.37
189.39	1919.52
189.465	1912.77
189.541	1930.84
189.617	1920
189.693	1913.68
189.768	1916.67
189.844	1937.08
189.92	1927.86
189.996	1939.22
190.071	1951.3
190.147	1951.77
190.223	1959.1
190.298	1951.63
190.374	1940.17
190.45	1952.86
190.526	1960.85
190.601	1956.95
190.677	1955.24
190.753	1984.17
190.828	1985.92
190.904	1999.19
190.98	2012.84
191.055	2024.25
191.131	2015.88
191.207	2032.53
191.282	2043.03
191.358	2034.19
191.433	2021.63
191.509	2034.75
191.585	2028.8
191.66	2028.9
191.736	2040.79
191.811	2033.89
191.887	2047.5
191.963	2071.94
192.038	2074.89
192.114	2077.13
192.189	2081.36
192.265	2081.22
192.34	2059.19
192.416	2060.9
192.491	2056.71
192.567	2059.04
192.642	2059.71
192.718	2059.28
192.793	2046.68
192.869	2041.16
192.944	2046.68
193.02	2053.24
193.095	2055.48
193.171	2063.32
193.246	2062.47
193.322	2056.19
193.397	2054.62
193.473	2043.58
193.548	2024.51
193.624	2028.46
193.699	2024.94
193.775	2037.02
193.85	2040.92
193.925	2047.15
194.001	2045.34
194.076	2040.02
194.152	2028.27
194.227	2021.42
194.302	2015.05
194.378	2020.14
194.453	2018.47
194.529	2026.46
194.604	2015.05
194.679	2011.62
194.755	1989.33
194.83	2000.98
194.905	1998.18
194.981	2008.02
195.056	1998.47
195.131	2003.94
195.207	2003.22
195.282	1995
195.357	1976.78
195.433	1988.95
195.508	1978.78
195.583	1987.62
195.659	2003.56
195.734	2011.02
195.809	2008.65
195.884	2012.97
195.96	2013.73
196.035	2030.38
196.11	2030.19
196.185	2040.98
196.261	2044.22
196.336	2077.03
196.411	2064.56
196.486	2070.37
196.561	2065.32
196.637	2075.74
196.712	2092.63
196.787	2095.86
196.862	2110.03
196.937	2120.5
197.013	2124.35
197.088	2134.76
197.163	2152.94
197.238	2166.08
197.313	2164.46
197.388	2180.3
197.464	2212.04
197.539	2222.89
197.614	2212.85
197.689	2222.99
197.764	2236.98
197.839	2253.44
197.914	2247.21
197.989	2269.86
198.065	2285.09
198.14	2330.61
198.215	2356.74
198.29	2365.69
198.365	2380.26
198.44	2389.16
198.515	2414.34
198.59	2429.86
198.665	2454.09
198.74	2463
198.815	2462.76
198.89	2485.46
198.965	2512.8
199.04	2508.66
199.115	2518.56
199.19	2563.74
199.265	2570.22
199.34	2579.84
199.415	2614.67
199.49	2636.81
199.565	2643.95
199.64	2665.15
199.715	2660.29
199.79	2664.19
199.865	2672.24
199.94	2670.77
200.015	2699.4
200.09	2709.55
200.165	2714.26
200.24	2721.98
200.315	2759.65
200.39	2778.23
200.464	2783.76
200.539	2787.67
200.614	2804.39
200.689	2832.5
200.764	2837.61
200.839	2852.18
200.914	2856.23
200.989	2846.93
201.063	2858.71
201.138	2839.8
201.213	2838.18
201.288	2823.27
201.363	2827.98
201.438	2826.75
201.512	2840.65
201.587	2827.17
201.662	2827.26
201.737	2839.03
201.812	2846.37
201.886	2814.75
201.961	2822.53
202.036	2813.24
202.111	2810.62
202.186	2781.47
202.26	2761.5
202.335	2739.53
202.41	2732.53
202.485	2716.86
202.559	2699.42
202.634	2672.98
202.709	2681.83
202.784	2663.88
202.858	2663.92
202.933	2646.97
203.008	2640.58
203.082	2622.96
203.157	2621.87
203.232	2583.87
203.306	2565.57
203.381	2535.61
203.456	2511.8
203.53	2489.69
203.605	2472.31
203.68	2445.93
203.754	2438.93
203.829	2426.84
203.904	2410.08
203.978	2398.08
204.053	2403.94
204.127	2390.65
204.202	2389.18
204.277	2375.57
204.351	2368
204.426	2359.76
204.5	2354.24
204.575	2320.88
204.65	2328.45
204.724	2320.55
204.799	2326.02
204.873	2320.97
204.948	2316.78
205.022	2306.79
205.097	2299.27
205.171	2311.83
205.246	2323.45
205.32	2326.64
205.395	2323.07
205.469	2311.55
205.544	2318.51
205.618	2301.56
205.693	2309.75
205.767	2300.94
205.842	2319.18
205.916	2317.51
205.991	2310.18
206.065	2312.42
206.14	2327.64
206.214	2322.02
206.289	2316.07
206.363	2325.06
206.438	2328.35
206.512	2340.67
206.586	2360.52
206.661	2368.76
206.735	2346.21
206.81	2346.63
206.884	2355.15
206.958	2347.11
207.033	2362.62
207.107	2367
207.181	2396.67
207.256	2393
207.33	2408.99
207.405	2422
207.479	2437.62
207.553	2443.99
207.628	2431.95
207.702	2444.81
207.776	2443
207.851	2446.19
207.925	2465
207.999	2462.67
208.073	2457.67
208.148	2459.95
208.222	2448.29
208.296	2479.93
208.371	2496.61
208.445	2510.42
208.519	2538.51
208.593	2553.22
208.668	2552.08
208.742	2555.37
208.816	2557.89
208.89	2570.99
208.965	2568.94
209.039	2578.99
209.113	2595.95
209.187	2617.6
209.261	2613.65
209.336	2631.8
209.41	2652.66
209.484	2654.43
209.558	2679.77
209.632	2696.15
209.707	2711.35
209.781	2737.46
209.855	2755.04
209.929	2771.88
210.003	2782.65
210.077	2782.74
210.151	2832.73
210.226	2870.25
210.3	2900.16
210.374	2931.51
210.448	2946.53
210.522	2966.37
210.596	2984.29
210.67	3006.08
210.744	3062.22
210.818	3104.97
210.892	3137.26
210.966	3146.65
211.041	3178.08
211.115	3186.19
211.189	3225.44
211.263	3258.79
211.337	3282.73
211.411	3315.04
211.485	3332.41
211.559	3369.67
211.633	3399.33
211.707	3395.94
211.781	3430.14
211.855	3430.33
211.929	3454.48
212.003	3467.93
212.077	3514.07
212.151	3565.98
212.225	3608.72
212.299	3636.97
212.373	3668.25
212.447	3707.9
212.52	3783.92
212.594	3834.29
212.668	3897.25
212.742	3935.34
212.816	3986.3
212.89	4035.42
212.964	4093.86
213.038	4159.72
213.112	4231.71
213.186	4309.88
213.26	4358.64
213.333	4382.41
213.407	4456.63
213.481	4529.62
213.555	4618.76
213.629	4684.64
213.703	4743.77
213.777	4820.29
213.85	4878.95
213.924	4992.19
213.998	5077.08
214.072	5155.16
214.146	5228.38
214.219	5315.22
214.293	5403.43
214.367	5493.12
214.441	5597.06
214.515	5680.6
214.588	5752.39
214.662	5810.47
214.736	5889.36
214.81	5987.56
214.883	6096.37
214.957	6184.25
215.031	6267.77
215.105	6340.03
215.178	6418.56
215.252	6518.38
215.326	6599.9
215.4	6684.45
215.473	6741.81
215.547	6827.42
215.621	6909.39
215.694	7017.42
215.768	7097.62
215.842	7185.94
215.915	7278.33
215.989	7354.57
216.063	7444.86
216.136	7547.36
216.21	7658.7
216.284	7766.94
216.357	7875.72
216.431	7972.58
216.504	8077.72
216.578	8207.42
216.652	8325.83
216.725	8434.04
216.799	8545.65
216.873	8650.55
216.946	8761.47
217.02	8865.17
217.093	8961.25
217.167	9049.73
217.24	9136.01
217.314	9236.28
217.387	9333.34
217.461	9425.94
217.535	9548.4
217.608	9638.3
217.682	9738.24
217.755	9847.57
217.829	9942.42
217.902	10038.85
217.976	10142.8
218.049	10235.24
218.123	10318.98
218.196	10415.9
218.27	10507.88
218.343	10585.84
218.417	10679.8
218.49	10768.45
218.563	10872.15
218.637	10972.72
218.71	11085.57
218.784	11184.56
218.857	11293.86
218.931	11395.4
219.004	11493.33
219.077	11581.97
219.151	11673.2
219.224	11756.92
219.298	11839.48
219.371	11933.52
219.444	12004.85
219.518	12085.98
219.591	12173.12
219.665	12278.25
219.738	12365.21
219.811	12442
219.885	12531.56
219.958	12623.63
220.031	12709.43
220.105	12788.05
220.178	12872.31
220.251	12946.55
220.325	13026.43
220.398	13103.7
220.471	13180.93
220.544	13263.99
220.618	13332.34
220.691	13414.2
220.764	13486.7
220.838	13561.23
220.911	13631.9
220.984	13733.18
221.057	13819.37
221.131	13898.09
221.204	13939.5
221.277	14031.91
221.35	14133
221.424	14198.56
221.497	14266.82
221.57	14336.76
221.643	14416.88
221.716	14491.55
221.79	14561.74
221.863	14629.08
221.936	14682.97
222.009	14742.31
222.082	14806.81
222.155	14865.62
222.229	14946.84
222.302	15017.8
222.375	15077.04
222.448	15144.86
222.521	15197.35
222.594	15247.24
222.667	15295.73
222.74	15365.87
222.814	15401.39
222.887	15446.27
222.96	15501.7
223.033	15558.72
223.106	15608.03
223.179	15663.75
223.252	15705.83
223.325	15746.85
223.398	15796.35
223.471	15847.34
223.544	15896.94
223.617	15948.47
223.69	15989.58
223.763	16014.26
223.837	16058.07
223.91	16102.9
223.983	16125.74
224.056	16153.22
224.129	16199.05
224.202	16243.25
224.275	16283.11
224.348	16322.82
224.42	16352.37
224.493	16386.3
224.566	16418.21
224.639	16465.68
224.712	16480.14
224.785	16508.33
224.858	16543.47
224.931	16570.32
225.004	16598.17
225.077	16635.62
225.15	16632.63
225.223	16673.26
225.296	16733.31
225.369	16746.9
225.442	16775
225.514	16809.56
225.587	16847.2
225.66	16873.61
225.733	16909.8
225.806	16928.36
225.879	16956.31
225.952	16972.26
226.025	17007.64
226.097	17048.89
226.17	17065.28
226.243	17082.15
226.316	17116.03
226.389	17149.71
226.461	17184.75
226.534	17212.27
226.607	17234.1
226.68	17287.21
226.753	17310.87
226.825	17308.71
226.898	17351.21
226.971	17369.38
227.044	17403.16
227.117	17430.59
227.189	17461.67
227.262	17489.57
227.335	17528.61
227.407	17544.47
227.48	17573.53
227.553	17598.73
227.626	17607.55
227.698	17635.93
227.771	17664.56
227.844	17676.66
227.916	17694.1
227.989	17695.16
228.062	17709.72
228.134	17751.35
228.207	17768.22
228.28	17770.63
228.352	17792.65
228.425	17804.94
228.498	17835.64
228.57	17839.83
228.643	17863.21
228.716	17876.17
228.788	17884.41
228.861	17886.48
228.934	17915.25
229.006	17929.04
229.079	17931.69
229.151	17934.19
229.224	17934.77
229.296	17959.3
229.369	17997.56
229.442	18017.13
229.514	18031.44
229.587	18059.3
229.659	18050.67
229.732	18073.42
229.804	18105.37
229.877	18140.98
229.949	18171.82
230.022	18202.08
230.094	18220.35
230.167	18232.3
230.239	18234.76
230.312	18243
230.384	18270.9
230.457	18283.09
230.529	18298.13
230.602	18314.9
230.674	18340.2
230.747	18368.44
230.819	18387.28
230.892	18360.54
230.964	18366.99
231.037	18370.41
231.109	18376.49
231.181	18391.38
231.254	18377.45
231.326	18379.28
231.399	18364.58
231.471	18357.74
231.544	18338.22
231.616	18345.02
231.688	18354.95
231.761	18348.58
231.833	18344.83
231.905	18334.56
231.978	18341.31
232.05	18337.4
232.122	18341.6
232.195	18341.12
232.267	18354.56
232.339	18341.6
232.412	18371.33
232.484	18370.9
232.556	18368.87
232.629	18386.12
232.701	18399.62
232.773	18403.57
232.846	18397.98
232.918	18405.5
232.99	18396.87
233.062	18409.4
233.135	18416.87
233.207	18395.43
233.279	18405.69
233.351	18405.74
233.424	18390.85
233.496	18373.06
233.568	18389.84
233.64	18362.32
233.713	18357.88
233.785	18339.24
233.857	18335.14
233.929	18296.49
234.001	18295.04
234.074	18297.45
234.146	18269.6
234.218	18249.84
234.29	18231.19
234.362	18212.83
234.434	18185.12
234.507	18172.98
234.579	18128.21
234.651	18105.41
234.723	18102.52
234.795	18098.48
234.867	18095.1
234.939	18101.56
235.012	18088.07
235.084	18070.91
235.156	18071.25
235.228	18041.71
235.3	18022.62
235.372	18011.78
235.444	18021.03
235.516	17988.7
235.588	17983.93
235.66	17970.91
235.732	17945.47
235.804	17985.76
235.876	17988.36
235.948	17990.19
236.02	17974.58
236.092	17969.47
236.164	17951.2
236.236	17928.31
236.308	17900.65
236.38	17887.78
236.452	17868.51
236.524	17856.7
236.596	17862.19
236.668	17851.11
236.74	17844.6
236.812	17836.75
236.884	17820.41
236.956	17803.98
237.028	17782.97
237.1	17750.1
237.172	17745.91
237.244	17752.7
237.316	17705.96
237.388	17677.96
237.46	17655.36
237.532	17653.67
237.604	17629.33
237.675	17627.36
237.747	17625.43
237.819	17598.54
237.891	17578.97
237.963	17548.8
238.035	17521.14
238.107	17458.01
238.178	17447.89
238.25	17426.1
238.322	17424.85
238.394	17394.15
238.466	17364.37
238.538	17347.6
238.609	17337.67
238.681	17309.72
238.753	17271.45
238.825	17242.01
238.897	17220.46
238.968	17209.72
239.04	17180.56
239.112	17187.55
239.184	17153.04
239.255	17124.56
239.327	17107.79
239.399	17085.28
239.471	17068.56
239.542	17056.46
239.614	17050.92
239.686	17013.86
239.758	17002.96
239.829	16967.4
239.901	16958.05
239.973	16934.48
240.044	16927.2
240.116	16908.89
240.188	16872.94
240.259	16855.25
240.331	16825.13
240.403	16813.99
240.474	16774.62
240.546	16739.39
240.618	16693.02
240.689	16668.59
240.761	16634.71
240.833	16620.44
240.904	16588.2
240.976	16564.68
241.048	16537.4
241.119	16510.84
241.191	16492.62
241.262	16468.91
241.334	16436.23
241.405	16405.97
241.477	16377.1
241.549	16332.46
241.62	16309.14
241.692	16292.61
241.763	16269.47
241.835	16249.9
241.906	16211.44
241.978	16168.35
242.049	16155.34
242.121	16143.67
242.192	16131.19
242.264	16101.98
242.335	16068.97
242.407	16059.52
242.478	16022.69
242.55	16006.07
242.621	15985.53
242.693	15949.87
242.764	15926.49
242.836	15898.87
242.907	15882.63
242.979	15871.11
243.05	15857.23
243.122	15833.08
243.193	15808.98
243.264	15764.35
243.336	15741.89
243.407	15733.88
243.479	15730.46
243.55	15706.89
243.622	15682.26
243.693	15654.31
243.764	15644.57
243.836	15607.65
243.907	15578.05
243.978	15558.48
244.05	15530.33
244.121	15489.27
244.192	15475.24
244.264	15430.27
244.335	15407.37
244.407	15360.23
244.478	15336.03
244.549	15307.69
244.62	15268.79
244.692	15236.06
244.763	15218.23
244.834	15180.58
244.906	15140.38
244.977	15117.87
245.048	15109.43
245.119	15073.57
245.191	15032.55
245.262	14980.97
245.333	14973.26
245.405	14939.18
245.476	14917.58
245.547	14891.02
245.618	14871.31
245.689	14849.14
245.761	14829.81
245.832	14808.4
245.903	14799.2
245.974	14769.65
246.045	14740.82
246.117	14725.11
246.188	14690.54
246.259	14658.15
246.33	14635.3
246.401	14608.69
246.473	14573.41
246.544	14529.88
246.615	14513.15
246.686	14485.05
246.757	14483.75
246.828	14446.92
246.899	14439.98
246.97	14402.62
247.042	14369.4
247.113	14355.71
247.184	14346.41
247.255	14314.35
247.326	14288.08
247.397	14255.3
247.468	14231.34
247.539	14207.91
247.61	14174.56
247.681	14159.95
247.752	14153.25
247.823	14119.02
247.894	14105.19
247.965	14071.15
248.037	14047.73
248.108	14011.04
248.179	13989.59
248.25	13956.66
248.321	13947.84
248.392	13903.83
248.463	13896.07
248.534	13880.88
248.605	13863.1
248.675	13833.59
248.746	13812.87
248.817	13785.05
248.888	13770.3
248.959	13731.2
249.03	13716.16
249.101	13693.46
249.172	13665.35
249.243	13614.21
249.314	13613.58
249.385	13581.52
249.456	13570.87
249.527	13545.32
249.598	13532.3
249.669	13507.19
249.739	13488.39
249.81	13464.14
249.881	13433.14
249.952	13411.3
250.023	13381.9
250.094	13341.36
250.165	13306.17
250.235	13290.93
250.306	13282.79
250.377	13246.53
250.448	13233.23
250.519	13192.54
250.59	13187.1
250.66	13159.18
250.731	13155.86
250.802	13121.92
250.873	13107.07
250.944	13083.93
251.014	13055.01
251.085	13059.78
251.156	13049.56
251.227	13045.75
251.297	13043.54
251.368	13036.55
251.439	13023.68
251.51	13011
251.58	12983.47
251.651	12967.52
251.722	12956.72
251.792	12912.03
251.863	12890.58
251.934	12887.74
252.005	12895.55
252.075	12868.26
252.146	12864.16
252.217	12851.49
252.287	12840.74
252.358	12819.24
252.429	12818.37
252.499	12795.76
252.57	12771.8
252.641	12754.25
252.711	12721.14
252.782	12680.31
252.852	12679.2
252.923	12656.06
252.994	12640.97
253.064	12628.68
253.135	12593.78
253.205	12564.86
253.276	12560.13
253.347	12554.64
253.417	12526.44
253.488	12499.92
253.558	12475.53
253.629	12451.09
253.699	12436.58
253.77	12425.69
253.841	12402.7
253.911	12378.35
253.982	12361.43
254.052	12347.99
254.123	12333.19
254.193	12318.44
254.264	12336.61
254.334	12302.87
254.405	12272.07
254.475	12239.05
254.546	12222.75
254.616	12219.86
254.687	12208.58
254.757	12197.11
254.827	12180.91
254.898	12160.91
254.968	12136.95
255.039	12115.31
255.109	12105.05
255.18	12077.62
255.25	12037.37
255.321	12022.67
255.391	11999.63
255.461	12000.93
255.532	11958.22
255.602	11933.21
255.673	11898.41
255.743	11863.94
255.813	11820.08
255.884	11816.37
255.954	11811.5
256.024	11807.45
256.095	11786.34
256.165	11755.35
256.235	11734.19
256.306	11704.88
256.376	11699.44
256.446	11691.92
256.517	11682.04
256.587	11679.92
256.657	11667.87
256.728	11652.97
256.798	11639.82
256.868	11612.73
256.938	11586.36
257.009	11579.13
257.079	11570.31
257.149	11580.82
257.219	11547.13
257.29	11546.6
257.36	11514.26
257.43	11502.36
257.5	11463.27
257.571	11444.23
257.641	11432.38
257.711	11411.17
257.781	11401.92
257.852	11382.64
257.922	11351.65
257.992	11331.21
258.062	11301.48
258.132	11292.27
258.202	11277.33
258.273	11261.38
258.343	11263.74
258.413	11240.8
258.483	11220.9
258.553	11196.66
258.623	11166.1
258.693	11149.04
258.764	11143.11
258.834	11138.29
258.904	11121.86
258.974	11102.44
259.044	11085.38
259.114	11078.39
259.184	11061.24
259.254	11044.32
259.324	11018.25
259.394	11007.55
259.464	11009.43
259.535	10994.3
259.605	10966.97
259.675	10946.4
259.745	10937.34
259.815	10912.04
259.885	10895.46
259.955	10904.14
260.025	10878.74
260.095	10860
260.165	10850.07
260.235	10851.32
260.305	10824.15
260.375	10799.67
260.445	10807.86
260.515	10806.17
260.585	10799.52
260.655	10788.01
260.725	10784.39
260.795	10776.1
260.865	10772.83
260.934	10750.18
261.004	10741.41
261.074	10733.27
261.144	10725.85
261.214	10715.82
261.284	10697.32
261.354	10690.53
261.424	10665.52
261.494	10670.58
261.564	10666.53
261.634	10659.54
261.703	10626.53
261.773	10620.9
261.843	10614.92
261.913	10595.89
261.983	10563.46
262.053	10551.9
262.123	10534.8
262.192	10500.64
262.262	10487.58
262.332	10463.83
262.402	10449.9
