Data from 20250625_urea_1M_1_MAYP1162681_01-45-05-897.txt Node
Date: Thu Jun 26 01:45:05 BST 2025
User: adleo
Spectrometer: MAYP116268
Trigger mode: 0
Integration Time (sec): 1.000000E0
Scans to average: 1
Electric dark correction enabled: true
Nonlinearity correction enabled: true
Boxcar width: 10
XAxis mode: Wavelengths
Number of Pixels in Spectrum: 2068
>>>>>Begin Spectral Data<<<<<
179.565	1118.77
179.642	1170.73
179.718	1213.39
179.795	1250.39
179.871	1278.39
179.948	1294.85
180.024	1312.49
180.101	1333.7
180.177	1345.5
180.254	1364.99
180.33	1384.52
180.407	1432.89
180.483	1521.21
180.56	1603.92
180.636	1680.92
180.712	1672.13
180.789	1677.5
180.865	1689.94
180.942	1699.49
181.018	1708.71
181.095	1720.54
181.171	1724.01
181.248	1725.53
181.324	1736.37
181.4	1740.98
181.477	1753.76
181.553	1765.64
181.63	1787.46
181.706	1799.24
181.782	1810.03
181.859	1808.51
181.935	1814.4
182.011	1811.55
182.088	1827.24
182.164	1844.59
182.24	1858.37
182.317	1866.88
182.393	1865.83
182.469	1876.95
182.546	1888.69
182.622	1891.83
182.698	1886.6
182.775	1897.87
182.851	1911.85
182.927	1908.33
183.003	1903.86
183.08	1896.59
183.156	1903.67
183.232	1900.48
183.308	1890.6
183.385	1895.97
183.461	1914.51
183.537	1915.22
183.613	1925.82
183.69	1918.41
183.766	1909.99
183.842	1917.6
183.918	1923.68
183.995	1937.99
184.071	1942.42
184.147	1936.38
184.223	1928.82
184.299	1942.04
184.375	1932.44
184.452	1935.1
184.528	1987.95
184.604	2001.07
184.68	2012.71
184.756	2022.7
184.832	2026.36
184.908	2036.01
184.985	2035.63
185.061	2019.47
185.137	2030.17
185.213	2019.94
185.289	2020.18
185.365	2015.24
185.441	2012.48
185.517	2025.8
185.593	2022.66
185.669	2020
185.745	2030.65
185.822	2042.48
185.898	2033.02
185.974	2042.24
186.05	2037.87
186.126	1996.29
186.202	1988.87
186.278	1984.79
186.354	1974.51
186.43	1979.27
186.506	1975.23
186.582	1974.94
186.658	1981.17
186.734	1962.15
186.81	1964.05
186.886	1966.29
186.962	1974.56
187.038	1972.37
187.114	1964.38
187.19	1968.9
187.266	1960.96
187.341	1962.05
187.417	1957.49
187.493	1958.63
187.569	1962.62
187.645	1956.92
187.721	1947.12
187.797	1952.78
187.873	1956.39
187.949	1950.36
188.025	1945.74
188.101	1947.17
188.176	1952.07
188.252	1947.84
188.328	1953.59
188.404	1951.35
188.48	1948.21
188.556	1940.99
188.632	1940.23
188.707	1939.56
188.783	1938.71
188.859	1936.23
188.935	1925.25
189.011	1934.81
189.086	1927.96
189.162	1920.45
189.238	1917.74
189.314	1914.65
189.39	1909.61
189.465	1902.57
189.541	1918.12
189.617	1904
189.693	1900.25
189.768	1904.38
189.844	1932.11
189.92	1923.89
189.996	1934.16
190.071	1942.72
190.147	1944.29
190.223	1952.18
190.298	1946.47
190.374	1933.83
190.45	1940.48
190.526	1948.23
190.601	1942.34
190.677	1944.24
190.753	1967.5
190.828	1968.5
190.904	1982.77
190.98	1997.32
191.055	2007.06
191.131	1998.17
191.207	2017.1
191.282	2023.04
191.358	2012.91
191.433	1997.21
191.509	2009.85
191.585	2008.61
191.66	2009.18
191.736	2017.65
191.811	2008.8
191.887	2022.07
191.963	2044.14
192.038	2051.84
192.114	2052.51
192.189	2054.55
192.265	2051.66
192.34	2030.96
192.416	2033.05
192.491	2029.63
192.567	2033
192.642	2036.67
192.718	2039.81
192.793	2029.34
192.869	2029.01
192.944	2032
193.02	2040.42
193.095	2043.56
193.171	2048.18
193.246	2048.32
193.322	2045.46
193.397	2048.08
193.473	2035
193.548	2018.3
193.624	2022.25
193.699	2018.45
193.775	2033.72
193.85	2037.43
193.925	2048.7
194.001	2045.04
194.076	2037.91
194.152	2025.63
194.227	2019.16
194.302	2010.89
194.378	2012.65
194.453	2010.89
194.529	2021.93
194.604	2008.51
194.679	2005.85
194.755	1986.79
194.83	1997.16
194.905	1993.02
194.981	1998.77
195.056	1992.69
195.131	1998.68
195.207	1995.92
195.282	1988.79
195.357	1968.58
195.433	1984.46
195.508	1968.62
195.583	1978.42
195.659	1992.54
195.734	2001.44
195.809	2002.01
195.884	2009.47
195.96	2011.61
196.035	2025.69
196.11	2021.93
196.185	2030.87
196.261	2032.39
196.336	2062.92
196.411	2051.89
196.486	2056.59
196.561	2049.79
196.637	2058.26
196.712	2072.43
196.787	2076.72
196.862	2092.12
196.937	2100.73
197.013	2102.59
197.088	2115.43
197.163	2136.13
197.238	2151.98
197.313	2151.03
197.388	2164.06
197.464	2193.85
197.539	2206.98
197.614	2200.09
197.689	2212.03
197.764	2227.93
197.839	2247.53
197.914	2243.2
197.989	2264.04
198.065	2277.41
198.14	2326.11
198.215	2350
198.29	2361.48
198.365	2377.66
198.44	2387.8
198.515	2416.55
198.59	2431.26
198.665	2455.77
198.74	2462.92
198.815	2464.49
198.89	2488.34
198.965	2514.15
199.04	2507.68
199.115	2520.2
199.19	2561.34
199.265	2567.14
199.34	2576.62
199.415	2608.16
199.49	2626.49
199.565	2634.4
199.64	2656.88
199.715	2657.21
199.79	2664.31
199.865	2670.79
199.94	2665.12
200.015	2694.7
200.09	2700.66
200.165	2704.85
200.24	2713.05
200.315	2750
200.39	2763.82
200.464	2767.39
200.539	2770.63
200.614	2786.21
200.689	2805.94
200.764	2811.42
200.839	2825.52
200.914	2829.28
200.989	2820.94
201.063	2835.52
201.138	2821
201.213	2822.19
201.288	2802.22
201.363	2809.61
201.438	2809.42
201.512	2826.61
201.587	2812.46
201.662	2815.7
201.737	2829.28
201.812	2834.71
201.886	2802.48
201.961	2812.97
202.036	2800.53
202.111	2795.43
202.186	2766.34
202.26	2750.8
202.335	2731.84
202.41	2724.5
202.485	2710.35
202.559	2689.3
202.634	2664.95
202.709	2672.14
202.784	2654.95
202.858	2654.85
202.933	2637.65
203.008	2632.75
203.082	2612.89
203.157	2608.6
203.232	2567.37
203.306	2545.93
203.381	2513.26
203.456	2492.88
203.53	2469.71
203.605	2452.34
203.68	2430.24
203.754	2424.3
203.829	2409.06
203.904	2387.54
203.978	2377.02
204.053	2378.59
204.127	2367.03
204.202	2360.89
204.277	2346.23
204.351	2339.99
204.426	2333.85
204.5	2322.62
204.575	2288.31
204.65	2298.16
204.724	2291.5
204.799	2300.53
204.873	2299.63
204.948	2299.58
205.022	2290.25
205.097	2284.3
205.171	2297.86
205.246	2307.72
205.32	2309.91
205.395	2311.81
205.469	2301.54
205.544	2309.01
205.618	2291.59
205.693	2302.73
205.767	2291.41
205.842	2311.02
205.916	2305.83
205.991	2294.79
206.065	2299.79
206.14	2313.48
206.214	2307.58
206.289	2300.06
206.363	2312.1
206.438	2310.15
206.512	2318.14
206.586	2334.61
206.661	2340.99
206.735	2320.01
206.81	2319.25
206.884	2329.1
206.958	2316.35
207.033	2335.14
207.107	2341.57
207.181	2375.99
207.256	2371.28
207.33	2391.41
207.405	2403.27
207.479	2421.5
207.553	2431.36
207.628	2420.89
207.702	2435.07
207.776	2427.79
207.851	2434.5
207.925	2451.31
207.999	2448.84
208.073	2444.89
208.148	2448.6
208.222	2438.13
208.296	2469.49
208.371	2485.92
208.445	2499.97
208.519	2526.39
208.593	2538.96
208.668	2535.24
208.742	2534.96
208.816	2537.43
208.89	2550.63
208.965	2549.53
209.039	2559.78
209.113	2579.16
209.187	2598.01
209.261	2597.58
209.336	2622.87
209.41	2645.55
209.484	2646.97
209.558	2676.22
209.632	2696.51
209.707	2712.24
209.781	2738.39
209.855	2757.07
209.929	2781.44
210.003	2796.21
210.077	2809.46
210.151	2862.31
210.226	2906.75
210.3	2946.64
210.374	2983.57
210.448	3004.17
210.522	3030.44
210.596	3055.62
210.67	3077.99
210.744	3144.82
210.818	3194.88
210.892	3237.39
210.966	3259.95
211.041	3304.94
211.115	3329.9
211.189	3381.29
211.263	3431.4
211.337	3471.67
211.411	3526.92
211.485	3563.22
211.559	3620.51
211.633	3668.48
211.707	3688.07
211.781	3746.63
211.855	3768.37
211.929	3814.98
212.003	3857.2
212.077	3928.42
212.151	4003.86
212.225	4085.13
212.299	4146.9
212.373	4213.17
212.447	4291.6
212.52	4402.32
212.594	4487.22
212.668	4587.69
212.742	4667.43
212.816	4758.3
212.89	4851.22
212.964	4953.79
213.038	5061.31
213.112	5178.96
213.186	5296.13
213.26	5390.83
213.333	5463.98
213.407	5591.52
213.481	5720.75
213.555	5867.16
213.629	5985.52
213.703	6105.68
213.777	6236.91
213.85	6348.03
213.924	6519.17
213.998	6656.81
214.072	6783.8
214.146	6922.68
214.219	7074.28
214.293	7222.79
214.367	7369.47
214.441	7532.99
214.515	7673.4
214.588	7800.14
214.662	7923.02
214.736	8061.13
214.81	8230.01
214.883	8403.16
214.957	8549.65
215.031	8699.67
215.105	8829.79
215.178	8975.92
215.252	9128.95
215.326	9273.05
215.4	9423.39
215.473	9537
215.547	9684.66
215.621	9838.07
215.694	9999.54
215.768	10135.29
215.842	10280.38
215.915	10434.6
215.989	10571.72
216.063	10717.96
216.136	10885.68
216.21	11041.12
216.284	11221.35
216.357	11372.28
216.431	11527.8
216.504	11697.54
216.578	11874.09
216.652	12044.75
216.725	12208.29
216.799	12369.95
216.873	12518.32
216.946	12677.72
217.02	12826.03
217.093	12971.37
217.167	13101.33
217.24	13232.16
217.314	13373.49
217.387	13512.08
217.461	13647.73
217.535	13808.3
217.608	13937.69
217.682	14075.07
217.755	14222.87
217.829	14353.89
217.902	14496.67
217.976	14621.57
218.049	14740.1
218.123	14856.51
218.196	14986.52
218.27	15103.79
218.343	15215.43
218.417	15348.42
218.49	15467.14
218.563	15604.13
218.637	15721.26
218.71	15860.07
218.784	15989.34
218.857	16104.3
218.931	16224.51
219.004	16338.64
219.077	16447.61
219.151	16564.15
219.224	16670.81
219.298	16769.85
219.371	16872.51
219.444	16962.83
219.518	17058.3
219.591	17158.31
219.665	17283.42
219.738	17385.92
219.811	17469.64
219.885	17565.59
219.958	17661.49
220.031	17753.63
220.105	17850.84
220.178	17946.35
220.251	18016.76
220.325	18101.77
220.398	18195.02
220.471	18277.47
220.544	18362.68
220.618	18431.4
220.691	18508.4
220.764	18578.81
220.838	18663.67
220.911	18736.25
220.984	18820.44
221.057	18908.77
221.131	18982.21
221.204	19010.69
221.277	19082.01
221.35	19183.64
221.424	19256.17
221.497	19315.88
221.57	19378.91
221.643	19435.05
221.716	19493.36
221.79	19550.13
221.863	19605.79
221.936	19648.39
222.009	19698.8
222.082	19758.65
222.155	19810.65
222.229	19883.32
222.302	19930.64
222.375	19970.45
222.448	20018.93
222.521	20068.23
222.594	20098.88
222.667	20123.6
222.74	20188.99
222.814	20223.74
222.887	20245.04
222.96	20275.79
223.033	20319.45
223.106	20355.31
223.179	20394.87
223.252	20428.7
223.325	20463.5
223.398	20493.19
223.471	20528.17
223.544	20554.97
223.617	20571.88
223.69	20597.33
223.763	20600.32
223.837	20639.84
223.91	20679.45
223.983	20677.09
224.056	20684.61
224.129	20713.86
224.202	20752.47
224.275	20762.78
224.348	20775.17
224.42	20782.3
224.493	20787.6
224.566	20788.08
224.639	20811.7
224.712	20816.47
224.785	20821.1
224.858	20830.69
224.931	20827.84
225.004	20833.96
225.077	20858.59
225.15	20845.14
225.223	20860.28
225.296	20898.64
225.369	20892.91
225.442	20894.06
225.514	20909.87
225.587	20918.69
225.66	20930.98
225.733	20937.2
225.806	20940.38
225.879	20946.64
225.952	20944.86
226.025	20966.36
226.097	20990.45
226.17	20986.6
226.243	20967.66
226.316	20976.38
226.389	20974.17
226.461	20996.05
226.534	21005.01
226.607	20997.01
226.68	21021.93
226.753	21016.72
226.825	20993.1
226.898	21004.19
226.971	20993.3
227.044	20997.68
227.117	21001.35
227.189	20994.94
227.262	21004
227.335	21008.05
227.407	21005.44
227.48	21008.77
227.553	21007.37
227.626	21000.67
227.698	20995.13
227.771	21011.37
227.844	21005.06
227.916	21009.54
227.989	20979.03
228.062	20978.02
228.134	20996.14
228.207	20994.41
228.28	20983.85
228.352	20969.78
228.425	20959.46
228.498	20964.81
228.57	20955.22
228.643	20954.93
228.716	20944.62
228.788	20923.03
228.861	20904.28
228.934	20900.71
229.006	20890.45
229.079	20879.22
229.151	20860.08
229.224	20834.3
229.296	20820.57
229.369	20828.47
229.442	20827.99
229.514	20812.61
229.587	20803.31
229.659	20770.73
229.732	20762.49
229.804	20765.43
229.877	20783.12
229.949	20779.79
230.022	20783.17
230.094	20774.44
230.167	20767.79
230.239	20749
230.312	20740.85
230.384	20746.92
230.457	20736.03
230.529	20728.95
230.602	20718.15
230.674	20714.92
230.747	20723.6
230.819	20729.29
230.892	20688.32
230.964	20685.19
231.037	20692.95
231.109	20677.72
231.181	20669.77
231.254	20638.05
231.326	20611.5
231.399	20588.41
231.471	20562.05
231.544	20518.63
231.616	20511.59
231.688	20493.86
231.761	20478.29
231.833	20456.03
231.905	20424.94
231.978	20413.86
232.05	20397.86
232.122	20386.77
232.195	20359.93
232.267	20347.88
232.339	20311.59
232.412	20306.29
232.484	20277.38
232.556	20249.23
232.629	20258.29
232.701	20249.67
232.773	20240.94
232.846	20216.03
232.918	20204.56
232.99	20193.86
233.062	20189.48
233.135	20175.5
233.207	20152.85
233.279	20146.58
233.351	20132.46
233.424	20095.98
233.496	20066.64
233.568	20061.53
233.64	20025.05
233.713	20005.63
233.785	19981.63
233.857	19965.96
233.929	19937
234.001	19927.03
234.074	19910.21
234.146	19864.67
234.218	19850.4
234.29	19819.8
234.362	19795.46
234.434	19749.2
234.507	19713.2
234.579	19672.29
234.651	19634.51
234.723	19610.65
234.795	19587.23
234.867	19561.5
234.939	19566.51
235.012	19547.28
235.084	19521.65
235.156	19500.3
235.228	19466.42
235.3	19434.42
235.372	19413.8
235.444	19397.32
235.516	19346.52
235.588	19326.96
235.66	19296.21
235.732	19242.24
235.804	19280.89
235.876	19273.42
235.948	19264.89
236.02	19240.65
236.092	19218.92
236.164	19192.99
236.236	19171.11
236.308	19133.29
236.38	19108.23
236.452	19068.57
236.524	19034.21
236.596	19024.38
236.668	19005.2
236.74	18981.39
236.812	18964.57
236.884	18943.9
236.956	18913.44
237.028	18880
237.1	18844.24
237.172	18834.7
237.244	18833.16
237.316	18758.37
237.388	18715.67
237.46	18675.14
237.532	18656.06
237.604	18622.86
237.675	18612.4
237.747	18583.78
237.819	18552.93
237.891	18533.61
237.963	18502.05
238.035	18473.47
238.107	18401.91
238.178	18383.4
238.25	18344.51
238.322	18335.74
238.394	18289.29
238.466	18261.29
238.538	18249.72
238.609	18226.69
238.681	18183.56
238.753	18146.45
238.825	18122.55
238.897	18095.37
238.968	18085.01
239.04	18050.89
239.112	18047.66
239.184	18003.66
239.255	17971.85
239.327	17948.24
239.399	17910.22
239.471	17887.71
239.542	17859.09
239.614	17849.3
239.686	17794.89
239.758	17784.29
239.829	17731.52
239.901	17722.9
239.973	17691.38
240.044	17662.46
240.116	17637.11
240.188	17601.98
240.259	17574.42
240.331	17539.43
240.403	17524.49
240.474	17478.37
240.546	17435.43
240.618	17380.01
240.689	17347
240.761	17316.73
240.833	17301.45
240.904	17271.57
240.976	17242.22
241.048	17212.44
241.119	17188.39
241.191	17168.53
241.262	17147.72
241.334	17124.05
241.405	17077.45
241.477	17040.19
241.549	17006.46
241.62	16975.9
241.692	16961.25
241.763	16931.28
241.835	16900.43
241.906	16863.47
241.978	16819.75
242.049	16817.01
242.121	16803.7
242.192	16787.22
242.264	16743.46
242.335	16694.25
242.407	16676.18
242.478	16633.14
242.55	16616.32
242.621	16581.95
242.693	16544.51
242.764	16510.33
242.836	16471.63
242.907	16452.16
242.979	16430.28
243.05	16410.52
243.122	16379.82
243.193	16341.02
243.264	16294.27
243.336	16262.7
243.407	16237.49
243.479	16229.54
243.55	16199.66
243.622	16167.65
243.693	16136.18
243.764	16130.88
243.836	16103.02
243.907	16061.23
243.978	16040.36
244.05	16015.68
244.121	15965.89
244.192	15945.55
244.264	15899.81
244.335	15877.49
244.407	15831.95
244.478	15805.92
244.549	15770.78
244.62	15732.03
244.692	15703.64
244.763	15681.9
244.834	15648.93
244.906	15622.13
244.977	15596.78
245.048	15573.55
245.119	15542.6
245.191	15501.92
245.262	15440.8
245.333	15422.39
245.405	15399.78
245.476	15369.12
245.547	15336.68
245.618	15325.69
245.689	15295.62
245.761	15276.29
245.832	15248.67
245.903	15228.33
245.974	15209.67
246.045	15176.27
246.117	15157.66
246.188	15113.46
246.259	15082.51
246.33	15052.63
246.401	15016.91
246.473	14975.07
246.544	14947.25
246.615	14926.19
246.686	14896.69
246.757	14889.8
246.828	14845.74
246.899	14826.17
246.97	14786.11
247.042	14750.15
247.113	14728.07
247.184	14728.12
247.255	14692.35
247.326	14658.95
247.397	14629.4
247.468	14595.27
247.539	14571.74
247.61	14539.88
247.681	14520.12
247.752	14505.08
247.823	14470.03
247.894	14449.74
247.965	14410.59
248.037	14369.47
248.108	14335.49
248.179	14306.42
248.25	14278.32
248.321	14264.1
248.392	14231.66
248.463	14235.95
248.534	14203.94
248.605	14184.65
248.675	14147.83
248.746	14127.53
248.817	14112.44
248.888	14098.95
248.959	14061.83
249.03	14039.51
249.101	14008.85
249.172	13988.02
249.243	13939.72
249.314	13933.69
249.385	13908.43
249.456	13902.22
249.527	13879.94
249.598	13854.68
249.669	13835.79
249.739	13816.46
249.81	13794.33
249.881	13753.35
249.952	13723.85
250.023	13703.94
250.094	13661.18
250.165	13627.49
250.235	13607.1
250.306	13585.45
250.377	13550.5
250.448	13542.35
250.519	13505.67
250.59	13509.24
250.66	13482.24
250.731	13487.25
250.802	13467.06
250.873	13445.7
250.944	13417.31
251.014	13388.62
251.085	13392.72
251.156	13371.27
251.227	13366.88
251.297	13356.76
251.368	13351.02
251.439	13342.2
251.51	13333.67
251.58	13310.53
251.651	13291.29
251.722	13282.91
251.792	13251.23
251.863	13224.05
251.934	13213.39
252.005	13218.26
252.075	13192.76
252.146	13186.93
252.217	13171.93
252.287	13147.49
252.358	13126.09
252.429	13129.37
252.499	13101.36
252.57	13080.97
252.641	13073.02
252.711	13048
252.782	13016.66
252.852	13017.39
252.923	12995.16
252.994	12972.22
253.064	12967.78
253.135	12932.54
253.205	12901.79
253.276	12891.38
253.347	12891.95
253.417	12860.48
253.488	12834.06
253.558	12810.1
253.629	12783.3
253.699	12768.55
253.77	12759.63
253.841	12745.31
253.911	12721.5
253.982	12713.69
254.052	12698.5
254.123	12682.89
254.193	12656.57
254.264	12673.44
254.334	12636.22
254.405	12602.05
254.475	12570.71
254.546	12549.94
254.616	12546.32
254.687	12532.82
254.757	12512.24
254.827	12486.26
254.898	12474.35
254.968	12462.69
255.039	12434.2
255.109	12425.62
255.18	12396.46
255.25	12359.82
255.321	12338.42
255.391	12310.7
255.461	12311.23
255.532	12263.46
255.602	12237
255.673	12208.85
255.743	12175.2
255.813	12136.01
255.884	12132.74
255.954	12130.71
256.024	12128.01
256.095	12112.88
256.165	12082.32
256.235	12072.68
256.306	12054.84
256.376	12039.85
256.446	12023.37
256.517	12014.5
256.587	12006.3
256.657	11989.19
256.728	11968.85
256.798	11951.21
256.868	11925.61
256.938	11899.34
257.009	11900.45
257.079	11893.56
257.149	11901.61
257.219	11865.36
257.29	11859.58
257.36	11821.74
257.43	11805.5
257.5	11763.76
257.571	11740.04
257.641	11734.16
257.711	11708.33
257.781	11690.64
257.852	11678.11
257.922	11643.26
257.992	11624.08
258.062	11600.08
258.132	11591.45
258.202	11577.62
258.273	11564.7
258.343	11571.69
258.413	11539.3
258.483	11518.82
258.553	11492.69
258.623	11462.91
258.693	11448.45
258.764	11445.65
258.834	11444.64
258.904	11427.14
258.974	11404.2
259.044	11382.71
259.114	11374.28
259.184	11359.96
259.254	11341.41
259.324	11307.67
259.394	11294.56
259.464	11294.22
259.535	11275.38
259.605	11253.07
259.675	11231.33
259.745	11214.03
259.815	11178.03
259.885	11159.91
259.955	11170.32
260.025	11144.2
260.095	11122.18
260.165	11113.21
260.235	11108.44
260.305	11083.14
260.375	11060.2
260.445	11069.36
260.515	11071.91
260.585	11064.35
260.655	11045.7
260.725	11040.4
260.795	11033.22
260.865	11032.35
260.934	11004.35
261.004	11000.49
261.074	10983.34
261.144	10983.68
261.214	10977.89
261.284	10969.99
261.354	10963.05
261.424	10936.06
261.494	10939.53
261.564	10929.27
261.634	10919.48
261.703	10893.03
261.773	10879.1
261.843	10871.97
261.913	10846.96
261.983	10815.35
262.053	10801.28
262.123	10786.44
262.192	10761.09
262.262	10751.99
262.332	10723.03
