Data from 20250625_urea_1M_1_MAYP1162681_19-45-05-594.txt Node
Date: Wed Jun 25 19:45:05 BST 2025
User: adleo
Spectrometer: MAYP116268
Trigger mode: 0
Integration Time (sec): 1.000000E0
Scans to average: 1
Electric dark correction enabled: true
Nonlinearity correction enabled: true
Boxcar width: 10
XAxis mode: Wavelengths
Number of Pixels in Spectrum: 2068
>>>>>Begin Spectral Data<<<<<
179.565	1184.71
179.642	1238.66
179.718	1279.17
179.795	1318.66
179.871	1350.1
179.948	1366.88
180.024	1387.14
180.101	1411.31
180.177	1424.84
180.254	1443.26
180.33	1462.35
180.407	1514.33
180.483	1606.93
180.56	1695.06
180.636	1777.66
180.712	1764.02
180.789	1770.91
180.865	1781.41
180.942	1790.11
181.018	1801.32
181.095	1814.26
181.171	1818.34
181.248	1821.43
181.324	1837.41
181.4	1842.97
181.477	1852.14
181.553	1863.83
181.63	1883.8
181.706	1896.78
181.782	1905.24
181.859	1908.09
181.935	1915.7
182.011	1911.28
182.088	1930.06
182.164	1949.23
182.24	1960.59
182.317	1968.81
182.393	1969.33
182.469	1982.65
182.546	1997.05
182.622	2001.71
182.698	1995.77
182.775	2009.61
182.851	2021.45
182.927	2014.22
183.003	2009.8
183.08	2004.9
183.156	2016.5
183.232	2013.94
183.308	2001.57
183.385	2008.37
183.461	2026.06
183.537	2025.54
183.613	2038.95
183.69	2027.11
183.766	2016.83
183.842	2026.3
183.918	2032.67
183.995	2042.51
184.071	2046.89
184.147	2040.61
184.223	2031.72
184.299	2046.42
184.375	2035.91
184.452	2042.66
184.528	2099.95
184.604	2110.65
184.68	2124.54
184.756	2131.34
184.832	2135.67
184.908	2142.23
184.985	2143.8
185.061	2126.58
185.137	2138.67
185.213	2128.96
185.289	2130.72
185.365	2122.31
185.441	2119.88
185.517	2133.82
185.593	2131.59
185.669	2127.07
185.745	2137.44
185.822	2148.7
185.898	2140.05
185.974	2146.85
186.05	2137.57
186.126	2094.64
186.202	2087.51
186.278	2082.42
186.354	2072.1
186.43	2080.47
186.506	2079.28
186.582	2075.48
186.658	2082.28
186.734	2060.83
186.81	2060.74
186.886	2064.21
186.962	2075
187.038	2070.15
187.114	2060.87
187.19	2067.39
187.266	2059.68
187.341	2060.83
187.417	2054.55
187.493	2053.98
187.569	2058.59
187.645	2053.31
187.721	2040.61
187.797	2048.03
187.873	2051.31
187.949	2042.71
188.025	2034.1
188.101	2035.43
188.176	2040.56
188.252	2037.42
188.328	2045.36
188.404	2045.22
188.48	2041.94
188.556	2034.33
188.632	2035.71
188.707	2037.61
188.783	2034.9
188.859	2030.38
188.935	2018.4
189.011	2028.62
189.086	2022.2
189.162	2015.26
189.238	2013.88
189.314	2014.4
189.39	2010.55
189.465	2007.7
189.541	2029
189.617	2015.83
189.693	2011.17
189.768	2016.88
189.844	2038.62
189.92	2029.54
189.996	2039.96
190.071	2049.71
190.147	2051.71
190.223	2060.08
190.298	2052.13
190.374	2039.2
190.45	2051.89
190.526	2060.5
190.601	2056.79
190.677	2057.51
190.753	2083.92
190.828	2086.35
190.904	2100.43
190.98	2114.13
191.055	2120.17
191.131	2109.08
191.207	2125.06
191.282	2135.67
191.358	2125.01
191.433	2114.12
191.509	2129.33
191.585	2125.1
191.66	2124.14
191.736	2131.8
191.811	2123.15
191.887	2138.61
191.963	2162.63
192.038	2167.77
192.114	2168.86
192.189	2170.72
192.265	2168.72
192.34	2144.68
192.416	2147.16
192.491	2142.92
192.567	2146.44
192.642	2148.68
192.718	2149.44
192.793	2139.55
192.869	2134.46
192.944	2135.84
193.02	2141.21
193.095	2145.26
193.171	2151.16
193.246	2153.77
193.322	2151.44
193.397	2152.92
193.473	2139.64
193.548	2122.28
193.624	2124.65
193.699	2121.75
193.775	2135.08
193.85	2133.84
193.925	2142.5
194.001	2139.03
194.076	2129.09
194.152	2116.19
194.227	2110.77
194.302	2101.78
194.378	2103.64
194.453	2100.12
194.529	2113.48
194.604	2099.88
194.679	2094.22
194.755	2075.77
194.83	2084.05
194.905	2082.34
194.981	2090.28
195.056	2083.91
195.131	2090.38
195.207	2088.9
195.282	2079.96
195.357	2061.83
195.433	2079.91
195.508	2066.82
195.583	2076.86
195.659	2093.08
195.734	2101.98
195.809	2098.65
195.884	2106.21
195.96	2107.83
196.035	2123.62
196.11	2120.62
196.185	2133.7
196.261	2135.32
196.336	2167.57
196.411	2154.63
196.486	2157.06
196.561	2151.11
196.637	2161.43
196.712	2175.09
196.787	2180.28
196.862	2195.54
196.937	2204.11
197.013	2211.48
197.088	2221.61
197.163	2241.37
197.238	2260.8
197.313	2260.99
197.388	2275.55
197.464	2305.21
197.539	2320.96
197.614	2314.91
197.689	2326.19
197.764	2337.9
197.839	2358.13
197.914	2352.27
197.989	2376.79
198.065	2391.68
198.14	2441.79
198.215	2465.03
198.29	2477.03
198.365	2488.74
198.44	2500.4
198.515	2527.88
198.59	2540.92
198.665	2569.69
198.74	2577.74
198.815	2573.4
198.89	2595.35
198.965	2624.46
199.04	2619.89
199.115	2632.84
199.19	2674.52
199.265	2680.9
199.34	2693.28
199.415	2725.88
199.49	2745.12
199.565	2749.98
199.64	2775.28
199.715	2771.51
199.79	2780.23
199.865	2788.09
199.94	2785.24
200.015	2816.5
200.09	2822.31
200.165	2831.89
200.24	2836.8
200.315	2876.06
200.39	2892.74
200.464	2899.7
200.539	2900.75
200.614	2920.76
200.689	2940.26
200.764	2946.55
200.839	2962.08
200.914	2965.52
200.989	2954.69
201.063	2968.71
201.138	2956.32
201.213	2956.18
201.288	2937.92
201.363	2943.74
201.438	2943.64
201.512	2961.32
201.587	2942.06
201.662	2950.54
201.737	2959.27
201.812	2967.04
201.886	2933.69
201.961	2944.33
202.036	2931.32
202.111	2928.22
202.186	2896.92
202.26	2883.24
202.335	2866.51
202.41	2862.55
202.485	2848.4
202.559	2830.86
202.634	2805.37
202.709	2811.13
202.784	2791.21
202.858	2792.45
202.933	2773.44
203.008	2765.91
203.082	2746.66
203.157	2748.43
203.232	2706.32
203.306	2685.73
203.381	2655.85
203.456	2634.61
203.53	2609.86
203.605	2590.39
203.68	2569.38
203.754	2562.05
203.829	2545.71
203.904	2522.47
203.978	2507.56
204.053	2511.57
204.127	2498.47
204.202	2496.09
204.277	2481.47
204.351	2476.67
204.426	2469.04
204.5	2459.43
204.575	2425.97
204.65	2435.49
204.724	2426.44
204.799	2433.77
204.873	2428.43
204.948	2425.91
205.022	2411.63
205.097	2402.34
205.171	2415.67
205.246	2425.67
205.32	2427.82
205.395	2428.62
205.469	2421.96
205.544	2426.3
205.618	2407.3
205.693	2416.49
205.767	2404.35
205.842	2427.73
205.916	2420.93
205.991	2409.36
206.065	2416.93
206.14	2432.67
206.214	2428.29
206.289	2420.96
206.363	2431.81
206.438	2435.81
206.512	2444.29
206.586	2464.76
206.661	2475.86
206.735	2453.63
206.81	2454.3
206.884	2469.25
206.958	2457.35
207.033	2470.77
207.107	2478.39
207.181	2512.11
207.256	2509.45
207.33	2528.49
207.405	2537.78
207.479	2556.5
207.553	2567.35
207.628	2551.03
207.702	2565.74
207.776	2559.59
207.851	2564.5
207.925	2578.7
207.999	2574.41
208.073	2569.51
208.148	2572.08
208.222	2558.5
208.296	2589.54
208.371	2603.84
208.445	2619.56
208.519	2647.27
208.593	2662.71
208.668	2660.94
208.742	2664.57
208.816	2668.71
208.89	2685.58
208.965	2687.87
209.039	2697.92
209.113	2715.79
209.187	2740.79
209.261	2737.26
209.336	2760.85
209.41	2786.82
209.484	2795.69
209.558	2827.05
209.632	2847.39
209.707	2862.26
209.781	2893.8
209.855	2919.64
209.929	2945.93
210.003	2951.84
210.077	2963.86
210.151	3021.65
210.226	3068.01
210.3	3111.45
210.374	3150.45
210.448	3171.25
210.522	3197.01
210.596	3229.46
210.67	3266.24
210.744	3336.55
210.818	3396.08
210.892	3447.64
210.966	3475.51
211.041	3519.38
211.115	3550.84
211.189	3609.89
211.263	3672.54
211.337	3725.93
211.411	3791.34
211.485	3839.58
211.559	3914.96
211.633	3976.9
211.707	4008.75
211.781	4082.9
211.855	4116.57
211.929	4182.34
212.003	4243.72
212.077	4338.89
212.151	4440.29
212.225	4533.62
212.299	4615.33
212.373	4701.48
212.447	4795.92
212.52	4924.32
212.594	5041.93
212.668	5172.85
212.742	5283.97
212.816	5402.17
212.89	5522.1
212.964	5645.13
213.038	5779.54
213.112	5926.79
213.186	6080.82
213.26	6205.2
213.333	6309.5
213.407	6464.6
213.481	6626.13
213.555	6803.18
213.629	6946.74
213.703	7088.49
213.777	7250.55
213.85	7403.89
213.924	7612.75
213.998	7791.05
214.072	7963.98
214.146	8128.14
214.219	8301.1
214.293	8486.71
214.367	8675.4
214.441	8874.41
214.515	9060.85
214.588	9230.55
214.662	9397
214.736	9577.28
214.81	9787.78
214.883	9998.59
214.957	10189.84
215.031	10376.77
215.105	10543.83
215.178	10734.8
215.252	10938.61
215.326	11120.07
215.4	11303.22
215.473	11460.29
215.547	11643.72
215.621	11835.11
215.694	12044.77
215.768	12228.74
215.842	12416.05
215.915	12604.56
215.989	12783.15
216.063	12968.98
216.136	13164.63
216.21	13354.94
216.284	13558.99
216.357	13753.01
216.431	13940.14
216.504	14133.39
216.578	14341.87
216.652	14542.3
216.725	14737.86
216.799	14924.21
216.873	15116.64
216.946	15306.27
217.02	15482.78
217.093	15663.58
217.167	15819.56
217.24	15975.58
217.314	16150.35
217.387	16310.23
217.461	16471.98
217.535	16648.28
217.608	16795.62
217.682	16960.59
217.755	17127.83
217.829	17272.75
217.902	17428.17
217.976	17587.93
218.049	17739.6
218.123	17874.24
218.196	18024.89
218.27	18158.34
218.343	18286.28
218.417	18418.47
218.49	18547.67
218.563	18694.03
218.637	18833.64
218.71	18988.09
218.784	19126.83
218.857	19259.26
218.931	19391.25
219.004	19515.73
219.077	19634.86
219.151	19764.49
219.224	19887.81
219.298	19997.93
219.371	20116.77
219.444	20207.37
219.518	20310.26
219.591	20419.56
219.665	20552.58
219.738	20658.03
219.811	20755.86
219.885	20863.58
219.958	20968.4
220.031	21072.75
220.105	21163.07
220.178	21251.8
220.251	21328.34
220.325	21415.53
220.398	21488.41
220.471	21569.14
220.544	21652.14
220.618	21734.57
220.691	21811.78
220.764	21875.7
220.838	21949.89
220.911	22016.5
220.984	22108.52
221.057	22183.77
221.131	22244.03
221.204	22280.52
221.277	22356.26
221.35	22439.61
221.424	22490.67
221.497	22538.68
221.57	22584.29
221.643	22643.01
221.716	22694.11
221.79	22740.78
221.863	22789.38
221.936	22838.46
222.009	22884.36
222.082	22935.9
222.155	22968.88
222.229	23020.43
222.302	23056.25
222.375	23085.8
222.448	23131.71
222.521	23160.98
222.594	23181.76
222.667	23204.32
222.74	23234.12
222.814	23257.03
222.887	23271.16
222.96	23308.09
223.033	23345.8
223.106	23378.21
223.179	23392.14
223.252	23404
223.325	23416.01
223.398	23428.26
223.471	23450.92
223.544	23469.59
223.617	23474.99
223.69	23485.11
223.763	23483.81
223.837	23504.02
223.91	23527.12
223.983	23507.73
224.056	23502.43
224.129	23520.85
224.202	23535.8
224.275	23539.99
224.348	23530.35
224.42	23516.99
224.493	23494.66
224.566	23493.46
224.639	23497.51
224.712	23489.69
224.785	23489.16
224.858	23483.62
224.931	23475.32
225.004	23453.82
225.077	23447.11
225.15	23414.76
225.223	23405.93
225.296	23421.03
225.369	23392.24
225.442	23367.26
225.514	23372.9
225.587	23370.3
225.66	23359.21
225.733	23343.1
225.806	23328.73
225.879	23328.15
225.952	23308.62
226.025	23312.19
226.097	23305.25
226.17	23287.12
226.243	23272.6
226.316	23254.81
226.389	23240.83
226.461	23232.15
226.534	23223.47
226.607	23204.76
226.68	23211.46
226.753	23200.8
226.825	23159.77
226.898	23157.36
226.971	23139.32
227.044	23121.58
227.117	23103.64
227.189	23085.12
227.262	23085.32
227.335	23078.47
227.407	23043.03
227.48	23033.53
227.553	23018.73
227.626	22981.94
227.698	22962.32
227.771	22940.28
227.844	22918.05
227.916	22906.68
227.989	22873.7
228.062	22848.96
228.134	22843.27
228.207	22820.76
228.28	22784.41
228.352	22764.78
228.425	22733.35
228.498	22725.83
228.57	22691.02
228.643	22667.59
228.716	22640.06
228.788	22610.26
228.861	22570.97
228.934	22554.72
229.006	22538.33
229.079	22509.89
229.151	22485.64
229.224	22444.42
229.296	22425.28
229.369	22434.78
229.442	22424.22
229.514	22394.14
229.587	22391.39
229.659	22345.88
229.732	22321.25
229.804	22316.62
229.877	22315.22
229.949	22316.23
230.022	22314.35
230.094	22296.08
230.167	22287.79
230.239	22254.96
230.312	22230.04
230.384	22225.65
230.457	22207
230.529	22183.47
230.602	22167.9
230.674	22151.56
230.747	22139.46
230.819	22115.6
230.892	22053.95
230.964	22027.24
231.037	22010.61
231.109	21982.46
231.181	21962.36
231.254	21931.75
231.326	21892.18
231.399	21857.37
231.471	21813.55
231.544	21746.98
231.616	21730.6
231.688	21691.5
231.761	21652.99
231.833	21619.3
231.905	21573.12
231.978	21553.65
232.05	21515.67
232.122	21479.9
232.195	21444.77
232.267	21427.9
232.339	21402.06
232.412	21378.3
232.484	21339.64
232.556	21296.46
232.629	21279.73
232.701	21264.6
232.773	21235.49
232.846	21212.64
232.918	21186.08
232.99	21166.42
233.062	21159.38
233.135	21137.94
233.207	21102.13
233.279	21085.35
233.351	21059.28
233.424	21027.04
233.496	20974.74
233.568	20969.06
233.64	20928.38
233.713	20905.73
233.785	20874.02
233.857	20849.29
233.929	20813.34
234.001	20803.65
234.074	20794.54
234.146	20732.61
234.218	20700.76
234.29	20665.14
234.362	20621.04
234.434	20570.25
234.507	20519.11
234.579	20477.04
234.651	20435.88
234.723	20413.19
234.795	20388.46
234.867	20345.23
234.939	20328.51
235.012	20312.27
235.084	20272.75
235.156	20252.9
235.228	20215.89
235.3	20176.99
235.372	20146.39
235.444	20126.88
235.516	20061.57
235.588	20031.12
235.66	20013.96
235.732	19974.44
235.804	20014.45
235.876	19994.88
235.948	19992.08
236.02	19968.71
236.092	19934.88
236.164	19900.72
236.236	19866.69
236.308	19829.49
236.38	19808.43
236.452	19765.64
236.524	19728.19
236.596	19725.74
236.668	19685.64
236.74	19643.57
236.812	19614.99
236.884	19591.14
236.956	19557.17
237.028	19530.66
237.1	19487.68
237.172	19470.95
237.244	19462.81
237.316	19379.2
237.388	19336.07
237.46	19286.96
237.532	19272.89
237.604	19228.75
237.675	19212.75
237.747	19181.14
237.819	19146.06
237.891	19112.71
237.963	19071.41
238.035	19039.84
238.107	18963.17
238.178	18954.5
238.25	18928.62
238.322	18909.59
238.394	18855.61
238.466	18812.63
238.538	18784.39
238.609	18762.32
238.681	18706.56
238.753	18653.02
238.825	18619.82
238.897	18599.44
238.968	18583.34
239.04	18534.04
239.112	18536.89
239.184	18487.78
239.255	18458.34
239.327	18423.21
239.399	18395.55
239.471	18367.55
239.542	18336.08
239.614	18318.92
239.686	18256.76
239.758	18226.88
239.829	18185.87
239.901	18176.28
239.973	18152.47
240.044	18124.43
240.116	18092.04
240.188	18059.13
240.259	18034.93
240.331	17995.23
240.403	17966.02
240.474	17916.96
240.546	17884.53
240.618	17832.63
240.689	17802.17
240.761	17771.04
240.833	17760.44
240.904	17725.98
240.976	17702.32
241.048	17674.37
241.119	17653.36
241.191	17629.4
241.262	17621.6
241.334	17596.01
241.405	17547.96
241.477	17512.49
241.549	17482.13
241.62	17447.04
241.692	17426.51
241.763	17400.1
241.835	17372.44
241.906	17342.56
241.978	17299.62
242.049	17279.96
242.121	17256.15
242.192	17241.74
242.264	17194.41
242.335	17138.99
242.407	17121.06
242.478	17085.74
242.55	17059.95
242.621	17020.29
242.693	16991.04
242.764	16959.71
242.836	16922.21
242.907	16898.74
242.979	16877.35
243.05	16848.72
243.122	16825.29
243.193	16789.2
243.264	16737.96
243.336	16707.17
243.407	16682.11
243.479	16668.85
243.55	16644.46
243.622	16613.76
243.693	16577.81
243.764	16570.48
243.836	16534.09
243.907	16490.43
243.978	16455
244.05	16427.15
244.121	16374.37
244.192	16345.84
244.264	16292.43
244.335	16264.05
244.407	16221.54
244.478	16185.39
244.549	16152.13
244.62	16114.92
244.692	16083.79
244.763	16063.93
244.834	16033.37
244.906	16006.09
244.977	15978.28
245.048	15958.71
245.119	15922.66
245.191	15884.97
245.262	15827.66
245.333	15820.28
245.405	15798.16
245.476	15783.17
245.547	15759.31
245.618	15738.54
245.689	15712.46
245.761	15688.84
245.832	15660.6
245.903	15646.71
245.974	15628.88
246.045	15599.28
246.117	15583.38
246.188	15546.89
246.259	15504.86
246.33	15473.62
246.401	15431.11
246.473	15385.9
246.544	15351.48
246.615	15338.27
246.686	15305.45
246.757	15295.33
246.828	15252.04
246.899	15239.94
246.97	15189.38
247.042	15149.95
247.113	15136.98
247.184	15131.15
247.255	15098.47
247.326	15069.88
247.397	15040.82
247.468	15011.07
247.539	14980.9
247.61	14940.46
247.681	14928.84
247.752	14925.8
247.823	14894.18
247.894	14872.3
247.965	14838.41
248.037	14808.67
248.108	14764.66
248.179	14735.49
248.25	14717.95
248.321	14707.53
248.392	14666.9
248.463	14673.79
248.534	14653.84
248.605	14639.71
248.675	14608.48
248.746	14591.36
248.817	14576.08
248.888	14547.69
248.959	14515.06
249.03	14505.22
249.101	14485.31
249.172	14453.06
249.243	14405.92
249.314	14394.98
249.385	14380.23
249.456	14369.38
249.527	14341.23
249.598	14325.46
249.669	14302.13
249.739	14276.1
249.81	14252.77
249.881	14213.1
249.952	14197
250.023	14164.99
250.094	14125.51
250.165	14092.1
250.235	14067.32
250.306	14041.87
250.377	14009.96
250.448	13989.95
250.519	13946.66
250.59	13935.62
250.66	13910.94
250.731	13902.55
250.802	13881.68
250.873	13863.07
250.944	13845.67
251.014	13822.43
251.085	13818.24
251.156	13810.29
251.227	13795.39
251.297	13790.62
251.368	13786.67
251.439	13764.78
251.51	13762.61
251.58	13733.83
251.651	13708.23
251.722	13701.29
251.792	13662.15
251.863	13642.53
251.934	13634.33
252.005	13641.42
252.075	13622.76
252.146	13612.98
252.217	13605.31
252.287	13593.12
252.358	13562.79
252.429	13554.74
252.499	13527.75
252.57	13510.3
252.641	13492.94
252.711	13478.91
252.782	13441.65
252.852	13441.55
252.923	13413.88
252.994	13390.6
253.064	13379.42
253.135	13354.01
253.205	13323.98
253.276	13324.17
253.347	13330.39
253.417	13303.15
253.488	13274.37
253.558	13246.22
253.629	13221.83
253.699	13207.95
253.77	13191.12
253.841	13170.01
253.911	13156.65
253.982	13134.53
254.052	13124.5
254.123	13107.19
254.193	13084.05
254.264	13101.36
254.334	13072.15
254.405	13042.02
254.475	13011.5
254.546	12997.52
254.616	12991.4
254.687	12974.05
254.757	12959.06
254.827	12923.38
254.898	12904.83
254.968	12886.51
255.039	12860.77
255.109	12856.47
255.18	12823.79
255.25	12784.94
255.321	12774.81
255.391	12738.61
255.461	12741.6
255.532	12697.35
255.602	12676.28
255.673	12639.65
255.743	12611.54
255.813	12562.81
255.884	12555.63
255.954	12552.68
256.024	12544.39
256.095	12527.67
256.165	12503.28
256.235	12492.33
256.306	12470.3
256.376	12464.9
256.446	12458.73
256.517	12452.18
256.587	12441.96
256.657	12428.51
256.728	12416.7
256.798	12394.19
256.868	12374.14
256.938	12346.95
257.009	12337.74
257.079	12330.85
257.149	12343.14
257.219	12304.43
257.29	12295.03
257.36	12266.4
257.43	12251.6
257.5	12210.1
257.571	12185.42
257.641	12169.71
257.711	12137.94
257.781	12130.76
257.852	12119.24
257.922	12080.44
257.992	12054.55
258.062	12034.31
258.132	12031.13
258.202	12011.32
258.273	11996.61
258.343	12001.72
258.413	11972.95
258.483	11952.08
258.553	11919.78
258.623	11884.06
258.693	11871.77
258.764	11873.41
258.834	11869.12
258.904	11849.36
258.974	11828.1
259.044	11819.38
259.114	11810.99
259.184	11798.08
259.254	11777.64
259.324	11731.13
259.394	11717.63
259.464	11717.83
259.535	11693.2
259.605	11660.85
259.675	11638.83
259.745	11623.21
259.815	11593.13
259.885	11577.09
259.955	11592.94
260.025	11565.47
260.095	11555.3
260.165	11539.01
260.235	11536.51
260.305	11507.54
260.375	11475.59
260.445	11479.54
260.515	11473.9
260.585	11469.46
260.655	11455
260.725	11448.45
260.795	11446.14
260.865	11452.5
260.934	11426.71
261.004	11424.4
261.074	11411.05
261.144	11404.35
261.214	11403.48
261.284	11380.74
261.354	11374.33
261.424	11341.94
261.494	11352.73
261.564	11329.65
261.634	11325.55
261.703	11284.15
261.773	11274.75
261.843	11271.09
261.913	11254.42
261.983	11224.15
262.053	11214.22
262.123	11191.04
