Data from 20250625_urea_1M_1_MAYP1162681_09-15-05-724.txt Node
Date: Thu Jun 26 09:15:05 BST 2025
User: adleo
Spectrometer: MAYP116268
Trigger mode: 0
Integration Time (sec): 1.000000E0
Scans to average: 1
Electric dark correction enabled: true
Nonlinearity correction enabled: true
Boxcar width: 10
XAxis mode: Wavelengths
Number of Pixels in Spectrum: 2068
>>>>>Begin Spectral Data<<<<<
179.565	1130.09
179.642	1180.54
179.718	1222.54
179.795	1259.68
179.871	1288.54
179.948	1306.43
180.024	1325.51
180.101	1346.62
180.177	1357.74
180.254	1378.22
180.33	1396.99
180.407	1446.12
180.483	1535.15
180.56	1619.1
180.636	1697.15
180.712	1685.03
180.789	1693.63
180.865	1705.31
180.942	1713.77
181.018	1721.99
181.095	1735.44
181.171	1740.29
181.248	1741.57
181.324	1754.36
181.4	1761.63
181.477	1772.32
181.553	1783.77
181.63	1803.5
181.706	1816.62
181.782	1827.78
181.859	1828.07
181.935	1835.72
182.011	1831.3
182.088	1847.51
182.164	1865.81
182.24	1876.6
182.317	1886.3
182.393	1882.4
182.469	1894.47
182.546	1906.5
182.622	1910.4
182.698	1907.73
182.775	1919.81
182.851	1932.27
182.927	1924.42
183.003	1917.77
183.08	1911.59
183.156	1916.96
183.232	1915.39
183.308	1906.45
183.385	1911.59
183.461	1924.9
183.537	1923.33
183.613	1935.69
183.69	1928.42
183.766	1919.05
183.842	1930.41
183.918	1935.12
183.995	1946.76
184.071	1950.33
184.147	1943.48
184.223	1931.84
184.299	1942.78
184.375	1931.27
184.452	1937.88
184.528	1992.87
184.604	2004.18
184.68	2016.4
184.756	2025.2
184.832	2027.91
184.908	2031.8
184.985	2030.81
185.061	2019.3
185.137	2031.76
185.213	2019.16
185.289	2019.73
185.365	2012.17
185.441	2006.94
185.517	2022.12
185.593	2021.31
185.669	2015.36
185.745	2027.11
185.822	2044.51
185.898	2035.37
185.974	2042.7
186.05	2034.04
186.126	1996.89
186.202	1990.57
186.278	1987.09
186.354	1979.72
186.43	1987.24
186.506	1985.91
186.582	1986.19
186.658	1991.23
186.734	1968.79
186.81	1974.69
186.886	1973.69
186.962	1986.24
187.038	1983.58
187.114	1974.4
187.19	1980.63
187.266	1975.73
187.341	1978.01
187.417	1971.5
187.493	1970.74
187.569	1974.4
187.645	1971.55
187.721	1959.18
187.797	1969.88
187.873	1972.73
187.949	1966.36
188.025	1961.13
188.101	1964.31
188.176	1968.26
188.252	1966.03
188.328	1974.77
188.404	1972.58
188.48	1970.63
188.556	1962.22
188.632	1963.64
188.707	1963.45
188.783	1961.88
188.859	1958.03
188.935	1946.38
189.011	1952.99
189.086	1949.38
189.162	1940.63
189.238	1938.06
189.314	1936.07
189.39	1927.13
189.465	1918.81
189.541	1935.4
189.617	1920.8
189.693	1915.81
189.768	1920.57
189.844	1941.21
189.92	1932.23
189.996	1939.84
190.071	1951.77
190.147	1952.82
190.223	1962.23
190.298	1957.76
190.374	1944.55
190.45	1957.14
190.526	1962.9
190.601	1957.57
190.677	1959.14
190.753	1986.5
190.828	1990.58
190.904	2005.52
190.98	2021.12
191.055	2032.34
191.131	2024.02
191.207	2042.42
191.282	2053.54
191.358	2043.32
191.433	2031.09
191.509	2046.92
191.585	2041.6
191.66	2039.74
191.736	2048.21
191.811	2037.51
191.887	2052.11
191.963	2073.08
192.038	2077.03
192.114	2079.27
192.189	2081.88
192.265	2077.22
192.34	2055.95
192.416	2053.91
192.491	2048.58
192.567	2049.1
192.642	2053.1
192.718	2053
192.793	2042.59
192.869	2035.74
192.944	2039.78
193.02	2049.58
193.095	2051.29
193.171	2059.24
193.246	2061
193.322	2056.33
193.397	2056.29
193.473	2042.01
193.548	2023.94
193.624	2029.27
193.699	2026.7
193.775	2044.83
193.85	2045.59
193.925	2053.72
194.001	2053.15
194.076	2045.64
194.152	2035.6
194.227	2029.94
194.302	2018.34
194.378	2021.1
194.453	2019.24
194.529	2029.33
194.604	2013.01
194.679	2008.07
194.755	1990.48
194.83	2000.14
194.905	1999.52
194.981	2008.65
195.056	2000.33
195.131	2008.27
195.207	2003.99
195.282	1992.1
195.357	1970.93
195.433	1984.96
195.508	1972.55
195.583	1980.44
195.659	1996.9
195.734	2003.7
195.809	1999.47
195.884	2012.26
195.96	2008.74
196.035	2024.19
196.11	2021.29
196.185	2031.66
196.261	2034.56
196.336	2064.04
196.411	2051.29
196.486	2056.38
196.561	2049.01
196.637	2057.14
196.712	2072.65
196.787	2077.03
196.862	2096.33
196.937	2105.99
197.013	2113.41
197.088	2123.97
197.163	2142.81
197.238	2154.66
197.313	2152.24
197.388	2167.98
197.464	2194.78
197.539	2209.81
197.614	2200.96
197.689	2211.33
197.764	2228.52
197.839	2246.83
197.914	2242.74
197.989	2264.39
198.065	2274.72
198.14	2322.47
198.215	2350.69
198.29	2363.69
198.365	2379.31
198.44	2387.3
198.515	2413.2
198.59	2427.67
198.665	2451.66
198.74	2460.85
198.815	2461.71
198.89	2484.8
198.965	2513.47
199.04	2507.47
199.115	2520.75
199.19	2563.93
199.265	2567.6
199.34	2575.93
199.415	2608.57
199.49	2626.09
199.565	2633.62
199.64	2657.57
199.715	2656.14
199.79	2662.05
199.865	2666.34
199.94	2662.62
200.015	2693.88
200.09	2700.74
200.165	2704.98
200.24	2714.27
200.315	2754.71
200.39	2770.19
200.464	2777.91
200.539	2777.62
200.614	2795.77
200.689	2818.22
200.764	2824.51
200.839	2843.66
200.914	2849.61
200.989	2838.93
201.063	2856.14
201.138	2840.71
201.213	2841.09
201.288	2822.79
201.363	2827.8
201.438	2829.47
201.512	2843.75
201.587	2825.74
201.662	2828.65
201.737	2842.37
201.812	2847.14
201.886	2812.65
201.961	2823.29
202.036	2811.28
202.111	2809.71
202.186	2784.13
202.26	2764.4
202.335	2742.15
202.41	2735.57
202.485	2718.47
202.559	2700.37
202.634	2674.45
202.709	2682.26
202.784	2662.26
202.858	2662.45
202.933	2644.58
203.008	2637.53
203.082	2621.1
203.157	2619.62
203.232	2580.54
203.306	2560.14
203.381	2529.85
203.456	2506.23
203.53	2480.59
203.605	2463.17
203.68	2439.54
203.754	2431.17
203.829	2419.79
203.904	2401.32
203.978	2388.32
204.053	2392.99
204.127	2381.8
204.202	2378.23
204.277	2365.05
204.351	2363.76
204.426	2355.19
204.5	2346.24
204.575	2312.17
204.65	2323.74
204.724	2317.03
204.799	2326.16
204.873	2320.26
204.948	2318.07
205.022	2307.74
205.097	2304.03
205.171	2318.97
205.246	2326.73
205.32	2324.74
205.395	2323.31
205.469	2316.74
205.544	2322.79
205.618	2305.99
205.693	2315.89
205.767	2305.32
205.842	2323.7
205.916	2315.99
205.991	2309.42
206.065	2315.18
206.14	2330.78
206.214	2323.02
206.289	2315.16
206.363	2325.87
206.438	2330.92
206.512	2339.11
206.586	2358.62
206.661	2367.05
206.735	2344.35
206.81	2347.06
206.884	2360.44
206.958	2349.59
207.033	2362.96
207.107	2368.53
207.181	2399.48
207.256	2394.86
207.33	2413.47
207.405	2425.53
207.479	2443.66
207.553	2449.52
207.628	2432.72
207.702	2442.86
207.776	2438
207.851	2445
207.925	2457.91
207.999	2451.24
208.073	2450.53
208.148	2452.39
208.222	2439.81
208.296	2469.46
208.371	2487
208.445	2499.14
208.519	2528.8
208.593	2543.99
208.668	2543.23
208.742	2546.61
208.816	2547.56
208.89	2562.19
208.965	2563.48
209.039	2573
209.113	2590.72
209.187	2613.94
209.261	2613.18
209.336	2630.71
209.41	2652.38
209.484	2654.72
209.558	2681.87
209.632	2692.35
209.707	2702.68
209.781	2726.88
209.855	2744.8
209.929	2761.49
210.003	2774.5
210.077	2778.08
210.151	2827.59
210.226	2862.68
210.3	2892.3
210.374	2924.46
210.448	2936
210.522	2949.97
210.596	2963.98
210.67	2982.29
210.744	3038.66
210.818	3082.61
210.892	3120.34
210.966	3128.58
211.041	3157.1
211.115	3170.79
211.189	3219.53
211.263	3257.21
211.337	3286.79
211.411	3322.53
211.485	3340.48
211.559	3376.69
211.633	3405.02
211.707	3400.53
211.781	3440.18
211.855	3439.42
211.929	3463.89
212.003	3478.83
212.077	3526.82
212.151	3578.59
212.225	3630.64
212.299	3659.12
212.373	3691.7
212.447	3732.32
212.52	3809
212.594	3865.06
212.668	3930.85
212.742	3967.9
212.816	4019.33
212.89	4066.79
212.964	4122.31
213.038	4190.43
213.112	4263.42
213.186	4341.27
213.26	4393.57
213.333	4418.44
213.407	4493.62
213.481	4571.97
213.555	4661.55
213.629	4728.05
213.703	4796.04
213.777	4877.32
213.85	4946.05
213.924	5060.84
213.998	5144.64
214.072	5219.56
214.146	5293.45
214.219	5374.55
214.293	5464.22
214.367	5559.57
214.441	5665.15
214.515	5750.46
214.588	5820.39
214.662	5883.42
214.736	5959.97
214.81	6061.01
214.883	6173.53
214.957	6268.57
215.031	6360.47
215.105	6442.19
215.178	6531.15
215.252	6623.68
215.326	6701
215.4	6782.01
215.473	6842.11
215.547	6935.24
215.621	7030.78
215.694	7143.76
215.768	7231.47
215.842	7319.46
215.915	7410.66
215.989	7490.66
216.063	7587.79
216.136	7697.51
216.21	7804.34
216.284	7928.33
216.357	8039
216.431	8137.13
216.504	8245.61
216.578	8370.56
216.652	8490.74
216.725	8598.63
216.799	8720.88
216.873	8830.37
216.946	8951.65
217.02	9054.32
217.093	9152.24
217.167	9235.05
217.24	9327.26
217.314	9425.87
217.387	9524.23
217.461	9621.45
217.535	9738.24
217.608	9832.73
217.682	9933.4
217.755	10049.49
217.829	10135.67
217.902	10236.21
217.976	10339.1
218.049	10432.04
218.123	10513.76
218.196	10606.36
218.27	10695.11
218.343	10768.07
218.417	10861.64
218.49	10952.33
218.563	11060.85
218.637	11158.44
218.71	11277.19
218.784	11373.29
218.857	11478.15
218.931	11575.26
219.004	11666.88
219.077	11762.7
219.151	11850.61
219.224	11927.54
219.298	12016.57
219.371	12123.86
219.444	12198.43
219.518	12284.86
219.591	12378.51
219.665	12492.37
219.738	12587.09
219.811	12671.64
219.885	12771.76
219.958	12866.29
220.031	12945.93
220.105	13032.36
220.178	13112.72
220.251	13181.89
220.325	13273.44
220.398	13357.46
220.471	13443.6
220.544	13529.36
220.618	13595.6
220.691	13679
220.764	13762.58
220.838	13838.7
220.911	13893.85
220.984	13987.18
221.057	14070.19
221.131	14139.8
221.204	14179.37
221.277	14261.66
221.35	14360.96
221.424	14421.51
221.497	14491.16
221.57	14560.92
221.643	14628.07
221.716	14696.08
221.79	14751.71
221.863	14809.89
221.936	14869.42
222.009	14929.58
222.082	14994.85
222.155	15049.47
222.229	15128.04
222.302	15192.34
222.375	15246.28
222.448	15317.04
222.521	15370.45
222.594	15416.29
222.667	15461.26
222.74	15531.49
222.814	15577.57
222.887	15616.99
222.96	15671.32
223.033	15726.51
223.106	15775.48
223.179	15831
223.252	15879.35
223.325	15939.26
223.398	15987.89
223.471	16038.93
223.544	16087.38
223.617	16129.21
223.69	16180.88
223.763	16212.02
223.837	16257.47
223.91	16304.46
223.983	16333.33
224.056	16365.19
224.129	16417.82
224.202	16469.54
224.275	16498.6
224.348	16529.01
224.42	16554.7
224.493	16584.92
224.566	16613.79
224.639	16660.15
224.712	16681.41
224.785	16713.36
224.858	16741.75
224.931	16759.53
225.004	16771.77
225.077	16806.43
225.15	16824.4
225.223	16863.01
225.296	16911.49
225.369	16925.37
225.442	16943.4
225.514	16974.96
225.587	17012.84
225.66	17041.62
225.733	17077.71
225.806	17111.93
225.879	17139.98
225.952	17166.78
226.025	17209.38
226.097	17255.74
226.17	17281.28
226.243	17300.13
226.316	17330.58
226.389	17364.66
226.461	17405.48
226.534	17446.73
226.607	17470.15
226.68	17517.19
226.753	17537.86
226.825	17543.79
226.898	17584.32
226.971	17607.79
227.044	17637.43
227.117	17662.2
227.189	17689.52
227.262	17719.93
227.335	17752.56
227.407	17771.02
227.48	17791.31
227.553	17816.12
227.626	17822.77
227.698	17839.4
227.771	17870.34
227.844	17880.41
227.916	17895.35
227.989	17896.41
228.062	17906.53
228.134	17941.28
228.207	17944.94
228.28	17951.69
228.352	17969.23
228.425	17985.37
228.498	18015.78
228.57	18023.06
228.643	18050.38
228.716	18057.71
228.788	18059.34
228.861	18052.45
228.934	18079.68
229.006	18094.96
229.079	18098.96
229.151	18109.03
229.224	18108.11
229.296	18127.1
229.369	18172.21
229.442	18199
229.514	18213.94
229.587	18241.12
229.659	18241.55
229.732	18259.43
229.804	18284.83
229.877	18313.36
229.949	18335.57
230.022	18357.5
230.094	18361.31
230.167	18364.2
230.239	18363.04
230.312	18369.55
230.384	18410.94
230.457	18419.81
230.529	18442.89
230.602	18451.13
230.674	18458.8
230.747	18479.57
230.819	18483.47
230.892	18457.45
230.964	18468.96
231.037	18474.6
231.109	18474.17
231.181	18488.1
231.254	18486.84
231.326	18481.4
231.399	18485.4
231.471	18483.13
231.544	18461.78
231.616	18481.73
231.688	18484.19
231.761	18486.02
231.833	18493.69
231.905	18466.99
231.978	18469.16
232.05	18459.42
232.122	18458.8
232.195	18461.01
232.267	18471.28
232.339	18469.73
232.412	18479.9
232.484	18468.67
232.556	18462.89
232.629	18486.22
232.701	18491.08
232.773	18492.77
232.846	18489.16
232.918	18476.63
232.99	18471.52
233.062	18481.16
233.135	18482.07
233.207	18467.04
233.279	18468.24
233.351	18460.58
233.424	18454.02
233.496	18432.1
233.568	18437.78
233.64	18423.71
233.713	18406.75
233.785	18389.69
233.857	18383.96
233.929	18364.87
234.001	18374.94
234.074	18391.47
234.146	18361.31
234.218	18335.86
234.29	18319.67
234.362	18304.97
234.434	18284.3
234.507	18256.44
234.579	18233.75
234.651	18210.86
234.723	18208.54
234.795	18205.41
234.867	18193.03
234.939	18197.7
235.012	18193.94
235.084	18183.29
235.156	18177.46
235.228	18167.2
235.3	18154.57
235.372	18143.1
235.444	18144.79
235.516	18105.17
235.588	18085.32
235.66	18070.28
235.732	18050.86
235.804	18089.08
235.876	18087.78
235.948	18093.9
236.02	18088.26
236.092	18071.01
236.164	18057.08
236.236	18033.18
236.308	18003.54
236.38	17992.5
236.452	17964.17
236.524	17948.22
236.596	17945.52
236.668	17943.97
236.74	17931.25
236.812	17920.02
236.884	17913.04
236.956	17901.52
237.028	17875.59
237.1	17839.4
237.172	17833.76
237.244	17835.11
237.316	17784.17
237.388	17759.16
237.46	17729.67
237.532	17725.04
237.604	17701.04
237.675	17696.08
237.747	17688.66
237.819	17668.03
237.891	17650.78
237.963	17622.58
238.035	17603.11
238.107	17545.52
238.178	17525.96
238.25	17494.54
238.322	17497.91
238.394	17454.87
238.466	17426.83
238.538	17407.16
238.609	17397.43
238.681	17361.19
238.753	17327.6
238.825	17312.8
238.897	17290.58
238.968	17276.8
239.04	17243.55
239.112	17247.07
239.184	17215.36
239.255	17191.45
239.327	17174.92
239.399	17153.33
239.471	17134.34
239.542	17116.32
239.614	17114
239.686	17065.91
239.758	17065.57
239.829	17027.59
239.901	17024.03
239.973	16991.74
240.044	16983.3
240.116	16952.6
240.188	16933.9
240.259	16912.55
240.331	16875.35
240.403	16859.25
240.474	16824.4
240.546	16789.8
240.618	16746.28
240.689	16716.01
240.761	16688.73
240.833	16682.52
240.904	16653.98
240.976	16639.09
241.048	16609.31
241.119	16592.34
241.191	16575.62
241.262	16553.74
241.334	16515.56
241.405	16474.21
241.477	16446.6
241.549	16415.12
241.62	16397.72
241.692	16371.7
241.763	16354.25
241.835	16325.14
241.906	16305.23
241.978	16268.12
242.049	16259.3
242.121	16241.23
242.192	16221.27
242.264	16183.82
242.335	16142.85
242.407	16120.78
242.478	16088.92
242.55	16071.38
242.621	16032.67
242.693	16007.56
242.764	15977.63
242.836	15954.21
242.907	15932.37
242.979	15909.62
243.05	15887.4
243.122	15865.23
243.193	15833.61
243.264	15787.29
243.336	15761.94
243.407	15741.07
243.479	15733.98
243.55	15710.56
243.622	15686.89
243.693	15664.96
243.764	15661.73
243.836	15629.15
243.907	15601.38
243.978	15572.22
244.05	15548.41
244.121	15509.94
244.192	15483.92
244.264	15443.33
244.335	15424.44
244.407	15390.07
244.478	15366.83
244.549	15335.21
244.62	15299.69
244.692	15277.13
244.763	15264.89
244.834	15239.87
244.906	15203.72
244.977	15180.29
245.048	15163.95
245.119	15129.2
245.191	15096.47
245.262	15037.51
245.333	15021.37
245.405	14989.31
245.476	14972.97
245.547	14950.17
245.618	14934.75
245.689	14914.55
245.761	14891.94
245.832	14860.17
245.903	14841.91
245.974	14821.9
246.045	14790.23
246.117	14777.94
246.188	14740.39
246.259	14700.43
246.33	14672.13
246.401	14638
246.473	14593.32
246.544	14561.02
246.615	14548.34
246.686	14513.34
246.757	14517.97
246.828	14479.46
246.899	14473.57
246.97	14422.48
247.042	14385.31
247.113	14367.38
247.184	14359.95
247.255	14326.26
247.326	14304.42
247.397	14280.46
247.468	14258.48
247.539	14241.8
247.61	14202.23
247.681	14188.78
247.752	14180.92
247.823	14144.91
247.894	14126.49
247.965	14092.41
248.037	14064.16
248.108	14027.82
248.179	14011.52
248.25	13974.07
248.321	13958.74
248.392	13915.54
248.463	13918.44
248.534	13896.94
248.605	13882.04
248.675	13857.41
248.746	13845.89
248.817	13824.72
248.888	13797.01
248.959	13753.47
249.03	13736.22
249.101	13711.39
249.172	13677.98
249.243	13633.25
249.314	13624.33
249.385	13598.73
249.456	13590.39
249.527	13565.42
249.598	13541.32
249.669	13513.65
249.739	13497.64
249.81	13473.44
249.881	13444.04
249.952	13418.2
250.023	13394.34
250.094	13351.62
250.165	13310.89
250.235	13289.2
250.306	13271.51
250.377	13243.16
250.448	13232.46
250.519	13190.76
250.59	13182.76
250.66	13160.1
250.731	13153.59
250.802	13137.39
250.873	13124.19
250.944	13102.93
251.014	13072.12
251.085	13077.47
251.156	13064.31
251.227	13048.07
251.297	13045.56
251.368	13035.34
251.439	13031.44
251.51	13013.89
251.58	12987.23
251.651	12967.18
251.722	12954.79
251.792	12916.23
251.863	12891.21
251.934	12876.7
252.005	12881.76
252.075	12863.54
252.146	12859.34
252.217	12850.57
252.287	12831.29
252.358	12805.83
252.429	12797.35
252.499	12775.42
252.57	12753.63
252.641	12743.22
252.711	12728.66
252.782	12688.7
252.852	12688.16
252.923	12653.02
252.994	12640.25
253.064	12630.03
253.135	12603.18
253.205	12572.28
253.276	12570.21
253.347	12574.98
253.417	12549.48
253.488	12524.46
253.558	12503.25
253.629	12478.86
253.699	12456.35
253.77	12444.25
253.841	12427.09
253.911	12415.86
253.982	12394.41
254.052	12376.23
254.123	12356.23
254.193	12331.6
254.264	12349.72
254.334	12319.11
254.405	12296.17
254.475	12261.75
254.546	12238.03
254.616	12226.95
254.687	12214.7
254.757	12199.33
254.827	12175.56
254.898	12163.51
254.968	12149
255.039	12122.11
255.109	12116.47
255.18	12093.04
255.25	12053.42
255.321	12035.25
255.391	11999.58
255.461	12009.12
255.532	11965.45
255.602	11940.39
255.673	11909.54
255.743	11890.45
255.813	11848.23
255.884	11841.34
255.954	11834.11
256.024	11842.06
256.095	11829.24
256.165	11802.05
256.235	11787.21
256.306	11766.63
256.376	11760.36
256.446	11740.12
256.517	11727.49
256.587	11717.8
256.657	11702.33
256.728	11684.54
256.798	11666.81
256.868	11648.83
256.938	11617.11
257.009	11618.22
257.079	11608.54
257.149	11613.93
257.219	11568.53
257.29	11555.71
257.36	11517.78
257.43	11506.65
257.5	11464.14
257.571	11436.67
257.641	11418.16
257.711	11388.52
257.781	11379.02
257.852	11364.85
257.922	11337.67
257.992	11317.09
258.062	11288.51
258.132	11282.68
258.202	11269.04
258.273	11254.39
258.343	11253.52
258.413	11233.23
258.483	11214.1
258.553	11184.56
258.623	11153.96
258.693	11142.1
258.764	11141.47
258.834	11146.25
258.904	11130.97
258.974	11105.24
259.044	11089.33
259.114	11083.26
259.184	11064.37
259.254	11040.37
259.324	11002.78
259.394	10992.9
259.464	10992.47
259.535	10977.96
259.605	10951.17
259.675	10932.28
259.745	10924.09
259.815	10902.06
259.885	10885.78
259.955	10895.61
260.025	10868.72
260.095	10861.3
260.165	10849.01
260.235	10847.09
260.305	10818.32
260.375	10791.33
260.445	10801.79
260.515	10797.64
260.585	10787.67
260.655	10780.35
260.725	10774.32
260.795	10765.07
260.865	10769.46
260.934	10751.53
261.004	10739.15
261.074	10726.52
261.144	10727
261.214	10716.55
261.284	10693.51
261.354	10678.39
261.424	10644.03
261.494	10652.55
261.564	10635.88
261.634	10626.58
261.703	10593.09
261.773	10584.62
261.843	10579.12
261.913	10562.26
261.983	10538.65
262.053	10527.23
262.123	10505.16
262.192	10479
262.262	10472.59
262.332	10441.08
262.402	10428.46
