Data from 20250625_urea_1M_1_MAYP1162681_21-35-06-085.txt Node
Date: Wed Jun 25 21:35:06 BST 2025
User: adleo
Spectrometer: MAYP116268
Trigger mode: 0
Integration Time (sec): 1.000000E0
Scans to average: 1
Electric dark correction enabled: true
Nonlinearity correction enabled: true
Boxcar width: 10
XAxis mode: Wavelengths
Number of Pixels in Spectrum: 2068
>>>>>Begin Spectral Data<<<<<
179.565	1175.2
179.642	1230.84
179.718	1269.63
179.795	1312.65
179.871	1344.81
179.948	1364.15
180.024	1384.86
180.101	1406.43
180.177	1419.84
180.254	1441.15
180.33	1465.27
180.407	1516.45
180.483	1610.28
180.56	1696.51
180.636	1779.59
180.712	1767.66
180.789	1775.69
180.865	1790.47
180.942	1800.11
181.018	1807.81
181.095	1825.31
181.171	1828.59
181.248	1830.11
181.324	1846.65
181.4	1849.03
181.477	1862.58
181.553	1874.03
181.63	1893.52
181.706	1906.45
181.782	1916.1
181.859	1918
181.935	1920.33
182.011	1918.24
182.088	1934.26
182.164	1954.76
182.24	1966.27
182.317	1974.11
182.393	1972.64
182.469	1984.05
182.546	1994.51
182.622	1997.12
182.698	1990.89
182.775	2003.11
182.851	2012.67
182.927	2006.15
183.003	2002.92
183.08	1993.41
183.156	2001.73
183.232	1998.4
183.308	1990.42
183.385	1996.6
183.461	2012.91
183.537	2012.29
183.613	2027.37
183.69	2018.81
183.766	2007.82
183.842	2015.66
183.918	2019.66
183.995	2030.02
184.071	2035.26
184.147	2030.31
184.223	2020.9
184.299	2031.89
184.375	2021.14
184.452	2031.51
184.528	2087.13
184.604	2100.73
184.68	2113.15
184.756	2120.61
184.832	2124.37
184.908	2127.13
184.985	2129.98
185.061	2111.63
185.137	2123.37
185.213	2109.68
185.289	2109.34
185.365	2102.07
185.441	2099.98
185.517	2117.1
185.593	2117.58
185.669	2114.01
185.745	2125.33
185.822	2142.73
185.898	2135.83
185.974	2146.87
186.05	2138.4
186.126	2097.86
186.202	2088.15
186.278	2083.21
186.354	2075.74
186.43	2081.64
186.506	2082.49
186.582	2079.35
186.658	2086.68
186.734	2066.85
186.81	2067.8
186.886	2070.94
186.962	2082.11
187.038	2076.55
187.114	2067.03
187.19	2071.93
187.266	2060.52
187.341	2061.66
187.417	2054.29
187.493	2053.72
187.569	2056.38
187.645	2050.48
187.721	2035.45
187.797	2044.82
187.873	2051.86
187.949	2042.11
188.025	2036.07
188.101	2038.64
188.176	2039.59
188.252	2035.83
188.328	2043.77
188.404	2041.73
188.48	2034.22
188.556	2028.08
188.632	2031.88
188.707	2032.03
188.783	2028.89
188.859	2025.13
188.935	2012.86
189.011	2023.61
189.086	2017.95
189.162	2011.67
189.238	2008.25
189.314	2007.49
189.39	1998.98
189.465	1990.37
189.541	2007.58
189.617	1994.32
189.693	1989.18
189.768	1994.22
189.844	2016.01
189.92	2006.79
189.996	2018.58
190.071	2031.14
190.147	2031.52
190.223	2038.79
190.298	2031.8
190.374	2018.96
190.45	2031.7
190.526	2038.46
190.601	2029.47
190.677	2030.47
190.753	2057.64
190.828	2061.26
190.904	2078.9
190.98	2094.22
191.055	2102.02
191.131	2095.26
191.207	2112.53
191.282	2122.18
191.358	2114.81
191.433	2103.25
191.509	2117.75
191.585	2113.85
191.66	2116.51
191.736	2125.26
191.811	2115.8
191.887	2130.83
191.963	2154.33
192.038	2157.75
192.114	2158.99
192.189	2162.89
192.265	2161.18
192.34	2136.57
192.416	2135.24
192.491	2130.15
192.567	2135.81
192.642	2141.47
192.718	2139.67
192.793	2129.87
192.869	2125.45
192.944	2127.73
193.02	2135.15
193.095	2138.1
193.171	2143.43
193.246	2140.43
193.322	2137.34
193.397	2140.33
193.473	2128.01
193.548	2110.55
193.624	2115.83
193.699	2116.64
193.775	2134.87
193.85	2132.54
193.925	2139.39
194.001	2138.2
194.076	2132.54
194.152	2117.69
194.227	2108.65
194.302	2103.52
194.378	2108.65
194.453	2106.23
194.529	2119.93
194.604	2104.99
194.679	2098.57
194.755	2079.6
194.83	2093.83
194.905	2091.26
194.981	2098.54
195.056	2088.74
195.131	2095.35
195.207	2094.54
195.282	2085.74
195.357	2064.57
195.433	2082.45
195.508	2071.04
195.583	2080.98
195.659	2091.87
195.734	2102.77
195.809	2101.58
195.884	2107.14
195.96	2106.38
196.035	2122.84
196.11	2118.32
196.185	2128.69
196.261	2131.07
196.336	2161.79
196.411	2143.43
196.486	2148.28
196.561	2139.72
196.637	2151.51
196.712	2164.98
196.787	2168.07
196.862	2182.15
196.937	2192.43
197.013	2199.18
197.088	2210.46
197.163	2231.12
197.238	2247.92
197.313	2245.92
197.388	2261.63
197.464	2291.95
197.539	2305.89
197.614	2294.19
197.689	2304.52
197.764	2320.56
197.839	2340.64
197.914	2333.4
197.989	2361.63
198.065	2374
198.14	2425.77
198.215	2450.77
198.29	2463.72
198.365	2478.1
198.44	2486.62
198.515	2515.1
198.59	2526.81
198.665	2555.14
198.74	2562.38
198.815	2563.81
198.89	2589.15
198.965	2617.5
199.04	2613.4
199.115	2627.21
199.19	2672.45
199.265	2677.4
199.34	2686.45
199.415	2718.62
199.49	2742.86
199.565	2750.44
199.64	2774.16
199.715	2772.68
199.79	2777.97
199.865	2785.83
199.94	2783.17
200.015	2817.95
200.09	2823.2
200.165	2829.92
200.24	2834.59
200.315	2872.46
200.39	2887.23
200.464	2890.04
200.539	2896.05
200.614	2911.97
200.689	2933.66
200.764	2941.29
200.839	2956.63
200.914	2963.11
200.989	2954.05
201.063	2967.25
201.138	2948.44
201.213	2948.58
201.288	2926.51
201.363	2931.61
201.438	2929.66
201.512	2944.24
201.587	2924.88
201.662	2927.07
201.737	2941.95
201.812	2949.62
201.886	2917.52
201.961	2927.3
202.036	2917.19
202.111	2906.42
202.186	2878.31
202.26	2863.06
202.335	2841.56
202.41	2838.79
202.485	2823.55
202.559	2805.53
202.634	2777.18
202.709	2789.42
202.784	2771.22
202.858	2771.6
202.933	2755.45
203.008	2750.83
203.082	2731.96
203.157	2735.16
203.232	2695.86
203.306	2675.42
203.381	2641.16
203.456	2619.11
203.53	2595.94
203.605	2574.85
203.68	2554.36
203.754	2549.98
203.829	2534.31
203.904	2515.4
203.978	2500.5
204.053	2505.64
204.127	2491.55
204.202	2492.74
204.277	2476.12
204.351	2468.6
204.426	2464.36
204.5	2455.93
204.575	2420.61
204.65	2432.81
204.724	2420.89
204.799	2428.89
204.873	2421.13
204.948	2421.98
205.022	2412.89
205.097	2405.99
205.171	2420.84
205.246	2428.65
205.32	2425.51
205.395	2423.03
205.469	2414.94
205.544	2419.99
205.618	2401.09
205.693	2415.7
205.767	2401.14
205.842	2416.76
205.916	2413
205.991	2401.38
206.065	2407.09
206.14	2423.27
206.214	2417.12
206.289	2406.93
206.363	2414.88
206.438	2418.74
206.512	2426.5
206.586	2444.45
206.661	2452.83
206.735	2429.94
206.81	2427.89
206.884	2442.74
206.958	2433.94
207.033	2448.31
207.107	2459.17
207.181	2489.7
207.256	2479.7
207.33	2499.46
207.405	2515.09
207.479	2533.52
207.553	2541.85
207.628	2528
207.702	2541.23
207.776	2536.85
207.851	2544.95
207.925	2565.34
207.999	2561.53
208.073	2558.15
208.148	2559.77
208.222	2547.48
208.296	2579.18
208.371	2599.48
208.445	2613.72
208.519	2637.82
208.593	2653.49
208.668	2647.72
208.742	2650.01
208.816	2656.01
208.89	2672.21
208.965	2673.02
209.039	2681.08
209.113	2701.75
209.187	2724.03
209.261	2722.8
209.336	2744.95
209.41	2767.35
209.484	2771.11
209.558	2798.66
209.632	2820.67
209.707	2840.35
209.781	2870.94
209.855	2897.69
209.929	2921.83
210.003	2935.85
210.077	2951.63
210.151	3005.79
210.226	3056.26
210.3	3097.87
210.374	3137.82
210.448	3155.57
210.522	3183.62
210.596	3219.69
210.67	3250.17
210.744	3321.91
210.818	3381.92
210.892	3430.79
210.966	3458.71
211.041	3509.03
211.115	3543.73
211.189	3606.51
211.263	3664.77
211.337	3710.66
211.411	3769.05
211.485	3814.59
211.559	3879.41
211.633	3938.25
211.707	3970.58
211.781	4043.64
211.855	4080.45
211.929	4141.82
212.003	4203.23
212.077	4296.05
212.151	4387.78
212.225	4484.2
212.299	4563.31
212.373	4643.43
212.447	4735.7
212.52	4869.74
212.594	4975.56
212.668	5094.43
212.742	5192.08
212.816	5303.8
212.89	5422.49
212.964	5544.05
213.038	5675.61
213.112	5816.58
213.186	5964.88
213.26	6082.86
213.333	6175.77
213.407	6328.99
213.481	6486.16
213.555	6648.9
213.629	6793.32
213.703	6937.11
213.777	7096.65
213.85	7240.83
213.924	7442.1
213.998	7614.08
214.072	7775.98
214.146	7948.07
214.219	8128.16
214.293	8307.86
214.367	8490.8
214.441	8685.24
214.515	8863.71
214.588	9026.36
214.662	9187.24
214.736	9358.39
214.81	9564.72
214.883	9770.68
214.957	9954.55
215.031	10136.79
215.105	10314.07
215.178	10494.49
215.252	10685.8
215.326	10853.23
215.4	11032.51
215.473	11186.29
215.547	11361.9
215.621	11542.1
215.694	11728.32
215.768	11903.91
215.842	12084.21
215.915	12265.83
215.989	12433.72
216.063	12612.93
216.136	12801.98
216.21	12986.93
216.284	13179.79
216.357	13369.96
216.431	13545.47
216.504	13733.75
216.578	13937.46
216.652	14122.38
216.725	14304.2
216.799	14489.4
216.873	14670.36
216.946	14856.04
217.02	15020.94
217.093	15188.69
217.167	15341.97
217.24	15501.32
217.314	15659.71
217.387	15816.75
217.461	15966.99
217.535	16136.5
217.608	16276.86
217.682	16439.86
217.755	16610.86
217.829	16764.9
217.902	16903.51
217.976	17060.33
218.049	17194.75
218.123	17328.58
218.196	17483.14
218.27	17616.78
218.343	17731.77
218.417	17873.21
218.49	18001.11
218.563	18149.69
218.637	18286.6
218.71	18429.29
218.784	18551.22
218.857	18684.75
218.931	18811.49
219.004	18938.09
219.077	19064.88
219.151	19194.32
219.224	19306.84
219.298	19415.13
219.371	19523.51
219.444	19625
219.518	19715.98
219.591	19828.6
219.665	19944.94
219.738	20035.15
219.811	20124.11
219.885	20243.39
219.958	20346.96
220.031	20440.31
220.105	20531.59
220.178	20621.27
220.251	20706.82
220.325	20808.32
220.398	20886.88
220.471	20980.42
220.544	21062.79
220.618	21120
220.691	21191.57
220.764	21256.35
220.838	21331.73
220.911	21399.69
220.984	21487.7
221.057	21567.32
221.131	21628.63
221.204	21665.17
221.277	21747.5
221.35	21832
221.424	21875.23
221.497	21927.73
221.57	21978.39
221.643	22037.2
221.716	22093.7
221.79	22126.81
221.863	22170.63
221.936	22220.96
222.009	22258.32
222.082	22309.61
222.155	22359.55
222.229	22416.25
222.302	22458.14
222.375	22493.23
222.448	22536.91
222.521	22568.11
222.594	22603.68
222.667	22618.73
222.74	22653.1
222.814	22675.13
222.887	22693.89
222.96	22730.09
223.033	22753.09
223.106	22779.32
223.179	22805.45
223.252	22817.12
223.325	22850.05
223.398	22868.32
223.471	22889.87
223.544	22903.28
223.617	22917.45
223.69	22934.23
223.763	22935.68
223.837	22960.17
223.91	22972.27
223.983	22967.98
224.056	22957.76
224.129	22966.58
224.202	22987.89
224.275	22994.55
224.348	22977.77
224.42	22975.89
224.493	22962.34
224.566	22968.17
224.639	22975.41
224.712	22959.49
224.785	22964.32
224.858	22957.95
224.931	22949.8
225.004	22930.03
225.077	22934.9
225.15	22904.48
225.223	22905.69
225.296	22926.52
225.369	22894.02
225.442	22883.12
225.514	22873.77
225.587	22875.94
225.66	22878.21
225.733	22886.74
225.806	22878.69
225.879	22880.14
225.952	22865.24
226.025	22870.15
226.097	22870.78
226.17	22855.59
226.243	22828.74
226.316	22802.22
226.389	22797.21
226.461	22783.9
226.534	22781.78
226.607	22759.99
226.68	22766.55
226.753	22733.76
226.825	22693.6
226.898	22701.26
226.971	22677.74
227.044	22668
227.117	22661.2
227.189	22640.23
227.262	22621.18
227.335	22611.35
227.407	22591.44
227.48	22576.88
227.553	22559.81
227.626	22528.32
227.698	22525.96
227.771	22523.07
227.844	22514.63
227.916	22491.93
227.989	22468.74
228.062	22444.2
228.134	22447.82
228.207	22433.5
228.28	22416.38
228.352	22394.84
228.425	22374.68
228.498	22374.15
228.57	22347.25
228.643	22346.24
228.716	22323.25
228.788	22297.31
228.861	22266.17
228.934	22260.29
229.006	22239.85
229.079	22210.15
229.151	22190.48
229.224	22149.27
229.296	22129.5
229.369	22155.59
229.442	22149.56
229.514	22121.6
229.587	22120.59
229.659	22086.51
229.732	22058.55
229.804	22051.37
229.877	22058.84
229.949	22043.12
230.022	22033.63
230.094	22022.15
230.167	21988.6
230.239	21968.89
230.312	21944.45
230.384	21951.34
230.457	21923.48
230.529	21915.19
230.602	21898.42
230.674	21879.13
230.747	21864.77
230.819	21855.95
230.892	21781.57
230.964	21759.73
231.037	21740.55
231.109	21704.45
231.181	21678.37
231.254	21644.58
231.326	21615.86
231.399	21577.63
231.471	21550.78
231.544	21498.39
231.616	21479.83
231.688	21459.39
231.761	21425.03
231.833	21396.21
231.905	21342.61
231.978	21324.87
232.05	21291.08
232.122	21271.42
232.195	21250.21
232.267	21234.98
232.339	21197
232.412	21187.99
232.484	21163.21
232.556	21136.51
232.629	21144.08
232.701	21126.87
232.773	21110.97
232.846	21076.12
232.918	21048.22
232.99	21025.13
233.062	21012.26
233.135	20982.82
233.207	20927.83
233.279	20896.69
233.351	20875.29
233.424	20851.44
233.496	20812.06
233.568	20795.97
233.64	20764.21
233.713	20721.46
233.785	20698.37
233.857	20684.83
233.929	20635.48
234.001	20622.18
234.074	20615.24
234.146	20555.43
234.218	20524.05
234.29	20498.75
234.362	20471.38
234.434	20429.93
234.507	20393.35
234.579	20354.65
234.651	20320.05
234.723	20315.43
234.795	20304.15
234.867	20281.11
234.939	20263.91
235.012	20239.48
235.084	20213.64
235.156	20188.34
235.228	20156.78
235.3	20118.66
235.372	20089.65
235.444	20070.56
235.516	20004.16
235.588	19972.25
235.66	19940.93
235.732	19904.11
235.804	19917.12
235.876	19896.88
235.948	19888.26
236.02	19846.62
236.092	19806.04
236.164	19773.18
236.236	19729.81
236.308	19689.62
236.38	19657.52
236.452	19611.45
236.524	19582.25
236.596	19564.56
236.668	19532.03
236.74	19500.85
236.812	19464.28
236.884	19432.14
236.956	19409.92
237.028	19378.02
237.1	19331.8
237.172	19316.09
237.244	19296.19
237.316	19229.69
237.388	19181.84
237.46	19135.19
237.532	19120.39
237.604	19080.3
237.675	19067.38
237.747	19046.18
237.819	19009.85
237.891	18970.76
237.963	18934.96
238.035	18895.83
238.107	18823.45
238.178	18803.74
238.25	18771.4
238.322	18766.01
238.394	18712.66
238.466	18668.86
238.538	18642.3
238.609	18613.29
238.681	18562.5
238.753	18522.65
238.825	18494.41
238.897	18473.35
238.968	18461.88
239.04	18421.98
239.112	18426.07
239.184	18382.37
239.255	18341.84
239.327	18312.49
239.399	18284.78
239.471	18266.56
239.542	18239.82
239.614	18228.49
239.686	18167.44
239.758	18146.71
239.829	18101.46
239.901	18084.55
239.973	18053.46
240.044	18030.14
240.116	17994.53
240.188	17961.56
240.259	17933.66
240.331	17894.1
240.403	17863.35
240.474	17810.05
240.546	17768.46
240.618	17706.58
240.689	17669.14
240.761	17637.81
240.833	17618.1
240.904	17575.6
240.976	17542.1
241.048	17522.1
241.119	17496.8
241.191	17475.21
241.262	17459.12
241.334	17422.15
241.405	17386.59
241.477	17346.78
241.549	17312.51
241.62	17287.6
241.692	17268.27
241.763	17239.6
241.835	17198.2
241.906	17174.68
241.978	17130.34
242.049	17124.41
242.121	17113.62
242.192	17103.35
242.264	17062.39
242.335	17009.76
242.407	16991.06
242.478	16953.32
242.55	16920.94
242.621	16884.74
242.693	16857.7
242.764	16818.52
242.836	16784.3
242.907	16758.13
242.979	16741.51
243.05	16715.48
243.122	16692.3
243.193	16648.01
243.264	16606.03
243.336	16588.39
243.407	16569.16
243.479	16562.22
243.55	16531.04
243.622	16502.65
243.693	16457.68
243.764	16446.69
243.836	16415.56
243.907	16386.2
243.978	16351.16
244.05	16323.55
244.121	16281.18
244.192	16255.73
244.264	16211.97
244.335	16184.98
244.407	16140.78
244.478	16119.33
244.549	16081.4
244.62	16037.73
244.692	16019.71
244.763	16000.04
244.834	15958.2
244.906	15919.79
244.977	15895.5
245.048	15880.03
245.119	15844.6
245.191	15812.02
245.262	15764.49
245.333	15757.07
245.405	15732.39
245.476	15716.19
245.547	15689.44
245.618	15661.97
245.689	15637.39
245.761	15616.56
245.832	15586.29
245.903	15571.21
245.974	15537.13
246.045	15512.69
246.117	15502.09
246.188	15457.89
246.259	15412.24
246.33	15391.46
246.401	15354.16
246.473	15312.46
246.544	15272.55
246.615	15258.86
246.686	15225.6
246.757	15210.71
246.828	15164.24
246.899	15142.64
246.97	15104.23
247.042	15075.02
247.113	15064.6
247.184	15048.55
247.255	15013.22
247.326	14986.42
247.397	14954.94
247.468	14935.18
247.539	14908.96
247.61	14866.06
247.681	14856.37
247.752	14843.35
247.823	14805.75
247.894	14786.81
247.965	14756
248.037	14723.08
248.108	14672.66
248.179	14654.44
248.25	14626.72
248.321	14614.57
248.392	14579.87
248.463	14578.56
248.534	14548.34
248.605	14517.73
248.675	14487.75
248.746	14468.18
248.817	14447.79
248.888	14436.46
248.959	14392.01
249.03	14373.79
249.101	14351.66
249.172	14318.64
249.243	14284.9
249.314	14280.9
249.385	14255.06
249.456	14236.69
249.527	14214.57
249.598	14198.85
249.669	14177.93
249.739	14157.2
249.81	14135.46
249.881	14102.58
249.952	14073.66
250.023	14047.2
250.094	14014.95
250.165	13983.42
250.235	13961.49
250.306	13944.32
250.377	13905.76
250.448	13895.49
250.519	13854.03
250.59	13848.01
250.66	13827.38
250.731	13822.36
250.802	13798.36
250.873	13781.34
250.944	13759.4
251.014	13729.95
251.085	13735.01
251.156	13710.81
251.227	13701.56
251.297	13692.25
251.368	13681.21
251.439	13668.68
251.51	13663.28
251.58	13635.03
251.651	13612.09
251.722	13602.11
251.792	13566.53
251.863	13543
251.934	13529.65
252.005	13544.79
252.075	13526.71
252.146	13517.46
252.217	13503.86
252.287	13486.07
252.358	13457.25
252.429	13450.45
252.499	13427.21
252.57	13404.07
252.641	13391.35
252.711	13377.03
252.782	13340.97
252.852	13341.02
252.923	13318.84
252.994	13296.38
253.064	13289.78
253.135	13255.79
253.205	13225.95
253.276	13220.7
253.347	13221.03
253.417	13189.17
253.488	13158.32
253.558	13126.65
253.629	13101.39
253.699	13084.03
253.77	13069.76
253.841	13054.67
253.911	13043.01
253.982	13024.54
254.052	13012.64
254.123	12994.8
254.193	12961.3
254.264	12977.74
254.334	12943.85
254.405	12913.28
254.475	12882.63
254.546	12862.52
254.616	12866.77
254.687	12854.18
254.757	12835.53
254.827	12814.61
254.898	12801.5
254.968	12782.5
255.039	12765.05
255.109	12754.98
255.18	12724.99
255.25	12684.45
255.321	12680.36
255.391	12641.7
255.461	12641.65
255.532	12598.26
255.602	12581.34
255.673	12548.42
255.743	12524.41
255.813	12480.84
255.884	12470.67
255.954	12458.13
256.024	12452.44
256.095	12431.43
256.165	12404.87
256.235	12394.79
256.306	12363.27
256.376	12359.03
256.446	12347.07
256.517	12325.62
256.587	12321.62
256.657	12302.87
256.728	12286.38
256.798	12256.26
256.868	12237.17
256.938	12211.91
257.009	12202.7
257.079	12184.1
257.149	12193.5
257.219	12153.05
257.29	12143.8
257.36	12110.64
257.43	12102.83
257.5	12059.98
257.571	12038
257.641	12031.34
257.711	12003.19
257.781	11999.29
257.852	11982.9
257.922	11948.39
257.992	11938.03
258.062	11908.14
258.132	11905.97
258.202	11893.92
258.273	11883.46
258.343	11888.67
258.413	11867.94
258.483	11858.16
258.553	11831.12
258.623	11801.81
258.693	11785.62
258.764	11786.92
258.834	11787.25
258.904	11775.4
258.974	11760.46
259.044	11738.72
259.114	11723.68
259.184	11705.75
259.254	11678.42
259.324	11643
259.394	11628.68
259.464	11622.51
259.535	11602.32
259.605	11574.17
259.675	11545.54
259.745	11528.87
259.815	11500.86
259.885	11479.75
259.955	11485.58
260.025	11464.81
260.095	11452.48
260.165	11441.49
260.235	11440.33
260.305	11418.5
260.375	11386.64
260.445	11393.39
260.515	11399.51
260.585	11394.06
260.655	11385.43
260.725	11377.67
260.795	11375.36
260.865	11373.82
260.934	11349.77
261.004	11341.48
261.074	11324.47
261.144	11329.19
261.214	11324.9
261.284	11306.2
261.354	11299.94
261.424	11266.82
261.494	11277.62
261.564	11257.62
261.634	11247.88
261.703	11212.27
261.773	11197.57
261.843	11187.31
261.913	11162.78
261.983	11122.63
262.053	11109.76
262.123	11091.74
262.192	11066.88
