Data from 20250625_urea_1M_1_MAYP1162681_21-05-06-244.txt Node
Date: Wed Jun 25 21:05:06 BST 2025
User: adleo
Spectrometer: MAYP116268
Trigger mode: 0
Integration Time (sec): 1.000000E0
Scans to average: 1
Electric dark correction enabled: true
Nonlinearity correction enabled: true
Boxcar width: 10
XAxis mode: Wavelengths
Number of Pixels in Spectrum: 2068
>>>>>Begin Spectral Data<<<<<
179.565	1186.84
179.642	1242.24
179.718	1280.59
179.795	1317.52
179.871	1346.8
179.948	1363.95
180.024	1384.24
180.101	1405.82
180.177	1417.57
180.254	1438.67
180.33	1460.9
180.407	1512.17
180.483	1603.77
180.56	1694.08
180.636	1777.21
180.712	1764.19
180.789	1773.17
180.865	1783.29
180.942	1792.32
181.018	1801.92
181.095	1815.8
181.171	1818.66
181.248	1819.18
181.324	1837.29
181.4	1844.61
181.477	1855.78
181.553	1870.09
181.63	1890.58
181.706	1908.88
181.782	1919.96
181.859	1920.34
181.935	1925.47
182.011	1924.19
182.088	1941.73
182.164	1956.71
182.24	1971.36
182.317	1982
182.393	1980.29
182.469	1993.27
182.546	2002.45
182.622	2006.01
182.698	2003.06
182.775	2017.76
182.851	2029.5
182.927	2019.09
183.003	2015.33
183.08	2010.15
183.156	2016.38
183.232	2014.05
183.308	1998.5
183.385	2004.49
183.461	2020.52
183.537	2020.94
183.613	2033.6
183.69	2022.42
183.766	2013.9
183.842	2016.95
183.918	2022.7
183.995	2035.4
184.071	2041.25
184.147	2039.21
184.223	2027.99
184.299	2035.98
184.375	2023.42
184.452	2034.37
184.528	2091.79
184.604	2102.07
184.68	2115.29
184.756	2123.94
184.832	2125.66
184.908	2135.78
184.985	2137.68
185.061	2123.75
185.137	2134.79
185.213	2121.33
185.289	2124.56
185.365	2119.14
185.441	2119.66
185.517	2133.8
185.593	2129.89
185.669	2125.47
185.745	2133.75
185.822	2149.34
185.898	2143.92
185.974	2153.05
186.05	2142.15
186.126	2102.47
186.202	2097.05
186.278	2093.76
186.354	2086.25
186.43	2092.91
186.506	2088.39
186.582	2084.92
186.658	2091.58
186.734	2070.79
186.81	2076.4
186.886	2079.59
186.962	2087.72
187.038	2083.63
187.114	2074.07
187.19	2078.63
187.266	2070.02
187.341	2072.31
187.417	2067.22
187.493	2065.98
187.569	2071.22
187.645	2066.22
187.721	2055.76
187.797	2062.32
187.873	2063.51
187.949	2054.05
188.025	2051.1
188.101	2054
188.176	2059.94
188.252	2056.66
188.328	2063.55
188.404	2061.51
188.48	2056.09
188.556	2049.76
188.632	2049.95
188.707	2051.47
188.783	2051.19
188.859	2046.25
188.935	2035.3
189.011	2043.53
189.086	2039.02
189.162	2031.74
189.238	2028.84
189.314	2025.79
189.39	2021.04
189.465	2016.33
189.541	2036.02
189.617	2020.04
189.693	2015.48
189.768	2019.57
189.844	2042.74
189.92	2034.47
189.996	2041.51
190.071	2052.59
190.147	2053.35
190.223	2064.77
190.298	2055.87
190.374	2043.65
190.45	2056.72
190.526	2065.14
190.601	2059.62
190.677	2062.38
190.753	2087.7
190.828	2090.89
190.904	2106.3
190.98	2120.33
191.055	2132.18
191.131	2122.62
191.207	2142.97
191.282	2150.82
191.358	2140.59
191.433	2128.17
191.509	2142.48
191.585	2140.34
191.66	2144.05
191.736	2153.52
191.811	2140.86
191.887	2154.9
191.963	2177.69
192.038	2183.2
192.114	2183.11
192.189	2187.91
192.265	2181.54
192.34	2157.84
192.416	2158.03
192.491	2153.27
192.567	2158.22
192.642	2160.13
192.718	2158.84
192.793	2146.71
192.869	2142.38
192.944	2143.19
193.02	2147.66
193.095	2151.23
193.171	2156.75
193.246	2154.94
193.322	2152.28
193.397	2155.99
193.473	2148.28
193.548	2129.44
193.624	2133.86
193.699	2130.34
193.775	2142.15
193.85	2143.05
193.925	2153.8
194.001	2153.37
194.076	2143.19
194.152	2130.96
194.227	2123.35
194.302	2116.31
194.378	2118.74
194.453	2116.74
194.529	2131.68
194.604	2117.64
194.679	2113.27
194.755	2092.39
194.83	2104.58
194.905	2097.49
194.981	2105.39
195.056	2094.35
195.131	2099.54
195.207	2096.06
195.282	2088.12
195.357	2069.38
195.433	2087.07
195.508	2074.04
195.583	2081.5
195.659	2097.87
195.734	2102.1
195.809	2100.39
195.884	2107.95
195.96	2109.71
196.035	2127.55
196.11	2124.93
196.185	2137.49
196.261	2136.16
196.336	2168.36
196.411	2152.85
196.486	2159.55
196.561	2153.13
196.637	2165.07
196.712	2184.3
196.787	2188.91
196.862	2205.46
196.937	2217.31
197.013	2222.93
197.088	2231.73
197.163	2250.53
197.238	2267.05
197.313	2269.14
197.388	2282.18
197.464	2311.22
197.539	2322.78
197.614	2313.7
197.689	2324.83
197.764	2341.78
197.839	2364.91
197.914	2360.1
197.989	2381.95
198.065	2399.51
198.14	2449
198.215	2471.67
198.29	2482.62
198.365	2496.67
198.44	2504.38
198.515	2530.57
198.59	2544.76
198.665	2571.61
198.74	2580.43
198.815	2579.52
198.89	2601.76
198.965	2629.68
199.04	2625.29
199.115	2639.77
199.19	2681.78
199.265	2685.59
199.34	2693.73
199.415	2726.67
199.49	2751.01
199.565	2761.2
199.64	2784.31
199.715	2781.12
199.79	2787.07
199.865	2792.46
199.94	2786.7
200.015	2822.96
200.09	2832.31
200.165	2839.17
200.24	2847.89
200.315	2889.15
200.39	2907.07
200.464	2910.64
200.539	2913.7
200.614	2930.37
200.689	2950.49
200.764	2959.84
200.839	2974.41
200.914	2980.09
200.989	2970.12
201.063	2980.18
201.138	2964.79
201.213	2965.41
201.288	2945.2
201.363	2953.07
201.438	2950.26
201.512	2968.55
201.587	2950.14
201.662	2951.05
201.737	2961.54
201.812	2968.17
201.886	2932.1
201.961	2941.83
202.036	2929.92
202.111	2925.72
202.186	2897.05
202.26	2882.17
202.335	2858.53
202.41	2855.05
202.485	2838.47
202.559	2819.31
202.634	2790.53
202.709	2800.24
202.784	2780.23
202.858	2782.76
202.933	2762.5
203.008	2757.79
203.082	2741.21
203.157	2737.3
203.232	2695.72
203.306	2674.94
203.381	2642.5
203.456	2621.63
203.53	2595.79
203.605	2579.27
203.68	2558.93
203.754	2553.26
203.829	2540.4
203.904	2522.35
203.978	2514.21
204.053	2518.78
204.127	2504.02
204.202	2502.69
204.277	2485.69
204.351	2479.74
204.426	2466.35
204.5	2461.69
204.575	2428.84
204.65	2434.89
204.724	2428.03
204.799	2436.69
204.873	2433.31
204.948	2432.31
205.022	2421.03
205.097	2412.41
205.171	2426.69
205.246	2433.6
205.32	2433.79
205.395	2433.5
205.469	2424.7
205.544	2425.32
205.618	2407.32
205.693	2419.32
205.767	2410.8
205.842	2432.75
205.916	2423.76
205.991	2417.71
206.065	2420.76
206.14	2437.89
206.214	2436.41
206.289	2429.69
206.363	2442.6
206.438	2447.03
206.512	2458.31
206.586	2478.5
206.661	2486.69
206.735	2463.51
206.81	2460.94
206.884	2474.08
206.958	2460.46
207.033	2475.41
207.107	2481.98
207.181	2514.23
207.256	2509.09
207.33	2526.8
207.405	2534.33
207.479	2557.76
207.553	2565.85
207.628	2552.85
207.702	2561.47
207.776	2554.33
207.851	2559.52
207.925	2573.34
207.999	2570.1
208.073	2566.19
208.148	2568.43
208.222	2560.38
208.296	2594.8
208.371	2616.44
208.445	2631.06
208.519	2662.35
208.593	2676.11
208.668	2675.45
208.742	2678.55
208.816	2681.83
208.89	2698.13
208.965	2700.04
209.039	2706.37
209.113	2727.77
209.187	2751.29
209.261	2754.48
209.336	2777.49
209.41	2800.94
209.484	2806.71
209.558	2832.63
209.632	2850.02
209.707	2866.99
209.781	2898.83
209.855	2921.81
209.929	2949.68
210.003	2965.7
210.077	2975.33
210.151	3033.26
210.226	3082.26
210.3	3124.02
210.374	3165.74
210.448	3189.83
210.522	3223.76
210.596	3258.54
210.67	3291.55
210.744	3362.29
210.818	3419.78
210.892	3470.42
210.966	3493.14
211.041	3539.97
211.115	3575.1
211.189	3642.52
211.263	3707.38
211.337	3754.8
211.411	3819.74
211.485	3859.51
211.559	3926.4
211.633	3986.05
211.707	4016.51
211.781	4086.55
211.855	4121.27
211.929	4182.64
212.003	4239.86
212.077	4330.02
212.151	4423.62
212.225	4519.66
212.299	4602.38
212.373	4687.72
212.447	4781.3
212.52	4911.24
212.594	5027.08
212.668	5151.09
212.742	5251.78
212.816	5364.24
212.89	5483.96
212.964	5606.85
213.038	5738.07
213.112	5880.55
213.186	6030.34
213.26	6153.32
213.333	6252.96
213.407	6406.52
213.481	6564.61
213.555	6728.33
213.629	6867.27
213.703	7015.35
213.777	7184.34
213.85	7330.8
213.924	7530.65
213.998	7705.68
214.072	7880.07
214.146	8038.75
214.219	8214.05
214.293	8393.05
214.367	8572.97
214.441	8769.6
214.515	8948.87
214.588	9118.45
214.662	9270.19
214.736	9447.51
214.81	9647.93
214.883	9853.14
214.957	10036.23
215.031	10225.08
215.105	10403.92
215.178	10598.4
215.252	10790.93
215.326	10959.53
215.4	11143.26
215.473	11300.85
215.547	11480.8
215.621	11661.25
215.694	11869.98
215.768	12042.82
215.842	12219.99
215.915	12401.71
215.989	12569.94
216.063	12749.97
216.136	12949.87
216.21	13147.45
216.284	13345.76
216.357	13532.31
216.431	13716.16
216.504	13916.3
216.578	14125.6
216.652	14320.69
216.725	14502.99
216.799	14694.12
216.873	14868.57
216.946	15044.7
217.02	15211.34
217.093	15380.14
217.167	15535.3
217.24	15676.05
217.314	15840.56
217.387	16005.98
217.461	16169.47
217.535	16336.81
217.608	16476.44
217.682	16628.45
217.755	16793.24
217.829	16933.44
217.902	17077.4
217.976	17224.73
218.049	17356.83
218.123	17477.45
218.196	17627.05
218.27	17763.91
218.343	17880.29
218.417	18021.54
218.49	18160.82
218.563	18308.57
218.637	18435.99
218.71	18582.3
218.784	18717.52
218.857	18856.17
218.931	18978.33
219.004	19099.77
219.077	19225.88
219.151	19349.78
219.224	19457.97
219.298	19574.3
219.371	19700.37
219.444	19804.7
219.518	19913.47
219.591	20018.86
219.665	20148.65
219.738	20244.16
219.811	20329.22
219.885	20434.91
219.958	20532.21
220.031	20610.29
220.105	20705.33
220.178	20800.03
220.251	20877.62
220.325	20974.3
220.398	21056.86
220.471	21141.54
220.544	21224.49
220.618	21285.46
220.691	21372.26
220.764	21440.51
220.838	21507.17
220.911	21564.05
220.984	21659.29
221.057	21721.71
221.131	21793.68
221.204	21828.82
221.277	21907.87
221.35	21994.16
221.424	22046.03
221.497	22109.22
221.57	22175.41
221.643	22232.73
221.716	22286.62
221.79	22333.04
221.863	22377.44
221.936	22427.39
222.009	22472.65
222.082	22516.33
222.155	22561.6
222.229	22602.82
222.302	22650.88
222.375	22685.64
222.448	22723.34
222.521	22746.34
222.594	22779.51
222.667	22796.05
222.74	22829.12
222.814	22848.17
222.887	22866.68
222.96	22905.4
223.033	22927
223.106	22948.94
223.179	22978.69
223.252	23000.82
223.325	23026.28
223.398	23042.96
223.471	23054.82
223.544	23070.93
223.617	23079.03
223.69	23096.53
223.763	23115.19
223.837	23130.71
223.91	23142.82
223.983	23142
224.056	23133.17
224.129	23144.51
224.202	23163.65
224.275	23173
224.348	23168.03
224.42	23161.62
224.493	23144.41
224.566	23147.01
224.639	23157.19
224.712	23148.36
224.785	23156.7
224.858	23153.13
224.931	23146.67
225.004	23134.72
225.077	23133.37
225.15	23110.7
225.223	23100.19
225.296	23119.48
225.369	23091.61
225.442	23079.75
225.514	23072.57
225.587	23083.32
225.66	23090.46
225.733	23076.62
225.806	23064.13
225.879	23056.61
225.952	23033.03
226.025	23043.35
226.097	23057.91
226.17	23037.04
226.243	23010.71
226.316	22991.37
226.389	22972.18
226.461	22963.12
226.534	22950.82
226.607	22930.24
226.68	22944.46
226.753	22940.89
226.825	22894.7
226.898	22906.08
226.971	22886.26
227.044	22881.97
227.117	22855.74
227.189	22832.89
227.262	22830.96
227.335	22817.6
227.407	22781.59
227.48	22776.82
227.553	22751.6
227.626	22717.65
227.698	22702.47
227.771	22684.48
227.844	22651.41
227.916	22639.98
227.989	22609.76
228.062	22590.81
228.134	22595.15
228.207	22570.61
228.28	22537.39
228.352	22516.61
228.425	22495.16
228.498	22485.81
228.57	22452.69
228.643	22451.14
228.716	22429.06
228.788	22396.43
228.861	22365.14
228.934	22367.74
229.006	22336.12
229.079	22312.11
229.151	22276.63
229.224	22234.84
229.296	22217.63
229.369	22247.37
229.442	22244.91
229.514	22220.71
229.587	22206.35
229.659	22165.33
229.732	22147.73
229.804	22145.75
229.877	22148.89
229.949	22135.49
230.022	22139.68
230.094	22121.89
230.167	22099.38
230.239	22055.47
230.312	22034.64
230.384	22039.13
230.457	22013.77
230.529	21996.9
230.602	21973.33
230.674	21958.1
230.747	21954.92
230.819	21935.83
230.892	21850.21
230.964	21822.3
231.037	21800.95
231.109	21780.56
231.181	21757.38
231.254	21714
231.326	21675.87
231.399	21638.32
231.471	21603.61
231.544	21541.62
231.616	21536.03
231.688	21507.21
231.761	21484.99
231.833	21457.71
231.905	21402.81
231.978	21382.66
232.05	21355.86
232.122	21327.14
232.195	21296.15
232.267	21285.93
232.339	21253.68
232.412	21259.32
232.484	21223.65
232.556	21190.83
232.629	21171.99
232.701	21163.22
232.773	21146.11
232.846	21115.65
232.918	21084.41
232.99	21062.63
233.062	21048.41
233.135	21013.71
233.207	20982.62
233.279	20960.69
233.351	20943.25
233.424	20919.15
233.496	20875.73
233.568	20863.97
233.64	20823.19
233.713	20793.36
233.785	20758.32
233.857	20732.35
233.929	20684.63
234.001	20671.04
234.074	20673.31
234.146	20634.08
234.218	20598.61
234.29	20560.82
234.362	20523.33
234.434	20478.08
234.507	20434.17
234.579	20390.94
234.651	20352.05
234.723	20321.45
234.795	20306.9
234.867	20272.34
234.939	20260.97
235.012	20239.33
235.084	20209.26
235.156	20200.54
235.228	20159.72
235.3	20118.51
235.372	20091.72
235.444	20079.91
235.516	20023.77
235.588	19978.66
235.66	19951.48
235.732	19901.32
235.804	19928.78
235.876	19909.41
235.948	19900.3
236.02	19867.82
236.092	19839.05
236.164	19808.12
236.236	19769.47
236.308	19724.55
236.38	19689.86
236.452	19640.9
236.524	19604.99
236.596	19584.08
236.668	19549.24
236.74	19525.96
236.812	19506.49
236.884	19483.22
236.956	19440.18
237.028	19406.45
237.1	19356.62
237.172	19337.35
237.244	19325.97
237.316	19257.35
237.388	19218.85
237.46	19175.96
237.532	19160.87
237.604	19123.48
237.675	19103.14
237.747	19085.41
237.819	19049.94
237.891	19028.59
237.963	18997.8
238.035	18966.91
238.107	18902.05
238.178	18880.07
238.25	18838.53
238.322	18818.15
238.394	18769.43
238.466	18732.51
238.538	18704.27
238.609	18685.19
238.681	18631.65
238.753	18587.27
238.825	18557.63
238.897	18528
238.968	18512.62
239.04	18461.4
239.112	18454.55
239.184	18411.33
239.255	18374.32
239.327	18350.13
239.399	18309.45
239.471	18278.61
239.542	18246.85
239.614	18238.9
239.686	18186.09
239.758	18169.56
239.829	18122.47
239.901	18100.16
239.973	18067.63
240.044	18042.14
240.116	18011.83
240.188	17974.67
240.259	17946.87
240.331	17906.43
240.403	17881.47
240.474	17835.74
240.546	17804.36
240.618	17751.5
240.689	17718.05
240.761	17685.57
240.833	17673.04
240.904	17638.83
240.976	17608.27
241.048	17586.2
241.119	17557.53
241.191	17528.13
241.262	17510.54
241.334	17477.19
241.405	17440.47
241.477	17406.1
241.549	17366.49
241.62	17338.1
241.692	17322.92
241.763	17306.78
241.835	17275.5
241.906	17247.31
241.978	17203.26
242.049	17190.01
242.121	17167.69
242.192	17151.74
242.264	17103.4
242.335	17052.27
242.407	17029.09
242.478	16991.35
242.55	16963.49
242.621	16918.82
242.693	16885.42
242.764	16857.51
242.836	16834.23
242.907	16813.17
242.979	16793.8
243.05	16773.8
243.122	16751.97
243.193	16720.45
243.264	16665.94
243.336	16630.42
243.407	16606.51
243.479	16594.12
243.55	16555.86
243.622	16527.61
243.693	16502.21
243.764	16499.13
243.836	16454.59
243.907	16415.51
243.978	16391.5
244.05	16368.66
244.121	16329.91
244.192	16309.81
244.264	16258.53
244.335	16222.62
244.407	16179.24
244.478	16152.97
244.549	16118.22
244.62	16074.7
244.692	16040.58
244.763	16030.21
244.834	16001.73
244.906	15965.92
244.977	15935.74
245.048	15925.91
245.119	15900.08
245.191	15853.76
245.262	15793.46
245.333	15784.11
245.405	15767.62
245.476	15740.78
245.547	15701.98
245.618	15683.42
245.689	15657.63
245.761	15628.33
245.832	15602.88
245.903	15585.14
245.974	15552.89
246.045	15516.16
246.117	15504.4
246.188	15462.9
246.259	15411.56
246.33	15383.65
246.401	15349.53
246.473	15313.18
246.544	15277.47
246.615	15256.4
246.686	15230.57
246.757	15227.39
246.828	15186.32
246.899	15162.94
246.97	15118.49
247.042	15088.71
247.113	15069.23
247.184	15061.42
247.255	15030.86
247.326	15001.22
247.397	14973.36
247.468	14946.41
247.539	14928.86
247.61	14891.84
247.681	14883.7
247.752	14881.34
247.823	14845.86
247.894	14828.31
247.965	14787.92
248.037	14756.73
248.108	14713.92
248.179	14682.73
248.25	14647.54
248.321	14634
248.392	14596.45
248.463	14593.31
248.534	14570.13
248.605	14556.34
248.675	14530.7
248.746	14510.69
248.817	14496.76
248.888	14473.09
248.959	14440.65
249.03	14420.84
249.101	14386.28
249.172	14346.84
249.243	14295.31
249.314	14283.69
249.385	14262.24
249.456	14250.48
249.527	14221.99
249.598	14205.46
249.669	14182.22
249.739	14171.61
249.81	14145.58
249.881	14113.91
249.952	14098.53
250.023	14069.61
250.094	14024.78
250.165	13984.62
250.235	13967.99
250.306	13942.88
250.377	13906.48
250.448	13885.66
250.519	13842.85
250.59	13843.28
250.66	13825.88
250.731	13826.31
250.802	13802.89
250.873	13783.41
250.944	13766.92
251.014	13742.29
251.085	13742.58
251.156	13730.34
251.227	13713.8
251.297	13710.09
251.368	13708.4
251.439	13691.34
251.51	13684.54
251.58	13658.85
251.651	13630.98
251.722	13618.16
251.792	13583.64
251.863	13568.17
251.934	13563.44
252.005	13574.39
252.075	13549.61
252.146	13532.54
252.217	13517.36
252.287	13507.04
252.358	13485.16
252.429	13478.12
252.499	13452.04
252.57	13431.6
252.641	13426.2
252.711	13408.32
252.782	13379.83
252.852	13375.73
252.923	13349.26
252.994	13330.85
253.064	13317.54
253.135	13295.71
253.205	13259.16
253.276	13256.37
253.347	13250.39
253.417	13216.07
253.488	13188.06
253.558	13163.52
253.629	13149.83
253.699	13129.88
253.77	13121.34
253.841	13094.64
253.911	13079.89
253.982	13061.08
254.052	13054.53
254.123	13026.47
254.193	13010.37
254.264	13026.04
254.334	12984.82
254.405	12953.68
254.475	12927.07
254.546	12914.59
254.616	12911.89
254.687	12908.85
254.757	12893.95
254.827	12867.73
254.898	12854.91
254.968	12840.4
255.039	12810.99
255.109	12803.57
255.18	12783.03
255.25	12738.93
255.321	12726.49
255.391	12684.31
255.461	12695.93
255.532	12645.75
255.602	12622.7
255.673	12583.27
255.743	12548.42
255.813	12511.83
255.884	12511.78
255.954	12495.73
256.024	12496.26
256.095	12475.05
256.165	12445.41
256.235	12428.44
256.306	12405.16
256.376	12396.58
256.446	12382.36
256.517	12369.87
256.587	12357.53
256.657	12344.66
256.728	12330.54
256.798	12310
256.868	12287.73
256.938	12256.88
257.009	12249.03
257.079	12241.07
257.149	12245.65
257.219	12208.82
257.29	12201.21
257.36	12165.35
257.43	12155.27
257.5	12113.77
257.571	12091.35
257.641	12077.09
257.711	12052.74
257.781	12044.21
257.852	12036.79
257.922	11995.53
257.992	11983.53
258.062	11965.79
258.132	11955.71
258.202	11934.7
258.273	11921.4
258.343	11932.1
258.413	11896.24
258.483	11876.52
258.553	11846.73
258.623	11816.18
258.693	11796.75
258.764	11791.35
258.834	11785.95
258.904	11768.12
258.974	11739.73
259.044	11720.65
259.114	11707.78
259.184	11690.04
259.254	11668.35
259.324	11624.39
259.394	11618.22
259.464	11612.58
259.535	11584.34
259.605	11556.43
259.675	11538.5
259.745	11526.07
259.815	11498.26
259.885	11483.37
259.955	11493.15
260.025	11467.22
260.095	11450.59
260.165	11446.93
260.235	11447.56
260.305	11423.12
260.375	11398.88
260.445	11412.13
260.515	11419.51
260.585	11421.97
260.655	11402.4
260.725	11397.92
260.795	11398.64
260.865	11400.09
260.934	11372.76
261.004	11372.28
261.074	11359.26
261.144	11355.84
261.214	11356.13
261.284	11337.48
261.354	11336.28
261.424	11310.1
261.494	11316.32
261.564	11304.61
261.634	11291.89
261.703	11256.8
261.773	11246.34
261.843	11240.27
261.913	11213.04
261.983	11170.73
262.053	11153.43
262.123	11138.73
