Data from 20250625_urea_1M_1_MAYP1162681_12-45-05-676.txt Node
Date: Thu Jun 26 12:45:05 BST 2025
User: adleo
Spectrometer: MAYP116268
Trigger mode: 0
Integration Time (sec): 1.000000E0
Scans to average: 1
Electric dark correction enabled: true
Nonlinearity correction enabled: true
Boxcar width: 10
XAxis mode: Wavelengths
Number of Pixels in Spectrum: 2068
>>>>>Begin Spectral Data<<<<<
179.565	1138.94
179.642	1193.93
179.718	1232.25
179.795	1270.15
179.871	1299.55
179.948	1318.16
180.024	1337.33
180.101	1357.98
180.177	1371
180.254	1391.09
180.33	1414.55
180.407	1463.77
180.483	1555.61
180.56	1639.79
180.636	1718.22
180.712	1701.25
180.789	1711.28
180.865	1724.49
180.942	1729.62
181.018	1740.31
181.095	1753.28
181.171	1759.22
181.248	1757.85
181.324	1774.72
181.4	1780.47
181.477	1792.31
181.553	1803.19
181.63	1823.96
181.706	1839.98
181.782	1849.62
181.859	1849.91
181.935	1853.24
182.011	1852
182.088	1865.93
182.164	1885.48
182.24	1897.83
182.317	1911.9
182.393	1910.57
182.469	1921.02
182.546	1932.19
182.622	1935.9
182.698	1933.91
182.775	1945.98
182.851	1960.96
182.927	1955.16
183.003	1950.45
183.08	1943.99
183.156	1951.45
183.232	1947.93
183.308	1935.48
183.385	1940.23
183.461	1955.59
183.537	1955.16
183.613	1966.95
183.69	1961.91
183.766	1951.35
183.842	1959.43
183.918	1962.38
183.995	1973.56
184.071	1978.6
184.147	1975.08
184.223	1962.01
184.299	1972.66
184.375	1960.78
184.452	1963.96
184.528	2015.67
184.604	2026.51
184.68	2037.92
184.756	2047.15
184.832	2051.47
184.908	2058.51
184.985	2061.08
185.061	2046.15
185.137	2056.56
185.213	2042.82
185.289	2040.25
185.365	2034.41
185.441	2034.45
185.517	2049.77
185.593	2045.25
185.669	2040.64
185.745	2052.34
185.822	2069.55
185.898	2062.74
185.974	2072.16
186.05	2064.83
186.126	2026.63
186.202	2021.21
186.278	2016.27
186.354	2008.61
186.43	2013.41
186.506	2012.27
186.582	2010.28
186.658	2017.5
186.734	1998.1
186.81	1998.77
186.886	2001.38
186.962	2012.03
187.038	2007.37
187.114	1997.76
187.19	2005.51
187.266	1997.76
187.341	1999.57
187.417	1992.16
187.493	1991.16
187.569	1996.15
187.645	1991.78
187.721	1980.69
187.797	1986.49
187.873	1991.49
187.949	1981.03
188.025	1975.99
188.101	1978.03
188.176	1983.69
188.252	1980.6
188.328	1986.64
188.404	1989.01
188.48	1985.45
188.556	1976.7
188.632	1977.03
188.707	1978.5
188.783	1976.65
188.859	1972.61
188.935	1960.44
189.011	1971.47
189.086	1964.62
189.162	1955.63
189.238	1952.69
189.314	1950.55
189.39	1946.55
189.465	1939.85
189.541	1957.25
189.617	1943.32
189.693	1938.28
189.768	1939.33
189.844	1959.97
189.92	1952.94
189.996	1961.59
190.071	1969.96
190.147	1970.67
190.223	1979.33
190.298	1971.72
190.374	1957.88
190.45	1969.1
190.526	1976.95
190.601	1970.1
190.677	1970.86
190.753	1997.31
190.828	2000.74
190.904	2015.05
190.98	2028.42
191.055	2036.6
191.131	2029.08
191.207	2047.53
191.282	2057.04
191.358	2049.91
191.433	2040.15
191.509	2049.9
191.585	2044.9
191.66	2046.05
191.736	2055.41
191.811	2046.24
191.887	2061.17
191.963	2084.48
192.038	2090.95
192.114	2091.71
192.189	2095.51
192.265	2094.75
192.34	2072.76
192.416	2074.05
192.491	2070.38
192.567	2074.05
192.642	2077.76
192.718	2077.76
192.793	2064.59
192.869	2060.73
192.944	2062.16
193.02	2069.15
193.095	2075.24
193.171	2082.52
193.246	2084.7
193.322	2081.57
193.397	2083.09
193.473	2069.39
193.548	2053.5
193.624	2058.68
193.699	2058.11
193.775	2071.39
193.85	2070.01
193.925	2077.81
194.001	2075.43
194.076	2065.68
194.152	2055.17
194.227	2047.99
194.302	2042.23
194.378	2047.75
194.453	2043.04
194.529	2057.98
194.604	2043.71
194.679	2038.14
194.755	2018.98
194.83	2029.83
194.905	2028.6
194.981	2036.44
195.056	2028.84
195.131	2032.55
195.207	2028.64
195.282	2018.37
195.357	2001.49
195.433	2019.08
195.508	2004.34
195.583	2012.28
195.659	2028.5
195.734	2032.11
195.809	2033.78
195.884	2040.44
195.96	2038.34
196.035	2055.37
196.11	2047.61
196.185	2057.51
196.261	2059.55
196.336	2092.46
196.411	2077.05
196.486	2078.67
196.561	2069.3
196.637	2082.23
196.712	2097.46
196.787	2099.74
196.862	2114.67
196.937	2123.61
197.013	2128.89
197.088	2141.35
197.163	2160.86
197.238	2175.48
197.313	2176.29
197.388	2186.28
197.464	2212.26
197.539	2226.63
197.614	2219.11
197.689	2231.68
197.764	2247
197.839	2267.41
197.914	2259.56
197.989	2279.97
198.065	2293.91
198.14	2345.2
198.215	2366.38
198.29	2377.38
198.365	2393.32
198.44	2402.7
198.515	2430.74
198.59	2442.69
198.665	2466.73
198.74	2474.49
198.815	2474.54
198.89	2497.73
198.965	2528.4
199.04	2524.35
199.115	2537.54
199.19	2578.15
199.265	2583.34
199.34	2592.82
199.415	2624.75
199.49	2647.74
199.565	2657.65
199.64	2684.13
199.715	2680.7
199.79	2685.51
199.865	2690.8
199.94	2689.04
200.015	2720.34
200.09	2725.25
200.165	2733.96
200.24	2741.68
200.315	2781.21
200.39	2798.94
200.464	2804.66
200.539	2807.23
200.614	2826
200.689	2850.02
200.764	2858.03
200.839	2871.84
200.914	2877.13
200.989	2867.98
201.063	2878.42
201.138	2862.7
201.213	2861.42
201.288	2843.59
201.363	2852.41
201.438	2856.22
201.512	2870.27
201.587	2854.64
201.662	2858.22
201.737	2870.13
201.812	2880.38
201.886	2848.66
201.961	2858.11
202.036	2844.2
202.111	2839.67
202.186	2810.85
202.26	2794.12
202.335	2770.63
202.41	2768.39
202.485	2754.48
202.559	2731.71
202.634	2705.46
202.709	2717.36
202.784	2698.02
202.858	2697.54
202.933	2676.2
203.008	2668.1
203.082	2648.29
203.157	2647.62
203.232	2606.39
203.306	2583.42
203.381	2551.03
203.456	2529.12
203.53	2505.24
203.605	2487.72
203.68	2465.48
203.754	2459.01
203.829	2444.01
203.904	2426.68
203.978	2412.91
204.053	2415.72
204.127	2405.54
204.202	2403.49
204.277	2386.92
204.351	2377.36
204.426	2371.17
204.5	2367.12
204.575	2333.76
204.65	2342.81
204.724	2334.85
204.799	2343.84
204.873	2342.27
204.948	2340.27
205.022	2329.9
205.097	2320.28
205.171	2335.7
205.246	2344.75
205.32	2343.46
205.395	2340.89
205.469	2331.33
205.544	2337.66
205.618	2320.38
205.693	2333.09
205.767	2322.91
205.842	2340.43
205.916	2337.81
205.991	2326.2
206.065	2331.53
206.14	2344.23
206.214	2340.51
206.289	2333.32
206.363	2345.32
206.438	2349.08
206.512	2355.7
206.586	2373.07
206.661	2381.36
206.735	2360.04
206.81	2358.09
206.884	2373.17
206.958	2363.42
207.033	2379.31
207.107	2384.93
207.181	2417.55
207.256	2412.41
207.33	2430.59
207.405	2444.36
207.479	2460.54
207.553	2469.35
207.628	2454.36
207.702	2469.59
207.776	2462.88
207.851	2467.83
207.925	2482.79
207.999	2479.5
208.073	2475.79
208.148	2478.83
208.222	2467.17
208.296	2497.01
208.371	2516.16
208.445	2526.21
208.519	2555.44
208.593	2569.2
208.668	2565.73
208.742	2567.35
208.816	2570.87
208.89	2584.26
208.965	2580.59
209.039	2591.21
209.113	2609.98
209.187	2629.78
209.261	2626.06
209.336	2650.74
209.41	2670.6
209.484	2671.36
209.558	2693.37
209.632	2709.33
209.707	2721.05
209.781	2744.63
209.855	2762.59
209.929	2780
210.003	2789.44
210.077	2790.53
210.151	2843.43
210.226	2884.58
210.3	2912.97
210.374	2941.94
210.448	2951.81
210.522	2966.92
210.596	2984.42
210.67	3000.96
210.744	3057.05
210.818	3097.8
210.892	3126.89
210.966	3132.09
211.041	3157.46
211.115	3165.23
211.189	3203.96
211.263	3236.73
211.337	3262.01
211.411	3293.93
211.485	3305.96
211.559	3337.25
211.633	3361.71
211.707	3348.67
211.781	3376.23
211.855	3365.5
211.929	3380.95
212.003	3392.78
212.077	3434.65
212.151	3475.48
212.225	3514.53
212.299	3539.14
212.373	3559.81
212.447	3586.23
212.52	3652.61
212.594	3695.22
212.668	3749.14
212.742	3775.08
212.816	3811.87
212.89	3847.94
212.964	3892.35
213.038	3945.41
213.112	4011.92
213.186	4080.07
213.26	4113.66
213.333	4125.47
213.407	4189.79
213.481	4252.83
213.555	4327.59
213.629	4379.22
213.703	4430.6
213.777	4491.19
213.85	4536.37
213.924	4635.45
213.998	4708.55
214.072	4770.39
214.146	4826.35
214.219	4896.22
214.293	4966.79
214.367	5043.52
214.441	5132.23
214.515	5198.59
214.588	5254.66
214.662	5293.71
214.736	5348.82
214.81	5437.82
214.883	5526.21
214.957	5596.13
215.031	5663.56
215.105	5721.27
215.178	5794.8
215.252	5869.39
215.326	5933.04
215.4	6000.82
215.473	6043.29
215.547	6105.73
215.621	6174.81
215.694	6272.55
215.768	6338.17
215.842	6415.36
215.915	6491.37
215.989	6555.54
216.063	6631.09
216.136	6714.61
216.21	6805.75
216.284	6902.35
216.357	6991.62
216.431	7077.47
216.504	7172.85
216.578	7290.27
216.652	7388.86
216.725	7478.86
216.799	7579.06
216.873	7671.8
216.946	7768.49
217.02	7854.3
217.093	7948.56
217.167	8025.08
217.24	8086.7
217.314	8176.17
217.387	8260.87
217.461	8338.04
217.535	8437.79
217.608	8515.3
217.682	8605.73
217.755	8698.37
217.829	8780.28
217.902	8871.26
217.976	8955.3
218.049	9035.55
218.123	9100.89
218.196	9195.2
218.27	9268.29
218.343	9334.55
218.417	9425.32
218.49	9499.96
218.563	9598.44
218.637	9686.77
218.71	9789.02
218.784	9891.37
218.857	9986.6
218.931	10070.51
219.004	10159.28
219.077	10248.32
219.151	10335.75
219.224	10419.48
219.298	10503.75
219.371	10598.14
219.444	10665.4
219.518	10750.97
219.591	10839.39
219.665	10958.33
219.738	11034.9
219.811	11109.73
219.885	11204.23
219.958	11284.09
220.031	11363.22
220.105	11442.93
220.178	11521.06
220.251	11589.64
220.325	11667.34
220.398	11744.79
220.471	11825.81
220.544	11910.4
220.618	11970.12
220.691	12051.92
220.764	12126.44
220.838	12206.74
220.911	12273.65
220.984	12361.86
221.057	12438.4
221.131	12505.55
221.204	12531.63
221.277	12622.35
221.35	12723.48
221.424	12781.52
221.497	12853.59
221.57	12922.18
221.643	12998.11
221.716	13066.46
221.79	13133.71
221.863	13197.2
221.936	13255.38
222.009	13325.18
222.082	13388.62
222.155	13448.74
222.229	13522.64
222.302	13584.92
222.375	13639.35
222.448	13707.08
222.521	13759.62
222.594	13814.62
222.667	13866.06
222.74	13939.24
222.814	13988.55
222.887	14034.44
222.96	14094.51
223.033	14156.02
223.106	14211.7
223.179	14265.64
223.252	14322.42
223.325	14383.21
223.398	14429.01
223.471	14479.09
223.544	14525.37
223.617	14579.55
223.69	14634.22
223.763	14671.43
223.837	14722.62
223.91	14781.91
223.983	14813.34
224.056	14853.93
224.129	14902.57
224.202	14960.32
224.275	14999.02
224.348	15034.21
224.42	15066.89
224.493	15098.71
224.566	15132.74
224.639	15180.94
224.712	15215.31
224.785	15244.18
224.858	15269.59
224.931	15312.68
225.004	15335.91
225.077	15375.82
225.15	15387.39
225.223	15426.92
225.296	15495.26
225.369	15513.97
225.442	15536.86
225.514	15575.13
225.587	15615.19
225.66	15654.42
225.733	15690.77
225.806	15723.64
225.879	15752.99
225.952	15781.53
226.025	15833.82
226.097	15878.65
226.17	15920.39
226.243	15935.14
226.316	15969.46
226.389	16003.97
226.461	16041.8
226.534	16094.48
226.607	16126.39
226.68	16180.76
226.753	16216.72
226.825	16213.39
226.898	16256.62
226.971	16288.68
227.044	16324.44
227.117	16364.11
227.189	16400.01
227.262	16436.93
227.335	16476.74
227.407	16503.2
227.48	16530.48
227.553	16550.77
227.626	16571.93
227.698	16590.82
227.771	16621.52
227.844	16638.63
227.916	16670.15
227.989	16682.83
228.062	16699.46
228.134	16748.52
228.207	16769.87
228.28	16770.98
228.352	16792.09
228.425	16820.04
228.498	16840.04
228.57	16854.21
228.643	16885.92
228.716	16906.5
228.788	16919.71
228.861	16931.13
228.934	16964.96
229.006	16989.4
229.079	17012.05
229.151	17025.4
229.224	17032.1
229.296	17051.47
229.369	17100.34
229.442	17125.02
229.514	17139.09
229.587	17175.48
229.659	17165.55
229.732	17181.35
229.804	17225.4
229.877	17268.73
229.949	17291.67
230.022	17335.48
230.094	17350.22
230.167	17366.08
230.239	17364.83
230.312	17381.31
230.384	17421.31
230.457	17443.67
230.529	17464.49
230.602	17484.87
230.674	17507.86
230.747	17538.37
230.819	17570.56
230.892	17555.67
230.964	17579.04
231.037	17601.5
231.109	17601.6
231.181	17622.18
231.254	17625.36
231.326	17626.37
231.399	17630.51
231.471	17639.19
231.544	17628.39
231.616	17654.95
231.688	17662.13
231.761	17664.39
231.833	17664.39
231.905	17651.53
231.978	17655.52
232.05	17659.24
232.122	17667.33
232.195	17666.08
232.267	17678.9
232.339	17681.98
232.412	17701.98
232.484	17708.58
232.556	17705.98
232.629	17733.55
232.701	17748.44
232.773	17752.53
232.846	17758.41
232.918	17767.57
232.99	17773.06
233.062	17786.94
233.135	17785.93
233.207	17780.24
233.279	17798.17
233.351	17812.82
233.424	17806.22
233.496	17798.27
233.568	17816.73
233.64	17796.97
233.713	17794.32
233.785	17791.23
233.857	17789.93
233.929	17772.25
234.001	17774.56
234.074	17785.21
234.146	17758.8
234.218	17746.03
234.29	17744.87
234.362	17731.81
234.434	17705.55
234.507	17689.16
234.579	17662.13
234.651	17657.6
234.723	17651.04
234.795	17643.67
234.867	17633.36
234.939	17638.51
235.012	17635.33
235.084	17639.48
235.156	17649.12
235.228	17639.62
235.3	17630.61
235.372	17627
235.444	17634.22
235.516	17605.07
235.588	17594.71
235.66	17588.39
235.732	17576.68
235.804	17628.3
235.876	17631.52
235.948	17636.73
236.02	17624.92
236.092	17619.67
236.164	17603.09
236.236	17592.3
236.308	17569.64
236.38	17555.48
236.452	17539.96
236.524	17533.55
236.596	17528.68
236.668	17528.25
236.74	17524.63
236.812	17515.57
236.884	17507.28
236.956	17496.73
237.028	17467.96
237.1	17453.36
237.172	17461.45
237.244	17464.05
237.316	17413.12
237.388	17383.67
237.46	17361.41
237.532	17363
237.604	17341.07
237.675	17344.2
237.747	17328.87
237.819	17311.09
237.891	17295.48
237.963	17273.16
238.035	17238.61
238.107	17181.35
238.178	17159.96
238.25	17132.87
238.322	17132.73
238.394	17095.81
238.466	17073.25
238.538	17065.78
238.609	17051.95
238.681	17009.11
238.753	16979.76
238.825	16950.55
238.897	16941.25
238.968	16941.01
239.04	16906.36
239.112	16914.02
239.184	16882.94
239.255	16858.36
239.327	16849.97
239.399	16839.03
239.471	16826.45
239.542	16825.3
239.614	16818.16
239.686	16779.32
239.758	16772.47
239.829	16736.66
239.901	16730.45
239.973	16704.71
240.044	16691.65
240.116	16662.39
240.188	16635.4
240.259	16608.03
240.331	16576.27
240.403	16560.7
240.474	16524.41
240.546	16497.9
240.618	16450.81
240.689	16422.62
240.761	16402.76
240.833	16398.28
240.904	16367.82
240.976	16336.3
241.048	16308.44
241.119	16302.61
241.191	16285.16
241.262	16270.27
241.334	16249.25
241.405	16221.97
241.477	16197.1
241.549	16170.35
241.62	16153.68
241.692	16138.69
241.763	16130.44
241.835	16110.63
241.906	16090.68
241.978	16054.63
242.049	16041.13
242.121	16029.71
242.192	16014.57
242.264	15982.33
242.335	15940.88
242.407	15921.79
242.478	15898.8
242.55	15873.59
242.621	15828.14
242.693	15799.46
242.764	15766.44
242.836	15736.17
242.907	15712.36
242.979	15690.19
243.05	15667.78
243.122	15646.47
243.193	15620.16
243.264	15577.88
243.336	15558.7
243.407	15531.61
243.479	15521.01
243.55	15505.92
243.622	15487.12
243.693	15458.88
243.764	15453.48
243.836	15421.66
243.907	15394.53
243.978	15371.29
244.05	15354.95
244.121	15317.89
244.192	15293.45
244.264	15254.31
244.335	15232.47
244.407	15197.62
244.478	15186.73
244.549	15154.58
244.62	15122.04
244.692	15095.72
244.763	15069.74
244.834	15039.27
244.906	15011.61
244.977	14994.69
245.048	14975.21
245.119	14939.88
245.191	14903.24
245.262	14847.71
245.333	14839.52
245.405	14809.92
245.476	14792.18
245.547	14765.72
245.618	14755.74
245.689	14737.62
245.761	14720.41
245.832	14686.47
245.903	14669.07
245.974	14645.26
246.045	14623.37
246.117	14603.7
246.188	14575.74
246.259	14548.89
246.33	14525.9
246.401	14494.09
246.473	14448.1
246.544	14422.36
246.615	14408.33
246.686	14377.72
246.757	14380.03
246.828	14334.09
246.899	14325.85
246.97	14280.39
247.042	14249.25
247.113	14226.88
247.184	14223.7
247.255	14187.5
247.326	14167.73
247.397	14140.79
247.468	14110.56
247.539	14090.99
247.61	14054.55
247.681	14033.29
247.752	14018.1
247.823	13979.49
247.894	13965.37
247.965	13940.06
248.037	13903.81
248.108	13867.7
248.179	13850.92
248.25	13824.8
248.321	13809.51
248.392	13775.29
248.463	13781.12
248.534	13761.21
248.605	13751.76
248.675	13725.44
248.746	13717.87
248.817	13701.24
248.888	13688.23
248.959	13650.92
249.03	13628.26
249.101	13609.65
249.172	13578.65
249.243	13539.85
249.314	13534.01
249.385	13512.51
249.456	13490.97
249.527	13469.08
249.598	13447.39
249.669	13425.69
249.739	13405.45
249.81	13386.84
249.881	13350.68
249.952	13324.12
250.023	13298.86
250.094	13256.78
250.165	13222.84
250.235	13196.57
250.306	13173.04
250.377	13135.92
250.448	13114.14
250.519	13074.65
250.59	13069.01
250.66	13053.4
250.731	13042.5
250.802	13014.78
250.873	12995.69
250.944	12980.31
251.014	12949.27
251.085	12947
251.156	12927.14
251.227	12911.67
251.297	12909.36
251.368	12903.62
251.439	12889.3
251.51	12881.54
251.58	12849
251.651	12824.27
251.722	12815.4
251.792	12778.81
251.863	12759.97
251.934	12755.44
252.005	12761.65
252.075	12741.36
252.146	12727.38
252.217	12724.29
252.287	12710.36
252.358	12685.49
252.429	12676.43
252.499	12652.76
252.57	12639.69
252.641	12628.61
252.711	12607.93
252.782	12574.28
252.852	12569.12
252.923	12543.91
252.994	12519.23
253.064	12514.7
253.135	12485.25
253.205	12450.88
253.276	12456.42
253.347	12455.79
253.417	12428.37
253.488	12402.38
253.558	12381.75
253.629	12362.42
253.699	12344.15
253.77	12335.62
253.841	12311.33
253.911	12299.52
253.982	12289.44
254.052	12273.49
254.123	12260.67
254.193	12238.4
254.264	12256.66
254.334	12237.86
254.405	12216.27
254.475	12185.18
254.546	12166.38
254.616	12161.32
254.687	12153.85
254.757	12132.5
254.827	12100.73
254.898	12089.45
254.968	12069.78
255.039	12034.16
255.109	12021.78
255.18	11991.46
255.25	11959.55
255.321	11946.01
255.391	11907.93
255.461	11910.29
255.532	11864.16
255.602	11837.51
255.673	11806.27
255.743	11775.23
255.813	11726.4
255.884	11713.73
255.954	11711.65
256.024	11712.81
256.095	11697.92
256.165	11665.14
256.235	11654.64
256.306	11637.38
256.376	11628.51
256.446	11617.91
256.517	11611.98
256.587	11608.75
256.657	11594.29
256.728	11576.65
256.798	11565.57
256.868	11556.46
256.938	11525.95
257.009	11522.82
257.079	11518.14
257.149	11528.21
257.219	11485.37
257.29	11476.21
257.36	11443.29
257.43	11428.83
257.5	11385.8
257.571	11365.94
257.641	11359.63
257.711	11324.88
257.781	11311.96
257.852	11300.78
257.922	11268.83
257.992	11254.75
258.062	11232.05
258.132	11228.87
258.202	11209.89
258.273	11194.42
258.343	11189.5
258.413	11168.39
258.483	11154.56
258.553	11123.81
258.623	11096.39
258.693	11084.15
258.764	11084.92
258.834	11085.16
258.904	11071.38
258.974	11054.32
259.044	11030.27
259.114	11019.91
259.184	11012.15
259.254	10995.67
259.324	10956.06
259.394	10945.17
259.464	10939.48
259.535	10918.62
259.605	10894.72
259.675	10868.31
259.745	10857.61
259.815	10825.95
259.885	10805.67
259.955	10814.15
260.025	10791.74
260.095	10778.49
260.165	10772.37
260.235	10765.96
260.305	10739.75
260.375	10712.33
260.445	10713.15
260.515	10716.52
260.585	10710.26
260.655	10692.53
260.725	10679.04
260.795	10677.64
260.865	10682.12
260.934	10658.03
261.004	10657.26
261.074	10637.12
261.144	10639.33
261.214	10627.09
261.284	10615.72
261.354	10610.81
261.424	10581.32
261.494	10585.31
261.564	10564.84
261.634	10553.95
261.703	10516.27
261.773	10508.46
261.843	10499.79
261.913	10483.8
261.983	10451.47
262.053	10437.11
262.123	10426.12
262.192	10403.14
262.262	10395.29
262.332	10366.43
