Data from 20250625_urea_1M_1_MAYP1162681_07-15-06-299.txt Node
Date: Thu Jun 26 07:15:06 BST 2025
User: adleo
Spectrometer: MAYP116268
Trigger mode: 0
Integration Time (sec): 1.000000E0
Scans to average: 1
Electric dark correction enabled: true
Nonlinearity correction enabled: true
Boxcar width: 10
XAxis mode: Wavelengths
Number of Pixels in Spectrum: 2068
>>>>>Begin Spectral Data<<<<<
179.565	1127.23
179.642	1178.21
179.718	1216.43
179.795	1252.97
179.871	1280.12
179.948	1296.32
180.024	1317.14
180.101	1337.97
180.177	1349.46
180.254	1369.09
180.33	1388.7
180.407	1435.83
180.483	1524.67
180.56	1607.05
180.636	1685.58
180.712	1673.31
180.789	1678.78
180.865	1690.08
180.942	1698.35
181.018	1707
181.095	1719.31
181.171	1722.92
181.248	1724.25
181.324	1739.46
181.4	1744.64
181.477	1756.85
181.553	1767.78
181.63	1783.89
181.706	1796.34
181.782	1807.13
181.859	1809.08
181.935	1811.69
182.011	1810.26
182.088	1825
182.164	1843.97
182.24	1855.9
182.317	1865.36
182.393	1865.02
182.469	1877.29
182.546	1889.45
182.622	1894.4
182.698	1892.59
182.775	1903.81
182.851	1917.36
182.927	1909.85
183.003	1905.29
183.08	1897.11
183.156	1905.19
183.232	1904.91
183.308	1897.06
183.385	1900.34
183.461	1912.61
183.537	1916.46
183.613	1924.82
183.69	1917.12
183.766	1905.71
183.842	1914.17
183.918	1920.88
183.995	1932.14
184.071	1934.38
184.147	1927.15
184.223	1914.18
184.299	1922.69
184.375	1913.37
184.452	1918.27
184.528	1972.73
184.604	1983.38
184.68	1996.31
184.756	2002.44
184.832	2005.82
184.908	2010.62
184.985	2012.95
185.061	2000.31
185.137	2009.34
185.213	2002.02
185.289	2003.63
185.365	1998.83
185.441	1995.36
185.517	2005.64
185.593	2001.36
185.669	1999.5
185.745	2011.1
185.822	2029.93
185.898	2022.41
185.974	2034.06
186.05	2025.74
186.126	1985.07
186.202	1979.12
186.278	1974.04
186.354	1968.28
186.43	1972.13
186.506	1967.86
186.582	1965.81
186.658	1973.18
186.734	1954.64
186.81	1956.02
186.886	1959.3
186.962	1971.76
187.038	1968
187.114	1961.39
187.19	1970.18
187.266	1961.58
187.341	1965.38
187.417	1958.11
187.493	1957.83
187.569	1956.02
187.645	1951.12
187.721	1944.13
187.797	1951.21
187.873	1956.54
187.949	1950.22
188.025	1946.84
188.101	1951.83
188.176	1955.78
188.252	1947.55
188.328	1955.78
188.404	1953.3
188.48	1946.17
188.556	1936.76
188.632	1936.66
188.707	1934.19
188.783	1931.1
188.859	1925.73
188.935	1911.32
189.011	1917.4
189.086	1914.41
189.162	1908.56
189.238	1908.42
189.314	1903.28
189.39	1899.1
189.465	1892.11
189.541	1908.14
189.617	1894.06
189.693	1888.5
189.768	1894.83
189.844	1920.32
189.92	1911.71
189.996	1922.36
190.071	1933.06
190.147	1933.87
190.223	1945.9
190.298	1940.81
190.374	1930.64
190.45	1944.42
190.526	1953.12
190.601	1949.42
190.677	1951.56
190.753	1979.44
190.828	1981.53
190.904	1994.79
190.98	2008.68
191.055	2020.24
191.131	2010.06
191.207	2027.94
191.282	2036.87
191.358	2026.41
191.433	2013.76
191.509	2027.21
191.585	2023.88
191.66	2027.69
191.736	2032.77
191.811	2021.79
191.887	2036.29
191.963	2056.79
192.038	2058.12
192.114	2060.45
192.189	2066.54
192.265	2061.17
192.34	2039.04
192.416	2041.47
192.491	2035.81
192.567	2036.85
192.642	2039.52
192.718	2041.13
192.793	2030.2
192.869	2025.25
192.944	2027.34
193.02	2036.62
193.095	2041.09
193.171	2045.75
193.246	2044.08
193.322	2045.7
193.397	2045.18
193.473	2033.14
193.548	2017.88
193.624	2024.44
193.699	2020.59
193.775	2033
193.85	2034.15
193.925	2041.52
194.001	2037.76
194.076	2031.2
194.152	2022.4
194.227	2013.51
194.302	2005.47
194.378	2007.33
194.453	2003.9
194.529	2015.08
194.604	1997.53
194.679	1988.83
194.755	1970.86
194.83	1981.71
194.905	1975.95
194.981	1984.04
195.056	1977.33
195.131	1979.47
195.207	1977.86
195.282	1969.82
195.357	1951.79
195.433	1968.72
195.508	1955.79
195.583	1964.39
195.659	1979.52
195.734	1983.56
195.809	1983.61
195.884	1991.02
195.96	1994.31
196.035	2012.57
196.11	2008.81
196.185	2024.36
196.261	2026.59
196.336	2055.5
196.411	2039.62
196.486	2046.23
196.561	2041.47
196.637	2049.74
196.712	2065.25
196.787	2072.01
196.862	2086.89
196.937	2096.59
197.013	2099.35
197.088	2110.34
197.163	2127.51
197.238	2141.84
197.313	2144.46
197.388	2157.54
197.464	2186.23
197.539	2197.18
197.614	2188.42
197.689	2201.7
197.764	2214.17
197.839	2235.43
197.914	2233.43
197.989	2255.61
198.065	2270.83
198.14	2318.97
198.215	2343.15
198.29	2356.34
198.365	2368.19
198.44	2376.47
198.515	2400.75
198.59	2412.74
198.665	2436.83
198.74	2445.02
198.815	2447.54
198.89	2468.58
198.965	2498.92
199.04	2492.16
199.115	2506.82
199.19	2548.24
199.265	2549.72
199.34	2560.57
199.415	2591.11
199.49	2610.06
199.565	2619.3
199.64	2638.88
199.715	2631.73
199.79	2637.54
199.865	2641.83
199.94	2636.83
200.015	2669.08
200.09	2675.27
200.165	2682.94
200.24	2692.71
200.315	2732.14
200.39	2747.29
200.464	2750.62
200.539	2753.1
200.614	2770.87
200.689	2789.98
200.764	2796.89
200.839	2813.22
200.914	2817.42
200.989	2808.84
201.063	2820.46
201.138	2806.8
201.213	2805.41
201.288	2793.41
201.363	2800.55
201.438	2802.84
201.512	2818.46
201.587	2797.02
201.662	2803.79
201.737	2817.89
201.812	2822.23
201.886	2787.99
201.961	2798.24
202.036	2790.15
202.111	2784.33
202.186	2757.24
202.26	2738.99
202.335	2718.92
202.41	2715.83
202.485	2702.11
202.559	2682.39
202.634	2658.66
202.709	2662.76
202.784	2647.99
202.858	2646.04
202.933	2629.56
203.008	2621.03
203.082	2606.08
203.157	2610.08
203.232	2566.13
203.306	2544.03
203.381	2514.87
203.456	2496.68
203.53	2469.42
203.605	2450.43
203.68	2428.38
203.754	2423.34
203.829	2414.48
203.904	2393.82
203.978	2382.63
204.053	2383.35
204.127	2370.31
204.202	2367.88
204.277	2356.65
204.351	2349.84
204.426	2343.03
204.5	2332.51
204.575	2300.35
204.65	2305.21
204.724	2298.35
204.799	2309.67
204.873	2305.1
204.948	2303.24
205.022	2290.06
205.097	2287.4
205.171	2300.43
205.246	2305.19
205.32	2306.19
205.395	2303.39
205.469	2296.92
205.544	2301.53
205.618	2286.21
205.693	2299.01
205.767	2287.35
205.842	2303.68
205.916	2298.68
205.991	2287.45
206.065	2292.88
206.14	2308.33
206.214	2306.05
206.289	2300.86
206.363	2310.42
206.438	2313.38
206.512	2317.04
206.586	2335.93
206.661	2341.5
206.735	2320.24
206.81	2322.62
206.884	2337.28
206.958	2327.43
207.033	2341.27
207.107	2347.65
207.181	2379.51
207.256	2373.13
207.33	2390.93
207.405	2404.17
207.479	2423.17
207.553	2433.21
207.628	2420.6
207.702	2431.45
207.776	2424.74
207.851	2426.64
207.925	2442.41
207.999	2439.17
208.073	2440.27
208.148	2443.55
208.222	2437.08
208.296	2466.86
208.371	2481.68
208.445	2488.06
208.519	2516.91
208.593	2531.43
208.668	2528.81
208.742	2528.77
208.816	2532.38
208.89	2546.39
208.965	2543.1
209.039	2551.2
209.113	2567.91
209.187	2588.28
209.261	2588.14
209.336	2609.52
209.41	2628.29
209.484	2629.44
209.558	2656.69
209.632	2671.16
209.707	2683.6
209.781	2705.13
209.855	2724.62
209.929	2749.85
210.003	2764.52
210.077	2765.76
210.151	2814.41
210.226	2853.27
210.3	2884.7
210.374	2915.38
210.448	2929.78
210.522	2948.99
210.596	2969.63
210.67	2989.8
210.744	3050.61
210.818	3095.23
210.892	3130.09
210.966	3142.39
211.041	3176.45
211.115	3192.14
211.189	3237.26
211.263	3278.33
211.337	3308.1
211.411	3351.06
211.485	3370.87
211.559	3410.47
211.633	3447.44
211.707	3449.83
211.781	3493.59
211.855	3501.95
211.929	3533.35
212.003	3558.83
212.077	3615.91
212.151	3669.55
212.225	3724.53
212.299	3761.49
212.373	3802.28
212.447	3851.46
212.52	3932.79
212.594	3992.5
212.668	4063.86
212.742	4111.71
212.816	4172.16
212.89	4233.26
212.964	4298.82
213.038	4372.17
213.112	4457.01
213.186	4543.69
213.26	4608.88
213.333	4644.4
213.407	4728.94
213.481	4816.66
213.555	4911.84
213.629	4990.17
213.703	5067.1
213.777	5158.09
213.85	5231.26
213.924	5356.85
213.998	5452.73
214.072	5546.67
214.146	5632.64
214.219	5726.11
214.293	5830.6
214.367	5933.69
214.441	6049.6
214.515	6145.29
214.588	6236.15
214.662	6312.85
214.736	6409.04
214.81	6524.94
214.883	6649.5
214.957	6750.8
215.031	6852.93
215.105	6947.1
215.178	7049.05
215.252	7160.19
215.326	7253.8
215.4	7351.34
215.473	7429.38
215.547	7529.14
215.621	7639.71
215.694	7766.81
215.768	7872.32
215.842	7979.52
215.915	8089.25
215.989	8184.41
216.063	8295.22
216.136	8413.59
216.21	8534.41
216.284	8661.8
216.357	8780.39
216.431	8889.98
216.504	9021.39
216.578	9164.81
216.652	9297.81
216.725	9414.43
216.799	9536.12
216.873	9652.22
216.946	9785.37
217.02	9893.53
217.093	10008.31
217.167	10094.72
217.24	10193.48
217.314	10301.58
217.387	10402.3
217.461	10506.03
217.535	10634.29
217.608	10733.88
217.682	10838.35
217.755	10953.51
217.829	11048.93
217.902	11157.98
217.976	11267.57
218.049	11359.76
218.123	11448.98
218.196	11551.24
218.27	11655.98
218.343	11744.28
218.417	11858.46
218.49	11955.73
218.563	12073.33
218.637	12181.93
218.71	12310.29
218.784	12415.66
218.857	12522.48
218.931	12633.11
219.004	12732.94
219.077	12828.96
219.151	12926.62
219.224	13019.13
219.298	13110.86
219.371	13217.93
219.444	13301.32
219.518	13396.53
219.591	13499.64
219.665	13614.76
219.738	13706.69
219.811	13778.18
219.885	13883.41
219.958	13965.75
220.031	14045.19
220.105	14126.42
220.178	14207.26
220.251	14280.39
220.325	14366.53
220.398	14444.19
220.471	14523.87
220.544	14614.3
220.618	14684.63
220.691	14763.21
220.764	14843.27
220.838	14922.86
220.911	14995.88
220.984	15084.53
221.057	15162.71
221.131	15226.82
221.204	15266.59
221.277	15351.43
221.35	15452.84
221.424	15510.64
221.497	15585.39
221.57	15660.83
221.643	15731.59
221.716	15798.92
221.79	15860.28
221.863	15917.25
221.936	15980.54
222.009	16036.6
222.082	16093.13
222.155	16155.07
222.229	16235.8
222.302	16297.16
222.375	16354.27
222.448	16409.41
222.521	16462.04
222.594	16512.11
222.667	16564.65
222.74	16629.33
222.814	16665.67
222.887	16705.43
222.96	16764.33
223.033	16818.93
223.106	16858.6
223.179	16912.38
223.252	16952.86
223.325	17002.7
223.398	17051.71
223.471	17096.05
223.544	17143.47
223.617	17187.52
223.69	17229.89
223.763	17248.63
223.837	17297.69
223.91	17343.86
223.983	17364.15
224.056	17386.47
224.129	17420.3
224.202	17466.37
224.275	17493.55
224.348	17519.38
224.42	17540.63
224.493	17561.94
224.566	17590.03
224.639	17626.75
224.712	17646.13
224.785	17683.14
224.858	17699.19
224.931	17721.98
225.004	17742.17
225.077	17764.34
225.15	17762.8
225.223	17787.76
225.296	17836.77
225.369	17840.48
225.442	17862.07
225.514	17899.33
225.587	17930.7
225.66	17959.56
225.733	17979.08
225.806	18010.55
225.879	18044.09
225.952	18067.71
226.025	18099.61
226.097	18130.5
226.17	18156.47
226.243	18158.98
226.316	18171.99
226.389	18202.21
226.461	18225.96
226.534	18253.62
226.607	18283.98
226.68	18336.8
226.753	18358.82
226.825	18354.05
226.898	18387.35
226.971	18400.8
227.044	18420.03
227.117	18443.16
227.189	18467.73
227.262	18495.97
227.335	18508.36
227.407	18524.5
227.48	18542
227.553	18554.33
227.626	18562.19
227.698	18571.54
227.771	18597.22
227.844	18599.49
227.916	18614.76
227.989	18612.69
228.062	18624.3
228.134	18654.28
228.207	18660.25
228.28	18666.23
228.352	18680.64
228.425	18692.35
228.498	18702.23
228.57	18703
228.643	18722.76
228.716	18722.52
228.788	18717.84
228.861	18728.15
228.934	18736.3
229.006	18740.54
229.079	18746.32
229.151	18751.24
229.224	18745.07
229.296	18756.49
229.369	18800.25
229.442	18820.58
229.514	18828.53
229.587	18843.66
229.659	18826.07
229.732	18828.29
229.804	18841.35
229.877	18869.06
229.949	18881.54
230.022	18908.86
230.094	18915.8
230.167	18918.45
230.239	18915.66
230.312	18920.43
230.384	18942.89
230.457	18961.01
230.529	18962.84
230.602	18966.55
230.674	18971.7
230.747	18990.02
230.819	19005.97
230.892	18977.39
230.964	18982.31
231.037	18994.98
231.109	18999.22
231.181	19008.71
231.254	19003.03
231.326	19004.33
231.399	18998.3
231.471	18992.18
231.544	18976.86
231.616	18979.46
231.688	18982.93
231.761	18983.94
231.833	18982.55
231.905	18961.34
231.978	18957.87
232.05	18957.68
232.122	18959.32
232.195	18945.59
232.267	18952.77
232.339	18938.89
232.412	18952.14
232.484	18934.89
232.556	18915.61
232.629	18919.56
232.701	18924.53
232.773	18917.49
232.846	18900.05
232.918	18891.56
232.99	18888.63
233.062	18887.42
233.135	18886.17
233.207	18868.92
233.279	18870.22
233.351	18869.35
233.424	18858.36
233.496	18837.54
233.568	18849.45
233.64	18816.82
233.713	18808.82
233.785	18799.14
233.857	18794.46
233.929	18766.95
234.001	18773.4
234.074	18785.35
234.146	18759.72
234.218	18747.24
234.29	18730.56
234.362	18712.83
234.434	18686.04
234.507	18656.98
234.579	18628.11
234.651	18608.45
234.723	18593.37
234.795	18574.96
234.867	18547.25
234.939	18545.13
235.012	18528.26
235.084	18514.72
235.156	18526.04
235.228	18498.82
235.3	18473.32
235.372	18455.49
235.444	18452.31
235.516	18412.32
235.588	18389.96
235.66	18373.23
235.732	18337.72
235.804	18373.57
235.876	18364.32
235.948	18364.75
236.02	18345.43
236.092	18322.68
236.164	18307.79
236.236	18285.09
236.308	18265.48
236.38	18260.71
236.452	18235.94
236.524	18227.17
236.596	18218.93
236.668	18201.48
236.74	18191.8
236.812	18177.53
236.884	18163.46
236.956	18145.29
237.028	18113.78
237.1	18086.88
237.172	18081.29
237.244	18074.55
237.316	18025.88
237.388	17990.7
237.46	17959.9
237.532	17952.48
237.604	17928.1
237.675	17915.81
237.747	17903.28
237.819	17866.6
237.891	17832.72
237.963	17799.23
238.035	17755.33
238.107	17703.76
238.178	17685.4
238.25	17653.5
238.322	17647.33
238.394	17609.89
238.466	17579.43
238.538	17564.83
238.609	17541.5
238.681	17502.71
238.753	17480.2
238.825	17452.54
238.897	17437.07
238.968	17430.61
239.04	17401.5
239.112	17403.14
239.184	17367.19
239.255	17336.49
239.327	17323.38
239.399	17305.26
239.471	17284.06
239.542	17276.68
239.614	17260.05
239.686	17213.45
239.758	17200.05
239.829	17159.57
239.901	17149.5
239.973	17121.88
240.044	17105.11
240.116	17078.8
240.188	17047.52
240.259	17016.82
240.331	16985.4
240.403	16970.02
240.474	16924.63
240.546	16893.83
240.618	16843.9
240.689	16809.44
240.761	16783.65
240.833	16772.14
240.904	16739.65
240.976	16715.79
241.048	16691.07
241.119	16671.21
241.191	16645.57
241.262	16638.39
241.334	16610.44
241.405	16580.8
241.477	16550.58
241.549	16514.91
241.62	16491.83
241.692	16471.92
241.763	16452.26
241.835	16419.24
241.906	16393.65
241.978	16349.79
242.049	16337.5
242.121	16324.78
242.192	16317.5
242.264	16286.56
242.335	16243.13
242.407	16223.18
242.478	16184.57
242.55	16152.9
242.621	16115.12
242.693	16090.92
242.764	16058.72
242.836	16034.29
242.907	16011.06
242.979	15996.02
243.05	15980.59
243.122	15962.42
243.193	15930.08
243.264	15878.6
243.336	15853.4
243.407	15834.94
243.479	15828.72
243.55	15802.55
243.622	15776.42
243.693	15744.56
243.764	15730.58
243.836	15688.7
243.907	15663.82
243.978	15638.33
244.05	15618.95
244.121	15580.39
244.192	15566.6
244.264	15519.17
244.335	15490.73
244.407	15442.15
244.478	15414.05
244.549	15378.33
244.62	15338.56
244.692	15314.9
244.763	15307.67
244.834	15282.6
244.906	15245.34
244.977	15224.76
245.048	15203.45
245.119	15169.57
245.191	15140.98
245.262	15088.59
245.333	15085.69
245.405	15061.45
245.476	15043.61
245.547	15021.54
245.618	15008.18
245.689	14973.96
245.761	14961.47
245.832	14929.76
245.903	14908.79
245.974	14884.4
246.045	14861.89
246.117	14851.86
246.188	14810.31
246.259	14773.62
246.33	14746.34
246.401	14714.28
246.473	14669.12
246.544	14632.77
246.615	14620.24
246.686	14586.4
246.757	14581.92
246.828	14540.02
246.899	14521.23
246.97	14480.93
247.042	14449.35
247.113	14434.41
247.184	14426.26
247.255	14394.01
247.326	14377.57
247.397	14354
247.468	14329.8
247.539	14300.01
247.61	14254.41
247.681	14243.76
247.752	14231.27
247.823	14191.31
247.894	14175.83
247.965	14147.58
248.037	14125.94
248.108	14080.77
248.179	14054.74
248.25	14023.55
248.321	14012.46
248.392	13974.81
248.463	13975.05
248.534	13947.34
248.605	13921.02
248.675	13898.41
248.746	13874.55
248.817	13849.53
248.888	13832.99
248.959	13788.79
249.03	13773.7
249.101	13753.02
249.172	13731.47
249.243	13681.77
249.314	13676.27
249.385	13651.93
249.456	13633.95
249.527	13603.34
249.598	13584.68
249.669	13556.09
249.739	13538.3
249.81	13519.17
249.881	13488.31
249.952	13463.63
250.023	13441.02
250.094	13406.46
250.165	13365.73
250.235	13350.78
250.306	13333.33
250.377	13305.37
250.448	13292.5
250.519	13251.52
250.59	13247.81
250.66	13214.74
250.731	13215.8
250.802	13197.29
250.873	13178.3
250.944	13154.87
251.014	13131.88
251.085	13140.17
251.156	13133.27
251.227	13118.86
251.297	13108.3
251.368	13097.36
251.439	13082.66
251.51	13065.64
251.58	13036.43
251.651	13015.7
251.722	12990.05
251.792	12956.65
251.863	12928.98
251.934	12920.59
252.005	12928.01
252.075	12904.68
252.146	12900.73
252.217	12886.36
252.287	12870.94
252.358	12848.04
252.429	12850.83
252.499	12821.53
252.57	12796.55
252.641	12779.88
252.711	12755.1
252.782	12719.71
252.852	12718.51
252.923	12695.76
252.994	12678.64
253.064	12675.9
253.135	12652.32
253.205	12632.27
253.276	12623.21
253.347	12619.06
253.417	12596.79
253.488	12572.11
253.558	12546.03
253.629	12523.52
253.699	12511.86
253.77	12501.49
253.841	12474.35
253.911	12462.54
253.982	12450.06
254.052	12441.14
254.123	12425.18
254.193	12411.11
254.264	12432.7
254.334	12404.99
254.405	12373.9
254.475	12344.3
254.546	12317.98
254.616	12311.23
254.687	12305.16
254.757	12294.89
254.827	12274.26
254.898	12250.06
254.968	12228.61
255.039	12206.2
255.109	12190.34
255.18	12155.83
255.25	12111.87
255.321	12102.71
255.391	12063.57
255.461	12065.3
255.532	12019.7
255.602	11996.57
255.673	11964.71
255.743	11929.42
255.813	11880.84
255.884	11882.19
255.954	11875.78
256.024	11874.96
256.095	11850.71
256.165	11810.75
256.235	11790.12
256.306	11768.29
256.376	11764.48
256.446	11762.41
256.517	11753.44
256.587	11746.36
256.657	11734.79
256.728	11720.77
256.798	11695.51
256.868	11677.05
256.938	11650.88
257.009	11642.54
257.079	11628.27
257.149	11636.95
257.219	11593.91
257.29	11586.49
257.36	11539.4
257.43	11523.25
257.5	11485.13
257.571	11464.45
257.641	11459.92
257.711	11430.33
257.781	11417.27
257.852	11403.68
257.922	11356.93
257.992	11333.79
258.062	11313.02
258.132	11306.61
258.202	11293.98
258.273	11286.71
258.343	11292.06
258.413	11265.89
258.483	11246.61
258.553	11222.95
258.623	11192.2
258.693	11182.32
258.764	11185.74
258.834	11192.15
258.904	11183.47
258.974	11164.39
259.044	11149.26
259.114	11138.61
259.184	11127.96
259.254	11108.34
259.324	11073.36
259.394	11067.33
259.464	11070.27
259.535	11051.86
259.605	11025.6
259.675	11001.99
259.745	10992.64
259.815	10959.77
259.885	10943.15
259.955	10952.54
260.025	10929.99
260.095	10916.02
260.165	10904.84
260.235	10902
260.305	10876.31
260.375	10845.42
260.445	10849.9
260.515	10851.83
260.585	10847.25
260.655	10831.59
260.725	10828.36
260.795	10827.83
260.865	10837.47
260.934	10814.77
261.004	10805.18
261.074	10791.11
261.144	10787.07
261.214	10775.98
261.284	10756.47
261.354	10751.12
261.424	10725.82
261.494	10723.22
261.564	10707.13
261.634	10705.58
261.703	10666.89
261.773	10657.06
261.843	10650.9
261.913	10632.59
261.983	10600.06
262.053	10591.58
262.123	10572.55
262.192	10543.88
262.262	10532.85
