Data from 20250625_urea_1M_1_MAYP1162681_14-05-06-318.txt Node
Date: Thu Jun 26 14:05:06 BST 2025
User: adleo
Spectrometer: MAYP116268
Trigger mode: 0
Integration Time (sec): 1.000000E0
Scans to average: 1
Electric dark correction enabled: true
Nonlinearity correction enabled: true
Boxcar width: 10
XAxis mode: Wavelengths
Number of Pixels in Spectrum: 2068
>>>>>Begin Spectral Data<<<<<
179.565	1149.82
179.642	1203.74
179.718	1239.84
179.795	1279.13
179.871	1307.32
179.948	1322.89
180.024	1342.44
180.101	1364.52
180.177	1379.66
180.254	1402.52
180.33	1424
180.407	1473.32
180.483	1565.39
180.56	1649.39
180.636	1729.57
180.712	1718.02
180.789	1727.05
180.865	1735.75
180.942	1745.15
181.018	1755.42
181.095	1768.73
181.171	1772.82
181.248	1771.44
181.324	1790.59
181.4	1794.78
181.477	1808.13
181.553	1819.01
181.63	1838.83
181.706	1852.38
181.782	1861.79
181.859	1860.84
181.935	1864.6
182.011	1862.12
182.088	1875.43
182.164	1895.69
182.24	1907.91
182.317	1915.99
182.393	1914.47
182.469	1929.53
182.546	1942.85
182.622	1945.56
182.698	1941.85
182.775	1954.54
182.851	1968.57
182.927	1959.91
183.003	1957.87
183.08	1950.69
183.156	1964.38
183.232	1960.82
183.308	1948.69
183.385	1950.98
183.461	1967.62
183.537	1970.57
183.613	1982.07
183.69	1974.8
183.766	1964.33
183.842	1972.61
183.918	1979.55
183.995	1991.63
184.071	1994.77
184.147	1988.06
184.223	1977.37
184.299	1986.12
184.375	1973.66
184.452	1981.61
184.528	2032.93
184.604	2041.58
184.68	2054.8
184.756	2061.55
184.832	2065.98
184.908	2071.49
184.985	2074.39
185.061	2056.18
185.137	2063.69
185.213	2052.85
185.289	2051.66
185.365	2043.06
185.441	2037.87
185.517	2051.67
185.593	2049.06
185.669	2045.2
185.745	2055.14
185.822	2071.45
185.898	2065.07
185.974	2074.15
186.05	2064.97
186.126	2028.44
186.202	2022.74
186.278	2016.79
186.354	2006.23
186.43	2012.08
186.506	2009.37
186.582	2005.62
186.658	2013.32
186.734	1994.49
186.81	1995.77
186.886	2001.43
186.962	2015.41
187.038	2015.17
187.114	2004.23
187.19	2011.6
187.266	2003.76
187.341	2007.42
187.417	2000.57
187.493	2002.05
187.569	2004.09
187.645	1998.1
187.721	1988.21
187.797	1996.2
187.873	2001.29
187.949	1994.72
188.025	1991.87
188.101	1995.91
188.176	2004.23
188.252	2001.05
188.328	2007.08
188.404	2007.56
188.48	2001.76
188.556	1994.39
188.632	1993.67
188.707	1994.1
188.783	1990.01
188.859	1984.45
188.935	1972.46
189.011	1980.69
189.086	1973.41
189.162	1964.48
189.238	1963.86
189.314	1960.1
189.39	1953.06
189.465	1945.84
189.541	1963.05
189.617	1945.51
189.693	1942.99
189.768	1945.7
189.844	1966.39
189.92	1958.45
189.996	1967.82
190.071	1978.33
190.147	1977.28
190.223	1983.7
190.298	1977.95
190.374	1965.92
190.45	1976.8
190.526	1981.8
190.601	1974.62
190.677	1976.38
190.753	2006.25
190.828	2011.01
190.904	2025.66
190.98	2037.83
191.055	2048.11
191.131	2035.5
191.207	2056
191.282	2066.12
191.358	2056.18
191.433	2047.33
191.509	2061.69
191.585	2056.93
191.66	2059.6
191.736	2067.49
191.811	2059.5
191.887	2073.92
191.963	2095.46
192.038	2102.31
192.114	2106.31
192.189	2111.92
192.265	2105.45
192.34	2083.51
192.416	2080.85
192.491	2076.86
192.567	2083.37
192.642	2086.7
192.718	2091.94
192.793	2080.81
192.869	2077
192.944	2078.9
193.02	2085.75
193.095	2089.18
193.171	2094.69
193.246	2094.36
193.322	2092.03
193.397	2091.41
193.473	2079.47
193.548	2063.11
193.624	2070.29
193.699	2068.39
193.775	2085.38
193.85	2090.84
193.925	2096.45
194.001	2092.84
194.076	2084.42
194.152	2071.06
194.227	2061.11
194.302	2049.85
194.378	2054.6
194.453	2050.94
194.529	2063.26
194.604	2046.85
194.679	2041.47
194.755	2026.4
194.83	2033.68
194.905	2030.35
194.981	2041.34
195.056	2034.06
195.131	2041.67
195.207	2035.54
195.282	2024.5
195.357	2008.23
195.433	2020.83
195.508	2012.03
195.583	2022.4
195.659	2038.15
195.734	2046.37
195.809	2048.71
195.884	2059.93
195.96	2059.12
196.035	2074.77
196.11	2068.77
196.185	2079.33
196.261	2080.61
196.336	2109.72
196.411	2098.16
196.486	2105.3
196.561	2102.3
196.637	2111.91
196.712	2124.71
196.787	2129.23
196.862	2145.35
196.937	2150.15
197.013	2158.15
197.088	2166.71
197.163	2187.98
197.238	2203.07
197.313	2201.65
197.388	2213.59
197.464	2238.81
197.539	2249.28
197.614	2241.95
197.689	2254.9
197.764	2274.84
197.839	2298.58
197.914	2292.54
197.989	2314.81
198.065	2329.23
198.14	2374.86
198.215	2398.61
198.29	2410.51
198.365	2426.22
198.44	2439.41
198.515	2467.93
198.59	2480.83
198.665	2506.44
198.74	2511.73
198.815	2512.16
198.89	2535.1
198.965	2563.83
199.04	2561.54
199.115	2575.44
199.19	2618.21
199.265	2625.78
199.34	2630.25
199.415	2661.23
199.49	2681.85
199.565	2692.42
199.64	2713.53
199.715	2711.29
199.79	2717.43
199.865	2723.81
199.94	2718.15
200.015	2745.36
200.09	2750.88
200.165	2756.79
200.24	2764.65
200.315	2803.42
200.39	2819.77
200.464	2826.1
200.539	2827.06
200.614	2843.45
200.689	2869.47
200.764	2874.19
200.839	2888.53
200.914	2895.58
200.989	2883.56
201.063	2896.82
201.138	2878.53
201.213	2877.53
201.288	2858.56
201.363	2864.99
201.438	2863.18
201.512	2882.43
201.587	2865.03
201.662	2868.22
201.737	2881.71
201.812	2888.82
201.886	2857.86
201.961	2868.5
202.036	2856.11
202.111	2855.01
202.186	2827.15
202.26	2809.66
202.335	2789.49
202.41	2784.06
202.485	2768.06
202.559	2748.43
202.634	2725.56
202.709	2735.03
202.784	2716.31
202.858	2713.31
202.933	2694.73
203.008	2689.25
203.082	2667.29
203.157	2667.2
203.232	2626.77
203.306	2604.61
203.381	2571.31
203.456	2546.79
203.53	2518.66
203.605	2503.34
203.68	2477.9
203.754	2470.57
203.829	2454.24
203.904	2433.81
203.978	2421.1
204.053	2425.24
204.127	2413.15
204.202	2403.96
204.277	2387.49
204.351	2382.25
204.426	2376.4
204.5	2367.69
204.575	2334.75
204.65	2343.52
204.724	2334.66
204.799	2342.41
204.873	2338.98
204.948	2341.6
205.022	2331.8
205.097	2326.89
205.171	2337.79
205.246	2345.75
205.32	2348.89
205.395	2347.79
205.469	2339.99
205.544	2347.99
205.618	2328.95
205.693	2341.61
205.767	2334.66
205.842	2354.23
205.916	2351.09
205.991	2341.9
206.065	2348.33
206.14	2363.55
206.214	2360.88
206.289	2354.36
206.363	2363.73
206.438	2364.83
206.512	2369.92
206.586	2391.63
206.661	2400.91
206.735	2376.65
206.81	2378.98
206.884	2389.65
206.958	2377.37
207.033	2392.12
207.107	2396.83
207.181	2431.45
207.256	2426.74
207.33	2442.97
207.405	2456.5
207.479	2472.6
207.553	2482.21
207.628	2469.5
207.702	2479.6
207.776	2473.12
207.851	2478.69
207.925	2497.89
207.999	2495.51
208.073	2491.79
208.148	2491.84
208.222	2480.93
208.296	2515.01
208.371	2532.45
208.445	2543.12
208.519	2572.87
208.593	2586.92
208.668	2583.73
208.742	2586.68
208.816	2588.16
208.89	2603.17
208.965	2603.21
209.039	2609.41
209.113	2624.65
209.187	2645.17
209.261	2646.21
209.336	2668.03
209.41	2687.61
209.484	2686.56
209.558	2709.57
209.632	2725.91
209.707	2739.29
209.781	2759.83
209.855	2776.93
209.929	2794.68
210.003	2803.54
210.077	2805.49
210.151	2852.72
210.226	2890.43
210.3	2919.49
210.374	2947.55
210.448	2955.7
210.522	2971.25
210.596	2988.84
210.67	3006.57
210.744	3057.89
210.818	3096.4
210.892	3123.45
210.966	3125.97
211.041	3148.81
211.115	3158.02
211.189	3192.45
211.263	3220.02
211.337	3243.44
211.411	3274.69
211.485	3282.95
211.559	3312.95
211.633	3334.22
211.707	3325.57
211.781	3348.54
211.855	3335.56
211.929	3349.97
212.003	3359.12
212.077	3392.4
212.151	3431.89
212.225	3467.83
212.299	3488.62
212.373	3506.9
212.447	3534.46
212.52	3600.07
212.594	3641.24
212.668	3689.71
212.742	3712.73
212.816	3749.23
212.89	3784.43
212.964	3825.59
213.038	3878.79
213.112	3935.48
213.186	3999.36
213.26	4030.22
213.333	4038.83
213.407	4099.08
213.481	4155.9
213.555	4224.51
213.629	4271.58
213.703	4315.69
213.777	4375.02
213.85	4416.79
213.924	4511.83
213.998	4579.03
214.072	4635.68
214.146	4691.35
214.219	4754.3
214.293	4826.29
214.367	4899.12
214.441	4976.64
214.515	5038.4
214.588	5079.68
214.662	5124.14
214.736	5173.91
214.81	5253.45
214.883	5344.01
214.957	5405.77
215.031	5471.74
215.105	5523.05
215.178	5584.65
215.252	5656.86
215.326	5715.51
215.4	5778.8
215.473	5808.83
215.547	5866.31
215.621	5930.18
215.694	6014.5
215.768	6077.94
215.842	6139.16
215.915	6205.79
215.989	6265.03
216.063	6330.13
216.136	6419.28
216.21	6499.4
216.284	6593.18
216.357	6675.73
216.431	6751.14
216.504	6841.29
216.578	6948.96
216.652	7042.31
216.725	7131.74
216.799	7221.04
216.873	7303.94
216.946	7390.58
217.02	7472.99
217.093	7554.62
217.167	7620.96
217.24	7688.91
217.314	7759.01
217.387	7844.78
217.461	7921.2
217.535	8016.14
217.608	8085.74
217.682	8166.17
217.755	8261.72
217.829	8332.83
217.902	8416.8
217.976	8496.96
218.049	8562.79
218.123	8626.18
218.196	8713.72
218.27	8781.78
218.343	8848.35
218.417	8927.78
218.49	9005.47
218.563	9097.76
218.637	9188.81
218.71	9287.99
218.784	9372.41
218.857	9473.57
218.931	9549.12
219.004	9633.73
219.077	9718.17
219.151	9809.96
219.224	9881.29
219.298	9951.62
219.371	10044.73
219.444	10114.44
219.518	10191.46
219.591	10280.62
219.665	10385.76
219.738	10464.29
219.811	10537.18
219.885	10618.75
219.958	10704.32
220.031	10781.75
220.105	10867.62
220.178	10941.4
220.251	11013.83
220.325	11096.24
220.398	11169.53
220.471	11252.95
220.544	11331.89
220.618	11396.62
220.691	11476.67
220.764	11559.81
220.838	11631.23
220.911	11696.35
220.984	11784.84
221.057	11868.13
221.131	11939.61
221.204	11975.23
221.277	12064.21
221.35	12161.48
221.424	12227.08
221.497	12297.45
221.57	12368.79
221.643	12433.72
221.716	12504.97
221.79	12569.47
221.863	12632.57
221.936	12691.52
222.009	12755.2
222.082	12825.53
222.155	12879.86
222.229	12953.85
222.302	13008.95
222.375	13073.79
222.448	13142.19
222.521	13201.05
222.594	13257.02
222.667	13305.03
222.74	13377.54
222.814	13422.95
222.887	13476.12
222.96	13541.68
223.033	13606.76
223.106	13660.07
223.179	13719.42
223.252	13768.97
223.325	13821.71
223.398	13876.04
223.471	13933.45
223.544	13984.5
223.617	14027.31
223.69	14085.64
223.763	14117.31
223.837	14168.6
223.91	14216.13
223.983	14246.21
224.056	14279.67
224.129	14330.28
224.202	14387.46
224.275	14427.03
224.348	14465.31
224.42	14495.58
224.493	14524.21
224.566	14556.27
224.639	14603.66
224.712	14639.04
224.785	14681.7
224.858	14719.97
224.931	14754.25
225.004	14783.31
225.077	14827.37
225.15	14846.22
225.223	14889.89
225.296	14949.13
225.369	14983.45
225.442	15020.09
225.514	15057.59
225.587	15100.06
225.66	15132.74
225.733	15178.15
225.806	15222.3
225.879	15261.82
225.952	15298.84
226.025	15350.32
226.097	15401.61
226.17	15439.21
226.243	15457.48
226.316	15492.13
226.389	15530.64
226.461	15568.29
226.534	15611.43
226.607	15641.02
226.68	15696.36
226.753	15724.22
226.825	15741.38
226.898	15790.98
226.971	15821.44
227.044	15868.48
227.117	15898.56
227.189	15943.96
227.262	15982.62
227.335	16016.02
227.407	16040.84
227.48	16064.46
227.553	16099.74
227.626	16117.19
227.698	16144.9
227.771	16185.34
227.844	16200.52
227.916	16226.55
227.989	16245.59
228.062	16274.17
228.134	16324.49
228.207	16352.3
228.28	16365.5
228.352	16379.63
228.425	16401.27
228.498	16437.41
228.57	16445.46
228.643	16481.85
228.716	16494.77
228.788	16512.17
228.861	16530.34
228.934	16567.25
229.006	16596.56
229.079	16614.92
229.151	16634.78
229.224	16642.54
229.296	16671.98
229.369	16720.95
229.442	16757.68
229.514	16773.97
229.587	16799.27
229.659	16798.4
229.732	16826.79
229.804	16866.07
229.877	16919.37
229.949	16952.58
230.022	16986.26
230.094	17008.34
230.167	17040.77
230.239	17055.47
230.312	17064.05
230.384	17106.36
230.457	17124.63
230.529	17150.12
230.602	17164.05
230.674	17182.08
230.747	17216.2
230.819	17239.04
230.892	17231.96
230.964	17246.32
231.037	17275.67
231.109	17280.06
231.181	17303.72
231.254	17298.42
231.326	17309.31
231.399	17315.86
231.471	17314.27
231.544	17304.92
231.616	17330.18
231.688	17333.7
231.761	17332.59
231.833	17347.43
231.905	17325.74
231.978	17335.72
232.05	17338.76
232.122	17356.54
232.195	17361.26
232.267	17379.48
232.339	17381.5
232.412	17397.07
232.484	17400.54
232.556	17396.88
232.629	17433.21
232.701	17446.42
232.773	17454.9
232.846	17451.72
232.918	17464.44
232.99	17477.36
233.062	17496.49
233.135	17503.96
233.207	17495.82
233.279	17512.15
233.351	17523.38
233.424	17532.49
233.496	17523.82
233.568	17544.01
233.64	17524.06
233.713	17525.6
233.785	17511.19
233.857	17518.37
233.929	17504.3
234.001	17513.89
234.074	17526.51
234.146	17500.97
234.218	17492.06
234.29	17489.31
234.362	17491.53
234.434	17468.73
234.507	17458.13
234.579	17436.73
234.651	17429.89
234.723	17434.8
234.795	17436.25
234.867	17428.78
234.939	17431.33
235.012	17429.84
235.084	17431.82
235.156	17446.08
235.228	17437.17
235.3	17444.64
235.372	17431
235.444	17446.42
235.516	17423.19
235.588	17411.38
235.66	17415.09
235.732	17402.71
235.804	17459.14
235.876	17456.73
235.948	17465.65
236.02	17439.38
236.092	17433.5
236.164	17417.65
236.236	17398.61
236.308	17388.68
236.38	17376.1
236.452	17360.83
236.524	17353.31
236.596	17349.64
236.668	17335.43
236.74	17323.81
236.812	17306.22
236.884	17306.9
236.956	17298.75
237.028	17273.55
237.1	17258.75
237.172	17256.49
237.244	17260.15
237.316	17199.28
237.388	17177.36
237.46	17150.8
237.532	17165.74
237.604	17139.43
237.675	17147.86
237.747	17144.63
237.819	17120.53
237.891	17112.58
237.963	17090.32
238.035	17070.03
238.107	17023.66
238.178	17021.25
238.25	17006.75
238.322	17015.09
238.394	16976.72
238.466	16942.5
238.538	16941.25
238.609	16925.39
238.681	16887.27
238.753	16858.98
238.825	16847.22
238.897	16836.43
238.968	16833.82
239.04	16802.06
239.112	16813.29
239.184	16774.93
239.255	16752.04
239.327	16738.98
239.399	16718.01
239.471	16707.84
239.542	16693.72
239.614	16688.28
239.686	16646.15
239.758	16636.42
239.829	16603.45
239.901	16601.14
239.973	16583.4
240.044	16565.62
240.116	16551.64
240.188	16533.18
240.259	16515.06
240.331	16476.94
240.403	16461.8
240.474	16425.27
240.546	16400.54
240.618	16357.36
240.689	16332.78
240.761	16306.99
240.833	16301.59
240.904	16280.34
240.976	16254.94
241.048	16238.74
241.119	16218.21
241.191	16202.31
241.262	16196.04
241.334	16163.99
241.405	16138.49
241.477	16114.63
241.549	16085.72
241.62	16058.63
241.692	16038.24
241.763	16023.2
241.835	16005.32
241.906	15986.47
241.978	15958.23
242.049	15947.43
242.121	15941.89
242.192	15939.53
242.264	15915.96
242.335	15880.05
242.407	15866.36
242.478	15839.27
242.55	15814.35
242.621	15789.72
242.693	15766.49
242.764	15727.26
242.836	15703.74
242.907	15681.56
242.979	15667.73
243.05	15650.04
243.122	15635.63
243.193	15612.64
243.264	15575.57
243.336	15557.25
243.407	15539.47
243.479	15526.26
243.55	15507.32
243.622	15481.43
243.693	15451.79
243.764	15444.61
243.836	15397.9
243.907	15361.7
243.978	15338.08
244.05	15320.83
244.121	15284.77
244.192	15261.54
244.264	15230.01
244.335	15206.68
244.407	15161.08
244.478	15130.96
244.549	15108.01
244.62	15066.22
244.692	15042.31
244.763	15025.54
244.834	14992.13
244.906	14954.1
244.977	14931.06
245.048	14915.78
245.119	14884.11
245.191	14855.38
245.262	14802.16
245.333	14802.93
245.405	14779.07
245.476	14759.84
245.547	14733.23
245.618	14708.89
245.689	14685.84
245.761	14664.01
245.832	14639.18
245.903	14629.69
245.974	14616.53
246.045	14588.91
246.117	14585.96
246.188	14547.16
246.259	14507.63
246.33	14483.67
246.401	14453.11
246.473	14412.04
246.544	14375.84
246.615	14361.14
246.686	14321.75
246.757	14311.97
246.828	14271.52
246.899	14269.64
246.97	14229.49
247.042	14197.67
247.113	14191.45
247.184	14190.34
247.255	14154.09
247.326	14128.54
247.397	14107.62
247.468	14074.99
247.539	14055.08
247.61	14005.76
247.681	13997.86
247.752	13981.37
247.823	13948.4
247.894	13934.56
247.965	13903.47
248.037	13877.29
248.108	13840.7
248.179	13825.37
248.25	13804.16
248.321	13788.83
248.392	13750.03
248.463	13749.11
248.534	13722.45
248.605	13698.69
248.675	13668.03
248.746	13659.83
248.817	13646.58
248.888	13625.9
248.959	13589.4
249.03	13560.58
249.101	13546.89
249.172	13516.8
249.243	13480.17
249.314	13475.25
249.385	13455.44
249.456	13446.62
249.527	13418.61
249.598	13396.19
249.669	13368.33
249.739	13337.77
249.81	13323.54
249.881	13283.82
249.952	13261.84
250.023	13237.45
250.094	13192.33
250.165	13159.98
250.235	13135.39
250.306	13119.53
250.377	13084.58
250.448	13073.83
250.519	13036.91
250.59	13033.53
250.66	13010.06
250.731	13006.92
250.802	12981.09
250.873	12958.38
250.944	12937.65
251.014	12911.67
251.085	12916.25
251.156	12897.21
251.227	12895.23
251.297	12885.88
251.368	12875.76
251.439	12869.97
251.51	12863.75
251.58	12838.98
251.651	12813.43
251.722	12800.17
251.792	12759.05
251.863	12741.75
251.934	12736.35
252.005	12746.66
252.075	12718.51
252.146	12707.37
252.217	12699.81
252.287	12686.6
252.358	12669.63
252.429	12666.74
252.499	12649.09
252.57	12636.75
252.641	12626.73
252.711	12614.29
252.782	12577.41
252.852	12578.57
252.923	12546.27
252.994	12528.29
253.064	12527.76
253.135	12505.44
253.205	12485.34
253.276	12480.38
253.347	12475.32
253.417	12442.1
253.488	12418.68
253.558	12400.79
253.629	12380.64
253.699	12362.42
253.77	12353.31
253.841	12331.62
253.911	12309.88
253.982	12290.5
254.052	12270.21
254.123	12258.59
254.193	12233.67
254.264	12245.34
254.334	12208.99
254.405	12185.95
254.475	12156.93
254.546	12133.94
254.616	12125.65
254.687	12106.61
254.757	12089.16
254.827	12062.7
254.898	12047.37
254.968	12028.43
255.039	12001
255.109	11991.31
255.18	11958.97
255.25	11921.95
255.321	11907.92
255.391	11881.61
255.461	11886.81
255.532	11846.71
255.602	11823.91
255.673	11783.33
255.743	11763.9
255.813	11721.92
255.884	11710.79
255.954	11701.97
256.024	11703.17
256.095	11688.57
256.165	11659.46
256.235	11648.85
256.306	11626.88
256.376	11618.97
256.446	11602.54
256.517	11589.67
256.587	11581.33
256.657	11568.03
256.728	11551.54
256.798	11525.28
256.868	11506
256.938	11473.7
257.009	11459.87
257.079	11443.53
257.149	11443.87
257.219	11400.2
257.29	11399.58
257.36	11357.65
257.43	11347.82
257.5	11308.59
257.571	11285.79
257.641	11278.37
257.711	11249.74
257.781	11240.2
257.852	11232.44
257.922	11199.81
257.992	11182.85
258.062	11158.65
258.132	11149.35
258.202	11134.7
258.273	11124.87
258.343	11130.32
258.413	11105.98
258.483	11097.02
258.553	11073.26
258.623	11059.67
258.693	11048.3
258.764	11047.72
258.834	11054.71
258.904	11038.03
258.974	11011.67
259.044	10993.22
259.114	10978.76
259.184	10965.22
259.254	10945.17
259.324	10910.67
259.394	10898.04
259.464	10897.42
259.535	10876.5
259.605	10855.25
259.675	10828.61
259.745	10813.09
259.815	10777.48
259.885	10760.23
259.955	10765.53
260.025	10741.24
260.095	10720.09
260.165	10718.93
260.235	10711.61
260.305	10690.31
260.375	10663.42
260.445	10673.06
260.515	10675.13
260.585	10671.04
260.655	10652.77
260.725	10655.62
260.795	10642.56
260.865	10646.13
260.934	10621.02
261.004	10619.43
261.074	10610.37
261.144	10605.07
261.214	10605.36
261.284	10581.37
261.354	10572.41
261.424	10547.3
261.494	10547.06
261.564	10530.44
261.634	10518.34
261.703	10488.47
261.773	10484.86
261.843	10477.44
261.913	10454.26
261.983	10427.38
262.053	10421.64
262.123	10408.97
262.192	10379
262.262	10377.66
262.332	10353.13
