Data from 20250625_urea_1M_1_MAYP1162681_08-45-05-853.txt Node
Date: Thu Jun 26 08:45:05 BST 2025
User: adleo
Spectrometer: MAYP116268
Trigger mode: 0
Integration Time (sec): 1.000000E0
Scans to average: 1
Electric dark correction enabled: true
Nonlinearity correction enabled: true
Boxcar width: 10
XAxis mode: Wavelengths
Number of Pixels in Spectrum: 2068
>>>>>Begin Spectral Data<<<<<
179.565	1137.64
179.642	1184.78
179.718	1224.29
179.795	1259.58
179.871	1286.24
179.948	1303.71
180.024	1322.76
180.101	1344.18
180.177	1355.37
180.254	1376.96
180.33	1398.16
180.407	1446.53
180.483	1534.13
180.56	1617.13
180.636	1697.6
180.712	1684.15
180.789	1690.09
180.865	1701.34
180.942	1707.33
181.018	1716.17
181.095	1727.48
181.171	1734.28
181.248	1736.98
181.324	1752.1
181.4	1758.56
181.477	1770.21
181.553	1782.04
181.63	1799.43
181.706	1813.79
181.782	1825.09
181.859	1824.48
181.935	1830.09
182.011	1828.23
182.088	1844.82
182.164	1861.79
182.24	1873.3
182.317	1883.28
182.393	1882.23
182.469	1895.73
182.546	1912.46
182.622	1915.31
182.698	1912.03
182.775	1921.78
182.851	1934.43
182.927	1925.39
183.003	1920.78
183.08	1915.89
183.156	1921.78
183.232	1923.35
183.308	1912.75
183.385	1919.36
183.461	1935.05
183.537	1933.91
183.613	1945.32
183.69	1938.95
183.766	1932.72
183.842	1938.85
183.918	1943.03
183.995	1956.44
184.071	1959.86
184.147	1951.54
184.223	1940.94
184.299	1949.79
184.375	1936.81
184.452	1944.52
184.528	1998.26
184.604	2010.71
184.68	2022.6
184.756	2033.35
184.832	2036.39
184.908	2040.53
184.985	2039.34
185.061	2024.98
185.137	2034.59
185.213	2025.5
185.289	2025.98
185.365	2020.75
185.441	2018.94
185.517	2033.55
185.593	2030.36
185.669	2028.36
185.745	2038.68
185.822	2053.51
185.898	2048.04
185.974	2059.74
186.05	2051.51
186.126	2015.12
186.202	2006.18
186.278	2001.43
186.354	1991.11
186.43	1993.25
186.506	1993.34
186.582	1991.58
186.658	1996.67
186.734	1976.66
186.81	1975.04
186.886	1976.09
186.962	1982.12
187.038	1977.75
187.114	1968.57
187.19	1973.42
187.266	1964.67
187.341	1965.72
187.417	1960.2
187.493	1959.16
187.569	1964.24
187.645	1958.54
187.721	1947.36
187.797	1954.97
187.873	1958.34
187.949	1953.26
188.025	1950.64
188.101	1955.4
188.176	1962.29
188.252	1957.49
188.328	1966.33
188.404	1967.28
188.48	1963.33
188.556	1955.92
188.632	1959.58
188.707	1959.43
188.783	1958.58
188.859	1951.5
188.935	1942.46
189.011	1950.55
189.086	1946.03
189.162	1932.91
189.238	1930.53
189.314	1927.11
189.39	1923.16
189.465	1918.4
189.541	1935.43
189.617	1923.26
189.693	1914.08
189.768	1919.03
189.844	1946.24
189.92	1937.92
189.996	1946.1
190.071	1956.08
190.147	1958.03
190.223	1964.78
190.298	1957.08
190.374	1946.24
190.45	1960.31
190.526	1966.3
190.601	1962.16
190.677	1963.21
190.753	1992.85
190.828	1995.94
190.904	2010.3
190.98	2022.09
191.055	2030.61
191.131	2021.52
191.207	2036.64
191.282	2046.24
191.358	2032.55
191.433	2016.13
191.509	2030.3
191.585	2027.54
191.66	2028.11
191.736	2037.15
191.811	2029.3
191.887	2043.43
191.963	2065.64
192.038	2070.73
192.114	2070.25
192.189	2072.34
192.265	2066.5
192.34	2043.33
192.416	2040.76
192.491	2037.57
192.567	2042.09
192.642	2046.18
192.718	2047.42
192.793	2038.95
192.869	2035.77
192.944	2042.38
193.02	2051.08
193.095	2052.22
193.171	2058.21
193.246	2061.45
193.322	2060.35
193.397	2058.93
193.473	2047.23
193.548	2026.68
193.624	2033.15
193.699	2031.29
193.775	2046.85
193.85	2053.93
193.925	2064.49
194.001	2063.68
194.076	2055.55
194.152	2042.33
194.227	2035
194.302	2026.73
194.378	2030.68
194.453	2029.35
194.529	2039.1
194.604	2024.16
194.679	2017.98
194.755	1999.2
194.83	2007.62
194.905	2005.25
194.981	2014.47
195.056	2006.29
195.131	2012.76
195.207	2008.24
195.282	2001.77
195.357	1982.18
195.433	1995.11
195.508	1982.94
195.583	1995.87
195.659	2011.09
195.734	2018.61
195.809	2018.89
195.884	2023.31
195.96	2021.17
196.035	2034.82
196.11	2032.73
196.185	2045.9
196.261	2050.75
196.336	2079.47
196.411	2069.1
196.486	2072.53
196.561	2063.82
196.637	2076.85
196.712	2092.22
196.787	2093.79
196.862	2107.91
196.937	2118.23
197.013	2123.75
197.088	2131.98
197.163	2149.4
197.238	2161.73
197.313	2163.34
197.388	2175.67
197.464	2203.74
197.539	2215.78
197.614	2207.88
197.689	2217.4
197.764	2233.82
197.839	2253.99
197.914	2247.8
197.989	2265.7
198.065	2279.16
198.14	2330.88
198.215	2352.82
198.29	2365.43
198.365	2381.81
198.44	2390.9
198.515	2415.41
198.59	2427.5
198.665	2450.59
198.74	2461.5
198.815	2463.21
198.89	2486.16
198.965	2513.16
199.04	2514.5
199.115	2530.49
199.19	2572.1
199.265	2577.15
199.34	2583.86
199.415	2615.36
199.49	2638.26
199.565	2648.55
199.64	2671.46
199.715	2663.97
199.79	2670.93
199.865	2675.74
199.94	2672.22
200.015	2702.32
200.09	2711.23
200.165	2718.95
200.24	2728.43
200.315	2764.1
200.39	2781.3
200.464	2785.97
200.539	2789.02
200.614	2799.88
200.689	2821.57
200.764	2829.39
200.839	2843.63
200.914	2847.68
200.989	2835.57
201.063	2848.72
201.138	2832.48
201.213	2829.01
201.288	2812.71
201.363	2816.9
201.438	2818.91
201.512	2838.15
201.587	2823.95
201.662	2826.62
201.737	2838.29
201.812	2846.78
201.886	2812.77
201.961	2823.5
202.036	2809.88
202.111	2805.11
202.186	2778.26
202.26	2762.15
202.335	2744.46
202.41	2737.6
202.485	2722.27
202.559	2705.83
202.634	2678.87
202.709	2688.3
202.784	2673.91
202.858	2675.43
202.933	2657.19
203.008	2649.52
203.082	2627.09
203.157	2626.99
203.232	2586.47
203.306	2563.75
203.381	2534.55
203.456	2511.69
203.53	2486.09
203.605	2467.92
203.68	2448.01
203.754	2442.34
203.829	2426.01
203.904	2399.4
203.978	2389.3
204.053	2394.49
204.127	2381.64
204.202	2378.79
204.277	2363.84
204.351	2354.56
204.426	2346.32
204.5	2339.56
204.575	2306.25
204.65	2315.68
204.724	2303.82
204.799	2311.24
204.873	2309.2
204.948	2306.29
205.022	2295.68
205.097	2287.49
205.171	2304.43
205.246	2309.81
205.32	2310.15
205.395	2310.15
205.469	2305.53
205.544	2312.91
205.618	2296.02
205.693	2306.34
205.767	2298.35
205.842	2316.25
205.916	2312.82
205.991	2302.97
206.065	2308.06
206.14	2323.85
206.214	2317.42
206.289	2312.28
206.363	2323.61
206.438	2325.9
206.512	2333.99
206.586	2354.31
206.661	2365.74
206.735	2342.71
206.81	2343.52
206.884	2356.84
206.958	2345.33
207.033	2360.46
207.107	2366.03
207.181	2396.12
207.256	2390.41
207.33	2408.98
207.405	2419.6
207.479	2437.83
207.553	2444.97
207.628	2430.46
207.702	2440.55
207.776	2437.79
207.851	2441.93
207.925	2456.03
207.999	2453.55
208.073	2450.17
208.148	2453.55
208.222	2442.6
208.296	2473.15
208.371	2489.25
208.445	2501.73
208.519	2530.01
208.593	2539.91
208.668	2533.77
208.742	2537.05
208.816	2544.62
208.89	2555.1
208.965	2555.58
209.039	2563.92
209.113	2582.97
209.187	2604.91
209.261	2607.24
209.336	2627.05
209.41	2651.02
209.484	2655.78
209.558	2679.31
209.632	2692.22
209.707	2705.42
209.781	2725.76
209.855	2744.63
209.929	2764.9
210.003	2773.66
210.077	2777.24
210.151	2831.08
210.226	2873.04
210.3	2905.38
210.374	2932.11
210.448	2947.41
210.522	2967.11
210.596	2987.61
210.67	3008.39
210.744	3065.29
210.818	3104.66
210.892	3138.24
210.966	3146.01
211.041	3176.06
211.115	3189.89
211.189	3232.82
211.263	3269.6
211.337	3297.21
211.411	3333.2
211.485	3352.29
211.559	3393.28
211.633	3425.14
211.707	3421.46
211.781	3460.63
211.855	3457
211.929	3484.11
212.003	3501.19
212.077	3544.84
212.151	3598.34
212.225	3650.5
212.299	3682.23
212.373	3716.38
212.447	3759.63
212.52	3838.66
212.594	3893.91
212.668	3962.48
212.742	4009.52
212.816	4061.39
212.89	4118.65
212.964	4178.49
213.038	4243.87
213.112	4317.31
213.186	4399.14
213.26	4453.69
213.333	4484.22
213.407	4568.35
213.481	4646.99
213.555	4736.34
213.629	4808.5
213.703	4871.14
213.777	4951.42
213.85	5018.15
213.924	5137.88
213.998	5225.72
214.072	5303.19
214.146	5380.54
214.219	5466.16
214.293	5553.59
214.367	5650.06
214.441	5753.21
214.515	5839.79
214.588	5920.91
214.662	5986.72
214.736	6071.41
214.81	6181.97
214.883	6295.43
214.957	6389.83
215.031	6479.62
215.105	6565.77
215.178	6654.94
215.252	6755.88
215.326	6836.33
215.4	6926.05
215.473	6990.25
215.547	7081.36
215.621	7184.71
215.694	7304.84
215.768	7391.26
215.842	7490.47
215.915	7586.59
215.989	7670.79
216.063	7774.57
216.136	7882.35
216.21	8002.14
216.284	8120.24
216.357	8225.45
216.431	8325.85
216.504	8433.72
216.578	8567.88
216.652	8685.81
216.725	8805.56
216.799	8919.88
216.873	9039.79
216.946	9156.75
217.02	9261.79
217.093	9370.37
217.167	9444.18
217.24	9526.73
217.314	9634.16
217.387	9733.5
217.461	9839.37
217.535	9958.62
217.608	10051.54
217.682	10155.88
217.755	10262.06
217.829	10355.14
217.902	10462.33
217.976	10564.42
218.049	10663.58
218.123	10750.46
218.196	10853.47
218.27	10939.64
218.343	11023.2
218.417	11116.25
218.49	11205.07
218.563	11314.7
218.637	11408.25
218.71	11533.84
218.784	11643.49
218.857	11748.27
218.931	11841.53
219.004	11933.06
219.077	12037.47
219.151	12132.56
219.224	12218.99
219.298	12309.08
219.371	12400.86
219.444	12472.3
219.518	12563.11
219.591	12651.32
219.665	12766.44
219.738	12859.13
219.811	12937.61
219.885	13037.35
219.958	13125.23
220.031	13210.45
220.105	13295.97
220.178	13382.98
220.251	13458.67
220.325	13545.34
220.398	13626.62
220.471	13716.96
220.544	13805.17
220.618	13871.99
220.691	13955.05
220.764	14032.18
220.838	14112.29
220.911	14189.62
220.984	14281.16
221.057	14352.55
221.131	14427.03
221.204	14464.58
221.277	14552.26
221.35	14649.97
221.424	14703.24
221.497	14777.76
221.57	14842.07
221.643	14906.13
221.716	14984.32
221.79	15039.85
221.863	15094.46
221.936	15160.79
222.009	15228.51
222.082	15298.55
222.155	15351.52
222.229	15424.69
222.302	15490.87
222.375	15542.16
222.448	15601.93
222.521	15659.67
222.594	15722.24
222.667	15764.8
222.74	15831.37
222.814	15877.93
222.887	15927.09
222.96	15996.35
223.033	16059.2
223.106	16117.33
223.179	16173.38
223.252	16214.11
223.325	16271.85
223.398	16317.21
223.471	16360.1
223.544	16401.7
223.617	16439.68
223.69	16488.6
223.763	16519.97
223.837	16562.29
223.91	16611.16
223.983	16634.34
224.056	16667.41
224.129	16700.52
224.202	16757.92
224.275	16791.8
224.348	16809.15
224.42	16829.25
224.493	16849.88
224.566	16875.71
224.639	16921.49
224.712	16947.71
224.785	16973.78
224.858	17013.78
224.931	17048.29
225.004	17070.61
225.077	17099.96
225.15	17105.69
225.223	17134.37
225.296	17183.47
225.369	17199.04
225.442	17220.54
225.514	17257.65
225.587	17292.2
225.66	17335.33
225.733	17363.38
225.806	17395.48
225.879	17427.91
225.952	17447.09
226.025	17489.74
226.097	17527.28
226.17	17548.2
226.243	17561.36
226.316	17585.36
226.389	17593.02
226.461	17616.2
226.534	17638.17
226.607	17656.68
226.68	17700.92
226.753	17723.38
226.825	17716.2
226.898	17752.39
226.971	17772.73
227.044	17805.11
227.117	17831.38
227.189	17852.19
227.262	17882.07
227.335	17909.98
227.407	17922.07
227.48	17948.87
227.553	17962.41
227.626	17969.2
227.698	17988.91
227.771	18018.45
227.844	18037.06
227.916	18062.84
227.989	18073.58
228.062	18090.84
228.134	18131.61
228.207	18143.22
228.28	18152.71
228.352	18180.09
228.425	18191.03
228.498	18203.31
228.57	18201.15
228.643	18215.94
228.716	18217.82
228.788	18215.84
228.861	18213.48
228.934	18244.9
229.006	18252.32
229.079	18265.19
229.151	18262.97
229.224	18254.06
229.296	18272.37
229.369	18306.92
229.442	18331.16
229.514	18334.01
229.587	18360.22
229.659	18344.42
229.732	18359.07
229.804	18377.67
229.877	18400.8
229.949	18424.89
230.022	18461.66
230.094	18473.95
230.167	18493.52
230.239	18503.06
230.312	18507.2
230.384	18535.39
230.457	18538.86
230.529	18551.78
230.602	18553.75
230.674	18564.55
230.747	18592.4
230.819	18605.12
230.892	18572.69
230.964	18580.5
231.037	18589.22
231.109	18584.74
231.181	18605.94
231.254	18600.79
231.326	18599.63
231.399	18610.28
231.471	18602.43
231.544	18584.55
231.616	18599.25
231.688	18588.55
231.761	18583.39
231.833	18588.79
231.905	18570.86
231.978	18583.1
232.05	18582.86
232.122	18584.64
232.195	18586.52
232.267	18601.8
232.339	18589.7
232.412	18608.31
232.484	18596.11
232.556	18591.54
232.629	18612.93
232.701	18615.29
232.773	18615.82
232.846	18610.62
232.918	18585.99
232.99	18584.35
233.062	18587.2
233.135	18588.5
233.207	18571.3
233.279	18575.49
233.351	18575.3
233.424	18561.9
233.496	18535.63
233.568	18545.56
233.64	18532.12
233.713	18526.38
233.785	18507.44
233.857	18504.79
233.929	18481.85
234.001	18484.26
234.074	18496.02
234.146	18464.8
234.218	18448.6
234.29	18433.86
234.362	18422.1
234.434	18409.57
234.507	18395.31
234.579	18370.97
234.651	18350.44
234.723	18350.58
234.795	18342.44
234.867	18331.74
234.939	18329.96
235.012	18320.32
235.084	18313.24
235.156	18308.47
235.228	18284.23
235.3	18260.9
235.372	18243.99
235.444	18249.58
235.516	18214.06
235.588	18196.86
235.66	18182.11
235.732	18159.08
235.804	18192.86
235.876	18190.4
235.948	18188.81
236.02	18167.8
236.092	18148.71
236.164	18127.46
236.236	18109.78
236.308	18081.92
236.38	18061.3
236.452	18039.51
236.524	18030.02
236.596	18025.2
236.668	18009.97
236.74	18001.78
236.812	17992.72
236.884	17982.5
236.956	17956.48
237.028	17926.7
237.1	17897.01
237.172	17890.89
237.244	17890.41
237.316	17835.23
237.388	17804.73
237.46	17782.12
237.532	17774.65
237.604	17746.65
237.675	17737.74
237.747	17721.64
237.819	17700.1
237.891	17681.16
237.963	17652.97
238.035	17622.27
238.107	17568.63
238.178	17568.01
238.25	17539.52
238.322	17534.66
238.394	17498.85
238.466	17480.01
238.538	17472.73
238.609	17446.22
238.681	17410.18
238.753	17374.18
238.825	17362.47
238.897	17337.07
238.968	17319.28
239.04	17283.67
239.112	17292.73
239.184	17258.99
239.255	17227.38
239.327	17205.84
239.399	17183.47
239.471	17169.69
239.542	17155.52
239.614	17146.12
239.686	17087.23
239.758	17069.64
239.829	17022.65
239.901	17009.5
239.973	16976.82
240.044	16953.25
240.116	16936.96
240.188	16910.02
240.259	16879.47
240.331	16844.48
240.403	16828.86
240.474	16791.8
240.546	16760.28
240.618	16712.52
240.689	16690.64
240.761	16680.85
240.833	16670.78
240.904	16642.92
240.976	16613.76
241.048	16583.55
241.119	16562.44
241.191	16542.24
241.262	16543.4
241.334	16524.22
241.405	16494.82
241.477	16468.93
241.549	16444.6
241.62	16420.16
241.692	16408.25
241.763	16408.69
241.835	16375
241.906	16349.5
241.978	16317.31
242.049	16307.86
242.121	16283.42
242.192	16268.19
242.264	16225.44
242.335	16181.48
242.407	16164.18
242.478	16131.65
242.55	16112.27
242.621	16077.09
242.693	16050.05
242.764	16011.15
242.836	15980.35
242.907	15959.19
242.979	15943.34
243.05	15917.4
243.122	15893.88
243.193	15859.13
243.264	15795.12
243.336	15769.82
243.407	15752.71
243.479	15740.42
243.55	15715.11
243.622	15696.55
243.693	15661.22
243.764	15644.93
243.836	15617.26
243.907	15586.03
243.978	15568.05
244.05	15547.32
244.121	15503.27
244.192	15483.6
244.264	15440.08
244.335	15418.24
244.407	15377.22
244.478	15348.78
244.549	15325.65
244.62	15287.57
244.692	15264.91
244.763	15258.11
244.834	15225
244.906	15194.01
244.977	15172.6
245.048	15163.11
245.119	15129.8
245.191	15101.02
245.262	15059.38
245.333	15045.83
245.405	15014.64
245.476	14991.89
245.547	14963.11
245.618	14952.22
245.689	14933.32
245.761	14921.22
245.832	14888.49
245.903	14874.03
245.974	14856.15
246.045	14824.82
246.117	14822.89
246.188	14783.99
246.259	14741.81
246.33	14721.42
246.401	14689.84
246.473	14647.81
246.544	14608.96
246.615	14600.47
246.686	14573.67
246.757	14568.56
246.828	14532.12
246.899	14525.32
246.97	14483.58
247.042	14451.66
247.113	14435.76
247.184	14430.12
247.255	14387.99
247.326	14362.92
247.397	14335.2
247.468	14301.7
247.539	14277.07
247.61	14231.99
247.681	14219.94
247.752	14215.6
247.823	14183.16
247.894	14158.58
247.965	14121.89
248.037	14086.17
248.108	14040.95
248.179	14013.38
248.25	13972.84
248.321	13952.69
248.392	13911.23
248.463	13915.76
248.534	13887.75
248.605	13863.31
248.675	13826.72
248.746	13817.81
248.817	13807.54
248.888	13789.32
248.959	13752.05
249.03	13731.47
249.101	13713.01
249.172	13685.72
249.243	13636.36
249.314	13629.61
249.385	13613.07
249.456	13597.74
249.527	13576.39
249.598	13560.43
249.669	13533.82
249.739	13510.92
249.81	13494.2
249.881	13461.17
249.952	13432.97
250.023	13411.96
250.094	13376.19
250.165	13344.9
250.235	13309.9
250.306	13287.97
250.377	13251.28
250.448	13230.41
250.519	13194.59
250.59	13184.76
250.66	13155.64
250.731	13151.74
250.802	13117.08
250.873	13098.81
250.944	13084.05
251.014	13058.7
251.085	13061.3
251.156	13048.72
251.227	13047.95
251.297	13038.98
251.368	13029.24
251.439	13015.94
251.51	13001.43
251.58	12971.59
251.651	12944.06
251.722	12944.31
251.792	12902.56
251.863	12873.93
251.934	12874.12
252.005	12876.87
252.075	12850.64
252.146	12839.31
252.217	12831.84
252.287	12828.42
252.358	12798.15
252.429	12792.22
252.499	12768.02
252.57	12739.96
252.641	12726.9
252.711	12705.88
252.782	12674.02
252.852	12672.76
252.923	12652.13
252.994	12637.77
253.064	12636.85
253.135	12613.52
253.205	12582.19
253.276	12579.92
253.347	12583.29
253.417	12560.35
253.488	12527.57
253.558	12506.7
253.629	12489.1
253.699	12470.98
253.77	12457.19
253.841	12439.79
253.911	12423.5
253.982	12411.3
254.052	12410.14
254.123	12389.18
254.193	12356.93
254.264	12366.28
254.334	12339.67
254.405	12304.77
254.475	12277.87
254.546	12254.35
254.616	12248.28
254.687	12234.44
254.757	12222.73
254.827	12201.81
254.898	12177.52
254.968	12168.16
255.039	12148.55
255.109	12133.99
255.18	12103.14
255.25	12064.87
255.321	12051.03
255.391	12018.26
255.461	12023.37
255.532	11972.8
255.602	11955.98
255.673	11932.41
255.743	11907.34
255.813	11857.99
255.884	11855.1
255.954	11847.05
256.024	11846.23
256.095	11827.33
256.165	11795.09
256.235	11782.41
256.306	11758.75
256.376	11753.4
256.446	11747.27
256.517	11724.19
256.587	11719.37
256.657	11706.69
256.728	11691.8
256.798	11674.35
256.868	11652.28
256.938	11622.2
257.009	11616.9
257.079	11604.37
257.149	11615.93
257.219	11577.76
257.29	11578.92
257.36	11537.61
257.43	11521.18
257.5	11484.4
257.571	11466.62
257.641	11461.03
257.711	11430.04
257.781	11414.13
257.852	11402.13
257.922	11360.73
257.992	11349.21
258.062	11328.63
258.132	11326.66
258.202	11308.97
258.273	11292.1
258.343	11297.41
258.413	11275.62
258.483	11252.39
258.553	11223.38
258.623	11193.06
258.693	11179.57
258.764	11172.68
258.834	11174.75
258.904	11160.73
258.974	11124.2
259.044	11103.14
259.114	11090.52
259.184	11081.07
259.254	11065.02
259.324	11027.67
259.394	11017.99
259.464	11021.07
259.535	11004.49
259.605	10974.76
259.675	10939.34
259.745	10932.65
259.815	10902.86
259.885	10880.89
259.955	10896.65
260.025	10874
260.095	10856.37
260.165	10842.92
260.235	10847.88
260.305	10825.14
260.375	10797.58
260.445	10811.89
260.515	10811.45
260.585	10803.26
260.655	10785.24
260.725	10779.6
260.795	10772.66
260.865	10777.1
260.934	10745.53
261.004	10730.06
261.074	10720.86
261.144	10731.03
261.214	10726.55
261.284	10714.4
261.354	10710.69
261.424	10682.55
261.494	10683.9
261.564	10666.31
261.634	10663.08
261.703	10622.46
261.773	10613.31
261.843	10603.62
261.913	10589.46
261.983	10560.16
262.053	10549.61
262.123	10533.13
262.192	10506.15
262.262	10501.53
262.332	10464.91
