Data from 20250625_urea_1M_1_MAYP1162681_05-55-05-673.txt Node
Date: Thu Jun 26 05:55:05 BST 2025
User: adleo
Spectrometer: MAYP116268
Trigger mode: 0
Integration Time (sec): 1.000000E0
Scans to average: 1
Electric dark correction enabled: true
Nonlinearity correction enabled: true
Boxcar width: 10
XAxis mode: Wavelengths
Number of Pixels in Spectrum: 2068
>>>>>Begin Spectral Data<<<<<
179.565	1095.36
179.642	1147.29
179.718	1186.55
179.795	1222.12
179.871	1248.36
179.948	1263.97
180.024	1281.73
180.101	1301.56
180.177	1313.11
180.254	1334.88
180.33	1354.62
180.407	1402.51
180.483	1488.64
180.56	1570.69
180.636	1647.98
180.712	1635.19
180.789	1643.51
180.865	1654.53
180.942	1661.7
181.018	1669.58
181.095	1684.08
181.171	1687.79
181.248	1688.6
181.324	1702.81
181.4	1706.04
181.477	1717.54
181.553	1728.41
181.63	1749.18
181.706	1765.01
181.782	1773.6
181.859	1773.41
181.935	1778.64
182.011	1773.56
182.088	1788.48
182.164	1806.74
182.24	1816.81
182.317	1828.64
182.393	1826.84
182.469	1837.86
182.546	1852.6
182.622	1855.26
182.698	1848.55
182.775	1861.39
182.851	1872.75
182.927	1865.19
183.003	1861.58
183.08	1857.82
183.156	1868.47
183.232	1867.71
183.308	1855.59
183.385	1861.91
183.461	1874.22
183.537	1874.6
183.613	1884.63
183.69	1876.31
183.766	1863.19
183.842	1872.36
183.918	1876.64
183.995	1889.9
184.071	1894.09
184.147	1888.43
184.223	1882.4
184.299	1893.09
184.375	1880.88
184.452	1888.3
184.528	1940.46
184.604	1953.49
184.68	1962.99
184.756	1968.37
184.832	1968.84
184.908	1973.26
184.985	1975.26
185.061	1962.19
185.137	1971.46
185.213	1961.33
185.289	1963.42
185.365	1958.62
185.441	1956.15
185.517	1968.14
185.593	1963.86
185.669	1961.43
185.745	1968.47
185.822	1981.3
185.898	1974.31
185.974	1982.58
186.05	1972.69
186.126	1933.55
186.202	1925.09
186.278	1922.85
186.354	1914.63
186.43	1921.72
186.506	1920.96
186.582	1919.96
186.658	1929.42
186.734	1910.45
186.81	1916.82
186.886	1918.58
186.962	1931.51
187.038	1928.7
187.114	1919.95
187.19	1928.08
187.266	1920.43
187.341	1923.38
187.417	1919.24
187.493	1917.77
187.569	1922.33
187.645	1917.29
187.721	1907.12
187.797	1913.82
187.873	1915.77
187.949	1908.83
188.025	1900.13
188.101	1903.64
188.176	1904.45
188.252	1899.32
188.328	1906.45
188.404	1902.45
188.48	1899.55
188.556	1890.95
188.632	1891.85
188.707	1891.76
188.783	1887.62
188.859	1881.44
188.935	1870.46
189.011	1878.64
189.086	1875.55
189.162	1867.18
189.238	1867.37
189.314	1865.94
189.39	1862.95
189.465	1857.43
189.541	1872.31
189.617	1862.47
189.693	1857.63
189.768	1864.66
189.844	1882.54
189.92	1873.9
189.996	1882.26
190.071	1891.01
190.147	1890.82
190.223	1895.38
190.298	1889.96
190.374	1879.7
190.45	1893.76
190.526	1898.9
190.601	1891.96
190.677	1891.29
190.753	1915.02
190.828	1916.55
190.904	1931.05
190.98	1944.93
191.055	1955.39
191.131	1950.16
191.207	1966.28
191.282	1974.69
191.358	1964.8
191.433	1955.29
191.509	1967.93
191.585	1964.98
191.66	1966.08
191.736	1975.73
191.811	1969.5
191.887	1982.01
191.963	2005.5
192.038	2010.97
192.114	2014.58
192.189	2017.53
192.265	2013.59
192.34	1993.94
192.416	1994.7
192.491	1992.23
192.567	1991.8
192.642	1995.75
192.718	1993.42
192.793	1983.57
192.869	1980.15
192.944	1984.05
193.02	1990.99
193.095	1994.56
193.171	1998.5
193.246	1999.36
193.322	1994.13
193.397	1995.22
193.473	1984.76
193.548	1964.88
193.624	1970.49
193.699	1967.59
193.775	1982.24
193.85	1987.47
193.925	1997.17
194.001	1993.37
194.076	1985.14
194.152	1977.63
194.227	1968.64
194.302	1962.98
194.378	1964.6
194.453	1961.56
194.529	1973.54
194.604	1958.8
194.679	1953.24
194.755	1937.17
194.83	1948.5
194.905	1947.35
194.981	1954.2
195.056	1947.02
195.131	1951.49
195.207	1945.5
195.282	1934.23
195.357	1917.11
195.433	1931.23
195.508	1917.92
195.583	1929.23
195.659	1943.5
195.734	1949.59
195.809	1949.64
195.884	1956.48
195.96	1957.01
196.035	1973.89
196.11	1969.27
196.185	1981.54
196.261	1984.01
196.336	2011.54
196.411	1995.18
196.486	1996.7
196.561	1990.33
196.637	1999.98
196.712	2017.2
196.787	2022.24
196.862	2039.07
196.937	2047.44
197.013	2050.82
197.088	2061.51
197.163	2078.55
197.238	2093.3
197.313	2093.3
197.388	2104.62
197.464	2132.22
197.539	2146.25
197.614	2135.26
197.689	2146.73
197.764	2161.1
197.839	2185.12
197.914	2180.37
197.989	2202.87
198.065	2220.47
198.14	2267.08
198.215	2292.15
198.29	2300.44
198.365	2315.43
198.44	2325.09
198.515	2351.84
198.59	2364.88
198.665	2388.67
198.74	2396.96
198.815	2396.77
198.89	2416.14
198.965	2442.57
199.04	2439.9
199.115	2452.42
199.19	2493.54
199.265	2500.68
199.34	2508.63
199.415	2536.32
199.49	2557.26
199.565	2567.16
199.64	2587.31
199.715	2583.07
199.79	2587.4
199.865	2593.83
199.94	2589.78
200.015	2621.31
200.09	2626.27
200.165	2631.89
200.24	2637.13
200.315	2673.55
200.39	2687.46
200.464	2694.75
200.539	2699.04
200.614	2712.9
200.689	2732.76
200.764	2740.58
200.839	2748.96
200.914	2754.77
200.989	2744.67
201.063	2756.43
201.138	2741.72
201.213	2742.68
201.288	2726.15
201.363	2733.77
201.438	2733.58
201.512	2749.01
201.587	2730.95
201.662	2733.28
201.737	2749.15
201.812	2758.92
201.886	2729.64
201.961	2738.03
202.036	2724.37
202.111	2720.32
202.186	2693.42
202.26	2678.45
202.335	2657.06
202.41	2656.35
202.485	2642.39
202.559	2624.53
202.634	2599.48
202.709	2605.34
202.784	2586.43
202.858	2587.67
202.933	2568.43
203.008	2563.66
203.082	2546.14
203.157	2544.9
203.232	2507.2
203.306	2483.52
203.381	2452.14
203.456	2432.62
203.53	2409.32
203.605	2394.09
203.68	2371.99
203.754	2365.43
203.829	2352.72
203.904	2334.92
203.978	2322.35
204.053	2324.87
204.127	2313.16
204.202	2313.97
204.277	2301.08
204.351	2294.7
204.426	2287.56
204.5	2280.51
204.575	2248.16
204.65	2259.92
204.724	2253.59
204.799	2261.72
204.873	2258.77
204.948	2260.96
205.022	2248.5
205.097	2245.4
205.171	2259.15
205.246	2266.39
205.32	2267.96
205.395	2266.91
205.469	2261.87
205.544	2267.68
205.618	2251.92
205.693	2265.11
205.767	2252.45
205.842	2273.25
205.916	2266.74
205.991	2258.88
206.065	2262.26
206.14	2280.43
206.214	2270.29
206.289	2264.43
206.363	2275.8
206.438	2279.04
206.512	2282.47
206.586	2298.46
206.661	2304.88
206.735	2283.24
206.81	2284.72
206.884	2299.23
206.958	2286.34
207.033	2297.94
207.107	2305.18
207.181	2335.56
207.256	2328.8
207.33	2347.93
207.405	2354.79
207.479	2374.58
207.553	2381.06
207.628	2370.54
207.702	2377.73
207.776	2373.82
207.851	2376.49
207.925	2389.63
207.999	2384.44
208.073	2383.35
208.148	2387.01
208.222	2374.45
208.296	2404.8
208.371	2422.43
208.445	2430.86
208.519	2458.7
208.593	2472.65
208.668	2464.6
208.742	2468.17
208.816	2471.27
208.89	2482.94
208.965	2484.08
209.039	2496.8
209.113	2512.46
209.187	2530.83
209.261	2531.21
209.336	2549.78
209.41	2571.93
209.484	2577.17
209.558	2603.37
209.632	2618.99
209.707	2630.46
209.781	2656.23
209.855	2674.52
209.929	2692.98
210.003	2705.37
210.077	2712.32
210.151	2763.25
210.226	2805.63
210.3	2837.68
210.374	2867.93
210.448	2885.52
210.522	2907.02
210.596	2923.28
210.67	2946.54
210.744	3004.96
210.818	3049.18
210.892	3087.67
210.966	3102.92
211.041	3135.98
211.115	3152.76
211.189	3202.18
211.263	3244.63
211.337	3279.31
211.411	3322.5
211.485	3348.18
211.559	3391.6
211.633	3428.66
211.707	3433.19
211.781	3481.69
211.855	3490.38
211.929	3528.41
212.003	3553.75
212.077	3611.79
212.151	3671.88
212.225	3733.41
212.299	3775.48
212.373	3826.12
212.447	3884.24
212.52	3966.25
212.594	4035.01
212.668	4113.25
212.742	4163.6
212.816	4228.78
212.89	4295.97
212.964	4370.76
213.038	4451.93
213.112	4547.08
213.186	4643.16
213.26	4712.71
213.333	4753.98
213.407	4850.23
213.481	4947.21
213.555	5055.44
213.629	5139.96
213.703	5222.9
213.777	5322.84
213.85	5407.92
213.924	5539.97
213.998	5643.56
214.072	5749.62
214.146	5845.56
214.219	5950.09
214.293	6062.48
214.367	6179.47
214.441	6306.89
214.515	6412.56
214.588	6515.79
214.662	6597.85
214.736	6704.17
214.81	6839.14
214.883	6977.77
214.957	7090.99
215.031	7200.14
215.105	7300.68
215.178	7417.49
215.252	7542.89
215.326	7652.76
215.4	7761.49
215.473	7853.13
215.547	7963.56
215.621	8080.57
215.694	8219.37
215.768	8338.69
215.842	8455.99
215.915	8572.78
215.989	8674.91
216.063	8801.27
216.136	8922.52
216.21	9059.31
216.284	9193.01
216.357	9318.63
216.431	9436.79
216.504	9572.68
216.578	9725.54
216.652	9867.88
216.725	9995.91
216.799	10126.74
216.873	10249.33
216.946	10386.33
217.02	10501.17
217.093	10626.49
217.167	10725.5
217.24	10822.5
217.314	10937.71
217.387	11048.87
217.461	11161.05
217.535	11295.12
217.608	11399.41
217.682	11518.79
217.755	11638.51
217.829	11746.76
217.902	11853.71
217.976	11965.39
218.049	12064.63
218.123	12159.01
218.196	12268.86
218.27	12365.94
218.343	12459.7
218.417	12574.23
218.49	12680.86
218.563	12805.51
218.637	12907.61
218.71	13038.63
218.784	13156.35
218.857	13262.69
218.931	13379.63
219.004	13484.53
219.077	13593.38
219.151	13694.27
219.224	13784.9
219.298	13882.13
219.371	13991.46
219.444	14081.03
219.518	14174.79
219.591	14275.44
219.665	14391.38
219.738	14484.07
219.811	14563.81
219.885	14664.51
219.958	14753.88
220.031	14838.72
220.105	14918.93
220.178	15011.04
220.251	15083.39
220.325	15172.47
220.398	15254.95
220.471	15332.75
220.544	15413.87
220.618	15476.43
220.691	15562.23
220.764	15640.46
220.838	15724.04
220.911	15787.04
220.984	15878.72
221.057	15961.52
221.131	16031.8
221.204	16075.75
221.277	16163.72
221.35	16270.57
221.424	16329.37
221.497	16390.2
221.57	16453.53
221.643	16527.32
221.716	16593.64
221.79	16653.64
221.863	16712.05
221.936	16776.11
222.009	16833.89
222.082	16898.52
222.155	16946.24
222.229	17014.96
222.302	17075.06
222.375	17115.11
222.448	17175.64
222.521	17226.05
222.594	17274.2
222.667	17317.72
222.74	17374.92
222.814	17412.37
222.887	17455.07
222.96	17509.04
223.033	17567.02
223.106	17621.67
223.179	17668.41
223.252	17707.55
223.325	17754.63
223.398	17789.13
223.471	17828.51
223.544	17872.89
223.617	17912.84
223.69	17962.24
223.763	17982.43
223.837	18031.34
223.91	18085.42
223.983	18104.31
224.056	18125.46
224.129	18161.8
224.202	18208.21
224.275	18238.57
224.348	18264.11
224.42	18276.4
224.493	18292.06
224.566	18318.9
224.639	18343.86
224.712	18358.75
224.785	18386.9
224.858	18411.38
224.931	18427.04
225.004	18445.35
225.077	18464.1
225.15	18462.27
225.223	18483.47
225.296	18528.48
225.369	18524.72
225.442	18531.76
225.514	18557.78
225.587	18581.1
225.66	18603.8
225.733	18628.67
225.806	18648.81
225.879	18670.64
225.952	18677.92
226.025	18717.72
226.097	18741.09
226.17	18767.07
226.243	18769.23
226.316	18785.47
226.389	18801.28
226.461	18827.83
226.534	18848.84
226.607	18864.41
226.68	18905.18
226.753	18923.15
226.825	18910.96
226.898	18941.42
226.971	18959.39
227.044	18983.53
227.117	19006.18
227.189	19021.46
227.262	19037.27
227.335	19049.89
227.407	19060.06
227.48	19079.77
227.553	19089.21
227.626	19098.9
227.698	19106.18
227.771	19124.35
227.844	19121.31
227.916	19130.37
227.989	19131.28
228.062	19136.49
228.134	19160.49
228.207	19162.7
228.28	19157.36
228.352	19170.08
228.425	19180.39
228.498	19189.83
228.57	19181.84
228.643	19185.98
228.716	19191.28
228.788	19183.71
228.861	19186.99
228.934	19203.91
229.006	19208
229.079	19204.05
229.151	19192.58
229.224	19179.96
229.296	19183.57
229.369	19220.24
229.442	19235.95
229.514	19230.46
229.587	19241.01
229.659	19225.16
229.732	19235.37
229.804	19255.86
229.877	19289.83
229.949	19303.03
230.022	19318.12
230.094	19321.3
230.167	19327.13
230.239	19313.35
230.312	19317.59
230.384	19335.9
230.457	19334.89
230.529	19338.07
230.602	19335.71
230.674	19348.48
230.747	19354.4
230.819	19364.76
230.892	19324.48
230.964	19328.24
231.037	19336.09
231.109	19322.94
231.181	19333.92
231.254	19319.56
231.326	19306.07
231.399	19284.67
231.471	19273.83
231.544	19247.9
231.616	19250.7
231.688	19251.57
231.761	19248.77
231.833	19234.22
231.905	19208.05
231.978	19201.79
232.05	19191.76
232.122	19196.73
232.195	19183.57
232.267	19192.29
232.339	19184.97
232.412	19196.77
232.484	19178.56
232.556	19162.27
232.629	19185.69
232.701	19191.57
232.773	19183.28
232.846	19170.51
232.918	19163.96
232.99	19154.37
233.062	19157.84
233.135	19156.68
233.207	19131.91
233.279	19129.94
233.351	19128.59
233.424	19116.83
233.496	19098.08
233.568	19110.66
233.64	19082.47
233.713	19063.92
233.785	19044.4
233.857	19030.81
233.929	19007.15
234.001	19016.5
234.074	19016.5
234.146	18975.97
234.218	18940.65
234.29	18924.7
234.362	18914.38
234.434	18883.16
234.507	18850.96
234.579	18817.04
234.651	18780.17
234.723	18773.38
234.795	18757.33
234.867	18733.33
234.939	18729.14
235.012	18712.61
235.084	18690.25
235.156	18681.87
235.228	18664.52
235.3	18638.21
235.372	18626.83
235.444	18614.98
235.516	18563.95
235.588	18537.35
235.66	18523.27
235.732	18502.89
235.804	18543.95
235.876	18532.29
235.948	18524.77
236.02	18506.84
236.092	18489.15
236.164	18474.6
236.236	18446.12
236.308	18426.41
236.38	18411.42
236.452	18375.14
236.524	18360.73
236.596	18357.5
236.668	18340.58
236.74	18318.51
236.812	18307.48
236.884	18283.05
236.956	18266.42
237.028	18240.59
237.1	18216.01
237.172	18204.54
237.244	18192.54
237.316	18124.4
237.388	18082.23
237.46	18051.1
237.532	18045.42
237.604	18015.25
237.675	18016.02
237.747	18003.59
237.819	17967.44
237.891	17945.47
237.963	17919.3
238.035	17880.07
238.107	17816.75
238.178	17807.74
238.25	17786.2
238.322	17772.75
238.394	17737.86
238.466	17703.5
238.538	17681.91
238.609	17665.52
238.681	17620.22
238.753	17588.71
238.825	17560.56
238.897	17546.1
238.968	17538.01
239.04	17500.42
239.112	17502.83
239.184	17464.03
239.255	17428.08
239.327	17409.62
239.399	17377
239.471	17364.9
239.542	17345.09
239.614	17336.37
239.686	17276.22
239.758	17255.31
239.829	17219.69
239.901	17203.93
239.973	17188.9
240.044	17161.86
240.116	17134.2
240.188	17114.1
240.259	17093.14
240.331	17066.15
240.403	17043.54
240.474	17004.46
240.546	16968.89
240.618	16915.3
240.689	16875.1
240.761	16854.33
240.833	16843.49
240.904	16818.19
240.976	16786.62
241.048	16762.66
241.119	16740.01
241.191	16727.82
241.262	16714.95
241.334	16685.31
241.405	16648.68
241.477	16607.57
241.549	16585.35
241.62	16558.75
241.692	16534.41
241.763	16515.13
241.835	16484.91
241.906	16459.75
241.978	16414.93
242.049	16406.25
242.121	16391.17
242.192	16385.24
242.264	16336.99
242.335	16290.58
242.407	16269.32
242.478	16240.79
242.55	16218.72
242.621	16185.27
242.693	16156.4
242.764	16126.61
242.836	16094.08
242.907	16074.8
242.979	16051.86
243.05	16023.47
243.122	15997.2
243.193	15970.4
243.264	15926.63
243.336	15900.9
243.407	15875.59
243.479	15864.26
243.55	15836.79
243.622	15817.75
243.693	15782.37
243.764	15781.56
243.836	15744.83
243.907	15715.71
243.978	15679.85
244.05	15661.82
244.121	15621
244.192	15599.89
244.264	15556.65
244.335	15533.03
244.407	15492.45
244.478	15466.18
244.549	15433.4
244.62	15402.5
244.692	15374.4
244.763	15361.34
244.834	15327.21
244.906	15296.65
244.977	15280.6
245.048	15269.18
245.119	15235.72
245.191	15201.26
245.262	15146.07
245.333	15140.14
245.405	15118.35
245.476	15103.31
245.547	15070.92
245.618	15048.89
245.689	15009.17
245.761	14986.85
245.832	14956.53
245.903	14936.29
245.974	14912.28
246.045	14892.76
246.117	14876.71
246.188	14837.61
246.259	14791.24
246.33	14765.6
246.401	14738.07
246.473	14692.47
246.544	14650.2
246.615	14625.23
246.686	14593.03
246.757	14589.6
246.828	14546.32
246.899	14532.19
246.97	14485.24
247.042	14455.55
247.113	14442
247.184	14450.53
247.255	14418.52
247.326	14397.07
247.397	14370.66
247.468	14349.25
247.539	14322.26
247.61	14286.35
247.681	14267.01
247.752	14249.42
247.823	14211.29
247.894	14180.92
247.965	14146.84
248.037	14116.27
248.108	14074.38
248.179	14050.62
248.25	14014.66
248.321	14002.7
248.392	13962.45
248.463	13963.61
248.534	13932.08
248.605	13908.22
248.675	13870.81
248.746	13850.13
248.817	13825.06
248.888	13805.88
248.959	13767.89
249.03	13746.24
249.101	13724.07
249.172	13704.21
249.243	13668.73
249.314	13665.64
249.385	13646.89
249.456	13631.32
249.527	13605.53
249.598	13588.9
249.669	13563.93
249.739	13551.83
249.81	13532.21
249.881	13495.18
249.952	13472.04
250.023	13450.59
250.094	13418.78
250.165	13386.48
250.235	13360.78
250.306	13347.09
250.377	13314.99
250.448	13304.19
250.519	13269.48
250.59	13263.02
250.66	13235.5
250.731	13226.77
250.802	13199.53
250.873	13184.59
250.944	13162.08
251.014	13136.48
251.085	13149.78
251.156	13135.85
251.227	13125.92
251.297	13113.05
251.368	13104.57
251.439	13088.71
251.51	13074.92
251.58	13044.98
251.651	13030.43
251.722	13024.74
251.792	12981.59
251.863	12961.73
251.934	12952.24
252.005	12960.33
252.075	12935.46
252.146	12926.45
252.217	12922.01
252.287	12908.51
252.358	12888.22
252.429	12885.23
252.499	12861.75
252.57	12834.95
252.641	12824.3
252.711	12798.89
252.782	12765.44
252.852	12763.94
252.923	12736.42
252.994	12715.21
253.064	12704.41
253.135	12663.05
253.205	12627.14
253.276	12626.94
253.347	12620.73
253.417	12583.85
253.488	12556.18
253.558	12534.15
253.629	12512.55
253.699	12491.59
253.77	12490.62
253.841	12464.21
253.911	12452.25
253.982	12436.63
254.052	12423.33
254.123	12403.66
254.193	12382.93
254.264	12396.62
254.334	12372.52
254.405	12353.14
254.475	12324.27
254.546	12305.71
254.616	12304.99
254.687	12295.01
254.757	12282.82
254.827	12261.46
254.898	12252.45
254.968	12230.52
255.039	12205.69
255.109	12194.75
255.18	12169.68
255.25	12122.2
255.321	12114.4
255.391	12080.61
255.461	12083.64
255.532	12041.66
255.602	12022.91
255.673	11989.22
255.743	11966.22
255.813	11920.19
255.884	11908.82
255.954	11899.37
256.024	11896.86
256.095	11876.52
256.165	11847.7
256.235	11835.41
256.306	11805.91
256.376	11796.8
256.446	11790.82
256.517	11778.77
256.587	11770.34
256.657	11749.61
256.728	11735.35
256.798	11711.73
256.868	11692.3
256.938	11664.69
257.009	11657.6
257.079	11637.45
257.149	11644.97
257.219	11600.49
257.29	11594.89
257.36	11553.93
257.43	11543.86
257.5	11507.47
257.571	11488.62
257.641	11471.51
257.711	11438.79
257.781	11431.85
257.852	11416.66
257.922	11380.76
257.992	11360.27
258.062	11337.53
258.132	11329.19
258.202	11312.03
258.273	11303.89
258.343	11303.11
258.413	11273.72
258.483	11253.76
258.553	11231.31
258.623	11206.05
258.693	11198
258.764	11187.69
258.834	11189.86
258.904	11175.3
258.974	11153.81
259.044	11136.46
259.114	11135.16
259.184	11123.07
259.254	11107.4
259.324	11067.45
259.394	11052.66
259.464	11049.48
259.535	11028.85
259.605	11002.78
259.675	10977.92
259.745	10968.57
259.815	10941.24
259.885	10923.94
259.955	10934.26
260.025	10913.92
260.095	10893.49
260.165	10874.55
260.235	10877.35
260.305	10854.56
260.375	10825.69
260.445	10835.67
260.515	10838.6
260.585	10831.76
260.655	10816.39
260.725	10806.03
260.795	10804.78
260.865	10813.21
260.934	10792.44
261.004	10781.36
261.074	10768.93
261.144	10771.19
261.214	10754.61
261.284	10738.23
261.354	10736.45
261.424	10705.7
261.494	10708.74
261.564	10692.21
261.634	10687.97
261.703	10655.4
261.773	10647.5
261.843	10642.87
261.913	10621.19
261.983	10588.18
262.053	10578.88
262.123	10560.86
262.192	10535.09
262.262	10525.59
