Data from 20250625_urea_1M_1_MAYP1162681_03-15-05-450.txt Node
Date: Thu Jun 26 03:15:05 BST 2025
User: adleo
Spectrometer: MAYP116268
Trigger mode: 0
Integration Time (sec): 1.000000E0
Scans to average: 1
Electric dark correction enabled: true
Nonlinearity correction enabled: true
Boxcar width: 10
XAxis mode: Wavelengths
Number of Pixels in Spectrum: 2068
>>>>>Begin Spectral Data<<<<<
179.565	1111.54
179.642	1163.33
179.718	1204
179.795	1239.79
179.871	1270.14
179.948	1284.73
180.024	1301.41
180.101	1322.45
180.177	1333.56
180.254	1352.43
180.33	1372.45
180.407	1418.73
180.483	1506.86
180.56	1591.71
180.636	1669.81
180.712	1657.35
180.789	1666.48
180.865	1679.35
180.942	1686.67
181.018	1695.93
181.095	1710.33
181.171	1714.37
181.248	1713.32
181.324	1727.82
181.4	1734.66
181.477	1744.88
181.553	1757.33
181.63	1778.1
181.706	1791.78
181.782	1801.05
181.859	1802.57
181.935	1810.17
182.011	1808.51
182.088	1821.01
182.164	1836.22
182.24	1846.63
182.317	1856.85
182.393	1853.19
182.469	1862.36
182.546	1876.76
182.622	1881.99
182.698	1879.33
182.775	1891.4
182.851	1904.76
182.927	1895.63
183.003	1890.88
183.08	1885.18
183.156	1894.87
183.232	1891.97
183.308	1883.08
183.385	1889.74
183.461	1906.85
183.537	1904.62
183.613	1915.13
183.69	1908.33
183.766	1899.29
183.842	1907.04
183.918	1911.61
183.995	1924.39
184.071	1932.33
184.147	1926.06
184.223	1917.27
184.299	1925.68
184.375	1914.04
184.452	1921.31
184.528	1974.48
184.604	1984.04
184.68	1995.4
184.756	2002.34
184.832	2005.77
184.908	2010.23
184.985	2012.66
185.061	1996.73
185.137	2006.72
185.213	1998.21
185.289	2000.06
185.365	1992.5
185.441	1991.08
185.517	2001.73
185.593	1999.54
185.669	1995.31
185.745	2004.91
185.822	2018.65
185.898	2009.04
185.974	2017.41
186.05	2009.09
186.126	1970.9
186.202	1965.24
186.278	1961.05
186.354	1951.07
186.43	1957.06
186.506	1953.64
186.582	1951.36
186.658	1956.4
186.734	1938.33
186.81	1938.09
186.886	1940.42
186.962	1950.26
187.038	1946.74
187.114	1940.08
187.19	1942.56
187.266	1932.29
187.341	1934.19
187.417	1926.44
187.493	1929.96
187.569	1935.19
187.645	1931.67
187.721	1921.07
187.797	1930.34
187.873	1933
187.949	1926.87
188.025	1920.88
188.101	1926.91
188.176	1929.34
188.252	1929.05
188.328	1935.71
188.404	1934.14
188.48	1931.76
188.556	1924.2
188.632	1925.01
188.707	1925.01
188.783	1927.29
188.859	1923.35
188.935	1912.36
189.011	1920.35
189.086	1912.6
189.162	1905.09
189.238	1903.81
189.314	1902.38
189.39	1896.29
189.465	1890.83
189.541	1907.04
189.617	1893.11
189.693	1886.93
189.768	1892.26
189.844	1909.81
189.92	1903.25
189.996	1914.14
190.071	1922.93
190.147	1925.17
190.223	1932.2
190.298	1924.6
190.374	1909.57
190.45	1920.6
190.526	1928.16
190.601	1923.26
190.677	1924.59
190.753	1950.67
190.828	1954.52
190.904	1965.45
190.98	1980.34
191.055	1989.75
191.131	1981.81
191.207	2002.64
191.282	2010.76
191.358	1998.64
191.433	1988.75
191.509	1997.49
191.585	1993.26
191.66	1994.54
191.736	2002.48
191.811	1994.83
191.887	2015.33
191.963	2036.11
192.038	2040.86
192.114	2042.96
192.189	2049.42
192.265	2048.9
192.34	2024.3
192.416	2021.12
192.491	2020.5
192.567	2025.64
192.642	2028.83
192.718	2029.02
192.793	2017.03
192.869	2014.8
192.944	2019.79
193.02	2027.59
193.095	2031.92
193.171	2040.71
193.246	2039.57
193.322	2037.43
193.397	2039.14
193.473	2021.88
193.548	2010.56
193.624	2012.7
193.699	2011.27
193.775	2024.4
193.85	2023.4
193.925	2034.58
194.001	2033.77
194.076	2026.78
194.152	2011.46
194.227	2004.52
194.302	1996.44
194.378	1999.91
194.453	1996.1
194.529	2006.66
194.604	1988.83
194.679	1986.5
194.755	1962.35
194.83	1974.48
194.905	1970.06
194.981	1977.95
195.056	1974.2
195.131	1979.29
195.207	1979.52
195.282	1967.54
195.357	1947.99
195.433	1966.82
195.508	1952.75
195.583	1960.74
195.659	1974.29
195.734	1981.76
195.809	1982.52
195.884	1991.36
195.96	1991.17
196.035	2006.1
196.11	2006.1
196.185	2021.65
196.261	2021.27
196.336	2053.27
196.411	2040.62
196.486	2045.51
196.561	2038.95
196.637	2049.94
196.712	2062.83
196.787	2065.73
196.862	2084.37
196.937	2095.4
197.013	2098.54
197.088	2109.1
197.163	2128.18
197.238	2143.13
197.313	2140.56
197.388	2154.07
197.464	2181.67
197.539	2193.08
197.614	2182.05
197.689	2191.8
197.764	2205.37
197.839	2224.49
197.914	2220.59
197.989	2240.67
198.065	2256.18
198.14	2305.7
198.215	2324.26
198.29	2337.64
198.365	2351.77
198.44	2359.86
198.515	2384.57
198.59	2398.33
198.665	2422.32
198.74	2431.46
198.815	2433.51
198.89	2456.59
198.965	2481.79
199.04	2480.02
199.115	2496.02
199.19	2540.91
199.265	2545.86
199.34	2553.38
199.415	2585.82
199.49	2606.63
199.565	2617.87
199.64	2639.97
199.715	2636.15
199.79	2644.06
199.865	2646.49
199.94	2643.59
200.015	2675.08
200.09	2680.41
200.165	2685.94
200.24	2695.42
200.315	2730.22
200.39	2743.42
200.464	2750.52
200.539	2754.04
200.614	2768.76
200.689	2788.06
200.764	2796.02
200.839	2812.27
200.914	2818.7
200.989	2808.88
201.063	2819.6
201.138	2801.31
201.213	2801.5
201.288	2784.92
201.363	2789.54
201.438	2792.02
201.512	2805.55
201.587	2787.77
201.662	2790.2
201.737	2801.64
201.812	2808.93
201.886	2777.74
201.961	2787.95
202.036	2771.99
202.111	2767.66
202.186	2737.09
202.26	2721.26
202.335	2699.82
202.41	2692.39
202.485	2675.15
202.559	2659.33
202.634	2637.61
202.709	2647.27
202.784	2629.13
202.858	2625.55
202.933	2608.79
203.008	2601.26
203.082	2584.93
203.157	2583.74
203.232	2547.99
203.306	2527.64
203.381	2495.21
203.456	2473.64
203.53	2449.33
203.605	2434.25
203.68	2411.1
203.754	2406.25
203.829	2394.16
203.904	2375.59
203.978	2364.92
204.053	2369.64
204.127	2356.26
204.202	2350.69
204.277	2333.23
204.351	2325.8
204.426	2319.47
204.5	2313.85
204.575	2281.45
204.65	2291.26
204.724	2282.16
204.799	2290.92
204.873	2286.01
204.948	2285.63
205.022	2276.36
205.097	2270.4
205.171	2287.96
205.246	2295.91
205.32	2295.39
205.395	2293.53
205.469	2284.69
205.544	2290.4
205.618	2273.12
205.693	2284.21
205.767	2276.27
205.842	2295.69
205.916	2291.69
205.991	2282.89
206.065	2285.03
206.14	2299.34
206.214	2293.68
206.289	2290.68
206.363	2299.91
206.438	2302.39
206.512	2310.81
206.586	2328.42
206.661	2336.42
206.735	2311.34
206.81	2314.25
206.884	2329.57
206.958	2317.82
207.033	2331.85
207.107	2337.52
207.181	2371.08
207.256	2365.13
207.33	2381.36
207.405	2396.42
207.479	2412.32
207.553	2420.26
207.628	2405.56
207.702	2416.46
207.776	2410.03
207.851	2412.37
207.925	2425.89
207.999	2419.85
208.073	2415.99
208.148	2419.8
208.222	2409.42
208.296	2439.97
208.371	2453.45
208.445	2460.97
208.519	2491.82
208.593	2503.39
208.668	2499.91
208.742	2501.15
208.816	2507.34
208.89	2521.35
208.965	2518.77
209.039	2530.01
209.113	2547.87
209.187	2570
209.261	2568.53
209.336	2594.72
209.41	2616.63
209.484	2618.73
209.558	2648.36
209.632	2667.36
209.707	2681.55
209.781	2705.61
209.855	2728.15
209.929	2752.76
210.003	2766.62
210.077	2769.19
210.151	2825.57
210.226	2867.24
210.3	2902.25
210.374	2935.66
210.448	2954.06
210.522	2979.19
210.596	3003.03
210.67	3030.97
210.744	3095.8
210.818	3148.23
210.892	3186.02
210.966	3201.51
211.041	3241.1
211.115	3261.71
211.189	3311.23
211.263	3359.76
211.337	3397.45
211.411	3442.76
211.485	3474.09
211.559	3527.2
211.633	3576.02
211.707	3587.53
211.781	3643.16
211.855	3664.18
211.929	3707.2
212.003	3741.86
212.077	3809.2
212.151	3881.9
212.225	3951.25
212.299	4005.69
212.373	4064.24
212.447	4132.59
212.52	4235.16
212.594	4315.67
212.668	4409.41
212.742	4481.85
212.816	4560.87
212.89	4651.6
212.964	4741.09
213.038	4840.67
213.112	4947.76
213.186	5058.52
213.26	5144.23
213.333	5203.54
213.407	5314.73
213.481	5428.7
213.555	5559.45
213.629	5664.68
213.703	5770.88
213.777	5889.08
213.85	5993.58
213.924	6149.13
213.998	6274.08
214.072	6403.07
214.146	6524.3
214.219	6658.76
214.293	6789.52
214.367	6929.84
214.441	7066.76
214.515	7199.78
214.588	7310.45
214.662	7421.14
214.736	7553.34
214.81	7706.95
214.883	7866.15
214.957	7998.95
215.031	8137.88
215.105	8263.5
215.178	8396.48
215.252	8542.48
215.326	8668.65
215.4	8797.08
215.473	8901.64
215.547	9033.74
215.621	9161.34
215.694	9315.18
215.768	9438.26
215.842	9576.37
215.915	9711.22
215.989	9836.35
216.063	9976.57
216.136	10132.44
216.21	10276.95
216.284	10430.25
216.357	10570.4
216.431	10708.39
216.504	10873.42
216.578	11042.75
216.652	11193.66
216.725	11345.9
216.799	11490.92
216.873	11641.48
216.946	11795.31
217.02	11925.72
217.093	12061.6
217.167	12185.9
217.24	12307.47
217.314	12443.06
217.387	12569.68
217.461	12697.52
217.535	12849.55
217.608	12964.86
217.682	13092.17
217.755	13233.07
217.829	13347.17
217.902	13483.16
217.976	13612.06
218.049	13716.23
218.123	13819.05
218.196	13951.57
218.27	14051.89
218.343	14150.8
218.417	14268.23
218.49	14379.63
218.563	14528.39
218.637	14646.97
218.71	14780.4
218.784	14899.9
218.857	15017.56
218.931	15136.43
219.004	15240.89
219.077	15354.02
219.151	15463.24
219.224	15558.73
219.298	15658.89
219.371	15767.78
219.444	15853.72
219.518	15947.75
219.591	16045.02
219.665	16162.91
219.738	16240.32
219.811	16334.69
219.885	16440.1
219.958	16531.92
220.031	16625.23
220.105	16704.7
220.178	16798.68
220.251	16867.45
220.325	16951.36
220.398	17039.17
220.471	17123.22
220.544	17210.02
220.618	17273.92
220.691	17356.43
220.764	17439.18
220.838	17518.8
220.911	17589.4
220.984	17674.22
221.057	17760.29
221.131	17831.76
221.204	17878.5
221.277	17976.91
221.35	18076.42
221.424	18135.7
221.497	18203.99
221.57	18264.42
221.643	18332.08
221.716	18394.63
221.79	18458.58
221.863	18514.67
221.936	18573.03
222.009	18625.84
222.082	18685.21
222.155	18733.45
222.229	18805.11
222.302	18855.95
222.375	18906.41
222.448	18965.73
222.521	19015.12
222.594	19053.19
222.667	19098.97
222.74	19151.45
222.814	19180.75
222.887	19210.15
222.96	19264.51
223.033	19318.14
223.106	19355.44
223.179	19393.65
223.252	19428.4
223.325	19466.52
223.398	19505.99
223.471	19532.15
223.544	19565.6
223.617	19611.71
223.69	19643.95
223.763	19661.11
223.837	19701.06
223.91	19729.64
223.983	19743.95
224.056	19768.53
224.129	19801.34
224.202	19828.14
224.275	19841.73
224.348	19864.18
224.42	19884.47
224.493	19891.36
224.566	19899.46
224.639	19932.33
224.712	19940.95
224.785	19963.22
224.858	19983.22
224.931	19991.41
225.004	20000.47
225.077	20014.25
225.15	19988.85
225.223	20014.01
225.296	20059.12
225.369	20059.74
225.442	20068.52
225.514	20082.64
225.587	20098.25
225.66	20118.73
225.733	20141.38
225.806	20163.02
225.879	20171.26
225.952	20161.28
226.025	20182.1
226.097	20200.46
226.17	20204.7
226.243	20193.62
226.316	20191.5
226.389	20195.31
226.461	20215.26
226.534	20232.32
226.607	20244.85
226.68	20286.63
226.753	20295.45
226.825	20261.28
226.898	20277.38
226.971	20284.89
227.044	20296.36
227.117	20299.98
227.189	20305.67
227.262	20319.21
227.335	20315.98
227.407	20316.7
227.48	20330.48
227.553	20334.15
227.626	20331.35
227.698	20326.2
227.771	20341.04
227.844	20334
227.916	20338.24
227.989	20320.03
228.062	20312.89
228.134	20329.95
228.207	20318.58
228.28	20310.34
228.352	20322.82
228.425	20317.33
228.498	20323.83
228.57	20310.34
228.643	20308.85
228.716	20294.05
228.788	20268.7
228.861	20264.41
228.934	20268.36
229.006	20262.68
229.079	20262.63
229.151	20249.38
229.224	20245.14
229.296	20242.63
229.369	20265.09
229.442	20280.7
229.514	20268.12
229.587	20285.96
229.659	20256.41
229.732	20266
229.804	20267.59
229.877	20284.22
229.949	20292.22
230.022	20301.19
230.094	20306.58
230.167	20304.08
230.239	20286.34
230.312	20288.22
230.384	20305.14
230.457	20302.34
230.529	20297.81
230.602	20282.1
230.674	20288.32
230.747	20288.85
230.819	20296.7
230.892	20272.17
230.964	20249.76
231.037	20253.67
231.109	20226.49
231.181	20230.49
231.254	20203.55
231.326	20187.31
231.399	20166.05
231.471	20146.44
231.544	20112.8
231.616	20101.77
231.688	20095.93
231.761	20081.77
231.833	20066.88
231.905	20035.36
231.978	20024.03
232.05	20004.66
232.122	20003.46
232.195	19982.25
232.267	19976.08
232.339	19953.43
232.412	19943.02
232.484	19933.67
232.556	19911.7
232.629	19924.95
232.701	19923.75
232.773	19913.39
232.846	19894.06
232.918	19869.82
232.99	19856.67
233.062	19853.34
233.135	19842.31
233.207	19817.97
233.279	19817.78
233.351	19803.03
233.424	19785.63
233.496	19761.2
233.568	19768.28
233.64	19734.84
233.713	19715.76
233.785	19698.26
233.857	19679.81
233.929	19650.07
234.001	19643.42
234.074	19641.5
234.146	19599.57
234.218	19565.69
234.29	19535.72
234.362	19509.7
234.434	19477.46
234.507	19441.22
234.579	19409.07
234.651	19383.1
234.723	19366.33
234.795	19345.85
234.867	19331.54
234.939	19312.89
235.012	19295.39
235.084	19273.56
235.156	19247.54
235.228	19215.98
235.3	19185.67
235.372	19163.31
235.444	19147.21
235.516	19097.96
235.588	19072.32
235.66	19042.3
235.732	19017.44
235.804	19051.27
235.876	19042.54
235.948	19037.63
236.02	19015.17
236.092	18991.8
236.164	18954.74
236.236	18917.06
236.308	18883.9
236.38	18859.37
236.452	18831.28
236.524	18803.38
236.596	18788.73
236.668	18775.14
236.74	18751.09
236.812	18729.94
236.884	18715.91
236.956	18693.99
237.028	18667.58
237.1	18636.21
237.172	18628.11
237.244	18613.51
237.316	18551.25
237.388	18512.31
237.46	18479.2
237.532	18473.66
237.604	18434.29
237.675	18430.87
237.747	18420.46
237.819	18382.2
237.891	18349.43
237.963	18321.86
238.035	18287.02
238.107	18224.32
238.178	18209.14
238.25	18185.53
238.322	18178.88
238.394	18130.74
238.466	18097
238.538	18071.32
238.609	18048.38
238.681	18010.5
238.753	17979.61
238.825	17952.34
238.897	17931.76
238.968	17919.71
239.04	17875.42
239.112	17874.31
239.184	17831.66
239.255	17802.17
239.327	17780.53
239.399	17757.45
239.471	17733.16
239.542	17718.27
239.614	17710.8
239.686	17656.97
239.758	17634.99
239.829	17590.37
239.901	17574.18
239.973	17544.92
240.044	17526.13
240.116	17495.57
240.188	17466.37
240.259	17434.61
240.331	17398.71
240.403	17373.65
240.474	17330.13
240.546	17301.98
240.618	17253.6
240.689	17222.37
240.761	17199.28
240.833	17199.62
240.904	17169.6
240.976	17142.03
241.048	17108.68
241.119	17091.57
241.191	17072.97
241.262	17061.93
241.334	17030.17
241.405	16996.34
241.477	16968.34
241.549	16926.41
241.62	16901.92
241.692	16871.61
241.763	16858.12
241.835	16821.82
241.906	16792.42
241.978	16741.29
242.049	16721
242.121	16705.38
242.192	16691.89
242.264	16644.37
242.335	16587.21
242.407	16557.28
242.478	16513.61
242.55	16479.05
242.621	16441.27
242.693	16405.22
242.764	16367.91
242.836	16337.74
242.907	16324.25
242.979	16298.89
243.05	16281.11
243.122	16251.32
243.193	16226.98
243.264	16165.63
243.336	16142.2
243.407	16120.03
243.479	16118.88
243.55	16087.79
243.622	16056.22
243.693	16023.54
243.764	16008.94
243.836	15974.95
243.907	15942.27
243.978	15920.83
244.05	15909.6
244.121	15860.77
244.192	15846.6
244.264	15802.88
244.335	15771.84
244.407	15722.2
244.478	15699.01
244.549	15666.91
244.62	15633.41
244.692	15603.62
244.763	15594.8
244.834	15560.39
244.906	15528.09
244.977	15500.52
245.048	15488.62
245.119	15452.27
245.191	15424.94
245.262	15371.87
245.333	15357.41
245.405	15331.53
245.476	15306.8
245.547	15279.81
245.618	15260.24
245.689	15232.42
245.761	15202.34
245.832	15167.93
245.903	15145.8
245.974	15120.54
246.045	15090.18
246.117	15076.82
246.188	15038.79
246.259	14993.09
246.33	14968.56
246.401	14930.53
246.473	14892.3
246.544	14861.31
246.615	14838.55
246.686	14797.2
246.757	14786.06
246.828	14747.21
246.899	14738.87
246.97	14689.51
247.042	14648.97
247.113	14628.67
247.184	14618.55
247.255	14593.29
247.326	14573.58
247.397	14555.11
247.468	14533.13
247.539	14508.45
247.61	14470.8
247.681	14455.09
247.752	14444.92
247.823	14409.58
247.894	14396.52
247.965	14355.78
248.037	14327.78
248.108	14299.24
248.179	14272.1
248.25	14246.45
248.321	14237.39
248.392	14197.77
248.463	14207.75
248.534	14183.06
248.605	14162.48
248.675	14136.84
248.746	14119.38
248.817	14103.52
248.888	14078.41
248.959	14038.11
249.03	14023.5
249.101	13997.38
249.172	13970.19
249.243	13923.28
249.314	13914.75
249.385	13888.48
249.456	13878.84
249.527	13846.01
249.598	13827.3
249.669	13811.15
249.739	13790.91
249.81	13774.81
249.881	13738.84
249.952	13706.98
250.023	13683.89
250.094	13648.22
250.165	13604.2
250.235	13576.97
250.306	13554.02
250.377	13525.63
250.448	13508.61
250.519	13466.72
250.59	13464.93
250.66	13434.95
250.731	13430.23
250.802	13408.05
250.873	13393.93
250.944	13372.96
251.014	13342.39
251.085	13339.21
251.156	13316.02
251.227	13311.06
251.297	13296.79
251.368	13287.2
251.439	13275.87
251.51	13258.42
251.58	13237.83
251.651	13218.55
251.722	13207.9
251.792	13176.8
251.863	13144.22
251.934	13130.91
252.005	13137.56
252.075	13107.77
252.146	13097.99
252.217	13086.13
252.287	13073.16
252.358	13046.65
252.429	13036.52
252.499	13013
252.57	12996.32
252.641	12978.58
252.711	12952.36
252.782	12909.4
252.852	12908.05
252.923	12881.4
252.994	12870.94
253.064	12853.82
253.135	12825.09
253.205	12794.19
253.276	12786.48
253.347	12781.95
253.417	12750.37
253.488	12724.39
253.558	12704.48
253.629	12685.54
253.699	12668.28
253.77	12657.19
253.841	12635.36
253.911	12622.29
253.982	12606.72
254.052	12597.37
254.123	12585.99
254.193	12565.27
254.264	12584.89
254.334	12558.28
254.405	12536.39
254.475	12510.7
254.546	12484.57
254.616	12480.33
254.687	12467.22
254.757	12449.34
254.827	12436.71
254.898	12422.49
254.968	12402.63
255.039	12372.26
255.109	12361.22
255.18	12336.01
255.25	12289.16
255.321	12276.57
255.391	12241.96
255.461	12247.94
255.532	12194
255.602	12173.95
255.673	12143.1
255.743	12116.11
255.813	12073.64
255.884	12062.99
255.954	12049.15
256.024	12055.56
256.095	12036.91
256.165	12007.89
256.235	11995.22
256.306	11966.39
256.376	11957.81
256.446	11943.59
256.517	11932.8
256.587	11924.46
256.657	11911.39
256.728	11898.28
256.798	11878.62
256.868	11857.17
256.938	11828.49
257.009	11823.28
257.079	11809.55
257.149	11813.36
257.219	11774.51
257.29	11756.24
257.36	11723.27
257.43	11710.4
257.5	11668.95
257.571	11645
257.641	11640.76
257.711	11611.5
257.781	11599.98
257.852	11594.39
257.922	11560.6
257.992	11539.88
258.062	11514.86
258.132	11503.3
258.202	11484.6
258.273	11473.12
258.343	11477.37
258.413	11457.32
258.483	11436.11
258.553	11411.24
258.623	11380.01
258.693	11366.23
258.764	11370.27
258.834	11369.98
258.904	11343.09
258.974	11317.41
259.044	11297.84
259.114	11284.54
259.184	11273.02
259.254	11246.08
259.324	11208.83
259.394	11199.81
259.464	11201.89
259.535	11184.82
259.605	11162.99
259.675	11142.27
259.745	11129.89
259.815	11100.73
259.885	11076.15
259.955	11085.21
260.025	11060.01
260.095	11041.94
260.165	11030.37
260.235	11030.66
260.305	11002.71
260.375	10983.72
260.445	10991.19
260.515	10996.16
260.585	10994.47
260.655	10977.22
260.725	10979.72
260.795	10969.65
260.865	10968.3
260.934	10945.85
261.004	10940.06
261.074	10926.19
261.144	10926.33
261.214	10917.9
261.284	10900.36
261.354	10895.06
261.424	10871.92
261.494	10877.46
261.564	10864.74
261.634	10853.61
261.703	10814
261.773	10802.24
261.843	10792.61
261.913	10775.98
261.983	10741.29
262.053	10721.87
262.123	10702.07
262.192	10679.76
262.262	10676
