Data from 20250625_urea_1M_1_MAYP1162681_14-15-06-269.txt Node
Date: Thu Jun 26 14:15:06 BST 2025
User: adleo
Spectrometer: MAYP116268
Trigger mode: 0
Integration Time (sec): 1.000000E0
Scans to average: 1
Electric dark correction enabled: true
Nonlinearity correction enabled: true
Boxcar width: 10
XAxis mode: Wavelengths
Number of Pixels in Spectrum: 2068
>>>>>Begin Spectral Data<<<<<
179.565	1141.66
179.642	1195.59
179.718	1234.47
179.795	1275.43
179.871	1304.6
179.948	1319.34
180.024	1338.51
180.101	1361.53
180.177	1373.1
180.254	1395.04
180.33	1417.64
180.407	1466.72
180.483	1557.46
180.56	1641.65
180.636	1723.16
180.712	1712.28
180.789	1719.5
180.865	1732.85
180.942	1741.16
181.018	1751.52
181.095	1762.69
181.171	1768.68
181.248	1769.49
181.324	1785.89
181.4	1790.12
181.477	1799.72
181.553	1813.45
181.63	1836.55
181.706	1850.72
181.782	1861.41
181.859	1860.74
181.935	1864.02
182.011	1862.08
182.088	1879.29
182.164	1897.69
182.24	1908.48
182.317	1917.41
182.393	1915.99
182.469	1925.83
182.546	1940.37
182.622	1943.51
182.698	1940.14
182.775	1953.02
182.851	1966.05
182.927	1959.63
183.003	1955.68
183.08	1951.98
183.156	1960.82
183.232	1954.54
183.308	1944.08
183.385	1948.45
183.461	1965.43
183.537	1966.09
183.613	1978.12
183.69	1967.05
183.766	1956.82
183.842	1965.19
183.918	1969.85
183.995	1981.02
184.071	1985.87
184.147	1978.74
184.223	1970.23
184.299	1981.88
184.375	1967.81
184.452	1973.8
184.528	2024.32
184.604	2035.63
184.68	2046.76
184.756	2053.04
184.832	2056.37
184.908	2060.31
184.985	2061.26
185.061	2047.28
185.137	2056.7
185.213	2045.24
185.289	2050.47
185.365	2045.62
185.441	2042.53
185.517	2053.9
185.593	2052.33
185.669	2049.28
185.745	2060.55
185.822	2074.86
185.898	2065.92
185.974	2075.71
186.05	2066.34
186.126	2031.48
186.202	2022.68
186.278	2018.88
186.354	2013.22
186.43	2020.5
186.506	2019.36
186.582	2020.21
186.658	2023.35
186.734	2004.47
186.81	2006.85
186.886	2006.14
186.962	2016.17
187.038	2014.36
187.114	2007.23
187.19	2013.93
187.266	2005.9
187.341	2007.18
187.417	2000.05
187.493	2002
187.569	2007.33
187.645	2003.28
187.721	1990.96
187.797	1997.67
187.873	2001.19
187.949	1992.44
188.025	1985.35
188.101	1988.44
188.176	1992.1
188.252	1991.06
188.328	2001.13
188.404	2000.52
188.48	1996.81
188.556	1987.73
188.632	1986.58
188.707	1987.01
188.783	1983.92
188.859	1979.07
188.935	1968.89
189.011	1978.64
189.086	1972.75
189.162	1965.66
189.238	1964.85
189.314	1963
189.39	1959.15
189.465	1953.92
189.541	1971.27
189.617	1957.25
189.693	1954.35
189.768	1960.72
189.844	1981.75
189.92	1971.2
189.996	1980.61
190.071	1990.6
190.147	1992.74
190.223	2003.2
190.298	1998.21
190.374	1985.65
190.45	1996.97
190.526	2001.34
190.601	1993.59
190.677	1993.69
190.753	2019.29
190.828	2022.9
190.904	2035.22
190.98	2050.53
191.055	2056.62
191.131	2046.63
191.207	2067.17
191.282	2074.21
191.358	2062.37
191.433	2050.62
191.509	2060.88
191.585	2054.03
191.66	2056.27
191.736	2065.5
191.811	2054.37
191.887	2066.5
191.963	2089.61
192.038	2094.89
192.114	2096.32
192.189	2100.74
192.265	2099.36
192.34	2076.14
192.416	2075.19
192.491	2072.48
192.567	2075
192.642	2079.14
192.718	2081.75
192.793	2068.63
192.869	2064.77
192.944	2067.53
193.02	2071.53
193.095	2080.71
193.171	2090.98
193.246	2087.94
193.322	2083.04
193.397	2084.75
193.473	2075.09
193.548	2058.25
193.624	2062.96
193.699	2063.44
193.775	2076.52
193.85	2077.85
193.925	2086.08
194.001	2085.08
194.076	2075.57
194.152	2061.96
194.227	2057.06
194.302	2047.7
194.378	2054.5
194.453	2052.74
194.529	2065.39
194.604	2054.02
194.679	2046.27
194.755	2026.11
194.83	2038.91
194.905	2038.34
194.981	2045.71
195.056	2035.06
195.131	2039.44
195.207	2038.01
195.282	2027.88
195.357	2011.47
195.433	2022.64
195.508	2011.99
195.583	2020.74
195.659	2038.82
195.734	2048.09
195.809	2047.71
195.884	2054.56
195.96	2052.42
196.035	2068.64
196.11	2062.64
196.185	2073.58
196.261	2075.53
196.336	2106.68
196.411	2091.46
196.486	2097.31
196.561	2093.12
196.637	2105.39
196.712	2121.52
196.787	2127.37
196.862	2141.64
196.937	2152.34
197.013	2161.15
197.088	2170.56
197.163	2188.74
197.238	2202.89
197.313	2203.31
197.388	2215.02
197.464	2243.81
197.539	2258.08
197.614	2249.14
197.689	2262.84
197.764	2277.07
197.839	2298.3
197.914	2293.54
197.989	2316.14
198.065	2326.94
198.14	2374.14
198.215	2399.65
198.29	2411.79
198.365	2422.84
198.44	2432.17
198.515	2459.54
198.59	2473.68
198.665	2501.87
198.74	2508.4
198.815	2508.16
198.89	2528.34
198.965	2556.87
199.04	2554.54
199.115	2569.21
199.19	2609.54
199.265	2612.01
199.34	2622.11
199.415	2653.85
199.49	2671.61
199.565	2682.61
199.64	2706.29
199.715	2706.67
199.79	2712.05
199.865	2716.77
199.94	2713.53
200.015	2746.17
200.09	2752.36
200.165	2756.17
200.24	2760.51
200.315	2800.61
200.39	2818.96
200.464	2824.87
200.539	2825.3
200.614	2839.54
200.689	2863.04
200.764	2869.67
200.839	2885.82
200.914	2890.68
200.989	2880.28
201.063	2896.11
201.138	2879.72
201.213	2881.06
201.288	2859.13
201.363	2865
201.438	2865.66
201.512	2883.72
201.587	2863.03
201.662	2867.04
201.737	2882.43
201.812	2890.25
201.886	2856.77
201.961	2861.63
202.036	2851.48
202.111	2851.44
202.186	2823.76
202.26	2805.22
202.335	2782.58
202.41	2778.68
202.485	2761.91
202.559	2742.47
202.634	2719.12
202.709	2723.69
202.784	2705.78
202.858	2706.45
202.933	2687.39
203.008	2680.34
203.082	2662.43
203.157	2665.52
203.232	2623.1
203.306	2599.79
203.381	2568.16
203.456	2548.02
203.53	2524.04
203.605	2506.15
203.68	2484.85
203.754	2479.95
203.829	2464.23
203.904	2444.76
203.978	2433.76
204.053	2440.33
204.127	2431.33
204.202	2424.57
204.277	2412.29
204.351	2404.91
204.426	2397.39
204.5	2388.73
204.575	2355.32
204.65	2361.84
204.724	2353.13
204.799	2362.45
204.873	2358.5
204.948	2356.36
205.022	2344.37
205.097	2336.89
205.171	2350.27
205.246	2357.27
205.32	2356.12
205.395	2355.27
205.469	2351.75
205.544	2354.37
205.618	2339.04
205.693	2347.65
205.767	2336.95
205.842	2354.56
205.916	2347.42
205.991	2340.04
206.065	2344.76
206.14	2361.07
206.214	2355.17
206.289	2350.02
206.363	2357.97
206.438	2364.26
206.512	2374.49
206.586	2392.91
206.661	2403.44
206.735	2381.02
206.81	2383.93
206.884	2397.68
206.958	2386.45
207.033	2399.16
207.107	2407.26
207.181	2437.21
207.256	2432.12
207.33	2452.92
207.405	2467.17
207.479	2486.54
207.553	2491.54
207.628	2477.93
207.702	2489.31
207.776	2488.02
207.851	2491.26
207.925	2506.07
207.999	2501.88
208.073	2496.83
208.148	2501.12
208.222	2489.88
208.296	2520.77
208.371	2531.78
208.445	2541.63
208.519	2570.34
208.593	2584.87
208.668	2580.3
208.742	2579.01
208.816	2577.82
208.89	2592.02
208.965	2587.78
209.039	2598.54
209.113	2614.97
209.187	2638.15
209.261	2636.96
209.336	2656.16
209.41	2677.89
209.484	2679.89
209.558	2702.09
209.632	2720.29
209.707	2734.68
209.781	2758.35
209.855	2774.65
209.929	2795.02
210.003	2806.12
210.077	2804.83
210.151	2855.16
210.226	2891.06
210.3	2924.88
210.374	2953.89
210.448	2963.57
210.522	2981.31
210.596	2996.71
210.67	3014.25
210.744	3070.11
210.818	3110
210.892	3135.33
210.966	3137.38
211.041	3165.61
211.115	3173.43
211.189	3210.44
211.263	3240.74
211.337	3260.29
211.411	3292.4
211.485	3299.66
211.559	3327.04
211.633	3351.31
211.707	3336.22
211.781	3365.68
211.855	3353.42
211.929	3368.68
212.003	3372.16
212.077	3406.39
212.151	3445.93
212.225	3483.45
212.299	3496.59
212.373	3515.87
212.447	3544.39
212.52	3603.45
212.594	3638.32
212.668	3685.88
212.742	3706.04
212.816	3734.42
212.89	3770.76
212.964	3811.06
213.038	3862.68
213.112	3917.98
213.186	3982.2
213.26	4010.81
213.333	4017.79
213.407	4070.05
213.481	4128.16
213.555	4196.24
213.629	4244.89
213.703	4284.5
213.777	4342.68
213.85	4384.4
213.924	4476.05
213.998	4541.04
214.072	4599.45
214.146	4654.35
214.219	4716.77
214.293	4783.44
214.367	4859.48
214.441	4936.04
214.515	4992.13
214.588	5039.93
214.662	5077.86
214.736	5122.79
214.81	5201.88
214.883	5284.73
214.957	5350.83
215.031	5409.13
215.105	5460.05
215.178	5527.85
215.252	5604.9
215.326	5660.57
215.4	5719.73
215.473	5750.48
215.547	5809.24
215.621	5873.83
215.694	5959.1
215.768	6016.68
215.842	6081.59
215.915	6146.83
215.989	6206.4
216.063	6280.33
216.136	6359.78
216.21	6451.03
216.284	6550.13
216.357	6636.95
216.431	6714.07
216.504	6803.25
216.578	6918.02
216.652	7011.61
216.725	7088.01
216.799	7171.88
216.873	7247.51
216.946	7339.82
217.02	7421.84
217.093	7506.45
217.167	7569.08
217.24	7632.7
217.314	7718.7
217.387	7799.57
217.461	7872.67
217.535	7962.94
217.608	8034.37
217.682	8121.92
217.755	8212.22
217.829	8280.4
217.902	8356.32
217.976	8438.93
218.049	8512.41
218.123	8569.2
218.196	8655.92
218.27	8733.46
218.343	8800.8
218.417	8892.21
218.49	8966.91
218.563	9057.75
218.637	9133.53
218.71	9240.08
218.784	9326.84
218.857	9415.73
218.931	9500.57
219.004	9580.17
219.077	9672.17
219.151	9753.41
219.224	9820.84
219.298	9891.6
219.371	9979.32
219.444	10044.05
219.518	10124.98
219.591	10205.61
219.665	10316.28
219.738	10398.52
219.811	10461.29
219.885	10544.36
219.958	10628.63
220.031	10707.21
220.105	10794.67
220.178	10877.26
220.251	10937.74
220.325	11021.2
220.398	11091.08
220.471	11167.8
220.544	11253.15
220.618	11315.85
220.691	11395.61
220.764	11474.5
220.838	11555.71
220.911	11623.62
220.984	11716.45
221.057	11794.24
221.131	11865.57
221.204	11905.91
221.277	11991.91
221.35	12093.46
221.424	12152.56
221.497	12210.98
221.57	12286.17
221.643	12341.9
221.716	12412.76
221.79	12480.48
221.863	12546.18
221.936	12611.89
222.009	12680.19
222.082	12745.46
222.155	12803.89
222.229	12880.92
222.302	12946.77
222.375	13002.73
222.448	13072.78
222.521	13135.16
222.594	13190.64
222.667	13241.64
222.74	13303.3
222.814	13355.22
222.887	13407.81
222.96	13484.75
223.033	13555.56
223.106	13604.73
223.179	13676.9
223.252	13731.71
223.325	13786.71
223.398	13842.68
223.471	13905.93
223.544	13956.11
223.617	14013.28
223.69	14069.1
223.763	14108.63
223.837	14161.76
223.91	14220.08
223.983	14246.74
224.056	14287.14
224.129	14335.15
224.202	14401.24
224.275	14450.6
224.348	14485.6
224.42	14519.97
224.493	14545.28
224.566	14586.54
224.639	14642.27
224.712	14672.06
224.785	14703.68
224.858	14747.79
224.931	14783.89
225.004	14809.92
225.077	14844.72
225.15	14857.4
225.223	14892.45
225.296	14950
225.369	14972.61
225.442	14998.06
225.514	15048.72
225.587	15085.98
225.66	15133.08
225.733	15166.96
225.806	15201.67
225.879	15241.68
225.952	15269.78
226.025	15319.52
226.097	15367.77
226.17	15401.71
226.243	15420.02
226.316	15466.15
226.389	15497.87
226.461	15530.11
226.534	15568
226.607	15606.95
226.68	15657.32
226.753	15698.38
226.825	15710.14
226.898	15756.47
226.971	15791.84
227.044	15833.97
227.117	15875.23
227.189	15911.19
227.262	15954.28
227.335	15997.08
227.407	16019.2
227.48	16059.21
227.553	16090.92
227.626	16107.11
227.698	16130.78
227.771	16164.81
227.844	16182.98
227.916	16217.49
227.989	16233.39
228.062	16258.7
228.134	16304.44
228.207	16338.08
228.28	16353.45
228.352	16380.73
228.425	16409.27
228.498	16448.31
228.57	16446.14
228.643	16480.69
228.716	16500.45
228.788	16512.31
228.861	16518.72
228.934	16557.95
229.006	16578.92
229.079	16599.02
229.151	16613.43
229.224	16624.66
229.296	16660.23
229.369	16706.97
229.442	16736.28
229.514	16755.8
229.587	16788.67
229.659	16789.05
229.732	16813.15
229.804	16839.27
229.877	16883.32
229.949	16911.13
230.022	16943.42
230.094	16977.16
230.167	16997.54
230.239	17001.2
230.312	17013.98
230.384	17064.39
230.457	17089.06
230.529	17114.99
230.602	17135.33
230.674	17166.17
230.747	17193.84
230.819	17220.73
230.892	17203.38
230.964	17230.46
231.037	17252.87
231.109	17265.84
231.181	17289.89
231.254	17294.22
231.326	17310.61
231.399	17322.18
231.471	17327.09
231.544	17313.45
231.616	17331.48
231.688	17334.71
231.761	17346.13
231.833	17359.33
231.905	17338.76
231.978	17345.65
232.05	17341.79
232.122	17352.92
232.195	17346.85
232.267	17371.04
232.339	17377.26
232.412	17411.04
232.484	17405.89
232.556	17403.72
232.629	17434.8
232.701	17448.06
232.773	17453.74
232.846	17458.71
232.918	17459
232.99	17468.25
233.062	17484.15
233.135	17494.66
233.207	17490.22
233.279	17500.3
233.351	17511.62
233.424	17512.44
233.496	17495.38
233.568	17516.59
233.64	17500.35
233.713	17504.15
233.785	17502.95
233.857	17497.65
233.929	17467.67
234.001	17485.55
234.074	17505.74
234.146	17478.61
234.218	17472.3
234.29	17467.53
234.362	17460.35
234.434	17433.26
234.507	17417.94
234.579	17397.98
234.651	17385.6
234.723	17391.53
234.795	17391.96
234.867	17388.2
234.939	17408.3
235.012	17412.35
235.084	17418.51
235.156	17431.14
235.228	17418.03
235.3	17402.61
235.372	17403.72
235.444	17424.1
235.516	17386.13
235.588	17372.3
235.66	17369.21
235.732	17353.94
235.804	17403.53
235.876	17401.79
235.948	17417.84
236.02	17413.07
236.092	17408.2
236.164	17398.61
236.236	17384.15
236.308	17364.39
236.38	17354.66
236.452	17329.45
236.524	17326.95
236.596	17329.69
236.668	17323.14
236.74	17320.05
236.812	17312.58
236.884	17299.77
236.956	17283.81
237.028	17265.21
237.1	17246.9
237.172	17241.07
237.244	17252.58
237.316	17198.71
237.388	17179.52
237.46	17161.26
237.532	17167.62
237.604	17141.26
237.675	17142.22
237.747	17136.82
237.819	17119.33
237.891	17104.15
237.963	17084.39
238.035	17048.82
238.107	16987.08
238.178	16974.89
238.25	16953.88
238.322	16964.43
238.394	16938.12
238.466	16914.84
238.538	16917.44
238.609	16913.78
238.681	16887.61
238.753	16853.78
238.825	16838.69
238.897	16831.27
238.968	16815.22
239.04	16784.67
239.112	16802.16
239.184	16779.7
239.255	16757.34
239.327	16751.17
239.399	16731.03
239.471	16717
239.542	16718.11
239.614	16714.01
239.686	16671.17
239.758	16664.85
239.829	16624.03
239.901	16614.2
239.973	16595.69
240.044	16572.75
240.116	16548.03
240.188	16525.52
240.259	16503.73
240.331	16471.39
240.403	16447.82
240.474	16419.29
240.546	16388.25
240.618	16337.26
240.689	16304.25
240.761	16287.23
240.833	16275.62
240.904	16254.41
240.976	16234.12
241.048	16205.68
241.119	16190.16
241.191	16175.89
241.262	16169.15
241.334	16145.14
241.405	16122.49
241.477	16091.64
241.549	16062.58
241.62	16039.59
241.692	16021.08
241.763	16010
241.835	15988.4
241.906	15965.65
241.978	15927.53
242.049	15919.09
242.121	15907.91
242.192	15896.34
242.264	15859.47
242.335	15823.8
242.407	15809.49
242.478	15779.99
242.55	15765.38
242.621	15741.91
242.693	15719.88
242.764	15687.49
242.836	15659.2
242.907	15639.1
242.979	15632.11
243.05	15606.03
243.122	15587.81
243.193	15562.41
243.264	15517.15
243.336	15495.36
243.407	15484.23
243.479	15476.57
243.55	15448.42
243.622	15435.4
243.693	15402.53
243.764	15391.3
243.836	15347.53
243.907	15307.67
243.978	15286.6
244.05	15264.86
244.121	15222.15
244.192	15212.9
244.264	15166.87
244.335	15140.84
244.407	15103.91
244.478	15074.94
244.549	15053.49
244.62	15014.59
244.692	14985.72
244.763	14968.41
244.834	14937.56
244.906	14903.53
244.977	14884.78
245.048	14874.13
245.119	14839.13
245.191	14814.12
245.262	14768.56
245.333	14774.11
245.405	14762.83
245.476	14742.97
245.547	14714.91
245.618	14700.64
245.689	14664.49
245.761	14646.37
245.832	14625.93
245.903	14606.07
245.974	14583.89
246.045	14562.2
246.117	14559.26
246.188	14524.21
246.259	14488.45
246.33	14461.45
246.401	14428.62
246.473	14392.04
246.544	14365.28
246.615	14343.44
246.686	14317.12
246.757	14307.24
246.828	14263.13
246.899	14241.68
246.97	14195.93
247.042	14159.49
247.113	14141.32
247.184	14147.63
247.255	14127.1
247.326	14097.84
247.397	14073.01
247.468	14057.29
247.539	14034.93
247.61	13993.71
247.681	13987.64
247.752	13982.29
247.823	13950.47
247.894	13928.2
247.965	13893.97
248.037	13861.05
248.108	13828.8
248.179	13808.55
248.25	13781.84
248.321	13766.95
248.392	13738.8
248.463	13746.32
248.534	13734.26
248.605	13710.98
248.675	13675.45
248.746	13651.54
248.817	13634.24
248.888	13609.89
248.959	13564.24
249.03	13543.7
249.101	13518.49
249.172	13481.76
249.243	13432.44
249.314	13427.24
249.385	13410.51
249.456	13394.84
249.527	13364.57
249.598	13342.44
249.669	13315.83
249.739	13295.78
249.81	13283
249.881	13247.67
249.952	13218.6
250.023	13187.46
250.094	13158.44
250.165	13127.73
250.235	13104.69
250.306	13087.48
250.377	13058.22
250.448	13040.57
250.519	12997.81
250.59	12995.26
250.66	12970.72
250.731	12971.83
250.802	12948.4
250.873	12930.52
250.944	12919
251.014	12895.57
251.085	12902.66
251.156	12884.19
251.227	12879.13
251.297	12866.07
251.368	12860.62
251.439	12845.15
251.51	12846.78
251.58	12820.22
251.651	12789.71
251.722	12783.49
251.792	12742.71
251.863	12724.87
251.934	12722.51
252.005	12737.5
252.075	12718.8
252.146	12718.37
252.217	12706.65
252.287	12696.72
252.358	12673.73
252.429	12662.74
252.499	12642.06
252.57	12618.29
252.641	12609.42
252.711	12594.33
252.782	12560.01
252.852	12553.12
252.923	12528.2
252.994	12501.25
253.064	12489.73
253.135	12459.55
253.205	12432.9
253.276	12439.65
253.347	12433.48
253.417	12405.28
253.488	12380.6
253.558	12355.43
253.629	12333.36
253.699	12314.56
253.77	12296.38
253.841	12269.63
253.911	12254.16
253.982	12244.9
254.052	12236.56
254.123	12221.43
254.193	12192.02
254.264	12212.9
254.334	12179.11
254.405	12151.39
254.475	12120.78
254.546	12103.14
254.616	12101.36
254.687	12090.03
254.757	12071.28
254.827	12044.86
254.898	12031.37
254.968	12004.62
255.039	11970.64
255.109	11955.4
255.18	11929.76
255.25	11888.65
255.321	11882.24
255.391	11855.73
255.461	11855.34
255.532	11810.71
255.602	11789.31
255.673	11759.33
255.743	11722.64
255.813	11685
255.884	11682.06
255.954	11675.17
256.024	11673.92
256.095	11661.05
256.165	11627.4
256.235	11615.98
256.306	11598.58
256.376	11584.7
256.446	11568.99
256.517	11560.75
256.587	11556.36
256.657	11547.16
256.728	11534.91
256.798	11513.9
256.868	11485.18
256.938	11453.37
257.009	11446.09
257.079	11433.65
257.149	11436.98
257.219	11410.37
257.29	11408.73
257.36	11371.53
257.43	11360.4
257.5	11320.92
257.571	11297.07
257.641	11289.12
257.711	11259.96
257.781	11251.09
257.852	11243.23
257.922	11213.07
257.992	11202.8
258.062	11181.6
258.132	11164.97
258.202	11152.15
258.273	11145.84
258.343	11155.81
258.413	11129.93
258.483	11117.89
258.553	11095.81
258.623	11069.4
258.693	11049.55
258.764	11043.48
258.834	11048.73
258.904	11033.89
258.974	11006.95
259.044	10985.27
259.114	10974.91
259.184	10963.53
259.254	10943.29
259.324	10904.6
259.394	10899.35
259.464	10897.66
259.535	10873.28
259.605	10850.39
259.675	10829.71
259.745	10819.35
259.815	10792.17
259.885	10773.72
259.955	10780.42
260.025	10747.9
260.095	10738.11
260.165	10722.89
260.235	10722.36
260.305	10692.82
260.375	10667.62
260.445	10678.84
260.515	10679.37
260.585	10676.15
260.655	10658.75
260.725	10654.03
260.795	10648.68
260.865	10652.92
260.934	10629.55
261.004	10630.56
261.074	10621.41
261.144	10624.83
261.214	10614.66
261.284	10600.26
261.354	10598.57
261.424	10573.08
261.494	10579.53
261.564	10556.79
261.634	10556.6
261.703	10521.18
261.773	10519.45
261.843	10507.79
261.913	10492.47
261.983	10465.39
262.053	10447.08
262.123	10432.24
262.192	10405.94
262.262	10402.47
262.332	10368.94
262.402	10356.36
