Data from 20250625_urea_1M_1_MAYP1162681_08-25-05-952.txt Node
Date: Thu Jun 26 08:25:05 BST 2025
User: adleo
Spectrometer: MAYP116268
Trigger mode: 0
Integration Time (sec): 1.000000E0
Scans to average: 1
Electric dark correction enabled: true
Nonlinearity correction enabled: true
Boxcar width: 10
XAxis mode: Wavelengths
Number of Pixels in Spectrum: 2068
>>>>>Begin Spectral Data<<<<<
179.565	1129.38
179.642	1178.21
179.718	1220.07
179.795	1257.51
179.871	1284.84
179.948	1300.59
180.024	1319.29
180.101	1340.13
180.177	1348.86
180.254	1369.63
180.33	1389.7
180.407	1437.4
180.483	1525.63
180.56	1609.77
180.636	1687.91
180.712	1679.21
180.789	1685.1
180.865	1697.12
180.942	1703.72
181.018	1713.98
181.095	1724.58
181.171	1727.62
181.248	1730.9
181.324	1744.07
181.4	1748.92
181.477	1760.47
181.553	1772.11
181.63	1791.07
181.706	1804.66
181.782	1815.45
181.859	1815.26
181.935	1820.82
182.011	1818.15
182.088	1834.17
182.164	1854.29
182.24	1865.22
182.317	1875.29
182.393	1873.35
182.469	1890.32
182.546	1902.39
182.622	1904.2
182.698	1900.49
182.775	1910.57
182.851	1922.69
182.927	1915.94
183.003	1910.95
183.08	1906.19
183.156	1915.61
183.232	1913.75
183.308	1903.72
183.385	1913.61
183.461	1928.96
183.537	1929.63
183.613	1941.66
183.69	1934.1
183.766	1920.5
183.842	1931.05
183.918	1934.43
183.995	1949.07
184.071	1950.69
184.147	1946.03
184.223	1936.52
184.299	1948.41
184.375	1939.66
184.452	1945.23
184.528	1998.69
184.604	2009.29
184.68	2018.42
184.756	2024.27
184.832	2028.12
184.908	2033.92
184.985	2032.25
185.061	2017.85
185.137	2025.22
185.213	2014.28
185.289	2014.09
185.365	2008.63
185.441	2003.54
185.517	2014.96
185.593	2011.44
185.669	2006.25
185.745	2015.24
185.822	2033.3
185.898	2025.03
185.974	2031.4
186.05	2023.98
186.126	1986.21
186.202	1980.84
186.278	1978.74
186.354	1970.71
186.43	1975.37
186.506	1973.61
186.582	1972.18
186.658	1980.31
186.734	1964.29
186.81	1965.39
186.886	1967.43
186.962	1978.51
187.038	1976.8
187.114	1970.32
187.19	1976.74
187.266	1968.62
187.341	1970.66
187.417	1961.72
187.493	1963.81
187.569	1969.66
187.645	1961.91
187.721	1952.21
187.797	1959.63
187.873	1964.19
187.949	1959.01
188.025	1951.64
188.101	1953.83
188.176	1959.34
188.252	1955.68
188.328	1961
188.404	1961.81
188.48	1958.44
188.556	1948.59
188.632	1947.69
188.707	1945.69
188.783	1942.32
188.859	1939.75
188.935	1928.39
189.011	1936.04
189.086	1928.67
189.162	1919.16
189.238	1921.54
189.314	1915.79
189.39	1911.22
189.465	1902.66
189.541	1917.16
189.617	1905.42
189.693	1902.33
189.768	1905.9
189.844	1924.83
189.92	1917.27
189.996	1924.93
190.071	1937.29
190.147	1941.52
190.223	1951.32
190.298	1944.47
190.374	1933.25
190.45	1943.42
190.526	1950.08
190.601	1944.95
190.677	1947.61
190.753	1974.39
190.828	1977.01
190.904	1994.08
190.98	2006.44
191.055	2017.86
191.131	2012.77
191.207	2032.69
191.282	2038.54
191.358	2029.08
191.433	2019.7
191.509	2032.58
191.585	2027.92
191.66	2026.5
191.736	2031.58
191.811	2023.02
191.887	2036.58
191.963	2057.36
192.038	2059.69
192.114	2063.21
192.189	2067.06
192.265	2061.5
192.34	2039.42
192.416	2039.52
192.491	2032.14
192.567	2035.05
192.642	2037.81
192.718	2035.9
192.793	2024.49
192.869	2022.11
192.944	2023.02
193.02	2027.82
193.095	2027.49
193.171	2035.67
193.246	2036.62
193.322	2033.53
193.397	2034.34
193.473	2023.82
193.548	2010.55
193.624	2015.74
193.699	2012.65
193.775	2029.44
193.85	2033.86
193.925	2041.85
194.001	2039.38
194.076	2032.86
194.152	2023.06
194.227	2017.12
194.302	2010.22
194.378	2012.08
194.453	2009.46
194.529	2020.92
194.604	2007.18
194.679	2005.8
194.755	1986.64
194.83	1997.63
194.905	1997.06
194.981	2006.67
195.056	1999.11
195.131	2003.77
195.207	2004.82
195.282	1996.07
195.357	1976.52
195.433	1990.12
195.508	1978.47
195.583	1985.65
195.659	2003.39
195.734	2011.43
195.809	2007.24
195.884	2012.33
195.96	2012.62
196.035	2028.45
196.11	2026.5
196.185	2038.15
196.261	2040.91
196.336	2072.11
196.411	2058.69
196.486	2064.26
196.561	2054.93
196.637	2064.63
196.712	2078.72
196.787	2080.52
196.862	2097.41
196.937	2106.73
197.013	2111.34
197.088	2123.71
197.163	2142.65
197.238	2152.93
197.313	2152.26
197.388	2168.39
197.464	2199.56
197.539	2213.4
197.614	2204.74
197.689	2219.26
197.764	2234.91
197.839	2254.94
197.914	2249.57
197.989	2270.46
198.065	2282.97
198.14	2331.58
198.215	2355.76
198.29	2367.81
198.365	2383.18
198.44	2389.94
198.515	2415.55
198.59	2430.21
198.665	2453.49
198.74	2460.87
198.815	2461.25
198.89	2483.34
198.965	2512.25
199.04	2507.25
199.115	2518.77
199.19	2562.48
199.265	2564.1
199.34	2571.77
199.415	2602.78
199.49	2620.16
199.565	2629.73
199.64	2652.07
199.715	2650.21
199.79	2655.55
199.865	2663.46
199.94	2659.74
200.015	2693.14
200.09	2697.19
200.165	2702.9
200.24	2712.39
200.315	2754.82
200.39	2771.21
200.464	2774.6
200.539	2774.12
200.614	2786.98
200.689	2811.04
200.764	2811.09
200.839	2826.52
200.914	2834
200.989	2823.9
201.063	2839.67
201.138	2825.14
201.213	2825.91
201.288	2807.32
201.363	2812.28
201.438	2810.04
201.512	2827.47
201.587	2808.31
201.662	2815.65
201.737	2830.09
201.812	2835.29
201.886	2799.38
201.961	2811.25
202.036	2800.06
202.111	2796.86
202.186	2769.25
202.26	2750.8
202.335	2738.94
202.41	2731.08
202.485	2713.69
202.559	2694.83
202.634	2667.91
202.709	2675.34
202.784	2654.62
202.858	2655.86
202.933	2637.95
203.008	2632.95
203.082	2611.61
203.157	2612.18
203.232	2569.71
203.306	2547.84
203.381	2516.98
203.456	2495.31
203.53	2470.53
203.605	2452.11
203.68	2431.58
203.754	2430.15
203.829	2418.3
203.904	2395.54
203.978	2386.54
204.053	2389.97
204.127	2380.64
204.202	2380.69
204.277	2363.26
204.351	2360.46
204.426	2351.5
204.5	2344.56
204.575	2310.2
204.65	2321.25
204.724	2312.91
204.799	2322.62
204.873	2318.47
204.948	2316.47
205.022	2308.05
205.097	2300.1
205.171	2312.66
205.246	2316.28
205.32	2313.52
205.395	2314.62
205.469	2306.72
205.544	2310.2
205.618	2294.68
205.693	2303.87
205.767	2291.97
205.842	2315.49
205.916	2308.02
205.991	2298.31
206.065	2305.11
206.14	2319.28
206.214	2312.95
206.289	2303.95
206.363	2314.62
206.438	2316.62
206.512	2322.52
206.586	2339.7
206.661	2348.7
206.735	2332.76
206.81	2333.66
206.884	2347.08
206.958	2334.85
207.033	2349.65
207.107	2357.65
207.181	2389.69
207.256	2384.84
207.33	2402.88
207.405	2411.79
207.479	2428.35
207.553	2438.54
207.628	2423.6
207.702	2437.78
207.776	2432.31
207.851	2440.73
207.925	2455.73
207.999	2453.5
208.073	2453.02
208.148	2454.16
208.222	2445.64
208.296	2473.96
208.371	2493.92
208.445	2507.01
208.519	2532.72
208.593	2545.44
208.668	2542.72
208.742	2541.39
208.816	2543.96
208.89	2555.96
208.965	2556.58
209.039	2568.44
209.113	2584.11
209.187	2605.81
209.261	2603.48
209.336	2625.44
209.41	2644.92
209.484	2649.21
209.558	2671.6
209.632	2688.31
209.707	2702.51
209.781	2724.57
209.855	2742.48
209.929	2762.18
210.003	2771.95
210.077	2775.71
210.151	2826.18
210.226	2863.65
210.3	2900.04
210.374	2928.77
210.448	2943.17
210.522	2959.67
210.596	2981.65
210.67	3004.48
210.744	3060.71
210.818	3104.57
210.892	3136.91
210.966	3148.73
211.041	3178.16
211.115	3191.61
211.189	3234.39
211.263	3270.5
211.337	3298.55
211.411	3337.4
211.485	3354.16
211.559	3395.38
211.633	3430.82
211.707	3430.72
211.781	3468.51
211.855	3466.93
211.929	3496.37
212.003	3513.93
212.077	3562.07
212.151	3612.08
212.225	3660.13
212.299	3694.4
212.373	3730.13
212.447	3774.57
212.52	3848.15
212.594	3903.98
212.668	3971.16
212.742	4011.31
212.816	4068.06
212.89	4122.17
212.964	4183.88
213.038	4253.96
213.112	4329.6
213.186	4409.42
213.26	4459.67
213.333	4489.1
213.407	4573.48
213.481	4655.72
213.555	4749.14
213.629	4820.87
213.703	4889.79
213.777	4979.42
213.85	5048.98
213.924	5167.34
213.998	5259.69
214.072	5347.85
214.146	5430.64
214.219	5525.75
214.293	5618.59
214.367	5723.91
214.441	5835.37
214.515	5926.67
214.588	6005.92
214.662	6078.76
214.736	6164.74
214.81	6278.42
214.883	6401.33
214.957	6496.42
215.031	6587.95
215.105	6674.34
215.178	6772.65
215.252	6880.58
215.326	6961.53
215.4	7052.8
215.473	7118.4
215.547	7209.67
215.621	7307.45
215.694	7420.38
215.768	7503.49
215.842	7608.92
215.915	7699.67
215.989	7785.66
216.063	7887
216.136	8000.8
216.21	8108.1
216.284	8231.07
216.357	8347.79
216.431	8449.27
216.504	8567.02
216.578	8707.79
216.652	8834.01
216.725	8941.35
216.799	9055.7
216.873	9165.01
216.946	9289.27
217.02	9393.35
217.093	9506.51
217.167	9596.37
217.24	9689.22
217.314	9798.92
217.387	9898.28
217.461	10000.25
217.535	10126.88
217.608	10215.62
217.682	10317.55
217.755	10433.51
217.829	10522.89
217.902	10623.06
217.976	10728.43
218.049	10820.61
218.123	10902.53
218.196	11004.26
218.27	11103.14
218.343	11180.97
218.417	11289.26
218.49	11374.18
218.563	11492.01
218.637	11594.67
218.71	11708.61
218.784	11816.96
218.857	11917.07
218.931	12023.44
219.004	12114.3
219.077	12201.98
219.151	12303.06
219.224	12400.28
219.298	12485.84
219.371	12589.77
219.444	12669.3
219.518	12748.99
219.591	12834.5
219.665	12943.16
219.738	13029.25
219.811	13106.62
219.885	13209.73
219.958	13293.47
220.031	13374.02
220.105	13454.71
220.178	13534.06
220.251	13604.2
220.325	13688.51
220.398	13779.48
220.471	13848.7
220.544	13931.33
220.618	14000.99
220.691	14074.93
220.764	14148.26
220.838	14233.34
220.911	14293.55
220.984	14380.7
221.057	14469.26
221.131	14556.12
221.204	14598.35
221.277	14682.75
221.35	14786.63
221.424	14846.16
221.497	14916.25
221.57	14993.72
221.643	15066.55
221.716	15127.86
221.79	15190.67
221.863	15252.08
221.936	15308
222.009	15383.34
222.082	15455.45
222.155	15515.84
222.229	15596.87
222.302	15655.87
222.375	15712.94
222.448	15786.49
222.521	15844.09
222.594	15894.46
222.667	15929.6
222.74	15999.73
222.814	16047.25
222.887	16087.01
222.96	16143.55
223.033	16204.42
223.106	16258.07
223.179	16311.08
223.252	16365.26
223.325	16421.6
223.398	16458.67
223.471	16516.69
223.544	16560.99
223.617	16601.38
223.69	16648.46
223.763	16680.37
223.837	16732.03
223.91	16775.07
223.983	16795.22
224.056	16814.26
224.129	16859.13
224.202	16912.48
224.275	16946.75
224.348	16973.06
224.42	16995.42
224.493	17016.39
224.566	17045.26
224.639	17081.79
224.712	17101.93
224.785	17131.96
224.858	17158.37
224.931	17195.67
225.004	17213.07
225.077	17239.43
225.15	17250.22
225.223	17282.61
225.296	17334.56
225.369	17346.13
225.442	17365.93
225.514	17394.56
225.587	17441.07
225.66	17470.22
225.733	17495.53
225.806	17519.24
225.879	17551.91
225.952	17571.28
226.025	17611.67
226.097	17652.44
226.17	17673.64
226.243	17676.58
226.316	17694.8
226.389	17726.94
226.461	17745.55
226.534	17766.03
226.607	17789.16
226.68	17831.95
226.753	17848.24
226.825	17846.94
226.898	17879.37
226.971	17897.25
227.044	17926.27
227.117	17951.18
227.189	17973.2
227.262	18005.68
227.335	18030.79
227.407	18034.94
227.48	18047.61
227.553	18071.66
227.626	18076.81
227.698	18086.02
227.771	18117.01
227.844	18122.26
227.916	18131.94
227.989	18145.58
228.062	18164.81
228.134	18193.53
228.207	18205.68
228.28	18212.47
228.352	18220.42
228.425	18228.52
228.498	18253.05
228.57	18262.2
228.643	18277.77
228.716	18280.71
228.788	18283.55
228.861	18288.47
228.934	18315.07
229.006	18331.84
229.079	18337.77
229.151	18333.77
229.224	18342.34
229.296	18355.26
229.369	18397.62
229.442	18426.48
229.514	18429.18
229.587	18444.46
229.659	18430.44
229.732	18444.51
229.804	18468.31
229.877	18505.47
229.949	18526.91
230.022	18557.56
230.094	18561.95
230.167	18566.23
230.239	18570.09
230.312	18573.17
230.384	18607.49
230.457	18618.95
230.529	18643.19
230.602	18657.12
230.674	18675.29
230.747	18690.32
230.819	18709.5
230.892	18678.9
230.964	18683.19
231.037	18689.26
231.109	18700.78
231.181	18732.15
231.254	18726.76
231.326	18726.9
231.399	18720.88
231.471	18703.19
231.544	18666.95
231.616	18683.14
231.688	18694.08
231.761	18696.16
231.833	18693.5
231.905	18660.98
231.978	18666.47
232.05	18647.05
232.122	18632.74
232.195	18619.2
232.267	18629.8
232.339	18618.86
232.412	18636.11
232.484	18621.03
232.556	18613.03
232.629	18621.94
232.701	18615.29
232.773	18608.21
232.846	18595.2
232.918	18589.94
232.99	18606.47
233.062	18623.77
233.135	18622.47
233.207	18599.1
233.279	18596.06
233.351	18604.02
233.424	18603.53
233.496	18582.67
233.568	18601.51
233.64	18583.44
233.713	18581.99
233.785	18573.42
233.857	18565.32
233.929	18547.01
234.001	18553.27
234.074	18562.28
234.146	18536.98
234.218	18517.27
234.29	18511.78
234.362	18503.64
234.434	18474.29
234.507	18449.37
234.579	18419.83
234.651	18404.12
234.723	18400.65
234.795	18398.68
234.867	18384.41
234.939	18380.51
235.012	18369.14
235.084	18359.6
235.156	18363.16
235.228	18343.02
235.3	18318.06
235.372	18308.76
235.444	18304.51
235.516	18262.35
235.588	18249.91
235.66	18227.31
235.732	18202.54
235.804	18237.48
235.876	18227.46
235.948	18233.92
236.02	18210.16
236.092	18193
236.164	18163.51
236.236	18138.35
236.308	18109.58
236.38	18088.23
236.452	18059.32
236.524	18042.16
236.596	18032.09
236.668	18018.12
236.74	17999.71
236.812	17985.2
236.884	17975.03
236.956	17957.78
237.028	17942.5
237.1	17907.13
237.172	17900.63
237.244	17904.92
237.316	17844.97
237.388	17815.86
237.46	17782.7
237.532	17779.09
237.604	17747.67
237.675	17752.82
237.747	17737.26
237.819	17707.28
237.891	17687.72
237.963	17659.43
238.035	17635.09
238.107	17579.77
238.178	17569.55
238.25	17551.96
238.322	17548.78
238.394	17506.03
238.466	17480.34
238.538	17468.39
238.609	17456.1
238.681	17421.6
238.753	17383.62
238.825	17357.07
238.897	17340.25
238.968	17335.62
239.04	17299.09
239.112	17307.24
239.184	17265.36
239.255	17246.13
239.327	17238.71
239.399	17217.89
239.471	17202.66
239.542	17186.42
239.614	17180.73
239.686	17130.61
239.758	17107.96
239.829	17069.93
239.901	17064
239.973	17035.76
240.044	17015.86
240.116	16989.4
240.188	16960.77
240.259	16937.73
240.331	16904.72
240.403	16878.98
240.474	16836.52
240.546	16807.75
240.618	16764.23
240.689	16728.08
240.761	16699.5
240.833	16686.25
240.904	16655.07
240.976	16636.08
241.048	16607.21
241.119	16585.57
241.191	16567.16
241.262	16560.22
241.334	16530.58
241.405	16497.18
241.477	16471.63
241.549	16433.56
241.62	16411.82
241.692	16395.29
241.763	16380.11
241.835	16364.54
241.906	16354.23
241.978	16313.26
242.049	16306.27
242.121	16291.42
242.192	16282.89
242.264	16241.49
242.335	16194.69
242.407	16172.95
242.478	16135.6
242.55	16116.9
242.621	16084.8
242.693	16056.46
242.764	16030.48
242.836	16007.15
242.907	15987.1
242.979	15969.32
243.05	15949.31
243.122	15921.5
243.193	15889.79
243.264	15845.2
243.336	15813.73
243.407	15787.89
243.479	15778.06
243.55	15749.19
243.622	15727.55
243.693	15700.89
243.764	15689.13
243.836	15647.39
243.907	15619.19
243.978	15589.16
244.05	15569.01
244.121	15528.28
244.192	15508.86
244.264	15465.24
244.335	15436.08
244.407	15388.07
244.478	15359.34
244.549	15325.55
244.62	15291.76
244.692	15271.47
244.763	15247.89
244.834	15219.26
244.906	15180.65
244.977	15153.23
245.048	15141.37
245.119	15100.54
245.191	15071.04
245.262	15029.63
245.333	15028.53
245.405	15000.66
245.476	14988.66
245.547	14954.15
245.618	14938.14
245.689	14910.23
245.761	14890.09
245.832	14855.09
245.903	14843.91
245.974	14823.47
246.045	14808.52
246.117	14797.82
246.188	14756.22
246.259	14727.2
246.33	14697.12
246.401	14661.98
246.473	14630.12
246.544	14595.08
246.615	14588.81
246.686	14555.16
246.757	14542.39
246.828	14504.02
246.899	14495.92
246.97	14449.93
247.042	14415.22
247.113	14397.14
247.184	14389.34
247.255	14353.37
247.326	14333.13
247.397	14307.29
247.468	14277.64
247.539	14248.29
247.61	14211.7
247.681	14199.5
247.752	14183.64
247.823	14156.7
247.894	14139.15
247.965	14103.57
248.037	14075.47
248.108	14020.85
248.179	13994.05
248.25	13960.3
248.321	13938.32
248.392	13899.71
248.463	13900.53
248.534	13880.47
248.605	13857
248.675	13827.4
248.746	13812.55
248.817	13805.9
248.888	13786.95
248.959	13748.58
249.03	13731.28
249.101	13705.77
249.172	13671.4
249.243	13627.34
249.314	13619.58
249.385	13598.95
249.456	13573.88
249.527	13545.25
249.598	13538.84
249.669	13519.41
249.739	13512.61
249.81	13495.11
249.881	13463.63
249.952	13433.65
250.023	13416.39
250.094	13381.68
250.165	13350.35
250.235	13319.54
250.306	13292.21
250.377	13261.55
250.448	13250.41
250.519	13205.44
250.59	13198.06
250.66	13179.41
250.731	13178.25
250.802	13150.29
250.873	13137.9
250.944	13129.71
251.014	13102.57
251.085	13101.65
251.156	13084.58
251.227	13067.47
251.297	13062.07
251.368	13042.07
251.439	13032.57
251.51	13013.77
251.58	12982.97
251.651	12961.37
251.722	12963.01
251.792	12924.2
251.863	12891.71
251.934	12881.16
252.005	12887.57
252.075	12868.09
252.146	12854.93
252.217	12842.78
252.287	12829.53
252.358	12800.89
252.429	12795.64
252.499	12770.86
252.57	12748.4
252.641	12737.31
252.711	12720.58
252.782	12685.68
252.852	12692.33
252.923	12668.86
252.994	12656.28
253.064	12648.56
253.135	12623.02
253.205	12588.07
253.276	12582.14
253.347	12583.44
253.417	12558.32
253.488	12535.67
253.558	12512.92
253.629	12491.27
253.699	12472.62
253.77	12466.01
253.841	12441.48
253.911	12426.92
253.982	12410.87
254.052	12397.37
254.123	12383.01
254.193	12369.27
254.264	12386.04
254.334	12352.44
254.405	12326.32
254.475	12289.49
254.546	12274.36
254.616	12269.01
254.687	12250.88
254.757	12240.9
254.827	12225.33
254.898	12203.93
254.968	12187.64
255.039	12154.67
255.109	12149.32
255.18	12123.63
255.25	12078.03
255.321	12067.67
255.391	12034.31
255.461	12039.76
255.532	11996.9
255.602	11970.35
255.673	11926.87
255.743	11896.5
255.813	11855.34
255.884	11845.65
255.954	11838.37
256.024	11834.95
256.095	11813.36
256.165	11786.03
256.235	11769.98
256.306	11738.55
256.376	11741.01
256.446	11724.91
256.517	11722.11
256.587	11709.1
256.657	11693.05
256.728	11674.74
256.798	11656.66
256.868	11637.19
256.938	11599.31
257.009	11591.74
257.079	11581.52
257.149	11589.76
257.219	11557.13
257.29	11544.31
257.36	11509.32
257.43	11505.71
257.5	11466.77
257.571	11441.7
257.641	11438.91
257.711	11409.85
257.781	11409.12
257.852	11386.18
257.922	11350.56
257.992	11330.95
258.062	11311.28
258.132	11301.69
258.202	11284.49
258.273	11269.69
258.343	11270.46
258.413	11263.19
258.483	11243.24
258.553	11215.86
258.623	11191.09
258.693	11173.55
258.764	11178.75
258.834	11181.5
258.904	11160.53
258.974	11138.56
259.044	11124.73
259.114	11105.55
259.184	11097.5
259.254	11072.25
259.324	11038.42
259.394	11030.47
259.464	11028.59
259.535	11008.2
259.605	10984.78
259.675	10961.89
259.745	10956.45
259.815	10923.25
259.885	10894.19
259.955	10912.55
260.025	10884.03
260.095	10863.11
260.165	10847.79
260.235	10843.35
260.305	10818.06
260.375	10790.83
260.445	10793.53
260.515	10792.52
260.585	10791.79
260.655	10766.01
260.725	10762.3
260.795	10758.01
260.865	10766.93
260.934	10738.6
261.004	10729.54
261.074	10718.69
261.144	10717.06
261.214	10704.53
261.284	10692.67
261.354	10692.24
261.424	10656.39
261.494	10669.54
261.564	10659.42
261.634	10656.58
261.703	10623.14
261.773	10611.04
261.843	10600.64
261.913	10581.61
261.983	10545.23
262.053	10531.69
262.123	10519.74
262.192	10493.1
262.262	10482.64
