Data from 20250625_urea_1M_1_MAYP1162681_05-15-05-853.txt Node
Date: Thu Jun 26 05:15:05 BST 2025
User: adleo
Spectrometer: MAYP116268
Trigger mode: 0
Integration Time (sec): 1.000000E0
Scans to average: 1
Electric dark correction enabled: true
Nonlinearity correction enabled: true
Boxcar width: 10
XAxis mode: Wavelengths
Number of Pixels in Spectrum: 2068
>>>>>Begin Spectral Data<<<<<
179.565	1095.51
179.642	1147.37
179.718	1184.27
179.795	1225.66
179.871	1253.75
179.948	1271.03
180.024	1288.57
180.101	1307.16
180.177	1321.53
180.254	1340.39
180.33	1361.22
180.407	1406.69
180.483	1494.25
180.56	1576.77
180.636	1654.82
180.712	1645.64
180.789	1650.73
180.865	1662.74
180.942	1672.53
181.018	1681.93
181.095	1693.44
181.171	1699.75
181.248	1698.38
181.324	1712.3
181.4	1715.58
181.477	1725.8
181.553	1737.82
181.63	1757.01
181.706	1773.22
181.782	1780.01
181.859	1781.01
181.935	1785.72
182.011	1783.29
182.088	1795.89
182.164	1814.34
182.24	1824.69
182.317	1831.2
182.393	1833.53
182.469	1845.13
182.546	1853.88
182.622	1858.91
182.698	1855.49
182.775	1866.8
182.851	1879.26
182.927	1874.26
183.003	1870.37
183.08	1866.66
183.156	1873.89
183.232	1871.27
183.308	1861.43
183.385	1868.89
183.461	1886.82
183.537	1885.44
183.613	1898.56
183.69	1892.05
183.766	1883.01
183.842	1890.52
183.918	1899.79
183.995	1910.72
184.071	1913.39
184.147	1910.15
184.223	1899.46
184.299	1910.73
184.375	1898.9
184.452	1909.22
184.528	1960.05
184.604	1969.89
184.68	1978.16
184.756	1985.34
184.832	1988.62
184.908	1992.19
184.985	1991.95
185.061	1976.26
185.137	1989.38
185.213	1976.74
185.289	1978.21
185.365	1968.8
185.441	1965.38
185.517	1974.79
185.593	1971.09
185.669	1970.23
185.745	1978.6
185.822	1994.8
185.898	1986.63
185.974	1995.13
186.05	1983.29
186.126	1945.87
186.202	1938.07
186.278	1934.98
186.354	1925.99
186.43	1930.56
186.506	1926.85
186.582	1924.95
186.658	1932.13
186.734	1913.16
186.81	1916.48
186.886	1918.43
186.962	1928.46
187.038	1926.94
187.114	1919.71
187.19	1925.8
187.266	1915.24
187.341	1917.62
187.417	1910.06
187.493	1909.87
187.569	1914.2
187.645	1910.3
187.721	1901.98
187.797	1910.82
187.873	1913.44
187.949	1907.35
188.025	1903.79
188.101	1910.34
188.176	1915.76
188.252	1910.16
188.328	1915.72
188.404	1913.62
188.48	1909.63
188.556	1904.21
188.632	1904.21
188.707	1902.93
188.783	1901.6
188.859	1896.94
188.935	1884.86
189.011	1893.23
189.086	1886.81
189.162	1882.49
189.238	1880.82
189.314	1877.4
189.39	1870.32
189.465	1865.9
189.541	1883.58
189.617	1871.75
189.693	1865.81
189.768	1870.42
189.844	1892.58
189.92	1882.27
189.996	1895.11
190.071	1904.57
190.147	1905.47
190.223	1913.93
190.298	1908.65
190.374	1897.01
190.45	1908.13
190.526	1917.45
190.601	1909.46
190.677	1909.41
190.753	1932.96
190.828	1937.1
190.904	1952.41
190.98	1966.96
191.055	1974.71
191.131	1968.38
191.207	1986.4
191.282	1995.43
191.358	1985.26
191.433	1971.84
191.509	1985.06
191.585	1980.49
191.66	1983.11
191.736	1991.76
191.811	1985.29
191.887	1999.13
191.963	2019.82
192.038	2022.81
192.114	2025.57
192.189	2031.32
192.265	2030.23
192.34	2009.72
192.416	2010.63
192.491	2004.92
192.567	2005.82
192.642	2010.77
192.718	2007.77
192.793	1994.17
192.869	1990.28
192.944	1992.56
193.02	1998.31
193.095	2002.97
193.171	2007.06
193.246	2007.16
193.322	2001.88
193.397	2000.5
193.473	1987.85
193.548	1970.73
193.624	1979.62
193.699	1975.44
193.775	1989.56
193.85	1990.13
193.925	1996.32
194.001	1994.7
194.076	1987.66
194.152	1978.1
194.227	1971.44
194.302	1962.51
194.378	1969.59
194.453	1967.79
194.529	1979.34
194.604	1967.83
194.679	1963.6
194.755	1945.82
194.83	1956.96
194.905	1955.91
194.981	1964.14
195.056	1957.67
195.131	1964.8
195.207	1961
195.282	1952.06
195.357	1933.04
195.433	1946.4
195.508	1935.89
195.583	1944.59
195.659	1958
195.734	1965.75
195.809	1965.04
195.884	1973.5
195.96	1971.26
196.035	1986.77
196.11	1982.68
196.185	1995.9
196.261	1995.51
196.336	2024.33
196.411	2009.73
196.486	2012.25
196.561	2006.21
196.637	2016.71
196.712	2032.03
196.787	2035.08
196.862	2051.15
196.937	2061.13
197.013	2069.74
197.088	2079.16
197.163	2095.76
197.238	2112
197.313	2111.95
197.388	2124.08
197.464	2153.48
197.539	2164.9
197.614	2155.43
197.689	2166.61
197.764	2180.7
197.839	2201.49
197.914	2194.64
197.989	2217.86
198.065	2233.22
198.14	2279.74
198.215	2303.44
198.29	2315.05
198.365	2328.28
198.44	2336.42
198.515	2363.93
198.59	2375.78
198.665	2398.72
198.74	2404.44
198.815	2401.77
198.89	2423.43
198.965	2451.95
199.04	2445.14
199.115	2459.28
199.19	2500.17
199.265	2504.93
199.34	2513.26
199.415	2543.61
199.49	2566.74
199.565	2574.5
199.64	2596.22
199.715	2592.88
199.79	2595.03
199.865	2600.07
199.94	2599.08
200.015	2629.66
200.09	2633.04
200.165	2639.8
200.24	2651.33
200.315	2691.57
200.39	2707.95
200.464	2710.76
200.539	2712.43
200.614	2728.62
200.689	2751.78
200.764	2757.4
200.839	2773.74
200.914	2777.93
200.989	2768.83
201.063	2781.55
201.138	2766.03
201.213	2766.79
201.288	2749.16
201.363	2757.4
201.438	2757.93
201.512	2774.12
201.587	2757.4
201.662	2763.59
201.737	2777.17
201.812	2778.7
201.886	2746.51
201.961	2758.05
202.036	2749.71
202.111	2745.9
202.186	2718.28
202.26	2701.08
202.335	2683.98
202.41	2676.64
202.485	2658.59
202.559	2641.35
202.634	2616.44
202.709	2624.67
202.784	2603.81
202.858	2604.38
202.933	2585.14
203.008	2578.14
203.082	2559.05
203.157	2558.38
203.232	2517.82
203.306	2493.81
203.381	2466.09
203.456	2445.38
203.53	2418.79
203.605	2400.71
203.68	2380.8
203.754	2374.24
203.829	2360.1
203.904	2338.91
203.978	2327.2
204.053	2335.06
204.127	2324.87
204.202	2322.25
204.277	2306.31
204.351	2302.03
204.426	2293.74
204.5	2286.32
204.575	2255.49
204.65	2263.2
204.724	2252.39
204.799	2260.62
204.873	2256.77
204.948	2256.67
205.022	2244.49
205.097	2238.54
205.171	2253.77
205.246	2258.24
205.32	2262.81
205.395	2262.1
205.469	2252.49
205.544	2257.92
205.618	2240.4
205.693	2248.21
205.767	2237.36
205.842	2257.02
205.916	2252.64
205.991	2244.36
206.065	2251.4
206.14	2265.24
206.214	2261.38
206.289	2258.01
206.363	2268.86
206.438	2274.47
206.512	2281.37
206.586	2299.83
206.661	2307.79
206.735	2284.38
206.81	2287.95
206.884	2296.66
206.958	2285.15
207.033	2302.13
207.107	2308.13
207.181	2337.21
207.256	2332.74
207.33	2347.49
207.405	2359.74
207.479	2378.68
207.553	2386.1
207.628	2369.55
207.702	2381.83
207.776	2375.54
207.851	2378.45
207.925	2394.59
207.999	2392.31
208.073	2389.16
208.148	2391.69
208.222	2381.78
208.296	2411.81
208.371	2427.39
208.445	2438.86
208.519	2469.23
208.593	2481.46
208.668	2477.46
208.742	2480.85
208.816	2485.7
208.89	2500.51
208.965	2500.28
209.039	2506.75
209.113	2522.8
209.187	2545.21
209.261	2542.4
209.336	2563.69
209.41	2585.79
209.484	2584.64
209.558	2605.22
209.632	2622.79
209.707	2636.03
209.781	2660.85
209.855	2681.96
209.929	2703.8
210.003	2717.23
210.077	2720.61
210.151	2771.26
210.226	2816.5
210.3	2849.17
210.374	2881.14
210.448	2895.82
210.522	2915.47
210.596	2939.02
210.67	2967.24
210.744	3028.71
210.818	3078.28
210.892	3116.96
210.966	3131.5
211.041	3170.47
211.115	3193.41
211.189	3242.73
211.263	3286.14
211.337	3318.53
211.411	3364.21
211.485	3388.8
211.559	3433.41
211.633	3470.81
211.707	3483.42
211.781	3527.9
211.855	3538.17
211.929	3573.15
212.003	3608.28
212.077	3667.38
212.151	3733.79
212.225	3794.85
212.299	3841.19
212.373	3885.95
212.447	3943.9
212.52	4039.41
212.594	4110.33
212.668	4192.51
212.742	4247.41
212.816	4316.77
212.89	4389.74
212.964	4465.56
213.038	4552.82
213.112	4652.44
213.186	4757.3
213.26	4826.16
213.333	4876.91
213.407	4979.73
213.481	5081.95
213.555	5190.74
213.629	5284.92
213.703	5374.22
213.777	5474.13
213.85	5564.56
213.924	5712.38
213.998	5824.04
214.072	5927.12
214.146	6026.58
214.219	6141.38
214.293	6258.88
214.367	6382.58
214.441	6517.62
214.515	6629.9
214.588	6731.14
214.662	6824.9
214.736	6927.83
214.81	7058.16
214.883	7193.46
214.957	7313.73
215.031	7428.71
215.105	7535.48
215.178	7651.02
215.252	7770.84
215.326	7889.43
215.4	8007.82
215.473	8095.78
215.547	8208.31
215.621	8332.65
215.694	8472.49
215.768	8582.45
215.842	8707.15
215.915	8832.64
215.989	8937.01
216.063	9057.85
216.136	9193.47
216.21	9324.52
216.284	9473.31
216.357	9610.5
216.431	9744.62
216.504	9882.07
216.578	10040.01
216.652	10183.73
216.725	10316.35
216.799	10460.64
216.873	10585.81
216.946	10716.71
217.02	10832.63
217.093	10964.46
217.167	11074.38
217.24	11187.63
217.314	11309.07
217.387	11424.19
217.461	11540.01
217.535	11674.04
217.608	11782.77
217.682	11900.27
217.755	12030.27
217.829	12138
217.902	12256.14
217.976	12363.77
218.049	12471.94
218.123	12570.52
218.196	12690.35
218.27	12793.03
218.343	12885.63
218.417	12996.55
218.49	13106.99
218.563	13232.13
218.637	13345.36
218.71	13464.86
218.784	13573.95
218.857	13691.86
218.931	13795.27
219.004	13894.52
219.077	14006.36
219.151	14120.61
219.224	14215.72
219.298	14309.19
219.371	14416.83
219.444	14501.81
219.518	14608.83
219.591	14705.81
219.665	14820.15
219.738	14911.11
219.811	14997.83
219.885	15103.83
219.958	15199.03
220.031	15279.43
220.105	15370.29
220.178	15458.41
220.251	15531.09
220.325	15613.71
220.398	15695.65
220.471	15789.5
220.544	15870.86
220.618	15935.54
220.691	16010.78
220.764	16091.37
220.838	16171.48
220.911	16235.72
220.984	16327.83
221.057	16395.35
221.131	16460.33
221.204	16502.98
221.277	16593.35
221.35	16691.18
221.424	16743.62
221.497	16812.64
221.57	16877.46
221.643	16944.6
221.716	17004.93
221.79	17069.9
221.863	17138.48
221.936	17198.82
222.009	17246.34
222.082	17308.89
222.155	17363.26
222.229	17435.16
222.302	17485.38
222.375	17533.23
222.448	17593.91
222.521	17638.68
222.594	17694.82
222.667	17737.96
222.74	17806.77
222.814	17834.48
222.887	17871.25
222.96	17924.36
223.033	17968.26
223.106	18015.83
223.179	18063.63
223.252	18101.08
223.325	18138.71
223.398	18179.43
223.471	18212.93
223.544	18257.99
223.617	18302.18
223.69	18348.15
223.763	18367.04
223.837	18412.48
223.91	18446.94
223.983	18466.26
224.056	18494.31
224.129	18526.65
224.202	18571.8
224.275	18590.16
224.348	18618.88
224.42	18641.05
224.493	18663.55
224.566	18688.08
224.639	18726.15
224.712	18739.94
224.785	18759.07
224.858	18779.98
224.931	18788.99
225.004	18803.84
225.077	18829.38
225.15	18831.69
225.223	18852.89
225.296	18906.05
225.369	18916.02
225.442	18929.85
225.514	18948.26
225.587	18964.07
225.66	18979.63
225.733	18998.57
225.806	19011.77
225.879	19024.54
225.952	19024.79
226.025	19045.22
226.097	19078.52
226.17	19087.29
226.243	19084.25
226.316	19108.49
226.389	19129.31
226.461	19157.84
226.534	19178.75
226.607	19179.28
226.68	19202.94
226.753	19210.89
226.825	19185.55
226.898	19200.97
226.971	19220.29
227.044	19232.63
227.117	19249.4
227.189	19267.9
227.262	19290.17
227.335	19309.25
227.407	19316.57
227.48	19336.48
227.553	19348.62
227.626	19341.34
227.698	19349.49
227.771	19373.25
227.844	19369.25
227.916	19388.91
227.989	19381.29
228.062	19383.75
228.134	19412.38
228.207	19417.34
228.28	19416.95
228.352	19433.53
228.425	19449.05
228.498	19461.43
228.57	19463.36
228.643	19481.19
228.716	19481.87
228.788	19472.42
228.861	19471.36
228.934	19487.94
229.006	19494.11
229.079	19493.91
229.151	19500.95
229.224	19496.8
229.296	19501.04
229.369	19523.74
229.442	19531.12
229.514	19515.31
229.587	19531.69
229.659	19517.43
229.732	19522.35
229.804	19525.91
229.877	19539.74
229.949	19548.22
230.022	19570.44
230.094	19579.79
230.167	19572.85
230.239	19563.11
230.312	19559.6
230.384	19578.01
230.457	19578.82
230.529	19576.42
230.602	19573.86
230.674	19573.67
230.747	19578.15
230.819	19593.57
230.892	19568.99
230.964	19565.67
231.037	19580.85
231.109	19571.64
231.181	19581.04
231.254	19569.72
231.326	19571.11
231.399	19561.67
231.471	19541.77
231.544	19511.17
231.616	19509.29
231.688	19511.12
231.761	19497.33
231.833	19495.55
231.905	19466.4
231.978	19452.08
232.05	19439.36
232.122	19437.96
232.195	19416.23
232.267	19417.1
232.339	19390.88
232.412	19395.22
232.484	19370.88
232.556	19361.87
232.629	19380.57
232.701	19379.32
232.773	19372.52
232.846	19356.86
232.918	19351.85
232.99	19343.46
233.062	19334.89
233.135	19322.12
233.207	19298.12
233.279	19295.95
233.351	19282.94
233.424	19266.51
233.496	19250.31
233.568	19251.08
233.64	19221.69
233.713	19216.87
233.785	19203.42
233.857	19196.29
233.929	19162.08
234.001	19168.01
234.074	19161.36
234.146	19120.63
234.218	19099.14
234.29	19087
234.362	19067.82
234.434	19039.63
234.507	19011.24
234.579	18974.72
234.651	18956.26
234.723	18942.38
234.795	18927.59
234.867	18909.95
234.939	18909.27
235.012	18890.82
235.084	18879.69
235.156	18869.47
235.228	18836.51
235.3	18804.9
235.372	18784.22
235.444	18780.22
235.516	18738.01
235.588	18710.88
235.66	18686.69
235.732	18655.6
235.804	18681.29
235.876	18663.75
235.948	18650.25
236.02	18634.98
236.092	18620.62
236.164	18589.92
236.236	18565.49
236.308	18542.16
236.38	18517.44
236.452	18488.43
236.524	18471.23
236.596	18458.84
236.668	18440.68
236.74	18426.07
236.812	18415.86
236.884	18394.85
236.956	18375.47
237.028	18348.63
237.1	18315.48
237.172	18310.22
237.244	18301.41
237.316	18243.92
237.388	18213.51
237.46	18185.03
237.532	18167.05
237.604	18138.71
237.675	18141.41
237.747	18129.41
237.819	18103.73
237.891	18080.69
237.963	18039.63
238.035	18003.63
238.107	17941.56
238.178	17929.42
238.25	17900.07
238.322	17887.4
238.394	17847.74
238.466	17814.19
238.538	17790.68
238.609	17782.1
238.681	17729.76
238.753	17692.66
238.825	17667.35
238.897	17651.79
238.968	17641.38
239.04	17606.01
239.112	17600.75
239.184	17551.79
239.255	17510.92
239.327	17480.9
239.399	17449.72
239.471	17434.1
239.542	17415.69
239.614	17407.02
239.686	17357.43
239.758	17346.49
239.829	17315.41
239.901	17302.39
239.973	17282.39
240.044	17263.02
240.116	17238.2
240.188	17208.95
240.259	17178.58
240.331	17144.41
240.403	17122.39
240.474	17076.56
240.546	17046.92
240.618	17005.13
240.689	16979.16
240.761	16956.99
240.833	16944.75
240.904	16924.07
240.976	16901.47
241.048	16883.25
241.119	16861.37
241.191	16840.6
241.262	16828.64
241.334	16791.68
241.405	16759.2
241.477	16724.11
241.549	16690.47
241.62	16656.54
241.692	16647.57
241.763	16636.25
241.835	16604.1
241.906	16566.46
241.978	16526.31
242.049	16516.96
242.121	16498.65
242.192	16482.6
242.264	16439.51
242.335	16392.61
242.407	16375.41
242.478	16335.11
242.55	16298
242.621	16261.37
242.693	16231.73
242.764	16188.21
242.836	16157.7
242.907	16132.68
242.979	16112.15
243.05	16092.2
243.122	16066.03
243.193	16026.36
243.264	15973.63
243.336	15945.91
243.407	15934.01
243.479	15923.65
243.55	15889.67
243.622	15862.39
243.693	15833.61
243.764	15833.66
243.836	15794.86
243.907	15756.92
243.978	15736.39
244.05	15717.01
244.121	15679.22
244.192	15654.35
244.264	15612.47
244.335	15584.41
244.407	15534.77
244.478	15504.25
244.549	15468.59
244.62	15433.11
244.692	15403.61
244.763	15397.78
244.834	15365.68
244.906	15322.49
244.977	15291.11
245.048	15281.42
245.119	15246.09
245.191	15202.9
245.262	15141.73
245.333	15140.38
245.405	15118.16
245.476	15087.65
245.547	15061.76
245.618	15046.53
245.689	15026.52
245.761	15008.4
245.832	14976.83
245.903	14969.36
245.974	14947.33
246.045	14926.26
246.117	14917.68
246.188	14881
246.259	14835.06
246.33	14813.95
246.401	14782.03
246.473	14751.81
246.544	14710.84
246.615	14699.41
246.686	14672.95
246.757	14671.79
246.828	14629.32
246.899	14612.36
246.97	14575.67
247.042	14538.8
247.113	14513.1
247.184	14500.18
247.255	14462.34
247.326	14439.35
247.397	14415.25
247.468	14391.05
247.539	14360.24
247.61	14314.21
247.681	14302.73
247.752	14286.92
247.823	14243.06
247.894	14224.83
247.965	14187.38
248.037	14159.61
248.108	14112.61
248.179	14088.8
248.25	14054.86
248.321	14040.06
248.392	14001.98
248.463	14000.97
248.534	13978.69
248.605	13960.76
248.675	13932.71
248.746	13920.51
248.817	13904.07
248.888	13881.99
248.959	13841.16
249.03	13823.42
249.101	13801.59
249.172	13777.24
249.243	13740.65
249.314	13740.6
249.385	13724.55
249.456	13707.15
249.527	13684.68
249.598	13667.91
249.669	13642.74
249.739	13621.68
249.81	13595.16
249.881	13555.59
249.952	13527.29
250.023	13501.31
250.094	13471.32
250.165	13435.12
250.235	13404.75
250.306	13384.21
250.377	13343.28
250.448	13322.85
250.519	13283.65
250.59	13274.98
250.66	13245.57
250.731	13243.79
250.802	13208.02
250.873	13190.9
250.944	13173.79
251.014	13139.71
251.085	13143.23
251.156	13130.12
251.227	13127.99
251.297	13123.95
251.368	13115.7
251.439	13103.6
251.51	13096.52
251.58	13059.93
251.651	13043.06
251.722	13032.98
251.792	12989.21
251.863	12970.84
251.934	12968.82
252.005	12977.98
252.075	12962.74
252.146	12953.25
252.217	12938.3
252.287	12931.8
252.358	12905.48
252.429	12898.1
252.499	12880.31
252.57	12861.56
252.641	12843.1
252.711	12820.25
252.782	12779.61
252.852	12780.48
252.923	12760.14
252.994	12742.15
253.064	12742.69
253.135	12719.74
253.205	12692.74
253.276	12689.13
253.347	12684.02
253.417	12649.36
253.488	12618.17
253.558	12589.15
253.629	12570.01
253.699	12551.12
253.77	12544.22
253.841	12515.35
253.911	12505.81
253.982	12482.81
254.052	12461.99
254.123	12459.96
254.193	12433.02
254.264	12456.45
254.334	12431.86
254.405	12395.8
254.475	12365.48
254.546	12338.25
254.616	12319.06
254.687	12304.6
254.757	12293.81
254.827	12272.21
254.898	12262.28
254.968	12243.39
255.039	12221.31
255.109	12205.6
255.18	12173.64
255.25	12120.81
255.321	12116.33
255.391	12076.46
255.461	12081.62
255.532	12041.95
255.602	12007.97
255.673	11977.79
255.743	11940.77
255.813	11891.08
255.884	11887.08
255.954	11876.67
256.024	11875.75
256.095	11864.47
256.165	11834.11
256.235	11821.19
256.306	11798.63
256.376	11791.79
256.446	11776.6
256.517	11765.23
256.587	11766.24
256.657	11765.23
256.728	11756.75
256.798	11732.89
256.868	11714.81
256.938	11685.65
257.009	11675.1
257.079	11667.1
257.149	11676.01
257.219	11649.26
257.29	11645.26
257.36	11604.3
257.43	11596.49
257.5	11559.66
257.571	11538.22
257.641	11532.63
257.711	11504.09
257.781	11493.49
257.852	11478.79
257.922	11449.82
257.992	11424.09
258.062	11392.95
258.132	11372.37
258.202	11355.17
258.273	11350.01
258.343	11352.85
258.413	11331.46
258.483	11315.31
258.553	11287.6
258.623	11253.72
258.693	11242.2
258.764	11235.84
258.834	11237.62
258.904	11223.16
258.974	11200.85
259.044	11183.16
259.114	11173.28
259.184	11168.85
259.254	11152.85
259.324	11111.79
259.394	11100.03
259.464	11106.34
259.535	11089.48
259.605	11069.81
259.675	11040.18
259.745	11020.76
259.815	10991.46
259.885	10974.35
259.955	10988.91
260.025	10964.86
260.095	10950.07
260.165	10934.21
260.235	10932.24
260.305	10915.27
260.375	10879.71
260.445	10883.18
260.515	10872.92
260.585	10860.87
260.655	10831.23
260.725	10820.2
260.795	10821.45
260.865	10825.98
260.934	10799.72
261.004	10792.1
261.074	10778.32
261.144	10790.7
261.214	10786.03
261.284	10775.62
261.354	10769.65
261.424	10740.3
261.494	10742.08
261.564	10729.65
261.634	10719.29
261.703	10689.12
261.773	10674.14
261.843	10675.44
261.913	10661.52
261.983	10634.73
262.053	10623.35
262.123	10610.44
262.192	10582.84
