Data from 20250625_urea_1M_1_MAYP1162681_07-45-06-167.txt Node
Date: Thu Jun 26 07:45:06 BST 2025
User: adleo
Spectrometer: MAYP116268
Trigger mode: 0
Integration Time (sec): 1.000000E0
Scans to average: 1
Electric dark correction enabled: true
Nonlinearity correction enabled: true
Boxcar width: 10
XAxis mode: Wavelengths
Number of Pixels in Spectrum: 2068
>>>>>Begin Spectral Data<<<<<
179.565	1110.21
179.642	1157.92
179.718	1197.68
179.795	1239.1
179.871	1270.54
179.948	1286.89
180.024	1305.01
180.101	1329.32
180.177	1342.05
180.254	1363.67
180.33	1384.85
180.407	1432.89
180.483	1520.83
180.56	1603.83
180.636	1682.68
180.712	1674.27
180.789	1685.81
180.865	1697.55
180.942	1708.61
181.018	1718.26
181.095	1731.76
181.171	1739.84
181.248	1744.35
181.324	1759.7
181.4	1761.6
181.477	1770.78
181.553	1782.18
181.63	1803.66
181.706	1816.54
181.782	1827.38
181.859	1827.52
181.935	1832.56
182.011	1830.85
182.088	1848.48
182.164	1864.69
182.24	1877.38
182.317	1883.94
182.393	1880.19
182.469	1890.69
182.546	1902.53
182.622	1905.19
182.698	1901.62
182.775	1912.51
182.851	1924.02
182.927	1916.65
183.003	1914.51
183.08	1909.75
183.156	1919.55
183.232	1916.36
183.308	1907.57
183.385	1911.75
183.461	1925.3
183.537	1926.34
183.613	1938.37
183.69	1929.91
183.766	1923.2
183.842	1932.19
183.918	1938.47
183.995	1953.97
184.071	1958.01
184.147	1951.54
184.223	1941.09
184.299	1950.65
184.375	1938.43
184.452	1945.66
184.528	1998.02
184.604	2006.86
184.68	2019.03
184.756	2024.79
184.832	2027.97
184.908	2029.21
184.985	2033.3
185.061	2018.8
185.137	2028.74
185.213	2014.33
185.289	2015.04
185.365	2005.92
185.441	2000.83
185.517	2013.15
185.593	2006.78
185.669	2001.93
185.745	2012.96
185.822	2030.31
185.898	2021.22
185.974	2028.59
186.05	2019.22
186.126	1981.98
186.202	1976.23
186.278	1971.14
186.354	1963.48
186.43	1966.62
186.506	1965.29
186.582	1958.78
186.658	1965.43
186.734	1942.09
186.81	1944.04
186.886	1944.56
186.962	1956.5
187.038	1955.5
187.114	1945.6
187.19	1955.21
187.266	1949.55
187.341	1950.36
187.417	1941.9
187.493	1943.09
187.569	1950.03
187.645	1946.51
187.721	1934.95
187.797	1944.46
187.873	1949.22
187.949	1942.71
188.025	1941.14
188.101	1945.32
188.176	1952.88
188.252	1948.7
188.328	1959.72
188.404	1961.67
188.48	1957.72
188.556	1951.69
188.632	1951.26
188.707	1949.69
188.783	1944.17
188.859	1940.75
188.935	1928.77
189.011	1939.08
189.086	1933.71
189.162	1924.3
189.238	1923.54
189.314	1920.54
189.39	1915.07
189.465	1907.56
189.541	1924.2
189.617	1910.8
189.693	1904.33
189.768	1908.18
189.844	1930.68
189.92	1919.84
189.996	1927.93
190.071	1939.91
190.147	1941.57
190.223	1948.85
190.298	1945.76
190.374	1934.3
190.45	1943.81
190.526	1951.03
190.601	1944.76
190.677	1945.14
190.753	1971.59
190.828	1971.68
190.904	1985.76
190.98	1996.03
191.055	2006.02
191.131	1998.65
191.207	2014.53
191.282	2024.27
191.358	2013.67
191.433	2002.58
191.509	2016.98
191.585	2012.09
191.66	2013.7
191.736	2018.65
191.811	2009.23
191.887	2023.45
191.963	2046.66
192.038	2050.28
192.114	2052.89
192.189	2057.98
192.265	2055.37
192.34	2033.05
192.416	2034.1
192.491	2031.72
192.567	2034.91
192.642	2038
192.718	2038.57
192.793	2027.06
192.869	2023.83
192.944	2026.25
193.02	2030.48
193.095	2033.62
193.171	2041.09
193.246	2040.42
193.322	2037.62
193.397	2038.52
193.473	2026.68
193.548	2010.6
193.624	2018.21
193.699	2015.21
193.775	2028.15
193.85	2029.25
193.925	2038.85
194.001	2036.76
194.076	2029.3
194.152	2018.4
194.227	2010.98
194.302	2001.38
194.378	2007.47
194.453	2004.52
194.529	2016.27
194.604	2006.66
194.679	2003.71
194.755	1986.26
194.83	1994.11
194.905	1991.45
194.981	1998.87
195.056	1991.98
195.131	1999.06
195.207	1995.59
195.282	1990.36
195.357	1972.28
195.433	1989.97
195.508	1978.27
195.583	1988.31
195.659	2002.15
195.734	2009.71
195.809	2007.47
195.884	2016.93
195.96	2017.17
196.035	2032.39
196.11	2028.06
196.185	2035
196.261	2034.96
196.336	2063.63
196.411	2051.88
196.486	2057.45
196.561	2050.98
196.637	2059.11
196.712	2071.34
196.787	2073.57
196.862	2083.65
196.937	2092.88
197.013	2096.92
197.088	2109.24
197.163	2127.85
197.238	2142.56
197.313	2144.18
197.388	2160.64
197.464	2188.38
197.539	2198.75
197.614	2189.95
197.689	2201.46
197.764	2216.45
197.839	2236.48
197.914	2231.68
197.989	2253.71
198.065	2266.7
198.14	2316.36
198.215	2339.91
198.29	2350.05
198.365	2364.86
198.44	2377.8
198.515	2406.13
198.59	2418.55
198.665	2440.54
198.74	2448.55
198.815	2450.5
198.89	2473.59
198.965	2501.21
199.04	2494.55
199.115	2513.64
199.19	2555.39
199.265	2559.91
199.34	2569.48
199.415	2603.55
199.49	2623.59
199.565	2631.98
199.64	2656.65
199.715	2651.26
199.79	2656.59
199.865	2664.64
199.94	2665.22
200.015	2693.85
200.09	2700.76
200.165	2710
200.24	2716.86
200.315	2750.04
200.39	2765.24
200.464	2767.24
200.539	2765.1
200.614	2783.58
200.689	2801.4
200.764	2806.93
200.839	2821.08
200.914	2829.13
200.989	2818.07
201.063	2832.13
201.138	2817.7
201.213	2817.51
201.288	2799.07
201.363	2808.12
201.438	2805.5
201.512	2819.08
201.587	2802.16
201.662	2802.88
201.737	2811.69
201.812	2819.22
201.886	2791.76
201.961	2800.96
202.036	2794.86
202.111	2796.91
202.186	2769.29
202.26	2755.37
202.335	2737.22
202.41	2735.6
202.485	2718.78
202.559	2703.25
202.634	2676.81
202.709	2685.43
202.784	2667.04
202.858	2671.28
202.933	2648.85
203.008	2642.23
203.082	2621.8
203.157	2621.13
203.232	2580.33
203.306	2560.32
203.381	2528.31
203.456	2502.74
203.53	2478.77
203.605	2455.21
203.68	2431.39
203.754	2425.68
203.829	2408.78
203.904	2388.54
203.978	2375.45
204.053	2378.83
204.127	2362.88
204.202	2358.84
204.277	2341.84
204.351	2333.32
204.426	2324.28
204.5	2318
204.575	2287.5
204.65	2297.21
204.724	2288.73
204.799	2298.58
204.873	2295.29
204.948	2294.11
205.022	2285.64
205.097	2280.11
205.171	2296.2
205.246	2302.96
205.32	2305.34
205.395	2308.19
205.469	2301.96
205.544	2307.67
205.618	2290.59
205.693	2300.87
205.767	2293.02
205.842	2313.15
205.916	2310.11
205.991	2299.73
206.065	2305.68
206.14	2321.9
206.214	2319.9
206.289	2314.05
206.363	2323.28
206.438	2324.66
206.512	2333.66
206.586	2353.5
206.661	2361.45
206.735	2339.19
206.81	2344
206.884	2354.18
206.958	2339.95
207.033	2355.13
207.107	2363.08
207.181	2396.03
207.256	2391.03
207.33	2408.26
207.405	2420.46
207.479	2437.41
207.553	2445.26
207.628	2431.84
207.702	2440.74
207.776	2432.27
207.851	2436.31
207.925	2450.84
207.999	2448.55
208.073	2445.98
208.148	2449.98
208.222	2437.46
208.296	2468.06
208.371	2480.78
208.445	2490.3
208.519	2517.2
208.593	2527.58
208.668	2521.39
208.742	2520.1
208.816	2524.77
208.89	2539.92
208.965	2535.67
209.039	2546.73
209.113	2565.68
209.187	2587.81
209.261	2590.43
209.336	2613.62
209.41	2632.53
209.484	2634.92
209.558	2659.21
209.632	2677.45
209.707	2687.6
209.781	2714.08
209.855	2733.96
209.929	2753.94
210.003	2765.33
210.077	2769.61
210.151	2821.84
210.226	2863.79
210.3	2902.43
210.374	2930.21
210.448	2938.26
210.522	2961.1
210.596	2981.41
210.67	3002.68
210.744	3062.25
210.818	3106.11
210.892	3137.78
210.966	3150.75
211.041	3180.84
211.115	3196.1
211.189	3237.22
211.263	3276.38
211.337	3301.66
211.411	3339.41
211.485	3357.79
211.559	3398.44
211.633	3432.45
211.707	3433.26
211.781	3473.87
211.855	3473.2
211.929	3504.17
212.003	3532.7
212.077	3582.28
212.151	3640.9
212.225	3693.59
212.299	3726.72
212.373	3764.31
212.447	3813.25
212.52	3893
212.594	3955.62
212.668	4027.16
212.742	4073.48
212.816	4131.71
212.89	4190.41
212.964	4254.86
213.038	4328.67
213.112	4409.49
213.186	4493.14
213.26	4549.09
213.333	4580.77
213.407	4658.22
213.481	4740.03
213.555	4832.18
213.629	4910.07
213.703	4974.64
213.777	5065.1
213.85	5139.84
213.924	5267.2
213.998	5361.63
214.072	5456.63
214.146	5542.69
214.219	5638.07
214.293	5736.16
214.367	5839.62
214.441	5954.84
214.515	6050.09
214.588	6136.17
214.662	6210.46
214.736	6303.42
214.81	6417.7
214.883	6537.38
214.957	6643.12
215.031	6742.87
215.105	6833.41
215.178	6928.77
215.252	7038.1
215.326	7128.2
215.4	7224.63
215.473	7293.91
215.547	7390.01
215.621	7488.63
215.694	7615.3
215.768	7703.24
215.842	7804.69
215.915	7908.45
215.989	7996.85
216.063	8101.3
216.136	8219.89
216.21	8340.2
216.284	8464.3
216.357	8584.12
216.431	8696.73
216.504	8820.04
216.578	8961.99
216.652	9086.4
216.725	9203.82
216.799	9327.47
216.873	9437.58
216.946	9557.42
217.02	9662.16
217.093	9773.45
217.167	9866.94
217.24	9950.32
217.314	10062.16
217.387	10168.36
217.461	10271.89
217.535	10397.72
217.608	10498.12
217.682	10597.81
217.755	10710.51
217.829	10805.53
217.902	10911.64
217.976	11018.42
218.049	11115.19
218.123	11200.88
218.196	11313.5
218.27	11407.19
218.343	11496.45
218.417	11604.12
218.49	11697.62
218.563	11818.21
218.637	11923.58
218.71	12044.65
218.784	12153.88
218.857	12261.27
218.931	12363.98
219.004	12465.79
219.077	12567.93
219.151	12669.69
219.224	12763.79
219.298	12852.92
219.371	12955.11
219.444	13035.13
219.518	13120.36
219.591	13212.05
219.665	13328.22
219.738	13417.11
219.811	13495.06
219.885	13585.26
219.958	13679.5
220.031	13764.97
220.105	13840.7
220.178	13922.75
220.251	13989.27
220.325	14080.53
220.398	14164.07
220.471	14245.58
220.544	14332.79
220.618	14401.04
220.691	14482.75
220.764	14562.14
220.838	14640.96
220.911	14712.54
220.984	14799.02
221.057	14882.85
221.131	14960.99
221.204	15006.34
221.277	15095.62
221.35	15203.25
221.424	15261.82
221.497	15325.11
221.57	15399.19
221.643	15478.2
221.716	15551.46
221.79	15620.29
221.863	15677.46
221.936	15741.18
222.009	15806.2
222.082	15864.09
222.155	15919.91
222.229	15991.96
222.302	16054.91
222.375	16107.88
222.448	16166.3
222.521	16216.57
222.594	16262.98
222.667	16299.76
222.74	16364.73
222.814	16405.26
222.887	16442.37
222.96	16511.06
223.033	16566.63
223.106	16603.69
223.179	16652.7
223.252	16697.77
223.325	16746.11
223.398	16791.94
223.471	16836.86
223.544	16878.89
223.617	16925.1
223.69	16974.02
223.763	16995.81
223.837	17039.23
223.91	17086.41
223.983	17106.85
224.056	17144.2
224.129	17190.13
224.202	17244.1
224.275	17274.32
224.348	17294.56
224.42	17318.47
224.493	17335.43
224.566	17364.49
224.639	17416.92
224.712	17440.39
224.785	17465.79
224.858	17494.03
224.931	17516.01
225.004	17536.2
225.077	17573.12
225.15	17566.08
225.223	17587.86
225.296	17635.04
225.369	17644.97
225.442	17659.67
225.514	17694.51
225.587	17723.43
225.66	17750.75
225.733	17774.94
225.806	17796.87
225.879	17824.63
225.952	17841.5
226.025	17882.94
226.097	17920.72
226.17	17942.79
226.243	17943.66
226.316	17959.71
226.389	17992.19
226.461	18019.71
226.534	18038.26
226.607	18056.86
226.68	18107.94
226.753	18122.21
226.825	18122.02
226.898	18161.2
226.971	18193.44
227.044	18210.93
227.117	18235.55
227.189	18249.19
227.262	18274.73
227.335	18301.19
227.407	18319.45
227.48	18346.73
227.553	18365.38
227.626	18373.38
227.698	18388.56
227.771	18422.53
227.844	18440.7
227.916	18447.45
227.989	18447.16
228.062	18459.49
228.134	18482.53
228.207	18484.84
228.28	18500.17
228.352	18512.21
228.425	18517.8
228.498	18535.2
228.57	18543.68
228.643	18556.74
228.716	18569.51
228.788	18566.96
228.861	18572.93
228.934	18592.5
229.006	18604.93
229.079	18600.93
229.151	18607.34
229.224	18603.44
229.296	18610.76
229.369	18637.51
229.442	18652.35
229.514	18659.58
229.587	18684.49
229.659	18672.11
229.732	18695.87
229.804	18715.96
229.877	18750.03
229.949	18764.25
230.022	18784.92
230.094	18795.81
230.167	18806.41
230.239	18809.74
230.312	18825.5
230.384	18845.54
230.457	18840.77
230.529	18849.69
230.602	18860.24
230.674	18863.04
230.747	18876.58
230.819	18887.66
230.892	18855.81
230.964	18872.92
231.037	18883.61
231.109	18880.63
231.181	18890.26
231.254	18877.98
231.326	18872.53
231.399	18861.83
231.471	18850.46
231.544	18823.86
231.616	18834.94
231.688	18832.1
231.761	18824.39
231.833	18816.15
231.905	18793.02
231.978	18793.21
232.05	18782.9
232.122	18779.67
232.195	18768.73
232.267	18777.89
232.339	18773.16
232.412	18794.46
232.484	18777.07
232.556	18768.54
232.629	18792.39
232.701	18800.25
232.773	18797.79
232.846	18792.34
232.918	18785.84
232.99	18787.14
233.062	18792.58
233.135	18784.58
233.207	18763.48
233.279	18764.83
233.351	18764.58
233.424	18757.16
233.496	18752.87
233.568	18760.1
233.64	18740.59
233.713	18735.29
233.785	18716.78
233.857	18707.05
233.929	18680.93
234.001	18685.79
234.074	18681.55
234.146	18640.11
234.218	18622.86
234.29	18610.96
234.362	18589.61
234.434	18566.09
234.507	18541.95
234.579	18508.6
234.651	18490.34
234.723	18487.4
234.795	18475.35
234.867	18458.58
234.939	18456.02
235.012	18439.25
235.084	18431.83
235.156	18428.56
235.228	18403.02
235.3	18384.17
235.372	18367.88
235.444	18365.09
235.516	18323.36
235.588	18311.12
235.66	18299.02
235.732	18274.06
235.804	18302.59
235.876	18303.55
235.948	18305
236.02	18288.27
236.092	18274.83
236.164	18258.73
236.236	18233.53
236.308	18220.71
236.38	18204.95
236.452	18176.18
236.524	18159.03
236.596	18140.09
236.668	18126.5
236.74	18121.15
236.812	18103.8
236.884	18094.79
236.956	18071.42
237.028	18039.95
237.1	18013.83
237.172	18014.45
237.244	18018.02
237.316	17967.52
237.388	17938.84
237.46	17896.92
237.532	17896.68
237.604	17875.57
237.675	17870.03
237.747	17862.12
237.819	17823.09
237.891	17795.09
237.963	17765.21
238.035	17738.51
238.107	17691.76
238.178	17678.85
238.25	17651.86
238.322	17653.02
238.394	17609.93
238.466	17583.14
238.538	17570.99
238.609	17552.2
238.681	17511.57
238.753	17466.37
238.825	17445.16
238.897	17422.03
238.968	17422.61
239.04	17378.56
239.112	17374.8
239.184	17332.83
239.255	17300.25
239.327	17284.15
239.399	17267.52
239.471	17253.11
239.542	17240.58
239.614	17229.16
239.686	17174.51
239.758	17158.27
239.829	17107.38
239.901	17093.21
239.973	17068.05
240.044	17049.59
240.116	17018.46
240.188	16984.67
240.259	16972.05
240.331	16938.99
240.403	16910.65
240.474	16871.42
240.546	16835.46
240.618	16787.27
240.689	16765.97
240.761	16751.8
240.833	16730.93
240.904	16696.32
240.976	16670.73
241.048	16635.98
241.119	16618.2
241.191	16605.52
241.262	16589.71
241.334	16567.11
241.405	16536.07
241.477	16508.46
241.549	16476.93
241.62	16461.66
241.692	16449.27
241.763	16423.63
241.835	16392.45
241.906	16365.55
241.978	16325.55
242.049	16317.55
242.121	16301.21
242.192	16280.53
242.264	16231.51
242.335	16192.28
242.407	16174.21
242.478	16140.37
242.55	16117.48
242.621	16081.33
242.693	16047.01
242.764	16010.96
242.836	15989.46
242.907	15964.88
242.979	15942.47
243.05	15923.33
243.122	15897.98
243.193	15867.18
243.264	15822.89
243.336	15799.17
243.407	15783.27
243.479	15777.92
243.55	15753.72
243.622	15737.14
243.693	15705.91
243.764	15701.33
243.836	15669.13
243.907	15637.51
243.978	15608.2
244.05	15589.4
244.121	15555.23
244.192	15539.71
244.264	15504.33
244.335	15476.13
244.407	15438.82
244.478	15415.97
244.549	15388.26
244.62	15349.36
244.692	15321.6
244.763	15306.32
244.834	15271.18
244.906	15240.28
244.977	15214.73
245.048	15204.18
245.119	15170.05
245.191	15140.55
245.262	15089.21
245.333	15083.19
245.405	15052.82
245.476	15033.83
245.547	15006.69
245.618	14982.39
245.689	14956.46
245.761	14935.49
245.832	14903.68
245.903	14885.12
245.974	14864.83
246.045	14835.42
246.117	14824.77
246.188	14785.05
246.259	14742.48
246.33	14717.47
246.401	14678.13
246.473	14640.34
246.544	14614.07
246.615	14603.95
246.686	14571.84
246.757	14555.74
246.828	14516.36
246.899	14514.48
246.97	14471.43
247.042	14429.63
247.113	14411.75
247.184	14404.18
247.255	14367.69
247.326	14346.48
247.397	14331.3
247.468	14305.12
247.539	14277.21
247.61	14234.4
247.681	14223.89
247.752	14215.41
247.823	14182.39
247.894	14173.23
247.965	14138.81
248.037	14100.92
248.108	14054.79
248.179	14036.57
248.25	14012.99
248.321	13997.9
248.392	13955.68
248.463	13966.33
248.534	13952.21
248.605	13934.66
248.675	13905.45
248.746	13887.42
248.817	13867.07
248.888	13841.33
248.959	13799.2
249.03	13782.57
249.101	13762.95
249.172	13730.02
249.243	13681.48
249.314	13668.03
249.385	13650.19
249.456	13627.63
249.527	13595.72
249.598	13576.24
249.669	13547.8
249.739	13528.95
249.81	13503.69
249.881	13469.9
249.952	13437.55
250.023	13406.22
250.094	13368.91
250.165	13332.94
250.235	13307.73
250.306	13295.3
250.377	13257.6
250.448	13246.27
250.519	13200.09
250.59	13192.76
250.66	13166.78
250.731	13168.03
250.802	13148.27
250.873	13124.89
250.944	13111.73
251.014	13095.05
251.085	13097.75
251.156	13086.37
251.227	13083.28
251.297	13085.4
251.368	13077.02
251.439	13061.59
251.51	13057.54
251.58	13025.2
251.651	12998.44
251.722	12991.11
251.792	12947.34
251.863	12926.47
251.934	12919.38
252.005	12930.18
252.075	12910.46
252.146	12900.92
252.217	12889.5
252.287	12875.56
252.358	12844.57
252.429	12842.83
252.499	12818.92
252.57	12797.9
252.641	12778.82
252.711	12750.23
252.782	12706.7
252.852	12706.36
252.923	12682.74
252.994	12660.13
253.064	12657.63
253.135	12632.08
253.205	12601.85
253.276	12601.03
253.347	12604.7
253.417	12569.7
253.488	12544.25
253.558	12515.9
253.629	12495.03
253.699	12470.59
253.77	12464.9
253.841	12454.06
253.911	12432.32
253.982	12410.19
254.052	12400.02
254.123	12388.98
254.193	12370.71
254.264	12391.1
254.334	12356.98
254.405	12325.69
254.475	12299.76
254.546	12274.84
254.616	12271.95
254.687	12260.67
254.757	12247.51
254.827	12223.07
254.898	12211.11
254.968	12192.8
255.039	12174.38
255.109	12168.7
255.18	12145.08
255.25	12103.09
255.321	12084.1
255.391	12055.52
255.461	12065.59
255.532	12021.34
255.602	11991.6
255.673	11957.28
255.743	11927.64
255.813	11893.46
255.884	11892.07
255.954	11884.26
256.024	11884.35
256.095	11867.97
256.165	11838.37
256.235	11820.63
256.306	11796.87
256.376	11793.06
256.446	11777.06
256.517	11761.78
256.587	11745.2
256.657	11734.36
256.728	11716.67
256.798	11696.67
256.868	11672.13
256.938	11639.84
257.009	11631.98
257.079	11624.27
257.149	11633.33
257.219	11593.71
257.29	11582.15
257.36	11545.57
257.43	11534.96
257.5	11496.07
257.571	11473.22
257.641	11469.99
257.711	11444.45
257.781	11433.51
257.852	11421.7
257.922	11396.83
257.992	11376.4
258.062	11356.83
258.132	11352.83
258.202	11344.59
258.273	11338.08
258.343	11340.68
258.413	11318.75
258.483	11296.58
258.553	11268.92
258.623	11241.06
258.693	11228.87
258.764	11227.38
258.834	11227.81
258.904	11208.68
258.974	11183.86
259.044	11164.68
259.114	11155.77
259.184	11137.31
259.254	11113.69
259.324	11072.01
259.394	11062.71
259.464	11061.45
259.535	11047.14
259.605	11015.67
259.675	10986.57
259.745	10978.76
259.815	10944.74
259.885	10920.64
259.955	10932.5
260.025	10911.83
260.095	10894.19
260.165	10885.66
260.235	10886.43
260.305	10862.58
260.375	10832.51
260.445	10841.95
260.515	10837.28
260.585	10827.11
260.655	10815.74
260.725	10807.64
260.795	10805.24
260.865	10802.49
260.934	10779.55
261.004	10768.47
261.074	10756.47
261.144	10753.19
261.214	10739.07
261.284	10723.56
261.354	10717.2
261.424	10691.66
261.494	10693.25
261.564	10674.94
261.634	10669.93
261.703	10628.39
261.773	10615.33
261.843	10606.81
261.913	10584.26
261.983	10557.85
262.053	10540.31
262.123	10519.55
262.192	10491.36
262.262	10484.28
