Data from 20250625_urea_1M_1_MAYP1162681_10-35-06-322.txt Node
Date: Thu Jun 26 10:35:06 BST 2025
User: adleo
Spectrometer: MAYP116268
Trigger mode: 0
Integration Time (sec): 1.000000E0
Scans to average: 1
Electric dark correction enabled: true
Nonlinearity correction enabled: true
Boxcar width: 10
XAxis mode: Wavelengths
Number of Pixels in Spectrum: 2068
>>>>>Begin Spectral Data<<<<<
179.565	1129.51
179.642	1180.2
179.718	1217.34
179.795	1256.01
179.871	1289.06
179.948	1304.64
180.024	1324.95
180.101	1345.34
180.177	1356.55
180.254	1379.7
180.33	1400.46
180.407	1447.93
180.483	1537.86
180.56	1621.1
180.636	1700.52
180.712	1688.16
180.789	1695.72
180.865	1707.55
180.942	1714.48
181.018	1724.08
181.095	1738.2
181.171	1743.9
181.248	1744.37
181.324	1760.3
181.4	1763.96
181.477	1773.27
181.553	1784.91
181.63	1804.73
181.706	1821.75
181.782	1832.54
181.859	1830.35
181.935	1836.81
182.011	1834.82
182.088	1849.7
182.164	1870.76
182.24	1882.17
182.317	1891.91
182.393	1887.87
182.469	1898.47
182.546	1910.31
182.622	1915.53
182.698	1910.83
182.775	1925.57
182.851	1938.02
182.927	1932.74
183.003	1929.51
183.08	1923.43
183.156	1933.84
183.232	1929.18
183.308	1919.38
183.385	1926.85
183.461	1941.77
183.537	1940.44
183.613	1953.47
183.69	1944.15
183.766	1930.03
183.842	1937.21
183.918	1944.58
183.995	1956.75
184.071	1964.69
184.147	1958.17
184.223	1948.24
184.299	1957.75
184.375	1944.2
184.452	1950.48
184.528	2005.57
184.604	2015.88
184.68	2027.34
184.756	2034.57
184.832	2040.09
184.908	2042.61
184.985	2042.22
185.061	2029.53
185.137	2038.52
185.213	2026.11
185.289	2030.43
185.365	2025.82
185.441	2025.01
185.517	2037.72
185.593	2035.05
185.669	2031.3
185.745	2043.95
185.822	2059.44
185.898	2052.5
185.974	2061.58
186.05	2055.4
186.126	2013.24
186.202	2007.25
186.278	2005.21
186.354	1995.89
186.43	2000.74
186.506	1998.69
186.582	1999.5
186.658	2004.54
186.734	1986.95
186.81	1989.76
186.886	1991.32
186.962	2003.02
187.038	1999.03
187.114	1989.99
187.19	1998.07
187.266	1988.66
187.341	1988.85
187.417	1981.53
187.493	1982.29
187.569	1985.38
187.645	1979.86
187.721	1967.69
187.797	1977.67
187.873	1979.81
187.949	1974.2
188.025	1967.83
188.101	1970.97
188.176	1970.49
188.252	1969.3
188.328	1976.29
188.404	1974.48
188.48	1968.26
188.556	1959.65
188.632	1958.94
188.707	1957.51
188.783	1955.32
188.859	1950.24
188.935	1939.16
189.011	1947.95
189.086	1942.06
189.162	1935.26
189.238	1933.31
189.314	1931.36
189.39	1923.32
189.465	1918
189.541	1933.59
189.617	1920.33
189.693	1915.77
189.768	1922.76
189.844	1942.26
189.92	1932.8
189.996	1941.17
190.071	1951.34
190.147	1954.29
190.223	1964.47
190.298	1959.67
190.374	1946.5
190.45	1954.86
190.526	1961.57
190.601	1954.72
190.677	1955.48
190.753	1981.46
190.828	1985.45
190.904	1999.1
190.98	2012.79
191.055	2022.97
191.131	2015.6
191.207	2034.52
191.282	2043.51
191.358	2030.62
191.433	2019.02
191.509	2033.51
191.585	2030.85
191.66	2032.9
191.736	2039.17
191.811	2028.47
191.887	2040.46
191.963	2062.05
192.038	2068.47
192.114	2070.51
192.189	2076.41
192.265	2074.46
192.34	2051.95
192.416	2050.19
192.491	2045.58
192.567	2051.34
192.642	2050.48
192.718	2048.15
192.793	2037.26
192.869	2032.32
192.944	2037.16
193.02	2044.54
193.095	2048.01
193.171	2052.29
193.246	2053.67
193.322	2050.86
193.397	2054.33
193.473	2047.91
193.548	2032.45
193.624	2039.83
193.699	2037.54
193.775	2053.53
193.85	2053.1
193.925	2060.28
194.001	2058.67
194.076	2053.53
194.152	2041.21
194.227	2035.12
194.302	2027.28
194.378	2030.89
194.453	2027.57
194.529	2040.5
194.604	2025.57
194.679	2021.86
194.755	2006.6
194.83	2014.69
194.905	2013.64
194.981	2019.87
195.056	2008.84
195.131	2014.26
195.207	2011.02
195.282	2005.7
195.357	1982.44
195.433	1997.03
195.508	1987.14
195.583	1997.98
195.659	2013.11
195.734	2017.58
195.809	2018.86
195.884	2028.99
195.96	2026.04
196.035	2043.45
196.11	2040.26
196.185	2051.77
196.261	2053.48
196.336	2083.02
196.411	2069.22
196.486	2073.36
196.561	2065.8
196.637	2075.5
196.712	2089.63
196.787	2093.53
196.862	2106.46
196.937	2119.02
197.013	2126.06
197.088	2138
197.163	2156.61
197.238	2171.7
197.313	2173.6
197.388	2185.83
197.464	2215.48
197.539	2229.22
197.614	2222.14
197.689	2231.13
197.764	2245.55
197.839	2263.49
197.914	2258.44
197.989	2281.14
198.065	2294.51
198.14	2346.8
198.215	2371.16
198.29	2383.4
198.365	2396.21
198.44	2403.49
198.515	2429
198.59	2442.05
198.665	2463.33
198.74	2471.52
198.815	2470.57
198.89	2493.94
198.965	2520.66
199.04	2514.47
199.115	2530.99
199.19	2570.99
199.265	2575.84
199.34	2588.7
199.415	2619.91
199.49	2641
199.565	2646.53
199.64	2671.68
199.715	2667.29
199.79	2675.15
199.865	2680.3
199.94	2678.77
200.015	2710.93
200.09	2716.12
200.165	2724.32
200.24	2733.18
200.315	2772.38
200.39	2788.24
200.464	2792.15
200.539	2796.3
200.614	2812.73
200.689	2833.22
200.764	2842.14
200.839	2860.38
200.914	2860.72
200.989	2849.32
201.063	2860.28
201.138	2848.9
201.213	2845.9
201.288	2824.56
201.363	2827.32
201.438	2827.37
201.512	2842.47
201.587	2825.97
201.662	2833.12
201.737	2843.94
201.812	2850.57
201.886	2816.13
201.961	2826.1
202.036	2813.48
202.111	2811.38
202.186	2783.23
202.26	2765.69
202.335	2744.15
202.41	2735.77
202.485	2722.76
202.559	2709.23
202.634	2684.32
202.709	2694.27
202.784	2675.98
202.858	2679.6
202.933	2662.5
203.008	2656.11
203.082	2636.78
203.157	2637.78
203.232	2593.73
203.306	2571.1
203.381	2540.85
203.456	2517.19
203.53	2493.17
203.605	2476.84
203.68	2452.88
203.754	2446.08
203.829	2434.51
203.904	2414.7
203.978	2404.08
204.053	2407.46
204.127	2393.66
204.202	2391.33
204.277	2374.09
204.351	2368.52
204.426	2360.9
204.5	2353.76
204.575	2323.83
204.65	2336.02
204.724	2326.54
204.799	2335.87
204.873	2335.68
204.948	2335.01
205.022	2326.83
205.097	2320.02
205.171	2333.72
205.246	2340.53
205.32	2340.06
205.395	2342.01
205.469	2331.88
205.544	2336.31
205.618	2319.6
205.693	2329.36
205.767	2317.55
205.842	2334.69
205.916	2328.32
205.991	2315.85
206.065	2320.8
206.14	2334.68
206.214	2327.49
206.289	2322.35
206.363	2332.87
206.438	2334.49
206.512	2343.11
206.586	2361.71
206.661	2370
206.735	2349.68
206.81	2349.78
206.884	2367.24
206.958	2351.73
207.033	2367.14
207.107	2377.1
207.181	2406.81
207.256	2400.34
207.33	2420.66
207.405	2434.9
207.479	2453.85
207.553	2464.46
207.628	2450.05
207.702	2459.95
207.776	2457.28
207.851	2459.04
207.925	2473.71
207.999	2469.95
208.073	2460.48
208.148	2462.29
208.222	2449.52
208.296	2478.46
208.371	2494.28
208.445	2502.66
208.519	2532.42
208.593	2546.32
208.668	2540.17
208.742	2544.23
208.816	2546.7
208.89	2558.52
208.965	2557.9
209.039	2567.71
209.113	2584.67
209.187	2604.27
209.261	2604.94
209.336	2623.85
209.41	2642.71
209.484	2645.33
209.558	2674.11
209.632	2694.59
209.707	2707.5
209.781	2732.5
209.855	2748.75
209.929	2768.07
210.003	2777.41
210.077	2781.08
210.151	2829.96
210.226	2870.68
210.3	2898.2
210.374	2927.79
210.448	2942.71
210.522	2960.54
210.596	2975.32
210.67	2993.87
210.744	3052.15
210.818	3091.23
210.892	3118.27
210.966	3127.33
211.041	3155.18
211.115	3162.19
211.189	3205.26
211.263	3241.13
211.337	3269.37
211.411	3305.16
211.485	3320.29
211.559	3353.83
211.633	3379.1
211.707	3376.67
211.781	3409.63
211.855	3409.86
211.929	3434.82
212.003	3446.7
212.077	3483.51
212.151	3534.94
212.225	3579.88
212.299	3604.06
212.373	3631.7
212.447	3674.65
212.52	3746.73
212.594	3794.9
212.668	3853.51
212.742	3885.15
212.816	3926.2
212.89	3974.47
212.964	4028.79
213.038	4091.1
213.112	4164.99
213.186	4237.46
213.26	4276.89
213.333	4293.25
213.407	4364.25
213.481	4436.07
213.555	4514.82
213.629	4582.5
213.703	4634.05
213.777	4706.87
213.85	4764.47
213.924	4872.03
213.998	4948.57
214.072	5016.31
214.146	5086.83
214.219	5174.71
214.293	5258.88
214.367	5350.51
214.441	5445.42
214.515	5520.07
214.588	5584.46
214.662	5639.65
214.736	5712.05
214.81	5819.23
214.883	5923.06
214.957	6003.78
215.031	6079.89
215.105	6156.54
215.178	6237.6
215.252	6331.23
215.326	6403.91
215.4	6479.11
215.473	6536.7
215.547	6618.68
215.621	6708.36
215.694	6813.96
215.768	6886.12
215.842	6969.28
215.915	7053.57
215.989	7126.23
216.063	7213.32
216.136	7313.48
216.21	7410.66
216.284	7518.29
216.357	7607.82
216.431	7707.2
216.504	7807.31
216.578	7931.87
216.652	8038.66
216.725	8135.21
216.799	8243.99
216.873	8344.34
216.946	8456.43
217.02	8547.55
217.093	8639.66
217.167	8717.63
217.24	8798.93
217.314	8887.54
217.387	8976.62
217.461	9064.48
217.535	9171.98
217.608	9262.79
217.682	9360.54
217.755	9470.71
217.829	9559.71
217.902	9657.71
217.976	9749.02
218.049	9840.92
218.123	9918.42
218.196	10016.44
218.27	10109.46
218.343	10184.76
218.417	10282.8
218.49	10373.03
218.563	10482.44
218.637	10575.67
218.71	10688.76
218.784	10785.61
218.857	10891.09
218.931	10987.31
219.004	11088.55
219.077	11189.52
219.151	11280.31
219.224	11367.2
219.298	11445.81
219.371	11548.85
219.444	11624.91
219.518	11709.83
219.591	11799.81
219.665	11913.18
219.738	11998.54
219.811	12069.54
219.885	12162.13
219.958	12248.94
220.031	12324.57
220.105	12406.9
220.178	12489.57
220.251	12559.18
220.325	12644.11
220.398	12724.18
220.471	12807.72
220.544	12878.2
220.618	12929.54
220.691	13008.98
220.764	13086.2
220.838	13165.45
220.911	13224.31
220.984	13314.41
221.057	13395.01
221.131	13464.86
221.204	13504.01
221.277	13594.25
221.35	13697.6
221.424	13759.64
221.497	13825.98
221.57	13900.94
221.643	13972.57
221.716	14048.4
221.79	14114.15
221.863	14172.72
221.936	14228.25
222.009	14288.85
222.082	14365.01
222.155	14432.45
222.229	14506.93
222.302	14559.81
222.375	14611.73
222.448	14675.5
222.521	14732.53
222.594	14785.65
222.667	14840.36
222.74	14903.22
222.814	14954.46
222.887	14995.14
222.96	15060.31
223.033	15124.76
223.106	15177.35
223.179	15236.54
223.252	15285.13
223.325	15338.97
223.398	15390.21
223.471	15451.23
223.544	15495.14
223.617	15542.24
223.69	15595.93
223.763	15625.86
223.837	15676.38
223.91	15733.98
223.983	15772.15
224.056	15804.59
224.129	15852.36
224.202	15904.27
224.275	15943.31
224.348	15961.77
224.42	15988.72
224.493	16007.13
224.566	16035.52
224.639	16078.41
224.712	16100.44
224.785	16124.25
224.858	16154.66
224.931	16184.35
225.004	16199.44
225.077	16240.89
225.15	16246.91
225.223	16271.59
225.296	16325.81
225.369	16346.97
225.442	16368.18
225.514	16396.95
225.587	16434.93
225.66	16467.03
225.733	16492.53
225.806	16529.93
225.879	16568.87
225.952	16593.88
226.025	16651.38
226.097	16703.77
226.17	16724.49
226.243	16743.53
226.316	16783.72
226.389	16812.06
226.461	16848.98
226.534	16888.02
226.607	16909.71
226.68	16964.26
226.753	16993.52
226.825	17005.81
226.898	17046.24
226.971	17074.05
227.044	17102.97
227.117	17125.04
227.189	17153.09
227.262	17191.69
227.335	17218.25
227.407	17239.16
227.48	17279.74
227.553	17291.69
227.626	17292.27
227.698	17326.25
227.771	17349.62
227.844	17356.27
227.916	17384.76
227.989	17387.36
228.062	17397.72
228.134	17440.56
228.207	17452.18
228.28	17466.2
228.352	17480.13
228.425	17499.26
228.498	17524.61
228.57	17532.71
228.643	17569.33
228.716	17583.6
228.788	17583.89
228.861	17591.84
228.934	17622.78
229.006	17631.84
229.079	17648.56
229.151	17666.3
229.224	17664.17
229.296	17681.52
229.369	17722.87
229.442	17741.62
229.514	17759.16
229.587	17797.09
229.659	17787.26
229.732	17804.61
229.804	17825.76
229.877	17867.98
229.949	17886.68
230.022	17914.72
230.094	17934.53
230.167	17941.32
230.239	17945.57
230.312	17968.6
230.384	18005.23
230.457	18016.89
230.529	18037.18
230.602	18042.62
230.674	18054.57
230.747	18079.39
230.819	18105.56
230.892	18090.81
230.964	18106.62
231.037	18118.62
231.109	18120.5
231.181	18141.41
231.254	18137.22
231.326	18147.58
231.399	18149.61
231.471	18158.57
231.544	18149.32
231.616	18159.92
231.688	18166.04
231.761	18166.14
231.833	18169.03
231.905	18147.73
231.978	18153.99
232.05	18149.75
232.122	18160.45
232.195	18160.88
232.267	18178.42
232.339	18180.01
232.412	18196.74
232.484	18196.5
232.556	18186.42
232.629	18214.71
232.701	18227.29
232.773	18231.77
232.846	18226.08
232.918	18217.51
232.99	18211.82
233.062	18217.27
233.135	18226.86
233.207	18210.47
233.279	18218.13
233.351	18213.36
233.424	18210.33
233.496	18185.51
233.568	18200.69
233.64	18184.16
233.713	18175.58
233.785	18168.83
233.857	18163
233.929	18141.94
234.001	18153.89
234.074	18170.42
234.146	18132.11
234.218	18117.8
234.29	18111.15
234.362	18105.75
234.434	18088.02
234.507	18068.55
234.579	18033.9
234.651	18014.86
234.723	18008.84
234.795	18007.44
234.867	17995.15
234.939	17999.11
235.012	17996.36
235.084	17981.56
235.156	17969.9
235.228	17949.57
235.3	17929.57
235.372	17918.19
235.444	17916.94
235.516	17875.26
235.588	17867.06
235.66	17862.2
235.732	17842.34
235.804	17878.15
235.876	17875.21
235.948	17874.82
236.02	17862.34
236.092	17858.63
236.164	17853.23
236.236	17839.5
236.308	17821.57
236.38	17820.65
236.452	17792.03
236.524	17779.3
236.596	17778.53
236.668	17775.74
236.74	17770.63
236.812	17757.18
236.884	17743.69
236.956	17736.94
237.028	17712.41
237.1	17677.47
237.172	17674.15
237.244	17676.61
237.316	17627.36
237.388	17596.75
237.46	17563.89
237.532	17563.89
237.604	17546.59
237.675	17533.77
237.747	17532.56
237.819	17501.48
237.891	17479.26
237.963	17463.94
238.035	17443.12
238.107	17389.77
238.178	17389.91
238.25	17367.74
238.322	17359.65
238.394	17325.72
238.466	17294.73
238.538	17280.03
238.609	17272.22
238.681	17233.43
238.753	17200.27
238.825	17186.78
238.897	17172.85
238.968	17173.19
239.04	17146.15
239.112	17148.46
239.184	17118.05
239.255	17091.55
239.327	17084.8
239.399	17056.65
239.471	17034.68
239.542	17016.46
239.614	17011.25
239.686	16963.01
239.758	16951.16
239.829	16926.58
239.901	16919.4
239.973	16905.18
240.044	16903.44
240.116	16876.5
240.188	16850.43
240.259	16830.33
240.331	16791.44
240.403	16775.68
240.474	16743.82
240.546	16702.76
240.618	16652.2
240.689	16621.26
240.761	16598.75
240.833	16581.11
240.904	16558.17
240.976	16536.19
241.048	16514.02
241.119	16499.27
241.191	16477.05
241.262	16469.01
241.334	16434.64
241.405	16401.24
241.477	16361.29
241.549	16320.17
241.62	16299.16
241.692	16284.27
241.763	16266.29
241.835	16237.42
241.906	16205.17
241.978	16152.4
242.049	16150.28
242.121	16146.42
242.192	16143.24
242.264	16096.25
242.335	16050.36
242.407	16030.98
242.478	15998.74
242.55	15975.07
242.621	15937.48
242.693	15909.28
242.764	15875.01
242.836	15852.89
242.907	15835.73
242.979	15822.04
243.05	15795.34
243.122	15771.38
243.193	15740.15
243.264	15695.76
243.336	15678.02
243.407	15666.02
243.479	15665.92
243.55	15642.21
243.622	15617.87
243.693	15582.73
243.764	15579.74
243.836	15547.97
243.907	15517.51
243.978	15498.81
244.05	15477.22
244.121	15438.32
244.192	15425.3
244.264	15376.09
244.335	15340.56
244.407	15295.54
244.478	15269.42
244.549	15250.33
244.62	15209.31
244.692	15183.23
244.763	15163.23
244.834	15130.11
244.906	15095.21
244.977	15076.85
245.048	15059.5
245.119	15026.19
245.191	14985.26
245.262	14938.84
245.333	14927.03
245.405	14900.81
245.476	14875.07
245.547	14848.41
245.618	14829.47
245.689	14800.02
245.761	14782.18
245.832	14759.62
245.903	14748.82
245.974	14728.43
246.045	14700.33
246.117	14701.73
246.188	14666.78
246.259	14632.6
246.33	14603.73
246.401	14571.96
246.473	14535.81
246.544	14499.61
246.615	14478.4
246.686	14456.41
246.757	14445.57
246.828	14414.81
246.899	14406.47
246.97	14366.08
247.042	14333.68
247.113	14311.12
247.184	14301.05
247.255	14275.31
247.326	14250.87
247.397	14222.18
247.468	14197.89
247.539	14174.46
247.61	14122.06
247.681	14106.2
247.752	14091.83
247.823	14060.93
247.894	14035
247.965	13992.63
248.037	13972.67
248.108	13933.14
248.179	13907.88
248.25	13887.01
248.321	13870.47
248.392	13836.44
248.463	13835.81
248.534	13805.2
248.605	13793.58
248.675	13767.84
248.746	13748.27
248.817	13738.48
248.888	13718.09
248.959	13676.2
249.03	13655.23
249.101	13645.06
249.172	13611.27
249.243	13579.16
249.314	13574.15
249.385	13561.66
249.456	13548.31
249.527	13515.14
249.598	13499.23
249.669	13474.41
249.739	13446.54
249.81	13425.24
249.881	13382.86
249.952	13358.76
250.023	13342.95
250.094	13315.57
250.165	13283.36
250.235	13258.34
250.306	13229.18
250.377	13201.65
250.448	13184.01
250.519	13141.01
250.59	13129.06
250.66	13110.88
250.731	13107.27
250.802	13081.38
250.873	13061.08
250.944	13046.57
251.014	13025.99
251.085	13026.86
251.156	13010.52
251.227	13004.54
251.297	13001.69
251.368	12996.97
251.439	12989.69
251.51	12982.75
251.58	12944.91
251.651	12921.43
251.722	12913.28
251.792	12877.85
251.863	12849.08
251.934	12849.61
252.005	12860.89
252.075	12843.68
252.146	12831.53
252.217	12811.96
252.287	12803.62
252.358	12782.21
252.429	12778.16
252.499	12752.91
252.57	12737.86
252.641	12725.62
252.711	12708.89
252.782	12670.33
252.852	12667.34
252.923	12640.35
252.994	12620.1
253.064	12615.37
253.135	12585.73
253.205	12559.31
253.276	12552.18
253.347	12551.41
253.417	12519.98
253.488	12493.03
253.558	12465.07
253.629	12445.65
253.699	12427.72
253.77	12411.9
253.841	12387.27
253.911	12367.8
253.982	12352.52
254.052	12335.69
254.123	12323.98
254.193	12303.4
254.264	12321.33
254.334	12291.35
254.405	12260.64
254.475	12234.76
254.546	12209.55
254.616	12199.04
254.687	12183.95
254.757	12177.59
254.827	12161.54
254.898	12148.04
254.968	12134.11
255.039	12113.43
255.109	12098.59
255.18	12072.7
255.25	12035.39
255.321	12025.51
255.391	11992.25
255.461	11989.89
255.532	11945.06
255.602	11920.14
255.673	11877.68
255.743	11849.09
255.813	11809.48
255.884	11808.99
255.954	11797.38
256.024	11796.94
256.095	11789.62
256.165	11754.72
256.235	11735.15
256.306	11711.68
256.376	11701.7
256.446	11685.02
256.517	11665.7
256.587	11665.94
256.657	11653.21
256.728	11642.27
256.798	11623.09
256.868	11606.08
256.938	11579.71
257.009	11578.46
257.079	11566.75
257.149	11584.53
257.219	11546.07
257.29	11537.25
257.36	11492.91
257.43	11487.66
257.5	11452.33
257.571	11422.98
257.641	11423.65
257.711	11400.76
257.781	11389.15
257.852	11377.24
257.922	11340.32
257.992	11325.24
258.062	11302.44
258.132	11288.47
258.202	11272.32
258.273	11262.01
258.343	11264.18
258.413	11242.39
258.483	11217.28
258.553	11189.04
258.623	11154.68
258.693	11139.98
258.764	11133.62
258.834	11140.08
258.904	11123.55
258.974	11095.94
259.044	11086.59
259.114	11071.36
259.184	11054.49
259.254	11029.09
259.324	10994.11
259.394	10983.94
259.464	10982.45
259.535	10961.15
259.605	10943.89
259.675	10912.62
259.745	10899.37
259.815	10863.56
259.885	10835.62
259.955	10841.93
260.025	10818.13
260.095	10799.91
260.165	10789.99
260.235	10787.53
260.305	10759.97
260.375	10725.51
260.445	10736.01
260.515	10732.83
260.585	10729.75
260.655	10712.02
260.725	10707.83
260.795	10703.44
260.865	10710.91
260.934	10681.85
261.004	10677.37
261.074	10660.65
261.144	10656.41
261.214	10646.34
261.284	10632.47
261.354	10632.37
261.424	10609.58
261.494	10616.08
261.564	10598.69
261.634	10590.16
261.703	10565.58
261.773	10551.47
261.843	10546.84
261.913	10531.13
261.983	10502.18
262.053	10487.53
262.123	10469.27
262.192	10437.47
262.262	10429.18
