Data from 20250625_urea_1M_1_MAYP1162681_11-45-05-907.txt Node
Date: Thu Jun 26 11:45:05 BST 2025
User: adleo
Spectrometer: MAYP116268
Trigger mode: 0
Integration Time (sec): 1.000000E0
Scans to average: 1
Electric dark correction enabled: true
Nonlinearity correction enabled: true
Boxcar width: 10
XAxis mode: Wavelengths
Number of Pixels in Spectrum: 2068
>>>>>Begin Spectral Data<<<<<
179.565	1131.14
179.642	1182.37
179.718	1226.88
179.795	1263.67
179.871	1291.96
179.948	1311.42
180.024	1332.99
180.101	1354.99
180.177	1368.11
180.254	1391.04
180.33	1413.69
180.407	1462.78
180.483	1553.76
180.56	1638.61
180.636	1718.08
180.712	1706.24
180.789	1712.09
180.865	1723.72
180.942	1731.37
181.018	1742.06
181.095	1756.85
181.171	1762.31
181.248	1765.12
181.324	1777.05
181.4	1781.23
181.477	1794.4
181.553	1804.56
181.63	1822.72
181.706	1836.55
181.782	1846.77
181.859	1845.72
181.935	1847.39
182.011	1845.01
182.088	1858.94
182.164	1876.58
182.24	1887.08
182.317	1897.25
182.393	1896.45
182.469	1908.85
182.546	1923.78
182.622	1928.25
182.698	1922.69
182.775	1936.28
182.851	1947.41
182.927	1943.51
183.003	1943.13
183.08	1936.81
183.156	1945.08
183.232	1942.41
183.308	1930.15
183.385	1933.14
183.461	1948.31
183.537	1948.55
183.613	1960.34
183.69	1954.64
183.766	1943.51
183.842	1952.64
183.918	1960.29
183.995	1971.7
184.071	1975.22
184.147	1970.89
184.223	1960.1
184.299	1970.19
184.375	1959.06
184.452	1967.1
184.528	2018.09
184.604	2028.5
184.68	2042.01
184.756	2049.43
184.832	2054.23
184.908	2060.46
184.985	2062.69
185.061	2047.29
185.137	2057.89
185.213	2047.81
185.289	2048.19
185.365	2043.06
185.441	2041.01
185.517	2048.34
185.593	2047.34
185.669	2047.81
185.745	2058.47
185.822	2072.87
185.898	2067.59
185.974	2073.49
186.05	2065.21
186.126	2027.15
186.202	2018.59
186.278	2012.98
186.354	2003.99
186.43	2008.61
186.506	2006.71
186.582	2006.23
186.658	2014.27
186.734	1995.39
186.81	1997.44
186.886	1998.91
186.962	2010.23
187.038	2005.38
187.114	2000.66
187.19	2004.95
187.266	1995.53
187.341	1996.15
187.417	1990.21
187.493	1987.16
187.569	1991.73
187.645	1986.26
187.721	1972.56
187.797	1981.12
187.873	1984.16
187.949	1976.27
188.025	1970.85
188.101	1974.65
188.176	1977.27
188.252	1972.94
188.328	1984.16
188.404	1983.45
188.48	1979.12
188.556	1970.18
188.632	1973.32
188.707	1970.51
188.783	1972.22
188.859	1966.85
188.935	1953.54
189.011	1960.57
189.086	1955.91
189.162	1948.88
189.238	1946.22
189.314	1947.88
189.39	1940.37
189.465	1935.09
189.541	1951.83
189.617	1938.56
189.693	1932.71
189.768	1935.66
189.844	1956.02
189.92	1943.9
189.996	1950.27
190.071	1962.35
190.147	1963.82
190.223	1970.29
190.298	1963.16
190.374	1948.94
190.45	1959.54
190.526	1968.53
190.601	1963.01
190.677	1965.91
190.753	1992.27
190.828	1996.26
190.904	2007.58
190.98	2023.42
191.055	2031.84
191.131	2025.37
191.207	2045.63
191.282	2056.99
191.358	2049.43
191.433	2038.2
191.509	2052.37
191.585	2049.32
191.66	2050.13
191.736	2062.78
191.811	2055.41
191.887	2069.92
191.963	2094.03
192.038	2097.27
192.114	2097.46
192.189	2102.21
192.265	2097.17
192.34	2076.66
192.416	2076.24
192.491	2073.29
192.567	2076.29
192.642	2078.24
192.718	2078.47
192.793	2066.82
192.869	2058.31
192.944	2060.31
193.02	2064.44
193.095	2065.78
193.171	2074.05
193.246	2074.24
193.322	2068.82
193.397	2067.96
193.473	2057.64
193.548	2039.13
193.624	2047.37
193.699	2043.85
193.775	2059.59
193.85	2062.83
193.925	2069.58
194.001	2066.39
194.076	2058.17
194.152	2046.89
194.227	2039.04
194.302	2031.01
194.378	2033.82
194.453	2035.72
194.529	2049.22
194.604	2036.91
194.679	2035.48
194.755	2014.28
194.83	2024.22
194.905	2018.18
194.981	2026.08
195.056	2019.61
195.131	2025.03
195.207	2020.32
195.282	2012.81
195.357	1993.88
195.433	2009.14
195.508	1997.92
195.583	2008.19
195.659	2023.46
195.734	2028.83
195.809	2030.88
195.884	2037.91
195.96	2037.29
196.035	2051.23
196.11	2045.57
196.185	2055.17
196.261	2056.65
196.336	2087.94
196.411	2072.57
196.486	2080.04
196.561	2075.57
196.637	2081.84
196.712	2097.45
196.787	2101.78
196.862	2116.71
196.937	2126.18
197.013	2131.7
197.088	2139.35
197.163	2159.3
197.238	2174.91
197.313	2175.67
197.388	2191.61
197.464	2219.5
197.539	2229.77
197.614	2222.5
197.689	2236.58
197.764	2256.24
197.839	2274.6
197.914	2267.94
197.989	2292.26
198.065	2306.3
198.14	2353.34
198.215	2379.66
198.29	2393.04
198.365	2407.7
198.44	2417.08
198.515	2444.64
198.59	2459.17
198.665	2487.92
198.74	2494.06
198.815	2494.87
198.89	2516.58
198.965	2542.21
199.04	2541.11
199.115	2558.82
199.19	2600.01
199.265	2601.68
199.34	2610.58
199.415	2646.09
199.49	2668.32
199.565	2676.13
199.64	2700.9
199.715	2699.9
199.79	2710.15
199.865	2711.67
199.94	2709.1
200.015	2741.12
200.09	2746.12
200.165	2750.93
200.24	2757.03
200.315	2795.32
200.39	2811.52
200.464	2822.24
200.539	2821.96
200.614	2837.01
200.689	2856.69
200.764	2863.99
200.839	2881.52
200.914	2885.09
200.989	2870.74
201.063	2883.75
201.138	2866.7
201.213	2863.27
201.288	2844.54
201.363	2846.11
201.438	2847.97
201.512	2861.17
201.587	2841.29
201.662	2844.15
201.737	2854.78
201.812	2862.41
201.886	2834.65
201.961	2844.09
202.036	2829.89
202.111	2829.32
202.186	2799.94
202.26	2784.54
202.335	2763.95
202.41	2760.85
202.485	2749.56
202.559	2733.22
202.634	2709.88
202.709	2722.3
202.784	2702.96
202.858	2703.39
202.933	2684.77
203.008	2680.29
203.082	2662.57
203.157	2663.62
203.232	2621.96
203.306	2603.38
203.381	2570.75
203.456	2543.36
203.53	2515.43
203.605	2496.96
203.68	2473.76
203.754	2469.2
203.829	2454.53
203.904	2434.91
203.978	2421.1
204.053	2421.91
204.127	2406.78
204.202	2404.16
204.277	2385.64
204.351	2383.54
204.426	2376.02
204.5	2369.55
204.575	2337.8
204.65	2347.99
204.724	2339.61
204.799	2347.69
204.873	2342.6
204.948	2341.84
205.022	2333.75
205.097	2329.99
205.171	2343.22
205.246	2349.79
205.32	2348.27
205.395	2347.27
205.469	2338.99
205.544	2343.04
205.618	2324.95
205.693	2336.99
205.767	2326.19
205.842	2343.37
205.916	2335.71
205.991	2326.43
206.065	2331.38
206.14	2342.75
206.214	2336.17
206.289	2332.13
206.363	2343.55
206.438	2346.07
206.512	2354.64
206.586	2372.35
206.661	2380.11
206.735	2356.27
206.81	2357.7
206.884	2373.36
206.958	2364.17
207.033	2380.07
207.107	2386.3
207.181	2414.87
207.256	2411.83
207.33	2429.44
207.405	2444.07
207.479	2461.3
207.553	2468.11
207.628	2454.35
207.702	2468.11
207.776	2461.54
207.851	2464.68
207.925	2482.45
207.999	2480.26
208.073	2476.4
208.148	2477.26
208.222	2463.55
208.296	2497.48
208.371	2513.58
208.445	2523.73
208.519	2548.91
208.593	2560.34
208.668	2557.91
208.742	2562.49
208.816	2563.39
208.89	2576.4
208.965	2576.83
209.039	2586.83
209.113	2603.69
209.187	2625.49
209.261	2621.68
209.336	2643.4
209.41	2661.88
209.484	2662.5
209.558	2687.23
209.632	2700.61
209.707	2714.28
209.781	2740.39
209.855	2757.26
209.929	2776.29
210.003	2784.63
210.077	2788.2
210.151	2837.95
210.226	2878.38
210.3	2910.15
210.374	2937.88
210.448	2946.7
210.522	2959.95
210.596	2976.83
210.67	2996.09
210.744	3052.66
210.818	3093.17
210.892	3122.65
210.966	3129.89
211.041	3155.4
211.115	3163.27
211.189	3203.95
211.263	3236.86
211.337	3259.52
211.411	3291.97
211.485	3303.14
211.559	3335.67
211.633	3364.33
211.707	3359.17
211.781	3387.59
211.855	3379.1
211.929	3400.09
212.003	3413.11
212.077	3455.37
212.151	3496.58
212.225	3536.97
212.299	3559.14
212.373	3584.5
212.447	3619.18
212.52	3689.53
212.594	3736.88
212.668	3793.52
212.742	3827.16
212.816	3875.57
212.89	3925.65
212.964	3971.55
213.038	4029.54
213.112	4095.86
213.186	4159.15
213.26	4193.31
213.333	4206.84
213.407	4274.05
213.481	4339.88
213.555	4411.67
213.629	4465.6
213.703	4517.66
213.777	4585.34
213.85	4635.08
213.924	4738.35
213.998	4812.19
214.072	4880.41
214.146	4943.29
214.219	5015.33
214.293	5089.13
214.367	5163.4
214.441	5247.45
214.515	5319.34
214.588	5379.49
214.662	5430.97
214.736	5496.15
214.81	5592.99
214.883	5690.07
214.957	5765.24
215.031	5838.45
215.105	5906.14
215.178	5977.04
215.252	6062.34
215.326	6126.35
215.4	6195.28
215.473	6239.45
215.547	6313.62
215.621	6388.35
215.694	6488.34
215.768	6560.94
215.842	6639.4
215.915	6716.06
215.989	6779.47
216.063	6866.44
216.136	6960.03
216.21	7056.74
216.284	7159.96
216.357	7251.85
216.431	7346.68
216.504	7446.41
216.578	7567.86
216.652	7675.67
216.725	7773.66
216.799	7877.45
216.873	7975.36
216.946	8080.81
217.02	8175.08
217.093	8263.74
217.167	8339.37
217.24	8408.13
217.314	8491.84
217.387	8577.34
217.461	8662.32
217.535	8769.79
217.608	8849.69
217.682	8939.47
217.755	9033.96
217.829	9116.63
217.902	9207.38
217.976	9289.47
218.049	9376.68
218.123	9447.37
218.196	9539.78
218.27	9625.6
218.343	9695.01
218.417	9790.62
218.49	9874.37
218.563	9972.2
218.637	10070.42
218.71	10180.41
218.784	10278.97
218.857	10383.17
218.931	10484.34
219.004	10574.77
219.077	10671.96
219.151	10758.88
219.224	10839.83
219.298	10920.4
219.371	11019.62
219.444	11084.91
219.518	11175.12
219.591	11256.62
219.665	11362.74
219.738	11451.13
219.811	11524.43
219.885	11613.5
219.958	11698.71
220.031	11782.14
220.105	11868.42
220.178	11944.48
220.251	12011.96
220.325	12088.02
220.398	12167.6
220.471	12243.71
220.544	12336.45
220.618	12397.96
220.691	12482.85
220.764	12555.83
220.838	12637.39
220.911	12699.38
220.984	12807.26
221.057	12880.24
221.131	12952.26
221.204	12989.14
221.277	13071.86
221.35	13169.72
221.424	13232.19
221.497	13293.32
221.57	13362.83
221.643	13434.08
221.716	13508.9
221.79	13568.96
221.863	13638.57
221.936	13697.39
222.009	13755.81
222.082	13817.76
222.155	13876.71
222.229	13950.95
222.302	14021.04
222.375	14087.61
222.448	14159.49
222.521	14209.33
222.594	14266.6
222.667	14312.93
222.74	14387.74
222.814	14437.44
222.887	14484.06
222.96	14546.77
223.033	14611.03
223.106	14663.52
223.179	14713.61
223.252	14760.46
223.325	14813.25
223.398	14863.67
223.471	14918.43
223.544	14973.91
223.617	15024.38
223.69	15076.68
223.763	15111.43
223.837	15170.82
223.91	15214.59
223.983	15239.89
224.056	15271.9
224.129	15319.57
224.202	15383
224.275	15417.52
224.348	15447.02
224.42	15482.44
224.493	15505.92
224.566	15538.74
224.639	15582.8
224.712	15618.52
224.785	15647
224.858	15693.28
224.931	15728.37
225.004	15762.88
225.077	15794.64
225.15	15806.21
225.223	15841.83
225.296	15899.47
225.369	15907.86
225.442	15936.25
225.514	15973.8
225.587	16011.25
225.66	16049.08
225.733	16079.79
225.806	16123.12
225.879	16155.46
225.952	16176.57
226.025	16234.21
226.097	16280.1
226.17	16313.06
226.243	16328.15
226.316	16363.19
226.389	16391.53
226.461	16416.11
226.534	16444.45
226.607	16471.01
226.68	16518.77
226.753	16543.69
226.825	16548.41
226.898	16596.37
226.971	16617.67
227.044	16653.48
227.117	16685.29
227.189	16714.35
227.262	16753.53
227.335	16785.29
227.407	16818.11
227.48	16854.12
227.553	16875.32
227.626	16897.73
227.698	16920.48
227.771	16953.88
227.844	16975.08
227.916	16998.6
227.989	17020.39
228.062	17038.61
228.134	17082.46
228.207	17095.81
228.28	17108.63
228.352	17129.5
228.425	17146.61
228.498	17180.05
228.57	17194.85
228.643	17224.73
228.716	17244.73
228.788	17257.94
228.861	17256.2
228.934	17285.69
229.006	17301.98
229.079	17327.24
229.151	17335.24
229.224	17342.32
229.296	17358.08
229.369	17402.8
229.442	17436.15
229.514	17446.9
229.587	17470.66
229.659	17472.59
229.732	17496.06
229.804	17534.42
229.877	17574.13
229.949	17593.84
230.022	17619.38
230.094	17635.28
230.167	17650.66
230.239	17654.66
230.312	17656.83
230.384	17703.81
230.457	17713.93
230.529	17727.67
230.602	17732.97
230.674	17755.18
230.747	17773.69
230.819	17796.29
230.892	17778.17
230.964	17788.82
231.037	17808.87
231.109	17826.75
231.181	17848.05
231.254	17855.04
231.326	17858.07
231.399	17858.65
231.471	17869.5
231.544	17863.86
231.616	17879.71
231.688	17885.01
231.761	17888.48
231.833	17898.12
231.905	17883.95
231.978	17892.97
232.05	17897.83
232.122	17905.64
232.195	17903.9
232.267	17918.94
232.339	17926.84
232.412	17954.46
232.484	17951.61
232.556	17955.95
232.629	17977.73
232.701	17984.19
232.773	17986.02
232.846	17982.22
232.918	17974.84
232.99	17978.99
233.062	17987.52
233.135	17987.66
233.207	17976.53
233.279	17991.03
233.351	17999.08
233.424	17987.47
233.496	17973.64
233.568	17989.93
233.64	17976.43
233.713	17971.13
233.785	17975.32
233.857	17971.03
233.929	17941.69
234.001	17947.85
234.074	17948.38
234.146	17914.94
234.218	17905.11
234.29	17893.06
234.362	17883.28
234.434	17869.93
234.507	17849.11
234.579	17822.61
234.651	17807.04
234.723	17809.88
234.795	17802.94
234.867	17788.2
234.939	17800.92
235.012	17799.47
235.084	17792.58
235.156	17791.38
235.228	17773.93
235.3	17758.41
235.372	17747.19
235.444	17750.9
235.516	17717.26
235.588	17715.19
235.66	17709.98
235.732	17692.3
235.804	17738.9
235.876	17742.9
235.948	17752.25
236.02	17731.52
236.092	17721.55
236.164	17709.21
236.236	17691.47
236.308	17666.41
236.38	17657.55
236.452	17625.55
236.524	17610.66
236.596	17610.32
236.668	17605.79
236.74	17597.5
236.812	17587.33
236.884	17572.49
236.956	17554.9
237.028	17541.4
237.1	17504.92
237.172	17508.97
237.244	17507.62
237.316	17456.2
237.388	17427.91
237.46	17401.79
237.532	17413.17
237.604	17397.89
237.675	17406.85
237.747	17398.85
237.819	17382.08
237.891	17363.81
237.963	17346.27
238.035	17320.34
238.107	17260.34
238.178	17249.84
238.25	17234.99
238.322	17236.49
238.394	17206.51
238.466	17177.59
238.538	17161.45
238.609	17159.67
238.681	17120.58
238.753	17086.99
238.825	17067.38
238.897	17050.89
238.968	17047.71
239.04	17013.88
239.112	17018.36
239.184	16979.86
239.255	16960.87
239.327	16945.64
239.399	16929.73
239.471	16927.13
239.542	16914.65
239.614	16920.38
239.686	16879.61
239.758	16862.79
239.829	16819.13
239.901	16812.62
239.973	16799.8
240.044	16784.96
240.116	16758.06
240.188	16731.84
240.259	16713.72
240.331	16682.11
240.403	16666.49
240.474	16624.71
240.546	16594.92
240.618	16541.57
240.689	16510.05
240.761	16490.82
240.833	16487.3
240.904	16457.03
240.976	16423.39
241.048	16401.17
241.119	16383.29
241.191	16364.4
241.262	16357.74
241.334	16340.44
241.405	16312.39
241.477	16284.44
241.549	16252.05
241.62	16231.51
241.692	16223.42
241.763	16216.81
241.835	16193.58
241.906	16164.42
241.978	16124.95
242.049	16117.91
242.121	16110.25
242.192	16106.34
242.264	16055.01
242.335	16003.92
242.407	15989.56
242.478	15963.43
242.55	15941.89
242.621	15905.93
242.693	15872
242.764	15839.18
242.836	15803.46
242.907	15787.65
242.979	15773.87
243.05	15757.72
243.122	15734.97
243.193	15698.87
243.264	15651.39
243.336	15618.66
243.407	15604.83
243.479	15598.47
243.55	15573.69
243.622	15558.07
243.693	15524.43
243.764	15524.67
243.836	15500.67
243.907	15468.95
243.978	15442.44
244.05	15418
244.121	15375.29
244.192	15362.86
244.264	15329.12
244.335	15309.88
244.407	15261.44
244.478	15240.28
244.549	15210.73
244.62	15173.18
244.692	15145.8
244.763	15130.81
244.834	15110.95
244.906	15079.62
244.977	15060.1
245.048	15044
245.119	15005.48
245.191	14970.49
245.262	14921.37
245.333	14905.85
245.405	14874.76
245.476	14846.7
245.547	14825.64
245.618	14807.61
245.689	14781.77
245.761	14750.2
245.832	14717.71
245.903	14708.6
245.974	14682.52
246.045	14657.36
246.117	14658.08
246.188	14620.19
246.259	14578.73
246.33	14549.33
246.401	14515.87
246.473	14477.5
246.544	14442.02
246.615	14424.96
246.686	14400.52
246.757	14385.91
246.828	14353.42
246.899	14349.71
246.97	14318.14
247.042	14283.52
247.113	14275.09
247.184	14274.75
247.255	14251.37
247.326	14232.86
247.397	14205.19
247.468	14180.89
247.539	14159.44
247.61	14111.86
247.681	14104.15
247.752	14092.63
247.823	14069.59
247.894	14049.77
247.965	14014.49
248.037	13985.95
248.108	13942.66
248.179	13914.31
248.25	13892.33
248.321	13877.34
248.392	13840.51
248.463	13839.6
248.534	13813.56
248.605	13787.34
248.675	13756.78
248.746	13736
248.817	13721.1
248.888	13701.77
248.959	13660.32
249.03	13642
249.101	13620.16
249.172	13591.91
249.243	13550.74
249.314	13539.17
249.385	13522.01
249.456	13510.83
249.527	13482.82
249.598	13475.06
249.669	13456.35
249.739	13440.4
249.81	13413.74
249.881	13382.93
249.952	13357.1
250.023	13330.34
250.094	13298.33
250.165	13262.71
250.235	13243.28
250.306	13219.37
250.377	13184.81
250.448	13166.49
250.519	13124.64
250.59	13118.09
250.66	13092.49
250.731	13092.78
250.802	13059.66
250.873	13036.48
250.944	13013.87
251.014	12992.51
251.085	12992.13
251.156	12980.85
251.227	12971.16
251.297	12965.27
251.368	12954.43
251.439	12938.38
251.51	12941.32
251.58	12912.97
251.651	12888
251.722	12872.43
251.792	12836.71
251.863	12813.47
251.934	12811.5
252.005	12825.57
252.075	12806.2
252.146	12798.43
252.217	12786.34
252.287	12779.54
252.358	12754.33
252.429	12754.71
252.499	12729.79
252.57	12705.88
252.641	12692.19
252.711	12669.53
252.782	12632.75
252.852	12633.33
252.923	12619.74
252.994	12595.68
253.064	12588.65
253.135	12561.36
253.205	12533.93
253.276	12529.45
253.347	12531.96
253.417	12501.06
253.488	12466.3
253.558	12446.01
253.629	12420.22
253.699	12399.68
253.77	12380.74
253.841	12367.44
253.911	12346.71
253.982	12332.83
254.052	12321.79
254.123	12304.58
254.193	12282.07
254.264	12300
254.334	12263.94
254.405	12225.86
254.475	12193.9
254.546	12174.43
254.616	12169.71
254.687	12161.95
254.757	12146.14
254.827	12122.56
254.898	12109.6
254.968	12089.26
255.039	12058.79
255.109	12052.62
255.18	12025.68
255.25	11996.37
255.321	11984.42
255.391	11946.34
255.461	11946.73
255.532	11898.33
255.602	11874.62
255.673	11838.71
255.743	11807.91
255.813	11766.12
255.884	11761.35
255.954	11752.19
256.024	11745.73
256.095	11722.16
256.165	11693.77
256.235	11681.1
256.306	11655.46
256.376	11652.9
256.446	11644.76
256.517	11627.69
256.587	11620.95
256.657	11604.8
256.728	11584.32
256.798	11562.29
256.868	11545.81
256.938	11522.86
257.009	11521.66
257.079	11511.83
257.149	11523.49
257.219	11487.87
257.29	11490.38
257.36	11457.03
257.43	11451.15
257.5	11413.65
257.571	11396.3
257.641	11383.48
257.711	11356.35
257.781	11346.95
257.852	11330.18
257.922	11295.48
257.992	11279.19
258.062	11259.28
258.132	11253.74
258.202	11242.17
258.273	11231.96
258.343	11237.4
258.413	11209.45
258.483	11192.44
258.553	11164.2
258.623	11130.51
258.693	11118.41
258.764	11110.46
258.834	11111.72
258.904	11091.23
258.974	11068.3
259.044	11053.31
259.114	11039.53
259.184	11022.95
259.254	11002.23
259.324	10963.1
259.394	10955.1
259.464	10957.65
259.535	10936.4
259.605	10915.97
259.675	10889.03
259.745	10878.82
259.815	10849.71
259.885	10827.25
259.955	10838.19
260.025	10815.26
260.095	10803.84
260.165	10796.76
260.235	10801.19
260.305	10774.64
260.375	10751.8
260.445	10765.82
260.515	10768.08
260.585	10762.49
260.655	10753.96
260.725	10758.06
260.795	10753.87
260.865	10754.54
260.934	10733.87
261.004	10724.43
261.074	10705.49
261.144	10705.1
261.214	10693.44
261.284	10678.51
261.354	10678.31
261.424	10650.75
261.494	10656.29
261.564	10637.64
261.634	10624.25
261.703	10578.33
261.773	10569.27
261.843	10557.9
261.913	10534.1
261.983	10496.81
262.053	10489.63
262.123	10464.77
262.192	10428.25
262.262	10416.63
262.332	10389.8
