Data from 20250625_urea_1M_1_MAYP1162681_00-55-06-127.txt Node
Date: Thu Jun 26 00:55:06 BST 2025
User: adleo
Spectrometer: MAYP116268
Trigger mode: 0
Integration Time (sec): 1.000000E0
Scans to average: 1
Electric dark correction enabled: true
Nonlinearity correction enabled: true
Boxcar width: 10
XAxis mode: Wavelengths
Number of Pixels in Spectrum: 2068
>>>>>Begin Spectral Data<<<<<
179.565	1130.07
179.642	1180.53
179.718	1215.41
179.795	1249.93
179.871	1281.64
179.948	1300.73
180.024	1320.15
180.101	1342.35
180.177	1353.7
180.254	1374.09
180.33	1394.59
180.407	1443.01
180.483	1531.52
180.56	1616.22
180.636	1694.22
180.712	1682.91
180.789	1688.99
180.865	1701.92
180.942	1711.99
181.018	1722.25
181.095	1733.56
181.171	1736.65
181.248	1739.74
181.324	1758.42
181.4	1765.07
181.477	1776.48
181.553	1785.65
181.63	1805.09
181.706	1820.16
181.782	1831.23
181.859	1831.99
181.935	1839.02
182.011	1837.12
182.088	1855.47
182.164	1872.97
182.24	1885.75
182.317	1894.26
182.393	1893.83
182.469	1904.05
182.546	1915.56
182.622	1921.59
182.698	1921.64
182.775	1935.76
182.851	1947.84
182.927	1938.52
183.003	1937.24
183.08	1930.1
183.156	1940.13
183.232	1937.57
183.308	1928.11
183.385	1934.24
183.461	1949.74
183.537	1951.02
183.613	1960.43
183.69	1950.02
183.766	1941.03
183.842	1948.5
183.918	1954.11
183.995	1965.23
184.071	1969.94
184.147	1962.9
184.223	1950.97
184.299	1958.92
184.375	1947.03
184.452	1952.98
184.528	2009.06
184.604	2018.52
184.68	2030.64
184.756	2038.82
184.832	2042.2
184.908	2045.52
184.985	2047.09
185.061	2034.78
185.137	2041.58
185.213	2031.79
185.289	2032.83
185.365	2026.65
185.441	2026.56
185.517	2040.3
185.593	2037.78
185.669	2033.88
185.745	2046.48
185.822	2060.22
185.898	2053.99
185.974	2062.31
186.05	2056.89
186.126	2015.5
186.202	2007.85
186.278	2003.61
186.354	1993.34
186.43	2001.52
186.506	1999.1
186.582	1994.34
186.658	2000.67
186.734	1980.51
186.81	1984.36
186.886	1986.26
186.962	1995.58
187.038	1990.4
187.114	1981.41
187.19	1987.59
187.266	1980.08
187.341	1977.37
187.417	1970.85
187.493	1970.85
187.569	1976.27
187.645	1967.19
187.721	1958.58
187.797	1965.34
187.873	1969.33
187.949	1963.1
188.025	1955.4
188.101	1956.77
188.176	1960.72
188.252	1956.25
188.328	1966.33
188.404	1964.38
188.48	1959.86
188.556	1952.78
188.632	1953.73
188.707	1954.16
188.783	1951.82
188.859	1948.55
188.935	1939.84
189.011	1948.69
189.086	1942.98
189.162	1935.37
189.238	1934.85
189.314	1931.86
189.39	1926.2
189.465	1918.45
189.541	1935.47
189.617	1922.16
189.693	1919.54
189.768	1926.15
189.844	1944.04
189.92	1935.72
189.996	1946.51
190.071	1959.69
190.147	1960.11
190.223	1967.82
190.298	1961.64
190.374	1949.8
190.45	1958.16
190.526	1967.39
190.601	1963.44
190.677	1963.73
190.753	1989.42
190.828	1990.08
190.904	2004.49
190.98	2021
191.055	2030.6
191.131	2020.66
191.207	2041.49
191.282	2051.05
191.358	2040.02
191.433	2030.12
191.509	2042.67
191.585	2034.35
191.66	2031.92
191.736	2037.87
191.811	2026.88
191.887	2042.29
191.963	2064.41
192.038	2071.26
192.114	2069.92
192.189	2072.25
192.265	2069.69
192.34	2046.32
192.416	2046.8
192.491	2042.19
192.567	2046.9
192.642	2051.8
192.718	2053.89
192.793	2042.33
192.869	2038.34
192.944	2042.66
193.02	2048.47
193.095	2051.89
193.171	2059.93
193.246	2061.54
193.322	2060.45
193.397	2063.63
193.473	2049.46
193.548	2032.86
193.624	2035.66
193.699	2033.48
193.775	2047.99
193.85	2049.6
193.925	2060.3
194.001	2062.44
194.076	2054.36
194.152	2041.18
194.227	2032.29
194.302	2024.2
194.378	2026.3
194.453	2022.35
194.529	2033.1
194.604	2018.59
194.679	2013.17
194.755	1994.16
194.83	2004.43
194.905	2002.77
194.981	2009.57
195.056	2001.96
195.131	2011.38
195.207	2009.86
195.282	2000.49
195.357	1982.94
195.433	1997.87
195.508	1984.22
195.583	1989.31
195.659	2006.58
195.734	2015.23
195.809	2015.76
195.884	2022.08
195.96	2022.17
196.035	2037.77
196.11	2036.35
196.185	2049.42
196.261	2051.04
196.336	2081.33
196.411	2065.82
196.486	2070.39
196.561	2065.49
196.637	2077.57
196.712	2089.61
196.787	2093.65
196.862	2109.53
196.937	2117.62
197.013	2122.28
197.088	2134.55
197.163	2154.49
197.238	2165.68
197.313	2163.3
197.388	2176.24
197.464	2206.6
197.539	2217.4
197.614	2210.26
197.689	2224.49
197.764	2241.44
197.839	2262.85
197.914	2258.94
197.989	2282.55
198.065	2296.11
198.14	2344.68
198.215	2367.81
198.29	2376.62
198.365	2390.99
198.44	2405.51
198.515	2434.26
198.59	2447.88
198.665	2468.73
198.74	2477.63
198.815	2480.92
198.89	2504.1
198.965	2532.68
199.04	2528.92
199.115	2543.82
199.19	2585.15
199.265	2584.34
199.34	2591.15
199.415	2623.79
199.49	2642.98
199.565	2651.55
199.64	2677.85
199.715	2676.22
199.79	2681.42
199.865	2690.32
199.94	2686.28
200.015	2716.06
200.09	2720.54
200.165	2726.16
200.24	2734.16
200.315	2772.98
200.39	2789.7
200.464	2794.13
200.539	2794.75
200.614	2809.71
200.689	2832.4
200.764	2837.69
200.839	2854.36
200.914	2860.65
200.989	2845.96
201.063	2862.5
201.138	2848.22
201.213	2847.07
201.288	2825.92
201.363	2832.87
201.438	2833.11
201.512	2850.11
201.587	2832.62
201.662	2839.72
201.737	2852.92
201.812	2862.74
201.886	2829.93
201.961	2838.08
202.036	2827.7
202.111	2824.6
202.186	2795.88
202.26	2777.06
202.335	2757.04
202.41	2751.52
202.485	2736.8
202.559	2721.6
202.634	2695.02
202.709	2701.97
202.784	2678.96
202.858	2681.01
202.933	2663.48
203.008	2656.38
203.082	2636.23
203.157	2633.33
203.232	2589.66
203.306	2571.98
203.381	2539.35
203.456	2517.88
203.53	2495.14
203.605	2474.1
203.68	2453.19
203.754	2446.06
203.829	2432.67
203.904	2414.97
203.978	2401.92
204.053	2403.73
204.127	2391.35
204.202	2389.16
204.277	2376.02
204.351	2371.69
204.426	2364.26
204.5	2355.98
204.575	2323.53
204.65	2334.53
204.724	2326.19
204.799	2334.66
204.873	2329.32
204.948	2330.94
205.022	2320.24
205.097	2313.24
205.171	2328.37
205.246	2334.56
205.32	2339.93
205.395	2341.51
205.469	2331.8
205.544	2339.9
205.618	2324.52
205.693	2334.42
205.767	2321.38
205.842	2337.57
205.916	2333.67
205.991	2323.91
206.065	2329.72
206.14	2343.13
206.214	2337.51
206.289	2330.46
206.363	2341.74
206.438	2342.84
206.512	2348.27
206.586	2366.73
206.661	2374.87
206.735	2354.08
206.81	2353.89
206.884	2364.65
206.958	2351.32
207.033	2365.88
207.107	2371.17
207.181	2401.88
207.256	2396.65
207.33	2413.83
207.405	2426.88
207.479	2443.73
207.553	2453.78
207.628	2439.5
207.702	2450.45
207.776	2443.55
207.851	2450.78
207.925	2463.26
207.999	2464.02
208.073	2463.31
208.148	2463.93
208.222	2451.31
208.296	2481.29
208.371	2499.92
208.445	2509.2
208.519	2538.2
208.593	2553.01
208.668	2552.01
208.742	2550.15
208.816	2553.29
208.89	2569.34
208.965	2567.77
209.039	2576.73
209.113	2594.25
209.187	2616.15
209.261	2617.01
209.336	2640.34
209.41	2660.07
209.484	2666.79
209.558	2691.18
209.632	2706.8
209.707	2725.15
209.781	2754.11
209.855	2775.61
209.929	2795.93
210.003	2811.65
210.077	2821.28
210.151	2875.8
210.226	2919.39
210.3	2959.46
210.374	2998.21
210.448	3019.04
210.522	3045.75
210.596	3077.32
210.67	3104.51
210.744	3167.29
210.818	3223.32
210.892	3267.26
210.966	3289.2
211.041	3330.52
211.115	3360.05
211.189	3417.03
211.263	3468.1
211.337	3510.3
211.411	3566.93
211.485	3607.73
211.559	3666.31
211.633	3718.82
211.707	3743.58
211.781	3805.26
211.855	3836.18
211.929	3888.91
212.003	3936.54
212.077	4014.18
212.151	4088.82
212.225	4170.15
212.299	4240.36
212.373	4307.08
212.447	4391.2
212.52	4507.28
212.594	4607.04
212.668	4706.3
212.742	4790.37
212.816	4887.15
212.89	4987.8
212.964	5091.02
213.038	5206.04
213.112	5327.16
213.186	5454.43
213.26	5553.2
213.333	5629.43
213.407	5760.41
213.481	5889.25
213.555	6031.76
213.629	6158.52
213.703	6282.82
213.777	6423.4
213.85	6546.95
213.924	6724.62
213.998	6869.61
214.072	7014.89
214.146	7148.24
214.219	7302.8
214.293	7452.74
214.367	7612.45
214.441	7782.13
214.515	7929.58
214.588	8069.98
214.662	8207.61
214.736	8352.31
214.81	8524.41
214.883	8705.92
214.957	8860.78
215.031	9018.2
215.105	9166.58
215.178	9317.71
215.252	9484.01
215.326	9632.66
215.4	9786.9
215.473	9912.67
215.547	10066.48
215.621	10221.52
215.694	10387.24
215.768	10532.83
215.842	10687
215.915	10835.99
215.989	10976.5
216.063	11135.52
216.136	11301.16
216.21	11459.56
216.284	11641.68
216.357	11812.97
216.431	11968.02
216.504	12142.21
216.578	12331.93
216.652	12503.76
216.725	12674.78
216.799	12844.36
216.873	13002.71
216.946	13165.01
217.02	13316.13
217.093	13466.96
217.167	13601.6
217.24	13743.08
217.314	13895.89
217.387	14050.2
217.461	14197.46
217.535	14358.28
217.608	14485.63
217.682	14624.8
217.755	14778.47
217.829	14905.87
217.902	15041.47
217.976	15176.53
218.049	15295.11
218.123	15399.56
218.196	15535.68
218.27	15657.53
218.343	15771.04
218.417	15902.24
218.49	16024.52
218.563	16158.71
218.637	16287.88
218.71	16428.33
218.784	16562.31
218.857	16691
218.931	16807.87
219.004	16917.23
219.077	17033.57
219.151	17158.78
219.224	17270.25
219.298	17377.87
219.371	17494.98
219.444	17587.51
219.518	17699.99
219.591	17811.85
219.665	17941.77
219.738	18038.83
219.811	18116.8
219.885	18214.44
219.958	18311.21
220.031	18400.02
220.105	18490.14
220.178	18577.94
220.251	18651.43
220.325	18729.26
220.398	18807.23
220.471	18888.05
220.544	18974.5
220.618	19040.33
220.691	19117.48
220.764	19186.05
220.838	19264.22
220.911	19327.64
220.984	19420.79
221.057	19487
221.131	19547.38
221.204	19586.61
221.277	19661.45
221.35	19756.48
221.424	19817.25
221.497	19878.16
221.57	19948.33
221.643	20017.82
221.716	20075.55
221.79	20119.6
221.863	20175.26
221.936	20227.07
222.009	20277.72
222.082	20330.68
222.155	20375.26
222.229	20439.16
222.302	20485.28
222.375	20529.23
222.448	20570.68
222.521	20596.95
222.594	20632.71
222.667	20662.68
222.74	20714.2
222.814	20747.6
222.887	20768.13
222.96	20805
223.033	20841.63
223.106	20864.66
223.179	20903.13
223.252	20934.21
223.325	20973.68
223.398	21006.12
223.471	21034.07
223.544	21062.94
223.617	21098.42
223.69	21118.8
223.763	21120.59
223.837	21145.98
223.91	21171.1
223.983	21181.46
224.056	21199.39
224.129	21225.27
224.202	21265.22
224.275	21267.59
224.348	21270.96
224.42	21286.19
224.493	21296.21
224.566	21310.29
224.639	21332.56
224.712	21336.46
224.785	21334.39
224.858	21341.47
224.931	21338.2
225.004	21333.66
225.077	21339.3
225.15	21313.86
225.223	21318.43
225.296	21362.59
225.369	21355.55
225.442	21340.13
225.514	21348.13
225.587	21347.5
225.66	21352.42
225.733	21343.89
225.806	21358.73
225.879	21366.1
225.952	21355.84
226.025	21361
226.097	21373.58
226.17	21368.23
226.243	21340.8
226.316	21341.43
226.389	21344.18
226.461	21366.06
226.534	21373.96
226.607	21378.16
226.68	21399.89
226.753	21412.42
226.825	21381.77
226.898	21389.53
226.971	21394.01
227.044	21390.44
227.117	21388.23
227.189	21388.9
227.262	21390.01
227.335	21383.21
227.407	21366.01
227.48	21380.9
227.553	21380.71
227.626	21368.37
227.698	21367.5
227.771	21367.74
227.844	21362.44
227.916	21359.93
227.989	21328.65
228.062	21323.3
228.134	21325.33
228.207	21316.84
228.28	21287.3
228.352	21275.68
228.425	21281.18
228.498	21274.86
228.57	21267.49
228.643	21269.61
228.716	21254.67
228.788	21243.97
228.861	21231.68
228.934	21242.62
229.006	21222.95
229.079	21209.41
229.151	21178.47
229.224	21152.63
229.296	21147.62
229.369	21155.04
229.442	21150.8
229.514	21133.5
229.587	21128.25
229.659	21100
229.732	21088.87
229.804	21096.29
229.877	21101.79
229.949	21100.24
230.022	21106.9
230.094	21097.55
230.167	21097.31
230.239	21076.73
230.312	21063.04
230.384	21070.65
230.457	21056.34
230.529	21051.33
230.602	21035.37
230.674	21025.01
230.747	21020.87
230.819	21016.29
230.892	20972.48
230.964	20952.14
231.037	20941.73
231.109	20924.72
231.181	20919.46
231.254	20889.1
231.326	20868.18
231.399	20851.46
231.471	20818.59
231.544	20780.71
231.616	20765.87
231.688	20743.41
231.761	20720.61
231.833	20694.39
231.905	20648.8
231.978	20631.31
232.05	20589.81
232.122	20574.05
232.195	20549.86
232.267	20541.09
232.339	20514.68
232.412	20517.23
232.484	20498.77
232.556	20470.68
232.629	20461.28
232.701	20442.87
232.773	20436.75
232.846	20414.92
232.918	20381.91
232.99	20363.02
233.062	20352.99
233.135	20335.98
233.207	20297.52
233.279	20280.17
233.351	20262.78
233.424	20242.2
233.496	20207.16
233.568	20226.73
233.64	20193.48
233.713	20178.34
233.785	20142.25
233.857	20126.68
233.929	20084.56
234.001	20070.06
234.074	20063.94
234.146	20021.58
234.218	20006.88
234.29	19980.28
234.362	19952.9
234.434	19918.54
234.507	19872.76
234.579	19829.63
234.651	19789.97
234.723	19782.12
234.795	19774.98
234.867	19751.76
234.939	19742.55
235.012	19718.94
235.084	19684
235.156	19655.18
235.228	19612.15
235.3	19586.13
235.372	19552.54
235.444	19539.33
235.516	19501.36
235.588	19478.37
235.66	19459.53
235.732	19410.62
235.804	19427.19
235.876	19412.21
235.948	19405.46
236.02	19383.15
236.092	19352.07
236.164	19322.72
236.236	19283.49
236.308	19242.68
236.38	19214.15
236.452	19174.15
236.524	19152.8
236.596	19128.51
236.668	19119.17
236.74	19099.07
236.812	19073.53
236.884	19058.3
236.956	19028.95
237.028	18985.29
237.1	18938.41
237.172	18921.64
237.244	18908.24
237.316	18840.48
237.388	18790.03
237.46	18755.19
237.532	18743.33
237.604	18716.54
237.675	18710.23
237.747	18684.59
237.819	18642.23
237.891	18619.44
237.963	18583.63
238.035	18542.96
238.107	18480.94
238.178	18457.08
238.25	18434.34
238.322	18435.49
238.394	18390.97
238.466	18350.82
238.538	18333.72
238.609	18314.34
238.681	18263.94
238.753	18229.43
238.825	18200.13
238.897	18187.41
238.968	18162.69
239.04	18127.27
239.112	18121.87
239.184	18077.83
239.255	18040.38
239.327	18014.07
239.399	17979.9
239.471	17958.79
239.542	17937.44
239.614	17924.82
239.686	17865.78
239.758	17833.4
239.829	17788.58
239.901	17762.37
239.973	17737.02
240.044	17713.26
240.116	17687.09
240.188	17654.37
240.259	17627.52
240.331	17591.57
240.403	17557.89
240.474	17513.65
240.546	17472.88
240.618	17419.28
240.689	17383.19
240.761	17360.2
240.833	17343.86
240.904	17309.4
240.976	17280.97
241.048	17251.96
241.119	17220.2
241.191	17205.07
241.262	17195.14
241.334	17150.03
241.405	17120.63
241.477	17080.63
241.549	17046.94
241.62	17017.25
241.692	17002.03
241.763	16978.12
241.835	16950.17
241.906	16927.37
241.978	16889.78
242.049	16869.1
242.121	16850.31
242.192	16839.08
242.264	16787.94
242.335	16745.58
242.407	16728.28
242.478	16689.91
242.55	16665.09
242.621	16635.07
242.693	16599.21
242.764	16565.95
242.836	16541.81
242.907	16513.95
242.979	16501.61
243.05	16469.37
243.122	16438.38
243.193	16402.52
243.264	16349.65
243.336	16326.9
243.407	16306.17
243.479	16295.47
243.55	16273.64
243.622	16246.94
243.693	16206.84
243.764	16201.63
243.836	16171.56
243.907	16135.17
243.978	16116.03
244.05	16089.47
244.121	16045.28
244.192	16026.04
244.264	15978.67
244.335	15952.25
244.407	15917.55
244.478	15894.85
244.549	15869.11
244.62	15827.08
244.692	15797.87
244.763	15775.55
244.834	15734.82
244.906	15694.58
244.977	15667.87
245.048	15654.19
245.119	15620.16
245.191	15583.23
245.262	15520.14
245.333	15499.65
245.405	15470.39
245.476	15437.52
245.547	15407.59
245.618	15388.79
245.689	15351.96
245.761	15327.86
245.832	15294.75
245.903	15267.42
245.974	15227.65
246.045	15195.74
246.117	15193.38
246.188	15150.62
246.259	15118.52
246.33	15094.8
246.401	15064.58
246.473	15025.63
246.544	14985.67
246.615	14971.5
246.686	14951.64
246.757	14951.4
246.828	14917.08
246.899	14901.75
246.97	14857.21
247.042	14828.77
247.113	14804.72
247.184	14803.22
247.255	14774.35
247.326	14746.1
247.397	14726.62
247.468	14707.01
247.539	14675.91
247.61	14628
247.681	14616.62
247.752	14610.16
247.823	14569.57
247.894	14543.64
247.965	14498.71
248.037	14469.21
248.108	14423.13
248.179	14394.25
248.25	14368.51
248.321	14342.29
248.392	14310.71
248.463	14314.28
248.534	14284.05
248.605	14272.15
248.675	14248.29
248.746	14234.11
248.817	14223.94
248.888	14195.98
248.959	14154.19
249.03	14137.17
249.101	14117.5
249.172	14086.94
249.243	14025.67
249.314	14020.22
249.385	13995.98
249.456	13975.01
249.527	13946.47
249.598	13930.22
249.669	13905.2
249.739	13886.55
249.81	13873.05
249.881	13836.85
249.952	13807.63
250.023	13787.48
250.094	13744.97
250.165	13701.1
250.235	13673.62
250.306	13649.76
250.377	13619.1
250.448	13597.55
250.519	13559.56
250.59	13550.74
250.66	13523.02
250.731	13535.65
250.802	13507.79
250.873	13491.59
250.944	13478.19
251.014	13449.46
251.085	13455.2
251.156	13433.21
251.227	13423.19
251.297	13412.82
251.368	13394.26
251.439	13381.92
251.51	13368.28
251.58	13344.08
251.651	13318.53
251.722	13307.83
251.792	13263.43
251.863	13240.29
251.934	13237.4
252.005	13242.56
252.075	13225.69
252.146	13212.67
252.217	13193.05
252.287	13180.9
252.358	13153.62
252.429	13158.49
252.499	13139.06
252.57	13119
252.641	13109.7
252.711	13092.73
252.782	13054.89
252.852	13064.48
252.923	13034.88
252.994	13017.67
253.064	13007.26
253.135	12982.87
253.205	12950.96
253.276	12950.09
253.347	12948.07
253.417	12923.82
253.488	12895.62
253.558	12866.84
253.629	12853.92
253.699	12839.94
253.77	12832.81
253.841	12816.32
253.911	12795.06
253.982	12775.73
254.052	12756.88
254.123	12735.96
254.193	12709.4
254.264	12737.55
254.334	12700.72
254.405	12675.75
254.475	12644.76
254.546	12619.11
254.616	12612.75
254.687	12603.11
254.757	12583.83
254.827	12558.71
254.898	12542.51
254.968	12528.92
255.039	12502.7
255.109	12489.35
255.18	12455.99
255.25	12408.94
255.321	12390.38
255.391	12355.87
255.461	12363.63
255.532	12325.16
255.602	12308.82
255.673	12272.96
255.743	12240.18
255.813	12193.71
255.884	12184.8
255.954	12170.72
256.024	12178.77
256.095	12167.68
256.165	12134.04
256.235	12127
256.306	12099.53
256.376	12091.57
256.446	12077.59
256.517	12075.33
256.587	12064.68
256.657	12049.78
256.728	12034.55
256.798	12024.43
256.868	12001.97
256.938	11962.78
257.009	11947.4
257.079	11933.81
257.149	11945.33
257.219	11897.32
257.29	11888.07
257.36	11854.76
257.43	11845.75
257.5	11804.97
257.571	11773.26
257.641	11769.25
257.711	11737.92
257.781	11736.04
257.852	11716.91
257.922	11684.66
257.992	11652.47
258.062	11633.91
258.132	11625.86
258.202	11613.86
258.273	11592.75
258.343	11599.59
258.413	11582.48
258.483	11566.77
258.553	11545.08
258.623	11513.46
258.693	11505.51
258.764	11512.93
258.834	11512.31
258.904	11497.7
258.974	11468.98
259.044	11453.51
259.114	11430.76
259.184	11412.3
259.254	11384.88
259.324	11348.49
259.394	11334.08
259.464	11337.07
259.535	11311.24
259.605	11288.1
259.675	11261.94
259.745	11253.5
259.815	11223.48
259.885	11197.84
259.955	11204.15
260.025	11175.67
260.095	11164.2
260.165	11152.97
260.235	11150.08
260.305	11126.71
260.375	11098.42
260.445	11105.12
260.515	11107.28
260.585	11108.15
260.655	11096.39
260.725	11090.42
260.795	11093.69
260.865	11093.5
260.934	11071.24
261.004	11065.69
261.074	11052.44
261.144	11058.56
261.214	11049.55
261.284	11030.66
261.354	11029.17
261.424	11003.91
261.494	11003.86
261.564	10982.9
261.634	10972.44
261.703	10932.25
261.773	10922.47
261.843	10908.98
261.913	10887.87
261.983	10852.75
262.053	10838.43
262.123	10819.98
262.192	10796.13
262.262	10781.52
