Data from 20250625_urea_1M_1_MAYP1162681_11-55-05-844.txt Node
Date: Thu Jun 26 11:55:05 BST 2025
User: adleo
Spectrometer: MAYP116268
Trigger mode: 0
Integration Time (sec): 1.000000E0
Scans to average: 1
Electric dark correction enabled: true
Nonlinearity correction enabled: true
Boxcar width: 10
XAxis mode: Wavelengths
Number of Pixels in Spectrum: 2068
>>>>>Begin Spectral Data<<<<<
179.565	1129.1
179.642	1181.79
179.718	1220.93
179.795	1260.89
179.871	1290.53
179.948	1311.23
180.024	1330.79
180.101	1351.39
180.177	1365.4
180.254	1387.3
180.33	1408.11
180.407	1457.95
180.483	1547.98
180.56	1631.17
180.636	1712.64
180.712	1702.37
180.789	1712.35
180.865	1726.84
180.942	1736.1
181.018	1747.93
181.095	1765.85
181.171	1769.7
181.248	1771.22
181.324	1787.24
181.4	1791.61
181.477	1801.45
181.553	1809.81
181.63	1829.87
181.706	1842.14
181.782	1850.07
181.859	1849.69
181.935	1855.87
182.011	1850.45
182.088	1866.76
182.164	1886.78
182.24	1896.19
182.317	1903.36
182.393	1899.99
182.469	1911.16
182.546	1924.57
182.622	1926.66
182.698	1921.43
182.775	1934.22
182.851	1947.24
182.927	1939.3
183.003	1935.83
183.08	1930.27
183.156	1940.87
183.232	1934.22
183.308	1928.65
183.385	1937.78
183.461	1953.14
183.537	1950.48
183.613	1965.26
183.69	1956.28
183.766	1947.91
183.842	1957.56
183.918	1964.6
183.995	1978.57
184.071	1981.47
184.147	1975.24
184.223	1964.65
184.299	1974.54
184.375	1966.6
184.452	1972.26
184.528	2024.1
184.604	2033.42
184.68	2044.3
184.756	2051.39
184.832	2061.33
184.908	2066.56
184.985	2065.04
185.061	2051.34
185.137	2062.47
185.213	2049.59
185.289	2049.21
185.365	2040.51
185.441	2035.8
185.517	2050.93
185.593	2045.13
185.669	2041.75
185.745	2052.35
185.822	2069.75
185.898	2063.33
185.974	2068.04
186.05	2059.52
186.126	2023.85
186.202	2017.01
186.278	2015.63
186.354	2007.64
186.43	2012.49
186.506	2007.83
186.582	2007.64
186.658	2012.44
186.734	1993.85
186.81	1996.8
186.886	2001.89
186.962	2014.77
187.038	2013.01
187.114	2002.64
187.19	2010.58
187.266	2001.5
187.341	2000.79
187.417	1993.42
187.493	1989.99
187.569	1996.08
187.645	1993.89
187.721	1984.33
187.797	1990.94
187.873	1996.46
187.949	1988.61
188.025	1980.72
188.101	1985.09
188.176	1988.99
188.252	1985.04
188.328	1992.27
188.404	1992.7
188.48	1987.56
188.556	1979.14
188.632	1978.48
188.707	1976.2
188.783	1974.63
188.859	1971.39
188.935	1960.69
189.011	1968.82
189.086	1964.12
189.162	1955.04
189.238	1951.52
189.314	1947
189.39	1942.72
189.465	1934.92
189.541	1952.57
189.617	1941.25
189.693	1935.31
189.768	1938.97
189.844	1960.94
189.92	1952.06
189.996	1958.67
190.071	1967.37
190.147	1967.56
190.223	1977.78
190.298	1972.31
190.374	1960.57
190.45	1971.31
190.526	1981.44
190.601	1975.21
190.677	1976.45
190.753	2004.76
190.828	2007.37
190.904	2020.83
190.98	2036.86
191.055	2045.37
191.131	2036.52
191.207	2054.02
191.282	2062.68
191.358	2050.55
191.433	2039.61
191.509	2053.3
191.585	2048.59
191.66	2053.01
191.736	2060.91
191.811	2053.06
191.887	2066.95
191.963	2089.78
192.038	2096.11
192.114	2096.77
192.189	2100.34
192.265	2098.11
192.34	2074.41
192.416	2073.08
192.491	2071.03
192.567	2069.65
192.642	2073.36
192.718	2075.26
192.793	2065.18
192.869	2060.66
192.944	2063.14
193.02	2070.7
193.095	2074.69
193.171	2085.3
193.246	2084.44
193.322	2080.4
193.397	2078.69
193.473	2068.27
193.548	2051.29
193.624	2055.09
193.699	2050.81
193.775	2065.32
193.85	2068.41
193.925	2078.69
194.001	2080.16
194.076	2069.65
194.152	2063.09
194.227	2054.14
194.302	2042.45
194.378	2045.16
194.453	2043.21
194.529	2057.95
194.604	2043.3
194.679	2038.26
194.755	2018.81
194.83	2029.95
194.905	2027.43
194.981	2036.7
195.056	2028.57
195.131	2031.24
195.207	2028.38
195.282	2019.97
195.357	2001.32
195.433	2013.97
195.508	1998.99
195.583	2005.02
195.659	2025.05
195.734	2031.71
195.809	2032.28
195.884	2041.22
195.96	2038.84
196.035	2054.77
196.11	2050.3
196.185	2062.48
196.261	2063.29
196.336	2090.16
196.411	2073.88
196.486	2077.26
196.561	2071.55
196.637	2083.2
196.712	2097.52
196.787	2099.24
196.862	2113.93
196.937	2121.45
197.013	2127.92
197.088	2139.04
197.163	2159.51
197.238	2170.65
197.313	2169.41
197.388	2183.26
197.464	2213.57
197.539	2227.13
197.614	2219.09
197.689	2230.75
197.764	2242.65
197.839	2263.87
197.914	2258.92
197.989	2281.48
198.065	2299.13
198.14	2347.66
198.215	2370.88
198.29	2383.88
198.365	2401.69
198.44	2414.2
198.515	2443.67
198.59	2457.62
198.665	2483.47
198.74	2491.19
198.815	2492.52
198.89	2516.28
198.965	2544.76
199.04	2540.47
199.115	2555.14
199.19	2598.47
199.265	2603.23
199.34	2614.99
199.415	2645.91
199.49	2669.01
199.565	2678.06
199.64	2699.54
199.715	2696.01
199.79	2701.92
199.865	2707.97
199.94	2704.25
200.015	2732.89
200.09	2739.13
200.165	2747.38
200.24	2755
200.315	2793.01
200.39	2809.4
200.464	2812.64
200.539	2811.68
200.614	2828.07
200.689	2851.38
200.764	2853.76
200.839	2868.62
200.914	2871.29
200.989	2863.09
201.063	2876.29
201.138	2859.63
201.213	2859.63
201.288	2839.9
201.363	2843.9
201.438	2843.66
201.512	2860.96
201.587	2844.56
201.662	2850.28
201.737	2861.96
201.812	2871.35
201.886	2838.3
201.961	2848.07
202.036	2836.55
202.111	2837.12
202.186	2805.59
202.26	2788.67
202.335	2772.65
202.41	2767.22
202.485	2752.51
202.559	2734.4
202.634	2710.01
202.709	2717.48
202.784	2700.76
202.858	2701.66
202.933	2683.37
203.008	2679.47
203.082	2657.79
203.157	2654.89
203.232	2608.7
203.306	2588.5
203.381	2554.2
203.456	2532.29
203.53	2506.88
203.605	2486.14
203.68	2462.6
203.754	2457.04
203.829	2442.51
203.904	2422.23
203.978	2411.99
204.053	2417.13
204.127	2404.23
204.202	2400.18
204.277	2384.1
204.351	2377.15
204.426	2370.86
204.5	2363.58
204.575	2326.84
204.65	2337.27
204.724	2329.51
204.799	2342.21
204.873	2336.49
204.948	2335.78
205.022	2326.36
205.097	2318.69
205.171	2335.15
205.246	2341.58
205.32	2342.25
205.395	2340.49
205.469	2333.87
205.544	2337.3
205.618	2320.69
205.693	2329.97
205.767	2319.98
205.842	2340.49
205.916	2335.02
205.991	2326.64
206.065	2333.21
206.14	2351.62
206.214	2347.24
206.289	2342.81
206.363	2350.76
206.438	2352.33
206.512	2359.9
206.586	2376.79
206.661	2387.32
206.735	2367.81
206.81	2371
206.884	2386.09
206.958	2374.38
207.033	2389.23
207.107	2396.56
207.181	2429.76
207.256	2424.38
207.33	2441.46
207.405	2455.04
207.479	2470.23
207.553	2479.42
207.628	2462.67
207.702	2473.19
207.776	2466.62
207.851	2468.38
207.925	2486.34
207.999	2482.57
208.073	2481.38
208.148	2484.62
208.222	2472.86
208.296	2504.8
208.371	2520.09
208.445	2529.09
208.519	2559.42
208.593	2568.61
208.668	2565.99
208.742	2566.56
208.816	2571.66
208.89	2584.28
208.965	2584.09
209.039	2594.14
209.113	2606.91
209.187	2629.8
209.261	2627.47
209.336	2650.09
209.41	2670.96
209.484	2670.15
209.558	2694.87
209.632	2709.11
209.707	2723.12
209.781	2747.65
209.855	2765.38
209.929	2782.6
210.003	2794.42
210.077	2794.99
210.151	2851.71
210.226	2889.95
210.3	2919.62
210.374	2945.58
210.448	2960.22
210.522	2975
210.596	2995.22
210.67	3014.29
210.744	3071.52
210.818	3113.37
210.892	3142.8
210.966	3148.95
211.041	3176.08
211.115	3186.24
211.189	3226.4
211.263	3257.12
211.337	3280.49
211.411	3310.61
211.485	3326.69
211.559	3358.18
211.633	3381.73
211.707	3368.5
211.781	3398.21
211.855	3392.68
211.929	3412.71
212.003	3422.82
212.077	3463.03
212.151	3504.57
212.225	3544.39
212.299	3563.46
212.373	3587.09
212.447	3623.35
212.52	3693.28
212.594	3739.48
212.668	3794.21
212.742	3826.09
212.816	3869.71
212.89	3906.4
212.964	3951.87
213.038	4006.71
213.112	4070.26
213.186	4140.99
213.26	4178.26
213.333	4189.07
213.407	4250.82
213.481	4316.36
213.555	4387.73
213.629	4440.12
213.703	4493.58
213.777	4562.84
213.85	4612.23
213.924	4718.38
213.998	4784.8
214.072	4849.18
214.146	4911.34
214.219	4984.43
214.293	5060.78
214.367	5138.1
214.441	5232.1
214.515	5307.54
214.588	5363.08
214.662	5407.5
214.736	5468.71
214.81	5563.48
214.883	5667.9
214.957	5748.49
215.031	5824.91
215.105	5894.95
215.178	5969.87
215.252	6047.93
215.326	6113.14
215.4	6185.91
215.473	6226.67
215.547	6301.22
215.621	6379.88
215.694	6471.88
215.768	6541.65
215.842	6614.69
215.915	6694.95
215.989	6764.94
216.063	6848.36
216.136	6941.65
216.21	7048.1
216.284	7150.49
216.357	7244.35
216.431	7327.79
216.504	7425.66
216.578	7539.4
216.652	7637.02
216.725	7729.77
216.799	7829.41
216.873	7920.68
216.946	8024.64
217.02	8120.2
217.093	8216.22
217.167	8290.65
217.24	8364.22
217.314	8455.14
217.387	8541.55
217.461	8620.23
217.535	8716.34
217.608	8794.84
217.682	8885.77
217.755	8974.29
217.829	9050.36
217.902	9140.68
217.976	9233.12
218.049	9310.01
218.123	9378.97
218.196	9480.09
218.27	9562.58
218.343	9632.75
218.417	9734.28
218.49	9812.35
218.563	9905.26
218.637	9991.01
218.71	10096.75
218.784	10198.68
218.857	10296.62
218.931	10387.62
219.004	10482.96
219.077	10578.12
219.151	10668.85
219.224	10757.12
219.298	10849.45
219.371	10949.77
219.444	11017.14
219.518	11096.65
219.591	11176.26
219.665	11298.29
219.738	11382.1
219.811	11453.85
219.885	11551.4
219.958	11632.23
220.031	11715.41
220.105	11788.82
220.178	11859.23
220.251	11921.89
220.325	12004.51
220.398	12080.48
220.471	12157.36
220.544	12240.46
220.618	12306.74
220.691	12386.08
220.764	12453.27
220.838	12524.91
220.911	12589.26
220.984	12675.4
221.057	12750.45
221.131	12832.59
221.204	12859.69
221.277	12941.49
221.35	13050.29
221.424	13113.97
221.497	13181.17
221.57	13253.72
221.643	13331.38
221.716	13412.94
221.79	13486.6
221.863	13544.64
221.936	13604.95
222.009	13666.7
222.082	13728.6
222.155	13790.59
222.229	13866.57
222.302	13938.44
222.375	14001.59
222.448	14068.65
222.521	14131.02
222.594	14197.11
222.667	14246.67
222.74	14315.41
222.814	14368.44
222.887	14413.36
222.96	14481.33
223.033	14538.7
223.106	14594.28
223.179	14659.69
223.252	14711.8
223.325	14763.38
223.398	14815.2
223.471	14874.39
223.544	14937.88
223.617	14988.73
223.69	15043.68
223.763	15075.3
223.837	15121.68
223.91	15165.44
223.983	15194.32
224.056	15236.49
224.129	15277.03
224.202	15334.39
224.275	15382.6
224.348	15409.49
224.42	15438.94
224.493	15462.37
224.566	15499.73
224.639	15543.35
224.712	15570
224.785	15603.16
224.858	15641.34
224.931	15682.31
225.004	15713.01
225.077	15749.6
225.15	15759.29
225.223	15787.92
225.296	15846.19
225.369	15861.85
225.442	15894.87
225.514	15932.95
225.587	15973.63
225.66	16012.33
225.733	16046.12
225.806	16071.76
225.879	16107.28
225.952	16137.12
226.025	16184.21
226.097	16230.91
226.17	16260.07
226.243	16280.89
226.316	16316.36
226.389	16356.03
226.461	16390.2
226.534	16418.3
226.607	16441.34
226.68	16492.62
226.753	16521.83
226.825	16526.84
226.898	16572.82
226.971	16597.55
227.044	16634.9
227.117	16653.79
227.189	16689.12
227.262	16721.65
227.335	16754.13
227.407	16774.76
227.48	16806.33
227.553	16828.55
227.626	16847.97
227.698	16868.79
227.771	16894.96
227.844	16905.42
227.916	16919.44
227.989	16926.19
228.062	16952.02
228.134	16994.48
228.207	17021.18
228.28	17038.29
228.352	17054.63
228.425	17083.55
228.498	17115.26
228.57	17135.31
228.643	17174.39
228.716	17184.85
228.788	17199.11
228.861	17219.21
228.934	17252.03
229.006	17265.77
229.079	17276.75
229.151	17285.14
229.224	17287.98
229.296	17309.57
229.369	17357.86
229.442	17385.43
229.514	17395.45
229.587	17418.78
229.659	17412.95
229.732	17433.62
229.804	17459.26
229.877	17500.42
229.949	17518.73
230.022	17554.73
230.094	17560.8
230.167	17569.86
230.239	17569.62
230.312	17580.22
230.384	17613.48
230.457	17627.69
230.529	17638.58
230.602	17668.61
230.674	17690.78
230.747	17731.5
230.819	17754.58
230.892	17731.5
230.964	17741.91
231.037	17763.45
231.109	17774.82
231.181	17787.74
231.254	17783.3
231.326	17787.98
231.399	17785.62
231.471	17788.65
231.544	17765.04
231.616	17788.41
231.688	17796.65
231.761	17804.08
231.833	17813.76
231.905	17786.58
231.978	17792.61
232.05	17801.28
232.122	17797.67
232.195	17792.8
232.267	17808.65
232.339	17803.5
232.412	17828.85
232.484	17835.35
232.556	17831.45
232.629	17856.65
232.701	17866.48
232.773	17872.8
232.846	17875.5
232.918	17882.92
232.99	17891.06
233.062	17900.65
233.135	17904.8
233.207	17896.7
233.279	17913.42
233.351	17927.54
233.424	17931.93
233.496	17919.06
233.568	17940.31
233.64	17930.72
233.713	17930.14
233.785	17911.06
233.857	17914.34
233.929	17894.1
234.001	17907.11
234.074	17925.61
234.146	17896.07
234.218	17893.95
234.29	17896.36
234.362	17889.76
234.434	17872.7
234.507	17851.83
234.579	17836.65
234.651	17827.4
234.723	17819.55
234.795	17807.98
234.867	17788.37
234.939	17805.09
235.012	17799.98
235.084	17789.14
235.156	17783.84
235.228	17772.17
235.3	17764.41
235.372	17756.37
235.444	17758.73
235.516	17718.87
235.588	17700.42
235.66	17701.62
235.732	17684.99
235.804	17721.19
235.876	17718.58
235.948	17718.39
236.02	17702.01
236.092	17689.33
236.164	17677.48
236.236	17671.84
236.308	17656.42
236.38	17643.36
236.452	17612.66
236.524	17617.24
236.596	17626.83
236.668	17624.99
236.74	17612.66
236.812	17600.56
236.884	17595.69
236.956	17590.05
237.028	17574.49
237.1	17549.19
237.172	17541.72
237.244	17545.91
237.316	17487.41
237.388	17453.86
237.46	17430.68
237.532	17432.51
237.604	17404.85
237.675	17396.61
237.747	17380.37
237.819	17354.63
237.891	17342.78
237.963	17317.43
238.035	17284.94
238.107	17224.8
238.178	17221.62
238.25	17196.22
238.322	17203.02
238.394	17162.53
238.466	17126.2
238.538	17114.68
238.609	17104.99
238.681	17061.76
238.753	17029.04
238.825	17012.65
238.897	17003.35
238.968	17004.41
239.04	16975.54
239.112	16993.57
239.184	16960.7
239.255	16935.06
239.327	16930.24
239.399	16904.84
239.471	16900.74
239.542	16887.73
239.614	16881.66
239.686	16826.57
239.758	16819.82
239.829	16777.99
239.901	16776.64
239.973	16759.97
240.044	16743
240.116	16716.3
240.188	16685.31
240.259	16661.74
240.331	16637.26
240.403	16622.03
240.474	16580
240.546	16546.55
240.618	16497.25
240.689	16470.5
240.761	16450.21
240.833	16433.44
240.904	16412.42
240.976	16376.32
241.048	16350.97
241.119	16339.79
241.191	16327.5
241.262	16316.99
241.334	16292.75
241.405	16270.72
241.477	16246.77
241.549	16217.42
241.62	16198.33
241.692	16189.94
241.763	16178.42
241.835	16155.87
241.906	16135.19
241.978	16094.13
242.049	16091.72
242.121	16073.98
242.192	16067.23
242.264	16028.96
242.335	15990.16
242.407	15975.89
242.478	15950.68
242.55	15929.91
242.621	15889.18
242.693	15866.63
242.764	15842.57
242.836	15816.45
242.907	15793.85
242.979	15775.1
243.05	15757.84
243.122	15739.04
243.193	15712.29
243.264	15678.21
243.336	15642.79
243.407	15621.24
243.479	15621.1
243.55	15595.74
243.622	15581.72
243.693	15555.21
243.764	15553.33
243.836	15519.49
243.907	15483.14
243.978	15461.79
244.05	15431.28
244.121	15394.02
244.192	15376.04
244.264	15325.77
244.335	15303.59
244.407	15256.6
244.478	15233.7
244.549	15193.98
244.62	15153.92
244.692	15131.51
244.763	15110.2
244.834	15083.69
244.906	15048.12
244.977	15025.75
245.048	15006.52
245.119	14972.06
245.191	14932
245.262	14884.81
245.333	14882.3
245.405	14860.27
245.476	14839.54
245.547	14826.19
245.618	14810.33
245.689	14780.54
245.761	14765.45
245.832	14738.03
245.903	14724.43
245.974	14699.41
246.045	14683.17
246.117	14681.1
246.188	14637.9
246.259	14592.69
246.33	14569.07
246.401	14543.04
246.473	14497.68
246.544	14469.43
246.615	14456.17
246.686	14431.15
246.757	14419.15
246.828	14374.99
246.899	14361.83
246.97	14321.25
247.042	14278.82
247.113	14262.05
247.184	14259.64
247.255	14229.22
247.326	14206.52
247.397	14179.71
247.468	14159.42
247.539	14138.93
247.61	14092.56
247.681	14084.27
247.752	14076.65
247.823	14041.12
247.894	14017.11
247.965	13988.19
248.037	13956.04
248.108	13903.93
248.179	13884.26
248.25	13863.43
248.321	13851.33
248.392	13810.65
248.463	13806.69
248.534	13793.24
248.605	13770.93
248.675	13734.53
248.746	13711.92
248.817	13693.41
248.888	13682.27
248.959	13636.86
249.03	13622.21
249.101	13604.66
249.172	13576.89
249.243	13540.59
249.314	13539.53
249.385	13524.88
249.456	13510.85
249.527	13491.42
249.598	13484.72
249.669	13449.87
249.739	13422.3
249.81	13401.57
249.881	13365.12
249.952	13336.39
250.023	13306.55
250.094	13273.48
250.165	13243.16
250.235	13221.9
250.306	13197.22
250.377	13155.71
250.448	13145.2
250.519	13095.17
250.59	13095.7
250.66	13069.38
250.731	13061.71
250.802	13037.03
250.873	13019.24
250.944	13002.75
251.014	12975.81
251.085	12976.96
251.156	12966.5
251.227	12963.08
251.297	12955.85
251.368	12954.07
251.439	12947.99
251.51	12947.03
251.58	12924.81
251.651	12898.87
251.722	12892.31
251.792	12857.46
251.863	12838.28
251.934	12835.63
252.005	12844.3
252.075	12817.84
252.146	12817.36
252.217	12806.17
252.287	12795.33
252.358	12770.26
252.429	12768.72
252.499	12744.23
252.57	12722.58
252.641	12710.1
252.711	12684.65
252.782	12643.33
252.852	12643.72
252.923	12621.69
252.994	12592.67
253.064	12577
253.135	12546.68
253.205	12514.82
253.276	12516.85
253.347	12522.49
253.417	12489.22
253.488	12463.1
253.558	12434.66
253.629	12411.47
253.699	12393.35
253.77	12379.66
253.841	12361
253.911	12339.69
253.982	12321.19
254.052	12312.65
254.123	12294.82
254.193	12274.86
254.264	12298.87
254.334	12269.66
254.405	12243.82
254.475	12218.27
254.546	12196.05
254.616	12199.52
254.687	12187.08
254.757	12166.6
254.827	12136.38
254.898	12128.23
254.968	12108.42
255.039	12083.31
255.109	12071.64
255.18	12041.23
255.25	12003.58
255.321	11987.67
255.391	11954.51
255.461	11954.56
255.532	11905.78
255.602	11892.52
255.673	11855.65
255.743	11828.51
255.813	11787.59
255.884	11777.28
255.954	11773.76
256.024	11783.3
256.095	11756.89
256.165	11730.86
256.235	11716.31
256.306	11689.85
256.376	11675.67
256.446	11670.81
256.517	11662.32
256.587	11656.35
256.657	11644.49
256.728	11626.13
256.798	11607.33
256.868	11591.76
256.938	11566.8
257.009	11561.3
257.079	11544.91
257.149	11559.9
257.219	11522.21
257.29	11511.27
257.36	11475.8
257.43	11462.6
257.5	11413.97
257.571	11399.31
257.641	11391.36
257.711	11366.06
257.781	11351.41
257.852	11336.61
257.922	11294.59
257.992	11276.03
258.062	11244.99
258.132	11233.91
258.202	11216.7
258.273	11202.83
258.343	11196.27
258.413	11168.56
258.483	11154.15
258.553	11122.34
258.623	11090.15
258.693	11072.18
258.764	11065.91
258.834	11065.33
258.904	11052.17
258.974	11033.24
259.044	11018.64
259.114	11004.8
259.184	10996.9
259.254	10978.83
259.324	10941.19
259.394	10933.97
259.464	10936.33
259.535	10920.09
259.605	10900.57
259.675	10876
259.745	10862.17
259.815	10839.33
259.885	10818.51
259.955	10827.09
260.025	10806.56
260.095	10794.23
260.165	10783.43
260.235	10787
260.305	10762.57
260.375	10726.81
260.445	10736.55
260.515	10734.09
260.585	10728.6
260.655	10708.26
260.725	10708.41
260.795	10704.89
260.865	10708.17
260.934	10680.07
261.004	10679.25
261.074	10662.53
261.144	10667.45
261.214	10667.26
261.284	10652.7
261.354	10653.14
261.424	10623.5
261.494	10628.8
261.564	10607.99
261.634	10606.06
261.703	10569.44
261.773	10561.78
261.843	10556.04
261.913	10534.56
261.983	10498.71
262.053	10492.01
262.123	10477.51
262.192	10447.11
262.262	10440.27
262.332	10412.51
262.402	10405.29
