Data from 20250625_urea_1M_1_MAYP1162681_14-35-06-151.txt Node
Date: Thu Jun 26 14:35:06 BST 2025
User: adleo
Spectrometer: MAYP116268
Trigger mode: 0
Integration Time (sec): 1.000000E0
Scans to average: 1
Electric dark correction enabled: true
Nonlinearity correction enabled: true
Boxcar width: 10
XAxis mode: Wavelengths
Number of Pixels in Spectrum: 2068
>>>>>Begin Spectral Data<<<<<
179.565	1147.9
179.642	1204.07
179.718	1242.16
179.795	1281.36
179.871	1316.14
179.948	1332.85
180.024	1351.99
180.101	1371.51
180.177	1383.24
180.254	1403.68
180.33	1424.12
180.407	1474.15
180.483	1565.47
180.56	1648.99
180.636	1729.22
180.712	1716.24
180.789	1724.04
180.865	1735.68
180.942	1744.75
181.018	1756.73
181.095	1768.13
181.171	1771.22
181.248	1769.84
181.324	1787.29
181.4	1792.66
181.477	1799.22
181.553	1810.1
181.63	1831.63
181.706	1847.8
181.782	1857.82
181.859	1858.72
181.935	1864.52
182.011	1861.53
182.088	1872.8
182.164	1892.67
182.24	1907.07
182.317	1915.15
182.393	1912.35
182.469	1926.14
182.546	1936.88
182.622	1939.21
182.698	1934.46
182.775	1949.67
182.851	1963.69
182.927	1953.71
183.003	1949.24
183.08	1944.49
183.156	1954
183.232	1950.48
183.308	1939.87
183.385	1945.2
183.461	1960.65
183.537	1958.56
183.613	1971.45
183.69	1965.31
183.766	1952.66
183.842	1957.18
183.918	1964.5
183.995	1980.38
184.071	1983.14
184.147	1979.48
184.223	1971.11
184.299	1984.57
184.375	1972.97
184.452	1979.68
184.528	2030.42
184.604	2039.88
184.68	2051.44
184.756	2057.81
184.832	2060.76
184.908	2067.03
184.985	2068.17
185.061	2052.82
185.137	2063.9
185.213	2048.82
185.289	2050.68
185.365	2047.92
185.441	2046.16
185.517	2056.48
185.593	2052.58
185.669	2048.78
185.745	2060.57
185.822	2072.03
185.898	2064.66
185.974	2072.93
186.05	2063.56
186.126	2029.7
186.202	2023.99
186.278	2019.71
186.354	2011.06
186.43	2017.86
186.506	2016.05
186.582	2016.29
186.658	2023.04
186.734	2004.97
186.81	2010.25
186.886	2013.58
186.962	2023.9
187.038	2019.28
187.114	2013.38
187.19	2018.71
187.266	2009.77
187.341	2008.77
187.417	2005.07
187.493	2004.54
187.569	2008.92
187.645	2003.93
187.721	1990.89
187.797	1998.31
187.873	2002.54
187.949	1997.22
188.025	1989.23
188.101	1990.42
188.176	1994.31
188.252	1991.03
188.328	1997.78
188.404	1996.83
188.48	1993.27
188.556	1986.09
188.632	1987.13
188.707	1985.94
188.783	1983.61
188.859	1979.81
188.935	1967.59
189.011	1975.77
189.086	1971.96
189.162	1963.59
189.238	1962.21
189.314	1963.55
189.39	1957.08
189.465	1950.9
189.541	1967.73
189.617	1954.18
189.693	1947.72
189.768	1951.57
189.844	1972.17
189.92	1964.8
189.996	1971.5
190.071	1982.01
190.147	1981.68
190.223	1991.48
190.298	1984.82
190.374	1972.98
190.45	1985.29
190.526	1994.23
190.601	1987.48
190.677	1986.39
190.753	2013.08
190.828	2015.83
190.904	2027.11
190.98	2039.95
191.055	2052.41
191.131	2043.32
191.207	2061.63
191.282	2073.18
191.358	2063.77
191.433	2055.68
191.509	2067.8
191.585	2066.28
191.66	2067.47
191.736	2073.7
191.811	2061.28
191.887	2077.98
191.963	2102.05
192.038	2108.23
192.114	2108.76
192.189	2112.85
192.265	2109.33
192.34	2087.73
192.416	2086.59
192.491	2082.45
192.567	2087.4
192.642	2085.25
192.718	2083.07
192.793	2074.55
192.869	2070.75
192.944	2072.27
193.02	2074.7
193.095	2077.17
193.171	2084.11
193.246	2081.5
193.322	2079.12
193.397	2081.59
193.473	2066.27
193.548	2046.72
193.624	2049.86
193.699	2046.96
193.775	2062.42
193.85	2065.27
193.925	2071.08
194.001	2072.69
194.076	2065.89
194.152	2056.38
194.227	2051.81
194.302	2047.06
194.378	2046.58
194.453	2043.16
194.529	2057.28
194.604	2043.11
194.679	2040.21
194.755	2022
194.83	2037.37
194.905	2037.42
194.981	2046.22
195.056	2038.51
195.131	2044.93
195.207	2041.32
195.282	2034.18
195.357	2016.15
195.433	2033.42
195.508	2022.77
195.583	2031.47
195.659	2049.17
195.734	2052.97
195.809	2051.5
195.884	2057.44
195.96	2060.82
196.035	2076.13
196.11	2072.23
196.185	2084.74
196.261	2085.31
196.336	2117.37
196.411	2100
196.486	2104.8
196.561	2097.62
196.637	2105.99
196.712	2120.17
196.787	2123.93
196.862	2137.53
196.937	2144.71
197.013	2149.18
197.088	2161.84
197.163	2181.02
197.238	2193.92
197.313	2193.59
197.388	2208.39
197.464	2239.42
197.539	2249.98
197.614	2239.94
197.689	2250.98
197.764	2265.78
197.839	2289.1
197.914	2279.63
197.989	2301.57
198.065	2319.22
198.14	2369.32
198.215	2395.64
198.29	2411.45
198.365	2427.4
198.44	2437.53
198.515	2467.38
198.59	2480.95
198.665	2507.05
198.74	2513
198.815	2512.67
198.89	2537.28
198.965	2564.33
199.04	2562.1
199.115	2578.24
199.19	2624.52
199.265	2627.33
199.34	2639.52
199.415	2666.97
199.49	2688.3
199.565	2700.59
199.64	2720.08
199.715	2718.12
199.79	2724.65
199.865	2727.03
199.94	2723.84
200.015	2756.29
200.09	2758.38
200.165	2763.81
200.24	2769.44
200.315	2805.49
200.39	2824.22
200.464	2827.89
200.539	2828.36
200.614	2840.99
200.689	2863.72
200.764	2866.58
200.839	2883.68
200.914	2884.83
200.989	2878.49
201.063	2892.93
201.138	2872.07
201.213	2871.78
201.288	2853.2
201.363	2858.15
201.438	2858.01
201.512	2874.83
201.587	2854.76
201.662	2862.67
201.737	2875.59
201.812	2883.79
201.886	2854.07
201.961	2859.32
202.036	2852.7
202.111	2850.36
202.186	2821.5
202.26	2804.2
202.335	2786.18
202.41	2783.23
202.485	2772.75
202.559	2752.21
202.634	2724.44
202.709	2735.86
202.784	2716.76
202.858	2716.04
202.933	2699.23
203.008	2694.42
203.082	2673.65
203.157	2677.56
203.232	2635.55
203.306	2615.35
203.381	2584.1
203.456	2561.33
203.53	2540.36
203.605	2516.7
203.68	2495.26
203.754	2491.36
203.829	2475.07
203.904	2452.79
203.978	2438.08
204.053	2440.93
204.127	2429.41
204.202	2429.08
204.277	2413.42
204.351	2404.52
204.426	2399.14
204.5	2390.71
204.575	2358.68
204.65	2366.11
204.724	2354.25
204.799	2361.62
204.873	2354.62
204.948	2351.34
205.022	2340.44
205.097	2331.92
205.171	2346.38
205.246	2352.67
205.32	2352.38
205.395	2353.24
205.469	2345.68
205.544	2351.58
205.618	2333.3
205.693	2344.01
205.767	2331.73
205.842	2348.44
205.916	2342.68
205.991	2333.07
206.065	2339.45
206.14	2352.43
206.214	2350.24
206.289	2343.72
206.363	2354.72
206.438	2357.76
206.512	2365.47
206.586	2383.18
206.661	2389.42
206.735	2368.82
206.81	2370.67
206.884	2384.43
206.958	2372.48
207.033	2389.04
207.107	2393.99
207.181	2425.28
207.256	2420.62
207.33	2437.75
207.405	2452.19
207.479	2471.75
207.553	2477.32
207.628	2463.33
207.702	2474.8
207.776	2466.95
207.851	2472.14
207.925	2486.09
207.999	2486.43
208.073	2483.19
208.148	2485.81
208.222	2477.14
208.296	2509.74
208.371	2524.51
208.445	2533.28
208.519	2561.6
208.593	2573.32
208.668	2572.08
208.742	2573.51
208.816	2574.22
208.89	2591.47
208.965	2591.66
209.039	2600.62
209.113	2620
209.187	2640.61
209.261	2636
209.336	2659.43
209.41	2678.2
209.484	2680.3
209.558	2704.36
209.632	2722.5
209.707	2734.56
209.781	2757.71
209.855	2773.39
209.929	2792.23
210.003	2801.28
210.077	2804.62
210.151	2855.61
210.226	2891.46
210.3	2922.38
210.374	2948.77
210.448	2956.16
210.522	2970.7
210.596	2989.96
210.67	3003.12
210.744	3054.1
210.818	3095.33
210.892	3123.42
210.966	3130.67
211.041	3152.98
211.115	3157.18
211.189	3190.8
211.263	3221.47
211.337	3238.21
211.411	3268.03
211.485	3276.91
211.559	3309.11
211.633	3329.09
211.707	3317.24
211.781	3343.94
211.855	3333.44
211.929	3352.38
212.003	3360.1
212.077	3393.81
212.151	3428.47
212.225	3463.65
212.299	3484.72
212.373	3506.68
212.447	3533.33
212.52	3594.41
212.594	3636.78
212.668	3683.57
212.742	3707.26
212.816	3740.6
212.89	3776.8
212.964	3818.34
213.038	3867.9
213.112	3919.9
213.186	3977.42
213.26	4004.51
213.333	4009.05
213.407	4059.07
213.481	4111.73
213.555	4173.93
213.629	4218.75
213.703	4263.09
213.777	4322.7
213.85	4360.2
213.924	4450.23
213.998	4507.41
214.072	4560.32
214.146	4609.66
214.219	4675.87
214.293	4742.25
214.367	4812.92
214.441	4892.54
214.515	4946.95
214.588	4988.28
214.662	5026.07
214.736	5077.31
214.81	5156.88
214.883	5241.97
214.957	5308.74
215.031	5371.93
215.105	5422.36
215.178	5481.94
215.252	5549.15
215.326	5602.04
215.4	5659.27
215.473	5690.5
215.547	5752.56
215.621	5820.8
215.694	5903.13
215.768	5961.57
215.842	6021.93
215.915	6088.6
215.989	6141.01
216.063	6209.02
216.136	6295.61
216.21	6372.54
216.284	6470.87
216.357	6555.19
216.431	6632.55
216.504	6720.62
216.578	6827.6
216.652	6927.48
216.725	7007.85
216.799	7092.09
216.873	7170.3
216.946	7261.11
217.02	7338.27
217.093	7420.61
217.167	7481.47
217.24	7548.54
217.314	7626.71
217.387	7703.86
217.461	7778.25
217.535	7876.5
217.608	7956.77
217.682	8036.52
217.755	8131.7
217.829	8193.53
217.902	8273.44
217.976	8347.48
218.049	8416.91
218.123	8473.7
218.196	8555.31
218.27	8631.64
218.343	8703.93
218.417	8792.64
218.49	8865.84
218.563	8958.31
218.637	9035.82
218.71	9136.97
218.784	9222.14
218.857	9306.74
218.931	9392.73
219.004	9473.67
219.077	9556.32
219.151	9631.49
219.224	9706.38
219.298	9783.01
219.371	9875.3
219.444	9940.61
219.518	10017.53
219.591	10097.25
219.665	10206.08
219.738	10279.88
219.811	10348.67
219.885	10430.77
219.958	10511.86
220.031	10592.6
220.105	10671.09
220.178	10754.12
220.251	10817.05
220.325	10900.08
220.398	10979.25
220.471	11057.9
220.544	11135.53
220.618	11194.13
220.691	11275.14
220.764	11348.3
220.838	11428.45
220.911	11494.96
220.984	11590.34
221.057	11671.6
221.131	11748.09
221.204	11783.66
221.277	11875.77
221.35	11973.56
221.424	12042.78
221.497	12113.35
221.57	12182.9
221.643	12254.34
221.716	12322.3
221.79	12389.55
221.863	12450.91
221.936	12509.24
222.009	12575.71
222.082	12643.77
222.155	12711.4
222.229	12779.86
222.302	12845.56
222.375	12895.89
222.448	12962.6
222.521	13017.27
222.594	13072.85
222.667	13119.42
222.74	13195.92
222.814	13245.33
222.887	13304.14
222.96	13368.93
223.033	13427.69
223.106	13484.14
223.179	13544.84
223.252	13599.79
223.325	13657.83
223.398	13709.03
223.471	13771.36
223.544	13821.69
223.617	13868.88
223.69	13919.83
223.763	13955.8
223.837	14011.81
223.91	14072.12
223.983	14100.46
224.056	14136.28
224.129	14186.75
224.202	14257.81
224.275	14295.94
224.348	14328.52
224.42	14360.73
224.493	14378.47
224.566	14414.96
224.639	14471.94
224.712	14506.5
224.785	14540.39
224.858	14577.41
224.931	14618.48
225.004	14654.73
225.077	14701.34
225.15	14717.92
225.223	14757.31
225.296	14827.73
225.369	14847.3
225.442	14874.87
225.514	14923.56
225.587	14964.68
225.66	15012.69
225.733	15037.61
225.806	15076.75
225.879	15111.46
225.952	15138.98
226.025	15196.73
226.097	15252.3
226.17	15280.65
226.243	15298
226.316	15339.6
226.389	15378.3
226.461	15414.5
226.534	15443.38
226.607	15468.87
226.68	15531.34
226.753	15561.13
226.825	15567.74
226.898	15618.35
226.971	15654.93
227.044	15688.14
227.117	15724
227.189	15760.88
227.262	15812.79
227.335	15851.44
227.407	15891.54
227.48	15928.32
227.553	15964.13
227.626	15985.87
227.698	16020.48
227.771	16066.46
227.844	16084.77
227.916	16111.67
227.989	16127.77
228.062	16155.34
228.134	16206.23
228.207	16235.73
228.28	16256.99
228.352	16287.06
228.425	16313.28
228.498	16343.12
228.57	16358.88
228.643	16397.24
228.716	16418.54
228.788	16427.08
228.861	16441.82
228.934	16474.02
229.006	16502.46
229.079	16524.82
229.151	16543.9
229.224	16541.73
229.296	16560.58
229.369	16611.23
229.442	16645.4
229.514	16664.92
229.587	16701.36
229.659	16697.17
229.732	16716.49
229.804	16753.8
229.877	16800.11
229.949	16835.25
230.022	16877.17
230.094	16908.74
230.167	16926.62
230.239	16928.5
230.312	16946.72
230.384	16987.59
230.457	16999.2
230.529	17009.08
230.602	17021.71
230.674	17043.45
230.747	17086.34
230.819	17116.37
230.892	17104.65
230.964	17120.08
231.037	17142.73
231.109	17157.28
231.181	17181.28
231.254	17183.5
231.326	17194.39
231.399	17199.6
231.471	17194.97
231.544	17177.81
231.616	17196.95
231.688	17209.86
231.761	17221.62
231.833	17231.65
231.905	17223.21
231.978	17241.86
232.05	17253.33
232.122	17268.51
232.195	17266.35
232.267	17280.85
232.339	17278.83
232.412	17294.92
232.484	17305.72
232.556	17305.72
232.629	17329.57
232.701	17352.13
232.773	17360.8
232.846	17368.95
232.918	17373.33
232.99	17387.02
233.062	17405.86
233.135	17409.67
233.207	17402.73
233.279	17418.25
233.351	17431.5
233.424	17431.98
233.496	17417.82
233.568	17441.67
233.64	17434.01
233.713	17436.32
233.785	17433.43
233.857	17439.79
233.929	17427.7
234.001	17436.95
234.074	17457.48
234.146	17433.86
234.218	17424.56
234.29	17428.76
234.362	17417.48
234.434	17401.62
234.507	17395.79
234.579	17375.89
234.651	17370.3
234.723	17377.57
234.795	17374.39
234.867	17366.01
234.939	17376.51
235.012	17382.01
235.084	17387.12
235.156	17389.96
235.228	17384.27
235.3	17379.98
235.372	17386.73
235.444	17399.21
235.516	17373.29
235.588	17362.11
235.66	17360.23
235.732	17340.23
235.804	17384.27
235.876	17384.66
235.948	17393.77
236.02	17377.57
236.092	17380.18
236.164	17364.46
236.236	17348.56
236.308	17338.05
236.38	17333.91
236.452	17312.27
236.524	17307.11
236.596	17299.36
236.668	17291.07
236.74	17285.86
236.812	17270.68
236.884	17250.05
236.956	17240.56
237.028	17220.13
237.1	17188.75
237.172	17192.03
237.244	17198.68
237.316	17149.57
237.388	17131.21
237.46	17110.82
237.532	17108.08
237.604	17077.28
237.675	17089.28
237.747	17089.23
237.819	17068.12
237.891	17041.04
237.963	17022.05
238.035	16995.93
238.107	16942.05
238.178	16942.91
238.25	16927.88
238.322	16934.43
238.394	16911.59
238.466	16884.93
238.538	16878.81
238.609	16877.56
238.681	16834.72
238.753	16806.57
238.825	16788.3
238.897	16769.7
238.968	16766.33
239.04	16744.3
239.112	16763.63
239.184	16730.13
239.255	16699.05
239.327	16687.29
239.399	16680.3
239.471	16673.31
239.542	16663.96
239.614	16659.09
239.686	16615.23
239.758	16595.43
239.829	16557.88
239.901	16547.86
239.973	16529.69
240.044	16516.63
240.116	16501.2
240.188	16480.77
240.259	16466.11
240.331	16438.69
240.403	16426.11
240.474	16386.83
240.546	16365
240.618	16321.38
240.689	16296.61
240.761	16280.41
240.833	16269.28
240.904	16242.29
240.976	16207.39
241.048	16184.88
241.119	16179.73
241.191	16164.06
241.262	16155.77
241.334	16140.49
241.405	16116.88
241.477	16097.02
241.549	16070.51
241.62	16047.37
241.692	16044.05
241.763	16034.84
241.835	16016.29
241.906	16000.09
241.978	15974.3
242.049	15961.97
242.121	15950.59
242.192	15938.11
242.264	15901.19
242.335	15865.28
242.407	15846.14
242.478	15823.87
242.55	15807.77
242.621	15772.01
242.693	15744.2
242.764	15724.58
242.836	15691.08
242.907	15670.36
242.979	15655.03
243.05	15635.07
243.122	15617.87
243.193	15584.7
243.264	15537.42
243.336	15511.29
243.407	15485.94
243.479	15472.01
243.55	15447.09
243.622	15421.88
243.693	15390.26
243.764	15384.24
243.836	15344.81
243.907	15318.78
243.978	15301.42
244.05	15275.78
244.121	15234.95
244.192	15220.4
244.264	15173.83
244.335	15157.44
244.407	15117.82
244.478	15093.53
244.549	15067.79
244.62	15026.96
244.692	15001.31
244.763	14990.42
244.834	14956.24
244.906	14933.73
244.977	14912.76
245.048	14911.22
245.119	14884.08
245.191	14855.84
245.262	14804.74
245.333	14798.67
245.405	14777.75
245.476	14757.6
245.547	14736.15
245.618	14722.31
245.689	14698.98
245.761	14679.46
245.832	14649.18
245.903	14636.17
245.974	14611.15
246.045	14575.05
246.117	14571.86
246.188	14534.84
246.259	14494.3
246.33	14471.55
246.401	14432.84
246.473	14391.34
246.544	14346.51
246.615	14321.63
246.686	14294.35
246.757	14290.92
246.828	14256.07
246.899	14244.21
246.97	14200.78
247.042	14163.08
247.113	14141.05
247.184	14135.17
247.255	14105.14
247.326	14084.51
247.397	14050.81
247.468	14028.15
247.539	14014.7
247.61	13978.98
247.681	13971.71
247.752	13953.43
247.823	13921.04
247.894	13901.71
247.965	13872.69
248.037	13847.81
248.108	13815.52
248.179	13795.32
248.25	13766.97
248.321	13757.09
248.392	13719.63
248.463	13719.73
248.534	13701.89
248.605	13687.82
248.675	13655.95
248.746	13640.62
248.817	13617
248.888	13607.51
248.959	13572.03
249.03	13547.15
249.101	13521.99
249.172	13487.86
249.243	13446.98
249.314	13432.47
249.385	13415.26
249.456	13399.49
249.527	13371.73
249.598	13355.24
249.669	13330.61
249.739	13308.53
249.81	13284.96
249.881	13252.32
249.952	13229.42
250.023	13205.03
250.094	13169.02
250.165	13133.59
250.235	13112.38
250.306	13098.78
250.377	13061.95
250.448	13044.16
250.519	13009.26
250.59	13005.07
250.66	12982.12
250.731	12984.68
250.802	12970.41
250.873	12958.65
250.944	12940.04
251.014	12908.37
251.085	12909.28
251.156	12894.44
251.227	12892.51
251.297	12891.74
251.368	12878.48
251.439	12865.13
251.51	12856.55
251.58	12823.57
251.651	12803.86
251.722	12786.65
251.792	12742.25
251.863	12717.91
251.934	12707.64
252.005	12712.85
252.075	12684.5
252.146	12678.33
252.217	12666.04
252.287	12651.24
252.358	12622.85
252.429	12620.53
252.499	12604.19
252.57	12580.48
252.641	12566.16
252.711	12545.43
252.782	12506.58
252.852	12510.1
252.923	12487.58
252.994	12468.69
253.064	12465.84
253.135	12440.49
253.205	12416.82
253.276	12426.27
253.347	12427.38
253.417	12401.11
253.488	12372.33
253.558	12346.3
253.629	12321.57
253.699	12302.96
253.77	12295.06
253.841	12275.25
253.911	12259.73
253.982	12248.25
254.052	12241.12
254.123	12230.76
254.193	12210.94
254.264	12233.26
254.334	12205.5
254.405	12179.18
254.475	12145.58
254.546	12133.19
254.616	12124.23
254.687	12111.41
254.757	12091.26
254.827	12074.82
254.898	12060.46
254.968	12047.3
255.039	12027.97
255.109	12017.99
255.18	11994.33
255.25	11952.92
255.321	11944.97
255.391	11918.07
255.461	11912.43
255.532	11866.16
255.602	11836.42
255.673	11795.93
255.743	11761.81
255.813	11716.16
255.884	11706.91
255.954	11692.93
256.024	11683.1
256.095	11665.65
256.165	11634.13
256.235	11619.77
256.306	11592.34
256.376	11589.02
256.446	11580.19
256.517	11569.45
256.587	11563.86
256.657	11548.38
256.728	11533.54
256.798	11505.1
256.868	11472.67
256.938	11447.37
257.009	11446.88
257.079	11435.61
257.149	11448.18
257.219	11405.53
257.29	11395.8
257.36	11359.65
257.43	11356.57
257.5	11318.3
257.571	11294.59
257.641	11288.9
257.711	11260.9
257.781	11246.15
257.852	11228.61
257.922	11190.15
257.992	11170.73
258.062	11148.13
258.132	11142.39
258.202	11119.89
258.273	11112.95
258.343	11119.74
258.413	11097.57
258.483	11076.18
258.553	11046.92
258.623	11020.13
258.693	11010.68
258.764	11009.72
258.834	11006.44
258.904	10994.54
258.974	10972.81
259.044	10949.97
259.114	10938.21
259.184	10921.63
259.254	10903.61
259.324	10865.49
259.394	10856.82
259.464	10861.78
259.535	10842.94
259.605	10817.64
259.675	10799.09
259.745	10784.2
259.815	10756.2
259.885	10740.01
259.955	10749.7
260.025	10730.72
260.095	10714.53
260.165	10701.9
260.235	10702.91
260.305	10684.94
260.375	10656.61
260.445	10666.48
260.515	10672.6
260.585	10668.22
260.655	10657.47
260.725	10657.14
260.795	10652.75
260.865	10656.46
260.934	10630.59
261.004	10627.26
261.074	10613.24
261.144	10613.82
261.214	10610.01
261.284	10595.99
261.354	10583.75
261.424	10555.37
261.494	10558.02
261.564	10537.59
261.634	10529.64
261.703	10493.55
261.773	10482.81
261.843	10473.51
261.913	10453.18
261.983	10423.69
262.053	10418.44
262.123	10399.31
262.192	10367.8
262.262	10363.57
262.332	10331.48
262.402	10321.17
