Data from 20250625_urea_1M_1_MAYP1162681_00-05-05-372.txt Node
Date: Thu Jun 26 00:05:05 BST 2025
User: adleo
Spectrometer: MAYP116268
Trigger mode: 0
Integration Time (sec): 1.000000E0
Scans to average: 1
Electric dark correction enabled: true
Nonlinearity correction enabled: true
Boxcar width: 10
XAxis mode: Wavelengths
Number of Pixels in Spectrum: 2068
>>>>>Begin Spectral Data<<<<<
179.565	1132.71
179.642	1186.69
179.718	1225.7
179.795	1263.05
179.871	1291.89
179.948	1309.59
180.024	1326.32
180.101	1348.11
180.177	1362
180.254	1383.73
180.33	1404.57
180.407	1453.94
180.483	1543.78
180.56	1629.62
180.636	1710.85
180.712	1699.16
180.789	1703.2
180.865	1716.26
180.942	1724.01
181.018	1731.85
181.095	1749.44
181.171	1753.67
181.248	1755.38
181.324	1770.92
181.4	1775.58
181.477	1786.84
181.553	1798.67
181.63	1820.2
181.706	1835.65
181.782	1844.68
181.859	1846.63
181.935	1852.62
182.011	1849.53
182.088	1867.31
182.164	1882.52
182.24	1890.89
182.317	1900.06
182.393	1898.68
182.469	1911.32
182.546	1924.45
182.622	1929.87
182.698	1923.87
182.775	1937.33
182.851	1946.93
182.927	1937.71
183.003	1935.9
183.08	1932.1
183.156	1938.61
183.232	1935.62
183.308	1925.77
183.385	1930.53
183.461	1942.75
183.537	1940.85
183.613	1951.12
183.69	1939.32
183.766	1930.81
183.842	1941.37
183.918	1947.12
183.995	1961.52
184.071	1965.38
184.147	1958.81
184.223	1947.41
184.299	1957.21
184.375	1945.22
184.452	1957.97
184.528	2014.48
184.604	2024.42
184.68	2033.55
184.756	2043.77
184.832	2049.57
184.908	2050.33
184.985	2051.24
185.061	2036.93
185.137	2047.72
185.213	2038.83
185.289	2038.93
185.365	2031.27
185.441	2028.66
185.517	2043.26
185.593	2038.5
185.669	2036.74
185.745	2048.16
185.822	2066.17
185.898	2058.75
185.974	2068.07
186.05	2054.33
186.126	2014.89
186.202	2005.81
186.278	2005.47
186.354	1995.34
186.43	1998.53
186.506	1998.06
186.582	1997.11
186.658	2005
186.734	1987.31
186.81	1988.21
186.886	1992.68
186.962	2006.47
187.038	2003.57
187.114	1993.44
187.19	2000.95
187.266	1990.3
187.341	1989.87
187.417	1980.89
187.493	1980.17
187.569	1983.36
187.645	1979.98
187.721	1968
187.797	1977.08
187.873	1978.79
187.949	1972.71
188.025	1967.9
188.101	1971.23
188.176	1975.98
188.252	1970.99
188.328	1976.41
188.404	1974.46
188.48	1971.61
188.556	1964.14
188.632	1960.67
188.707	1961.19
188.783	1958.82
188.859	1956.87
188.935	1944.88
189.011	1955.96
189.086	1950.64
189.162	1940.75
189.238	1938.42
189.314	1935.61
189.39	1931.67
189.465	1925.58
189.541	1941.13
189.617	1926.72
189.693	1924.54
189.768	1930.1
189.844	1954.55
189.92	1946.57
189.996	1959.5
190.071	1965.59
190.147	1964.54
190.223	1975.1
190.298	1971.06
190.374	1960.17
190.45	1971.96
190.526	1980.42
190.601	1973.1
190.677	1973.67
190.753	2001.21
190.828	2004.4
190.904	2019.05
190.98	2032.74
191.055	2041.68
191.131	2034.6
191.207	2054.85
191.282	2061.65
191.358	2049.53
191.433	2033.78
191.509	2047.94
191.585	2040.86
191.66	2044.66
191.736	2052.18
191.811	2044.99
191.887	2059.69
191.963	2081.24
192.038	2082.48
192.114	2082.57
192.189	2086.61
192.265	2086.42
192.34	2062.54
192.416	2063.73
192.491	2061.11
192.567	2063.11
192.642	2066.63
192.718	2064.01
192.793	2052.84
192.869	2049.27
192.944	2052.69
193.02	2062.02
193.095	2066.82
193.171	2074.43
193.246	2073.76
193.322	2072.24
193.397	2075.05
193.473	2061.58
193.548	2045.41
193.624	2053.45
193.699	2053.4
193.775	2068.01
193.85	2069.15
193.925	2079.76
194.001	2074.67
194.076	2067.87
194.152	2055.55
194.227	2047.46
194.302	2042.85
194.378	2044.8
194.453	2042.33
194.529	2054.79
194.604	2040.38
194.679	2035.95
194.755	2017.7
194.83	2028.45
194.905	2025.83
194.981	2031.83
195.056	2024.46
195.131	2030.45
195.207	2028.4
195.282	2020.79
195.357	2001.72
195.433	2012.85
195.508	2001.1
195.583	2012.27
195.659	2025.07
195.734	2032.35
195.809	2030.78
195.884	2034.58
195.96	2036.15
196.035	2051.22
196.11	2047.66
196.185	2057.64
196.261	2056.5
196.336	2085.99
196.411	2072.34
196.486	2075.62
196.561	2069.86
196.637	2080.23
196.712	2094.26
196.787	2095.55
196.862	2108.58
196.937	2118.42
197.013	2127.13
197.088	2137.74
197.163	2156.15
197.238	2172.63
197.313	2175.96
197.388	2190.66
197.464	2220.07
197.539	2235.72
197.614	2227.25
197.689	2238.43
197.764	2254.47
197.839	2275.26
197.914	2269.41
197.989	2293.82
198.065	2307.76
198.14	2352.43
198.215	2377.23
198.29	2388.13
198.365	2401.27
198.44	2411.36
198.515	2439.78
198.59	2451.59
198.665	2478.92
198.74	2490.44
198.815	2491.11
198.89	2510.06
198.965	2538.11
199.04	2534.97
199.115	2544.87
199.19	2587.53
199.265	2591.01
199.34	2601.06
199.415	2632.79
199.49	2654.6
199.565	2663.32
199.64	2687.66
199.715	2687.66
199.79	2693.61
199.865	2699.9
199.94	2698.71
200.015	2730.2
200.09	2735.87
200.165	2741.97
200.24	2744.12
200.315	2780.6
200.39	2792.8
200.464	2800.9
200.539	2804.19
200.614	2821.43
200.689	2842.92
200.764	2850.55
200.839	2868.6
200.914	2871.89
200.989	2862.88
201.063	2875.75
201.138	2860.79
201.213	2862.13
201.288	2841.54
201.363	2844.98
201.438	2844.64
201.512	2861.41
201.587	2845.3
201.662	2848.68
201.737	2863.98
201.812	2871.7
201.886	2840.13
201.961	2853.19
202.036	2840.47
202.111	2836.85
202.186	2807.04
202.26	2791.69
202.335	2770.86
202.41	2762.81
202.485	2754.14
202.559	2736.99
202.634	2710.35
202.709	2717.78
202.784	2698.15
202.858	2699.77
202.933	2680.25
203.008	2674.15
203.082	2657.09
203.157	2654.43
203.232	2613.95
203.306	2593.22
203.381	2565.55
203.456	2541.54
203.53	2516.81
203.605	2497.05
203.68	2473.52
203.754	2470.33
203.829	2456.43
203.904	2438.57
203.978	2426.53
204.053	2425
204.127	2409.96
204.202	2407.1
204.277	2388.68
204.351	2381.4
204.426	2374.26
204.5	2368.35
204.575	2334.09
204.65	2340.38
204.724	2332.33
204.799	2341.46
204.873	2334.84
204.948	2334.8
205.022	2325.14
205.097	2317.9
205.171	2332.27
205.246	2339.51
205.32	2338.22
205.395	2335.84
205.469	2322.62
205.544	2331.71
205.618	2313.77
205.693	2326.05
205.767	2317.1
205.842	2339.91
205.916	2336.34
205.991	2324.77
206.065	2331.63
206.14	2351.27
206.214	2346.56
206.289	2340.51
206.363	2348.98
206.438	2353.89
206.512	2361.74
206.586	2380.4
206.661	2387.5
206.735	2369.03
206.81	2371.37
206.884	2387.17
206.958	2376.51
207.033	2394.35
207.107	2400.07
207.181	2431.21
207.256	2424.45
207.33	2441.82
207.405	2452.59
207.479	2467.3
207.553	2479.05
207.628	2462.11
207.702	2472.06
207.776	2471.83
207.851	2475.59
207.925	2492.21
207.999	2487.88
208.073	2482.31
208.148	2482.78
208.222	2474.4
208.296	2503.44
208.371	2519.45
208.445	2531.54
208.519	2559.3
208.593	2576.01
208.668	2573.49
208.742	2575.44
208.816	2578.59
208.89	2594.21
208.965	2596.21
209.039	2608.17
209.113	2624.22
209.187	2648.78
209.261	2648.54
209.336	2665.79
209.41	2688.27
209.484	2692.28
209.558	2720.63
209.632	2739.87
209.707	2760.17
209.781	2790.14
209.855	2813.49
209.929	2835.48
210.003	2845.59
210.077	2856.5
210.151	2911.71
210.226	2956.63
210.3	2995.75
210.374	3037.55
210.448	3056.2
210.522	3078.85
210.596	3109.9
210.67	3145.25
210.744	3214.19
210.818	3268.89
210.892	3315.32
210.966	3336.93
211.041	3383.36
211.115	3413.38
211.189	3472.61
211.263	3521.58
211.337	3565.55
211.411	3621.58
211.485	3660.56
211.559	3725.45
211.633	3784.65
211.707	3808.51
211.781	3870.86
211.855	3901.16
211.929	3955.44
212.003	4005.21
212.077	4088.18
212.151	4172.64
212.225	4252.95
212.299	4320.25
212.373	4390.56
212.447	4474.56
212.52	4597.26
212.594	4692.82
212.668	4798.42
212.742	4887.2
212.816	4988.26
212.89	5095.46
212.964	5203.53
213.038	5326.53
213.112	5448.63
213.186	5578.87
213.26	5686.05
213.333	5772.66
213.407	5909.13
213.481	6049.38
213.555	6202.18
213.629	6334.07
213.703	6463.56
213.777	6610.17
213.85	6743.6
213.924	6934.05
213.998	7087.14
214.072	7232.35
214.146	7384.38
214.219	7544.41
214.293	7702.04
214.367	7869.18
214.441	8040.64
214.515	8198.28
214.588	8342.32
214.662	8487.28
214.736	8643.47
214.81	8829.3
214.883	9013.89
214.957	9179.47
215.031	9341.89
215.105	9497.19
215.178	9659.47
215.252	9827.4
215.326	9983.93
215.4	10141.91
215.473	10268.47
215.547	10437.43
215.621	10606.74
215.694	10779.96
215.768	10938.3
215.842	11107.82
215.915	11268.82
215.989	11423.43
216.063	11588.73
216.136	11768.74
216.21	11943.45
216.284	12124.38
216.357	12294.73
216.431	12460.29
216.504	12639.51
216.578	12831.59
216.652	13005.17
216.725	13174.61
216.799	13353.06
216.873	13516.95
216.946	13683.4
217.02	13850.77
217.093	13995.68
217.167	14140.96
217.24	14294.64
217.314	14439.59
217.387	14582.52
217.461	14730.94
217.535	14886.97
217.608	15024.88
217.682	15174.17
217.755	15333.38
217.829	15464.29
217.902	15594.77
217.976	15734.8
218.049	15861.95
218.123	15977.77
218.196	16114.46
218.27	16236.4
218.343	16356.9
218.417	16487.56
218.49	16614.27
218.563	16752.21
218.637	16884.07
218.71	17017.71
218.784	17138.39
218.857	17264.56
218.931	17391.56
219.004	17512.91
219.077	17630.21
219.151	17744.47
219.224	17844.13
219.298	17946.73
219.371	18064.13
219.444	18154.87
219.518	18257.47
219.591	18365.13
219.665	18492.02
219.738	18587.48
219.811	18677.74
219.885	18762.75
219.958	18856.48
220.031	18948.62
220.105	19030.01
220.178	19125.96
220.251	19202.34
220.325	19292.65
220.398	19389.03
220.471	19459.82
220.544	19543.63
220.618	19604.2
220.691	19687.23
220.764	19766.84
220.838	19844.96
220.911	19912.38
220.984	20013.73
221.057	20089.24
221.131	20152.57
221.204	20181.63
221.277	20265.82
221.35	20359.99
221.424	20424.27
221.497	20491.07
221.57	20546.39
221.643	20616.52
221.716	20672.04
221.79	20723.85
221.863	20766.84
221.936	20802.84
222.009	20858.36
222.082	20896.67
222.155	20944.67
222.229	20999.23
222.302	21036.48
222.375	21069.4
222.448	21116.01
222.521	21147.19
222.594	21188.16
222.667	21220.64
222.74	21276.36
222.814	21317.14
222.887	21340.71
222.96	21385.19
223.033	21423.18
223.106	21462.12
223.179	21482.85
223.252	21503.43
223.325	21534.08
223.398	21569.89
223.471	21600.21
223.544	21619.44
223.617	21648.27
223.69	21677.47
223.763	21688.95
223.837	21715.31
223.91	21738.21
223.983	21741.92
224.056	21744.23
224.129	21753.92
224.202	21787.95
224.275	21784.96
224.348	21779.9
224.42	21775.37
224.493	21767.9
224.566	21762.45
224.639	21761.78
224.712	21767.75
224.785	21777.73
224.858	21775.27
224.931	21769.68
225.004	21771.95
225.077	21790.75
225.15	21771.61
225.223	21774.02
225.296	21803.28
225.369	21791.38
225.442	21784.15
225.514	21784.58
225.587	21795.47
225.66	21807.57
225.733	21789.79
225.806	21802.12
225.879	21797.83
225.952	21803.43
226.025	21819.33
226.097	21836.54
226.17	21844.16
226.243	21821.36
226.316	21814.85
226.389	21819.43
226.461	21823.58
226.534	21816.92
226.607	21805.64
226.68	21824.39
226.753	21827.96
226.825	21789.64
226.898	21797.54
226.971	21803.28
227.044	21802.51
227.117	21799.86
227.189	21780.63
227.262	21788.92
227.335	21782.17
227.407	21767.13
227.48	21753.44
227.553	21744.67
227.626	21731.07
227.698	21712.42
227.771	21706.35
227.844	21679.98
227.916	21664.56
227.989	21639.64
228.062	21635.83
228.134	21643.25
228.207	21629.95
228.28	21599.53
228.352	21584.69
228.425	21573.8
228.498	21557.6
228.57	21537.79
228.643	21543.24
228.716	21537.65
228.788	21517.11
228.861	21501.01
228.934	21512.58
229.006	21500.77
229.079	21479.56
229.151	21453.73
229.224	21444.23
229.296	21436.33
229.369	21471.52
229.442	21477.49
229.514	21454.07
229.587	21446.65
229.659	21416.86
229.732	21407.89
229.804	21417.87
229.877	21433.97
229.949	21434.93
230.022	21442.65
230.094	21430.6
230.167	21410.74
230.239	21385.34
230.312	21366.54
230.384	21374.06
230.457	21350.34
230.529	21344.13
230.602	21333.96
230.674	21327.35
230.747	21319.93
230.819	21319.88
230.892	21258.86
230.964	21242.96
231.037	21234.28
231.109	21220.6
231.181	21203.24
231.254	21171.24
231.326	21137.6
231.399	21118.32
231.471	21091.23
231.544	21052.77
231.616	21049.5
231.688	21025.49
231.761	21003.03
231.833	20981.59
231.905	20935.7
231.978	20922.26
232.05	20879.94
232.122	20851.03
232.195	20817
232.267	20810.06
232.339	20787.12
232.412	20780.9
232.484	20751.84
232.556	20718.49
232.629	20707.94
232.701	20685.43
232.773	20669.96
232.846	20652.13
232.918	20611.45
232.99	20581.23
233.062	20553.57
233.135	20525.91
233.207	20478.25
233.279	20460.9
233.351	20444.75
233.424	20416.12
233.496	20380.08
233.568	20382.15
233.64	20354.49
233.713	20335.55
233.785	20293.09
233.857	20268.8
233.929	20227.64
234.001	20217.52
234.074	20216.61
234.146	20165.38
234.218	20147.98
234.29	20119.89
234.362	20079.45
234.434	20051.07
234.507	20017.48
234.579	19979.75
234.651	19952.86
234.723	19937.05
234.795	19913.63
234.867	19880.81
234.939	19866.88
235.012	19845.34
235.084	19819.17
235.156	19797.49
235.228	19759.51
235.3	19733.73
235.372	19706.75
235.444	19686.07
235.516	19633.79
235.588	19595.96
235.66	19578.99
235.732	19535.43
235.804	19552.92
235.876	19541.26
235.948	19527.91
236.02	19498.23
236.092	19474.23
236.164	19440.69
236.236	19407.44
236.308	19364.02
236.38	19345.13
236.452	19309.03
236.524	19279.06
236.596	19269.28
236.668	19247.16
236.74	19230
236.812	19196.7
236.884	19177.52
236.956	19154.68
237.028	19109.48
237.1	19072.23
237.172	19051.03
237.244	19037.97
237.316	18971.85
237.388	18929.88
237.46	18884.34
237.532	18862.27
237.604	18827.86
237.675	18811.18
237.747	18786.41
237.819	18760.1
237.891	18720.3
237.963	18683.43
238.035	18637.03
238.107	18568.64
238.178	18547.92
238.25	18510.24
238.322	18509.61
238.394	18453.61
238.466	18416.8
238.538	18402.73
238.609	18383.59
238.681	18335.84
238.753	18295.79
238.825	18263.36
238.897	18237.14
238.968	18237.29
239.04	18203.02
239.112	18195.94
239.184	18151.65
239.255	18129.1
239.327	18102.79
239.399	18073.3
239.471	18050.4
239.542	18036.72
239.614	18021.01
239.686	17967.85
239.758	17945.69
239.829	17893.4
239.901	17869.64
239.973	17845.93
240.044	17820.48
240.116	17787.96
240.188	17756.53
240.259	17726.37
240.331	17693.84
240.403	17665.64
240.474	17607.04
240.546	17571.72
240.618	17519.62
240.689	17488.06
240.761	17455.57
240.833	17433.98
240.904	17397.69
240.976	17369.16
241.048	17334.9
241.119	17312.92
241.191	17282.42
241.262	17265.5
241.334	17241.55
241.405	17216.2
241.477	17179.04
241.549	17141.21
241.62	17114.94
241.692	17086.94
241.763	17071.47
241.835	17045.3
241.906	17013.98
241.978	16968.72
242.049	16944.67
242.121	16925.78
242.192	16904.91
242.264	16856.52
242.335	16815.51
242.407	16803.46
242.478	16766.98
242.55	16731.46
242.621	16688.61
242.693	16663.16
242.764	16622.49
242.836	16580.36
242.907	16557.95
242.979	16531.54
243.05	16508.84
243.122	16480.07
243.193	16453.85
243.264	16406.52
243.336	16374.37
243.407	16359.77
243.479	16348.15
243.55	16327.91
243.622	16304.73
243.693	16279.09
243.764	16277.64
243.836	16235.9
243.907	16192.14
243.978	16161.63
244.05	16148.28
244.121	16102.05
244.192	16082.68
244.264	16042.72
244.335	16018.77
244.407	15967.1
244.478	15940.2
244.549	15898.51
244.62	15867.18
244.692	15834.5
244.763	15809.15
244.834	15773.67
244.906	15733.95
244.977	15714.05
245.048	15696.36
245.119	15661.61
245.191	15615.24
245.262	15564
245.333	15547.37
245.405	15525.78
245.476	15502.83
245.547	15471.02
245.618	15460.75
245.689	15425.23
245.761	15406
245.832	15381.42
245.903	15364.59
245.974	15343.91
246.045	15313.69
246.117	15295.04
246.188	15265.25
246.259	15224.76
246.33	15193.96
246.401	15169.76
246.473	15127.82
246.544	15096.01
246.615	15078.03
246.686	15047.32
246.757	15030.16
246.828	14999.22
246.899	14986.39
246.97	14934.96
247.042	14898.33
247.113	14881.12
247.184	14873.07
247.255	14838.31
247.326	14805.97
247.397	14777.58
247.468	14748.03
247.539	14734.58
247.61	14690.52
247.681	14663.86
247.752	14655.86
247.823	14624.82
247.894	14597.97
247.965	14552.8
248.037	14518.52
248.108	14473.79
248.179	14450.51
248.25	14422.69
248.321	14403.07
248.392	14358.63
248.463	14360.41
248.534	14334.81
248.605	14311.1
248.675	14282.46
248.746	14263.57
248.817	14244.38
248.888	14218.35
248.959	14175.59
249.03	14156.46
249.101	14132.59
249.172	14106.42
249.243	14062.4
249.314	14053.82
249.385	14030.35
249.456	14022.01
249.527	13990.05
249.598	13973.99
249.669	13949.12
249.739	13927.43
249.81	13908.92
249.881	13868.66
249.952	13853.67
250.023	13833.57
250.094	13796.55
250.165	13766.71
250.235	13741.35
250.306	13713.87
250.377	13694.69
250.448	13678.06
250.519	13632.55
250.59	13617.8
250.66	13590.75
250.731	13584.78
250.802	13562.12
250.873	13541.25
250.944	13530.59
251.014	13508.71
251.085	13500.66
251.156	13486.1
251.227	13475.01
251.297	13468.45
251.368	13465.03
251.439	13441.36
251.51	13426.22
251.58	13393.59
251.651	13365.39
251.722	13355.26
251.792	13325.67
251.863	13291.15
251.934	13288.45
252.005	13301.32
252.075	13286.86
252.146	13277.65
252.217	13265.5
252.287	13247.57
252.358	13227.28
252.429	13223.52
252.499	13202.79
252.57	13189
252.641	13174.1
252.711	13149.66
252.782	13112.11
252.852	13105.36
252.923	13081.93
252.994	13062.55
253.064	13051.42
253.135	13023.46
253.205	12992.66
253.276	12988.27
253.347	12984.17
253.417	12950.57
253.488	12916.83
253.558	12894.36
253.629	12875.85
253.699	12857
253.77	12846.78
253.841	12820.75
253.911	12798.19
253.982	12778.09
254.052	12761.22
254.123	12753.99
254.193	12732.97
254.264	12745.7
254.334	12717.74
254.405	12690.45
254.475	12664.91
254.546	12642.3
254.616	12643.02
254.687	12635.55
254.757	12617.66
254.827	12597.47
254.898	12588.6
254.968	12570.57
255.039	12547.53
255.109	12533.4
255.18	12506.02
255.25	12463.7
255.321	12456.66
255.391	12423.93
255.461	12426.15
255.532	12382.48
255.602	12353.99
255.673	12321.88
255.743	12297.2
255.813	12258.69
255.884	12252.76
255.954	12242.2
256.024	12241.92
256.095	12211.84
256.165	12180.89
256.235	12166.57
256.306	12147.44
256.376	12139.39
256.446	12127.77
256.517	12117.36
256.587	12110.27
256.657	12095.81
256.728	12083.33
256.798	12063.66
256.868	12043.95
256.938	12009.05
257.009	12006.54
257.079	12002.4
257.149	12017.87
257.219	11983.55
257.29	11976.9
257.36	11941.95
257.43	11931.64
257.5	11893.42
257.571	11877.99
257.641	11864.5
257.711	11840.97
257.781	11829.02
257.852	11808.34
257.922	11773.06
257.992	11745.83
258.062	11728.52
258.132	11718.55
258.202	11697.58
258.273	11679.03
258.343	11673.29
258.413	11654.01
258.483	11634.78
258.553	11594
258.623	11559.11
258.693	11540.31
258.764	11535.78
258.834	11539.54
258.904	11526.53
258.974	11505.42
259.044	11485.7
259.114	11479
259.184	11464.5
259.254	11441.46
259.324	11406.76
259.394	11399.53
259.464	11401.46
259.535	11379.09
259.605	11359.67
259.675	11339.77
259.745	11327.09
259.815	11299.62
259.885	11280.87
259.955	11295.82
260.025	11271.24
260.095	11255.62
260.165	11241.65
260.235	11240.54
260.305	11204.25
260.375	11179.09
260.445	11182.9
260.515	11181.94
260.585	11171.29
260.655	11153.65
260.725	11148.2
260.795	11142.32
260.865	11144.97
260.934	11117.99
261.004	11107.53
261.074	11090.27
261.144	11089.36
261.214	11088.01
261.284	11069.7
261.354	11056.69
261.424	11025.02
261.494	11025.41
261.564	11012.16
261.634	11007.72
261.703	10971.29
261.773	10971.53
261.843	10961.07
261.913	10946.95
261.983	10913.37
262.053	10904.35
262.123	10883.78
262.192	10856.02
