Data from 20250625_urea_1M_1_MAYP1162681_03-55-06-246.txt Node
Date: Thu Jun 26 03:55:06 BST 2025
User: adleo
Spectrometer: MAYP116268
Trigger mode: 0
Integration Time (sec): 1.000000E0
Scans to average: 1
Electric dark correction enabled: true
Nonlinearity correction enabled: true
Boxcar width: 10
XAxis mode: Wavelengths
Number of Pixels in Spectrum: 2068
>>>>>Begin Spectral Data<<<<<
179.565	1108.03
179.642	1159.18
179.718	1195.7
179.795	1230.86
179.871	1258.01
179.948	1274.34
180.024	1295.15
180.101	1317.47
180.177	1329.56
180.254	1347.58
180.33	1368.87
180.407	1416.48
180.483	1504.6
180.56	1587.55
180.636	1664.89
180.712	1654.15
180.789	1661.75
180.865	1673.29
180.942	1681.22
181.018	1691.2
181.095	1701.66
181.171	1705.6
181.248	1705.88
181.324	1722.99
181.4	1729.22
181.477	1741.58
181.553	1751.03
181.63	1767.95
181.706	1779.97
181.782	1789.43
181.859	1791.75
181.935	1796.65
182.011	1792.99
182.088	1806.11
182.164	1822.65
182.24	1834.34
182.317	1842.47
182.393	1839.33
182.469	1851.55
182.546	1861.86
182.622	1866.38
182.698	1864.47
182.775	1874.6
182.851	1888
182.927	1880.3
183.003	1876.64
183.08	1870.37
183.156	1881.92
183.232	1879.87
183.308	1870.56
183.385	1876.4
183.461	1893.23
183.537	1891.38
183.613	1904.07
183.69	1895.56
183.766	1887.86
183.842	1896.8
183.918	1902.08
183.995	1914.77
184.071	1921.61
184.147	1920.19
184.223	1906.88
184.299	1919.01
184.375	1908.6
184.452	1916.21
184.528	1965
184.604	1974.07
184.68	1984.86
184.756	1991.57
184.832	1996.85
184.908	2003.36
184.985	2001.93
185.061	1987.81
185.137	1996.99
185.213	1982.16
185.289	1985.06
185.365	1975.69
185.441	1973.55
185.517	1987.2
185.593	1984.21
185.669	1979.17
185.745	1987.82
185.822	2004.22
185.898	1997.42
185.974	2007.4
186.05	1996.84
186.126	1964.74
186.202	1960.51
186.278	1957.52
186.354	1949.43
186.43	1954.95
186.506	1951.96
186.582	1953.43
186.658	1959.51
186.734	1943.49
186.81	1947.68
186.886	1954.19
186.962	1966.03
187.038	1962.51
187.114	1955.61
187.19	1961.89
187.266	1955.23
187.341	1951.62
187.417	1943.06
187.493	1942.63
187.569	1947.39
187.645	1944.39
187.721	1929.94
187.797	1934.98
187.873	1940.25
187.949	1932.89
188.025	1926.23
188.101	1928.7
188.176	1933.93
188.252	1930.22
188.328	1935.83
188.404	1938.39
188.48	1931.03
188.556	1925.42
188.632	1925.99
188.707	1924.94
188.783	1923.99
188.859	1918.76
188.935	1911.87
189.011	1920.8
189.086	1913.44
189.162	1907.63
189.238	1903.93
189.314	1901.79
189.39	1899.55
189.465	1890.38
189.541	1905.02
189.617	1891.42
189.693	1885.86
189.768	1888.05
189.844	1909.36
189.92	1903.28
189.996	1909.27
190.071	1917.87
190.147	1917.87
190.223	1925.77
190.298	1918.39
190.374	1902.71
190.45	1913.5
190.526	1921.1
190.601	1917.35
190.677	1920.2
190.753	1940.56
190.828	1943.94
190.904	1958.91
190.98	1971.28
191.055	1981.93
191.131	1977.17
191.207	1995.81
191.282	2004.08
191.358	1995.19
191.433	1984.2
191.509	1994.66
191.585	1989.57
191.66	1993.23
191.736	2000.08
191.811	1991.14
191.887	2006.26
191.963	2030.04
192.038	2034.65
192.114	2033.94
192.189	2041.5
192.265	2037.46
192.34	2018.14
192.416	2018.9
192.491	2015
192.567	2017.33
192.642	2020.24
192.718	2018.9
192.793	2007.16
192.869	2004.31
192.944	2007.25
193.02	2011.2
193.095	2013.91
193.171	2023.04
193.246	2019
193.322	2016.81
193.397	2015.34
193.473	2000.55
193.548	1982.66
193.624	1986.8
193.699	1985.8
193.775	1999.51
193.85	2000.41
193.925	2007.68
194.001	2006.16
194.076	1998.13
194.152	1988.09
194.227	1980.48
194.302	1971.64
194.378	1974.21
194.453	1971.88
194.529	1982.82
194.604	1968.84
194.679	1964.79
194.755	1945.07
194.83	1959.43
194.905	1958.15
194.981	1968.28
195.056	1963.9
195.131	1974.51
195.207	1970.99
195.282	1962.15
195.357	1940.65
195.433	1956.34
195.508	1945.97
195.583	1955.1
195.659	1971.32
195.734	1978.21
195.809	1978.21
195.884	1984.73
195.96	1986.1
196.035	2000.23
196.11	1997.85
196.185	2010.59
196.261	2012.3
196.336	2042.26
196.411	2028.18
196.486	2030.27
196.561	2023.9
196.637	2029.84
196.712	2042.54
196.787	2046.06
196.862	2063.56
196.937	2073.31
197.013	2079.31
197.088	2086.82
197.163	2104.9
197.238	2116.18
197.313	2114.56
197.388	2129.6
197.464	2161.62
197.539	2171.42
197.614	2165
197.689	2175.51
197.764	2189.26
197.839	2211.1
197.914	2207.58
197.989	2227.9
198.065	2242.88
198.14	2290.64
198.215	2317.9
198.29	2328.85
198.365	2343.61
198.44	2350.74
198.515	2375.68
198.59	2389.97
198.665	2417.67
198.74	2425.29
198.815	2427.95
198.89	2450.75
198.965	2477.04
199.04	2470.57
199.115	2487.99
199.19	2527.21
199.265	2530.4
199.34	2539.45
199.415	2569.8
199.49	2588.51
199.565	2597.37
199.64	2620.8
199.715	2617.37
199.79	2622.65
199.865	2628.61
199.94	2626.94
200.015	2657.19
200.09	2663.09
200.165	2665.48
200.24	2671.34
200.315	2711.01
200.39	2728.21
200.464	2730.87
200.539	2730.11
200.614	2747.5
200.689	2768.08
200.764	2773.37
200.839	2789.52
200.914	2796.23
200.989	2787.41
201.063	2800.99
201.138	2786.04
201.213	2785.52
201.288	2765.46
201.363	2768.8
201.438	2766.46
201.512	2784.61
201.587	2768.07
201.662	2772.55
201.737	2786.66
201.812	2794.52
201.886	2761.52
201.961	2770.77
202.036	2760.63
202.111	2759.29
202.186	2729.44
202.26	2712.57
202.335	2693.94
202.41	2688.08
202.485	2671.36
202.559	2653.74
202.634	2625.73
202.709	2633.68
202.784	2611.72
202.858	2614.1
202.933	2598.29
203.008	2595.05
203.082	2571.81
203.157	2572.43
203.232	2533.78
203.306	2511.63
203.381	2479.86
203.456	2457.72
203.53	2432.17
203.605	2415.23
203.68	2393.42
203.754	2388.33
203.829	2374.85
203.904	2355.86
203.978	2344.96
204.053	2348.77
204.127	2333.92
204.202	2335.49
204.277	2321.16
204.351	2319.12
204.426	2310.02
204.5	2306.41
204.575	2272.53
204.65	2280.53
204.724	2271.95
204.799	2281.13
204.873	2278.9
204.948	2278.56
205.022	2268.95
205.097	2261.05
205.171	2274.33
205.246	2281.75
205.32	2282.56
205.395	2282.27
205.469	2275.09
205.544	2278.81
205.618	2262.05
205.693	2273.19
205.767	2258.82
205.842	2276.19
205.916	2268.06
205.991	2261.63
206.065	2262.87
206.14	2278.76
206.214	2277.42
206.289	2271.42
206.363	2279.09
206.438	2282.42
206.512	2290.46
206.586	2306.36
206.661	2315.26
206.735	2294.9
206.81	2294.42
206.884	2310.6
206.958	2298.14
207.033	2314.98
207.107	2324.26
207.181	2356.97
207.256	2352.4
207.33	2375.15
207.405	2385.3
207.479	2406.1
207.553	2411.76
207.628	2397.35
207.702	2409.72
207.776	2404.34
207.851	2407.72
207.925	2424.01
207.999	2422.15
208.073	2418.91
208.148	2423.44
208.222	2412.3
208.296	2440.32
208.371	2457.85
208.445	2466.47
208.519	2495.03
208.593	2508.6
208.668	2502.6
208.742	2503.17
208.816	2505.98
208.89	2518.18
208.965	2521.18
209.039	2530.85
209.113	2548.04
209.187	2572.21
209.261	2571.45
209.336	2592.98
209.41	2613.84
209.484	2618.94
209.558	2643.19
209.632	2662
209.707	2674.67
209.781	2701.2
209.855	2724.64
209.929	2745.2
210.003	2761.68
210.077	2767.64
210.151	2818.68
210.226	2861.1
210.3	2895.59
210.374	2929.99
210.448	2944.77
210.522	2963.99
210.596	2989.59
210.67	3017.58
210.744	3077.92
210.818	3124.06
210.892	3162.36
210.966	3180.1
211.041	3218.6
211.115	3238.3
211.189	3286.05
211.263	3332.47
211.337	3370.64
211.411	3415.08
211.485	3442.78
211.559	3488.31
211.633	3532.4
211.707	3544.1
211.781	3597.43
211.855	3613.57
211.929	3657.54
212.003	3692.82
212.077	3760.19
212.151	3823.85
212.225	3889.94
212.299	3941.4
212.373	3995.02
212.447	4060.92
212.52	4158.75
212.594	4236.77
212.668	4320.83
212.742	4389.1
212.816	4466.7
212.89	4545.22
212.964	4630.34
213.038	4727.97
213.112	4828.77
213.186	4933.94
213.26	5012.74
213.333	5071.9
213.407	5177.73
213.481	5284.88
213.555	5410.19
213.629	5511.46
213.703	5613.5
213.777	5725.2
213.85	5825.55
213.924	5978.61
213.998	6104.35
214.072	6222.07
214.146	6328.34
214.219	6461.42
214.293	6584.56
214.367	6719.46
214.441	6865.24
214.515	6990.25
214.588	7102.25
214.662	7212.1
214.736	7333.82
214.81	7480.41
214.883	7631.27
214.957	7766.35
215.031	7889.99
215.105	8007.12
215.178	8135.59
215.252	8269.08
215.326	8397.64
215.4	8524.51
215.473	8625.68
215.547	8752.56
215.621	8892.23
215.694	9044.78
215.768	9170.44
215.842	9308.86
215.915	9438.68
215.989	9554.31
216.063	9698.8
216.136	9839
216.21	9983.87
216.284	10141.19
216.357	10290.04
216.431	10425.32
216.504	10575.11
216.578	10749.47
216.652	10898.68
216.725	11040.34
216.799	11190.07
216.873	11329.63
216.946	11474.87
217.02	11611.73
217.093	11740.75
217.167	11850.65
217.24	11965.12
217.314	12090.77
217.387	12214.36
217.461	12338.72
217.535	12482.64
217.608	12590.19
217.682	12717.83
217.755	12852.9
217.829	12961.45
217.902	13081
217.976	13199.15
218.049	13318.9
218.123	13418.1
218.196	13542.09
218.27	13652.29
218.343	13752.07
218.417	13863.86
218.49	13966.06
218.563	14082.52
218.637	14200.24
218.71	14332.08
218.784	14457.94
218.857	14573.97
218.931	14686.48
219.004	14790.7
219.077	14896.84
219.151	15003.42
219.224	15104.55
219.298	15199.94
219.371	15315.24
219.444	15398.82
219.518	15499.13
219.591	15583.53
219.665	15707.65
219.738	15797.54
219.811	15882.08
219.885	15981.09
219.958	16076.18
220.031	16175.38
220.105	16271.92
220.178	16356.46
220.251	16428.85
220.325	16511.07
220.398	16597.53
220.471	16676.24
220.544	16765.59
220.618	16837.45
220.691	16922.95
220.764	17000.02
220.838	17078.72
220.911	17141.9
220.984	17229.32
221.057	17306.05
221.131	17381.47
221.204	17418.39
221.277	17506.1
221.35	17609.81
221.424	17675.83
221.497	17742.29
221.57	17811.88
221.643	17881.56
221.716	17951.3
221.79	18013.32
221.863	18073.46
221.936	18139.24
222.009	18198.85
222.082	18256.73
222.155	18309.69
222.229	18380.63
222.302	18435.33
222.375	18487.23
222.448	18542.55
222.521	18595.85
222.594	18644.37
222.667	18680.61
222.74	18747.69
222.814	18788.61
222.887	18816.46
222.96	18868.94
223.033	18917.51
223.106	18957.95
223.179	19000.16
223.252	19035.24
223.325	19074.18
223.398	19113.65
223.471	19142.56
223.544	19180.53
223.617	19218.56
223.69	19256
223.763	19275.56
223.837	19316.62
223.91	19346.79
223.983	19362.11
224.056	19372.81
224.129	19405.15
224.202	19452.13
224.275	19454.83
224.348	19461.29
224.42	19468.18
224.493	19469.82
224.566	19482.11
224.639	19503.6
224.712	19511.7
224.785	19538.73
224.858	19555.07
224.931	19564.95
225.004	19575.35
225.077	19587.64
225.15	19578.49
225.223	19587.84
225.296	19622.24
225.369	19617.71
225.442	19626.39
225.514	19645.13
225.587	19675.45
225.66	19689.28
225.733	19701.57
225.806	19725.9
225.879	19750.29
225.952	19765.9
226.025	19799.87
226.097	19828.79
226.17	19843.2
226.243	19835.25
226.316	19835
226.389	19847.58
226.461	19862.23
226.534	19870.81
226.607	19883.77
226.68	19915.1
226.753	19921.31
226.825	19910.86
226.898	19938.13
226.971	19947.67
227.044	19961.75
227.117	19967.24
227.189	19982.03
227.262	19993.65
227.335	20000.15
227.407	19989.55
227.48	20002.56
227.553	19997.55
227.626	19999.96
227.698	19999.14
227.771	20013.65
227.844	20006.71
227.916	20008.64
227.989	19996.06
228.062	20002.85
228.134	20021.99
228.207	20026.37
228.28	20030.27
228.352	20031
228.425	20024.06
228.498	20030.9
228.57	20019.82
228.643	20040.44
228.716	20031.48
228.788	20023
228.861	20017.02
228.934	20036.68
229.006	20029.6
229.079	20020.78
229.151	19999.14
229.224	19989.65
229.296	19996.35
229.369	20030.18
229.442	20042.95
229.514	20045.84
229.587	20048.78
229.659	20022.32
229.732	20013.55
229.804	20019.91
229.877	20032.93
229.949	20038.23
230.022	20053.12
230.094	20054.66
230.167	20045.17
230.239	20033.02
230.312	20030.27
230.384	20047.38
230.457	20043.38
230.529	20051.48
230.602	20054.13
230.674	20060.06
230.747	20063.82
230.819	20061.17
230.892	20016.73
230.964	20005.12
231.037	19999.34
231.109	19992.11
231.181	20000.54
231.254	19983.82
231.326	19971.1
231.399	19955.53
231.471	19940.59
231.544	19909.03
231.616	19911.97
231.688	19905.6
231.761	19889.56
231.833	19871.29
231.905	19835.49
231.978	19818.04
232.05	19798.04
232.122	19793.7
232.195	19780.84
232.267	19782.38
232.339	19763.39
232.412	19771.49
232.484	19752.89
232.556	19733.47
232.629	19740.31
232.701	19734.19
232.773	19723.83
232.846	19703.11
232.918	19689.95
232.99	19685.57
233.062	19681.28
233.135	19655.93
233.207	19621.09
233.279	19610.73
233.351	19601.67
233.424	19590.58
233.496	19566.2
233.568	19571.35
233.64	19539.36
233.713	19520.42
233.785	19492.9
233.857	19484.13
233.929	19443.51
234.001	19443.07
234.074	19437.19
234.146	19393.53
234.218	19366.26
234.29	19349.68
234.362	19334.02
234.434	19293.88
234.507	19259.95
234.579	19211.67
234.651	19199.76
234.723	19187.33
234.795	19182.41
234.867	19161.21
234.939	19146.85
235.012	19130.13
235.084	19100.49
235.156	19087.14
235.228	19057.12
235.3	19032.4
235.372	19008.26
235.444	19001.7
235.516	18952.45
235.588	18938.57
235.66	18919.73
235.732	18889.9
235.804	18925.13
235.876	18907.25
235.948	18911.35
236.02	18885.28
236.092	18875.83
236.164	18847.3
236.236	18815.69
236.308	18773.62
236.38	18751.89
236.452	18710.97
236.524	18694.25
236.596	18679.12
236.668	18658.25
236.74	18638.69
236.812	18619.41
236.884	18604.43
236.956	18585.44
237.028	18556.57
237.1	18520.72
237.172	18504.19
237.244	18499.23
237.316	18432.34
237.388	18406.7
237.46	18370.85
237.532	18365.6
237.604	18330.85
237.675	18321.84
237.747	18302.8
237.819	18278.66
237.891	18249.89
237.963	18233.51
238.035	18208.4
238.107	18161.17
238.178	18145.56
238.25	18111.05
238.322	18097.27
238.394	18051.34
238.466	18011.88
238.538	17995.44
238.609	17967.88
238.681	17925.85
238.753	17881.08
238.825	17851.78
238.897	17818.39
238.968	17802.2
239.04	17761.71
239.112	17763.84
239.184	17726.01
239.255	17695.89
239.327	17671.21
239.399	17643.74
239.471	17617.86
239.542	17587.79
239.614	17566.97
239.686	17517.43
239.758	17508.95
239.829	17472.18
239.901	17455.16
239.973	17427.65
240.044	17406.78
240.116	17384.71
240.188	17354.92
240.259	17332.85
240.331	17296.85
240.403	17275.02
240.474	17226.1
240.546	17187.74
240.618	17137.52
240.689	17100.99
240.761	17070.63
240.833	17051.98
240.904	17020.27
240.976	16979.59
241.048	16958.19
241.119	16933.32
241.191	16911.88
241.262	16895.44
241.334	16852.5
241.405	16822.23
241.477	16786.04
241.549	16740.88
241.62	16715
241.692	16692.93
241.763	16682.37
241.835	16656.97
241.906	16633.4
241.978	16595.43
242.049	16583.33
242.121	16567.95
242.192	16550.17
242.264	16507.76
242.335	16476.48
242.407	16459.51
242.478	16433.58
242.55	16398.49
242.621	16363.41
242.693	16332.8
242.764	16296.56
242.836	16275.21
242.907	16245.37
242.979	16229.22
243.05	16216.11
243.122	16180.59
243.193	16152.69
243.264	16099.43
243.336	16063.81
243.407	16038.79
243.479	16035.03
243.55	16013.73
243.622	15987.17
243.693	15960.42
243.764	15959.8
243.836	15915.07
243.907	15875.5
243.978	15849.27
244.05	15831.01
244.121	15788.3
244.192	15769.21
244.264	15729.21
244.335	15703.28
244.407	15671.27
244.478	15648.38
244.549	15615.21
244.62	15578.34
244.692	15547.64
244.763	15531.59
244.834	15503.92
244.906	15472.06
244.977	15442.75
245.048	15428
245.119	15388.77
245.191	15352.33
245.262	15296.56
245.333	15293.04
245.405	15270.53
245.476	15249.7
245.547	15217.41
245.618	15199.33
245.689	15171.28
245.761	15137.73
245.832	15103.75
245.903	15075.4
245.974	15053.71
246.045	15025.27
246.117	15019.87
246.188	14984.3
246.259	14943.08
246.33	14910.69
246.401	14884.37
246.473	14847.74
246.544	14810.28
246.615	14796.69
246.686	14761.65
246.757	14757.21
246.828	14715.9
246.899	14700.72
246.97	14658.63
247.042	14626.72
247.113	14611.34
247.184	14607.44
247.255	14578.32
247.326	14561.31
247.397	14532.91
247.468	14506.55
247.539	14492.95
247.61	14451.16
247.681	14441.9
247.752	14419.49
247.823	14385.65
247.894	14354.84
247.965	14311.8
248.037	14277.72
248.108	14235.39
248.179	14212.44
248.25	14180
248.321	14155.66
248.392	14120.9
248.463	14120.47
248.534	14097.91
248.605	14078.96
248.675	14040.3
248.746	14023.29
248.817	14001.01
248.888	13985.73
248.959	13941.38
249.03	13914.97
249.101	13892.6
249.172	13864.49
249.243	13838.7
249.314	13839.48
249.385	13821.59
249.456	13811.18
249.527	13785.19
249.598	13759.07
249.669	13739.4
249.739	13717.22
249.81	13701.46
249.881	13667.23
249.952	13639.9
250.023	13615.22
250.094	13573.47
250.165	13546.86
250.235	13525.94
250.306	13506.46
250.377	13479.13
250.448	13462.21
250.519	13422.3
250.59	13403.25
250.66	13365.94
250.731	13350.18
250.802	13324.34
250.873	13303.71
250.944	13285.82
251.014	13258.34
251.085	13272.71
251.156	13250.63
251.227	13238.34
251.297	13229.18
251.368	13217.76
251.439	13205.22
251.51	13200.16
251.58	13175.77
251.651	13146.07
251.722	13135.61
251.792	13100.37
251.863	13075.79
251.934	13070.05
252.005	13074.87
252.075	13061.57
252.146	13063.78
252.217	13046.19
252.287	13028.45
252.358	13001.55
252.429	12994.61
252.499	12969.35
252.57	12941.63
252.641	12927.36
252.711	12911.93
252.782	12875.73
252.852	12875.15
252.923	12853.41
252.994	12830.08
253.064	12821.07
253.135	12794.41
253.205	12761.87
253.276	12757.77
253.347	12750.93
253.417	12723.16
253.488	12695.68
253.558	12672.02
253.629	12650.32
253.699	12639.81
253.77	12635.43
253.841	12618.07
253.911	12602.12
253.982	12584.62
254.052	12571.99
254.123	12560.28
254.193	12533.96
254.264	12549.91
254.334	12522
254.405	12493.37
254.475	12457.79
254.546	12434.66
254.616	12433.07
254.687	12425.88
254.757	12404.92
254.827	12382.93
254.898	12367.85
254.968	12348.61
255.039	12323.07
255.109	12308.22
255.18	12279.15
255.25	12229.02
255.321	12218.61
255.391	12183.04
255.461	12193.79
255.532	12147.22
255.602	12126.2
255.673	12088.7
255.743	12058
255.813	12012.79
255.884	12001.17
255.954	11996.35
256.024	11998.66
256.095	11975.38
256.165	11944.1
256.235	11931.95
256.306	11908.09
256.376	11894.16
256.446	11886.07
256.517	11870.74
256.587	11862.25
256.657	11847.31
256.728	11833.58
256.798	11817.19
256.868	11796.85
256.938	11762.77
257.009	11753.18
257.079	11739.68
257.149	11756.21
257.219	11720.69
257.29	11711.97
257.36	11681.27
257.43	11670.76
257.5	11627.91
257.571	11602.75
257.641	11602.51
257.711	11578.27
257.781	11566.94
257.852	11560.39
257.922	11523.27
257.992	11504.53
258.062	11487.56
258.132	11474.74
258.202	11461.24
258.273	11440.23
258.343	11446.5
258.413	11419.75
258.483	11410.74
258.553	11387.31
258.623	11356.42
258.693	11341.96
258.764	11341.96
258.834	11337.24
258.904	11319.16
258.974	11298.15
259.044	11283.65
259.114	11261.86
259.184	11244.99
259.254	11224.42
259.324	11187.5
259.394	11179.74
259.464	11185.04
259.535	11161.96
259.605	11139.88
259.675	11115.69
259.745	11105.04
259.815	11072.99
259.885	11055.02
259.955	11062.3
260.025	11036.32
260.095	11017.34
260.165	11003.12
260.235	10997.53
260.305	10976.04
260.375	10949.39
260.445	10958.16
260.515	10949.53
260.585	10942.35
260.655	10924.09
260.725	10923.37
260.795	10910.5
260.865	10906.5
260.934	10878.74
261.004	10867.08
261.074	10853.49
261.144	10853.78
261.214	10847.13
261.284	10829.74
261.354	10821.83
261.424	10790.46
261.494	10787.81
261.564	10776.97
261.634	10763.57
261.703	10727.77
261.773	10721.03
261.843	10715.19
261.913	10690.33
261.983	10669.18
262.053	10662.53
262.123	10648.99
262.192	10621.43
262.262	10618.59
262.332	10588.95
262.402	10578.59
