Data from 20250625_urea_1M_1_MAYP1162681_08-55-05-819.txt Node
Date: Thu Jun 26 08:55:05 BST 2025
User: adleo
Spectrometer: MAYP116268
Trigger mode: 0
Integration Time (sec): 1.000000E0
Scans to average: 1
Electric dark correction enabled: true
Nonlinearity correction enabled: true
Boxcar width: 10
XAxis mode: Wavelengths
Number of Pixels in Spectrum: 2068
>>>>>Begin Spectral Data<<<<<
179.565	1121.24
179.642	1175.14
179.718	1213.92
179.795	1252.93
179.871	1284.08
179.948	1301.92
180.024	1321.71
180.101	1342.57
180.177	1353.15
180.254	1374.5
180.33	1397.18
180.407	1445.98
180.483	1536.72
180.56	1620.43
180.636	1699.34
180.712	1686.64
180.789	1691.16
180.865	1703.56
180.942	1712.44
181.018	1721.85
181.095	1734.82
181.171	1739.19
181.248	1738.43
181.324	1753.45
181.4	1759.39
181.477	1768.04
181.553	1779.87
181.63	1798.7
181.706	1813.19
181.782	1824.78
181.859	1825.21
181.935	1830.49
182.011	1827.64
182.088	1842.18
182.164	1859.11
182.24	1870.28
182.317	1880.16
182.393	1881.35
182.469	1894.52
182.546	1907.4
182.622	1910.06
182.698	1908.54
182.775	1921.61
182.851	1934.45
182.927	1925.99
183.003	1922.14
183.08	1919.62
183.156	1927.27
183.232	1924.89
183.308	1914.39
183.385	1919.71
183.461	1935.12
183.537	1931.22
183.613	1941.96
183.69	1932.98
183.766	1923.89
183.842	1931.93
183.918	1934.26
183.995	1946.43
184.071	1948.9
184.147	1943.58
184.223	1935.45
184.299	1947.34
184.375	1935.07
184.452	1940.16
184.528	1991.81
184.604	2001.6
184.68	2010.25
184.756	2017.91
184.832	2020.62
184.908	2026.66
184.985	2027.89
185.061	2012.01
185.137	2022.81
185.213	2009.54
185.289	2011.59
185.365	2004.7
185.441	2001.89
185.517	2018.3
185.593	2016.16
185.669	2011.74
185.745	2021.82
185.822	2037.03
185.898	2027.14
185.974	2036.88
186.05	2032.65
186.126	1996.6
186.202	1987.33
186.278	1984.81
186.354	1974.06
186.43	1980.29
186.506	1975.92
186.582	1975.16
186.658	1982.86
186.734	1964.08
186.81	1967.74
186.886	1968.93
186.962	1980.39
187.038	1978.11
187.114	1970.02
187.19	1975.96
187.266	1967.74
187.341	1967.45
187.417	1960.99
187.493	1961.61
187.569	1963.27
187.645	1956.66
187.721	1944.72
187.797	1954.76
187.873	1957.28
187.949	1951.05
188.025	1945.96
188.101	1952.09
188.176	1955.8
188.252	1949
188.328	1957.08
188.404	1956.42
188.48	1950.52
188.556	1944.53
188.632	1943.87
188.707	1943.2
188.783	1942.3
188.859	1940.3
188.935	1931.26
189.011	1939.82
189.086	1935.92
189.162	1929.03
189.238	1924.56
189.314	1925.09
189.39	1918.38
189.465	1911.3
189.541	1929.37
189.617	1913.25
189.693	1908.21
189.768	1911.92
189.844	1935.75
189.92	1926.67
189.996	1937.23
190.071	1948.4
190.147	1951.35
190.223	1960.62
190.298	1953.82
190.374	1939.17
190.45	1948.63
190.526	1953.15
190.601	1946.02
190.677	1947.21
190.753	1976.51
190.828	1982.84
190.904	1994.2
190.98	2007.52
191.055	2018.93
191.131	2012.08
191.207	2034.14
191.282	2041.89
191.358	2033.38
191.433	2020.54
191.509	2034.51
191.585	2031.89
191.66	2032.51
191.736	2037.41
191.811	2028.14
191.887	2043.26
191.963	2068.04
192.038	2072.42
192.114	2074.84
192.189	2076.89
192.265	2073.46
192.34	2048.58
192.416	2046.58
192.491	2045.15
192.567	2049.82
192.642	2052.39
192.718	2048.11
192.793	2034.79
192.869	2031.75
192.944	2031.94
193.02	2039.26
193.095	2042.45
193.171	2048.16
193.246	2048.25
193.322	2043.54
193.397	2041.97
193.473	2029.51
193.548	2012.62
193.624	2018.85
193.699	2020.38
193.775	2037.17
193.85	2039.4
193.925	2048.77
194.001	2047.58
194.076	2038.83
194.152	2026.13
194.227	2020.47
194.302	2014.67
194.378	2019.9
194.453	2017.72
194.529	2032.36
194.604	2017.48
194.679	2012.49
194.755	1991.62
194.83	2003.18
194.905	2004.98
194.981	2015.73
195.056	2006.89
195.131	2013.55
195.207	2011.93
195.282	1997.95
195.357	1978.92
195.433	1993.86
195.508	1982.25
195.583	1991.52
195.659	2005.98
195.734	2013.02
195.809	2011.97
195.884	2018.15
195.96	2016.01
196.035	2027.81
196.11	2025.14
196.185	2039.22
196.261	2040.08
196.336	2072.65
196.411	2058.48
196.486	2059.9
196.561	2053.39
196.637	2062.94
196.712	2076.98
196.787	2081.98
196.862	2098.81
196.937	2108.8
197.013	2113.13
197.088	2124.63
197.163	2145.29
197.238	2161.95
197.313	2162.57
197.388	2174.18
197.464	2206.25
197.539	2219.95
197.614	2213.53
197.689	2224
197.764	2239.75
197.839	2260.07
197.914	2254.26
197.989	2276.82
198.065	2291.47
198.14	2339.56
198.215	2365.4
198.29	2373.55
198.365	2383.78
198.44	2395.01
198.515	2420.95
198.59	2434.38
198.665	2457.71
198.74	2463.33
198.815	2467.18
198.89	2490.56
198.965	2518.8
199.04	2514.04
199.115	2529.32
199.19	2569.45
199.265	2572.83
199.34	2582.55
199.415	2614.38
199.49	2631.9
199.565	2641.95
199.64	2664.86
199.715	2660.61
199.79	2665.95
199.865	2676.62
199.94	2674.1
200.015	2705.21
200.09	2711.5
200.165	2716.98
200.24	2722.41
200.315	2760.46
200.39	2772.99
200.464	2778.42
200.539	2777.66
200.614	2794.09
200.689	2815.06
200.764	2823.02
200.839	2839.79
200.914	2843.22
200.989	2835.83
201.063	2853.27
201.138	2836.51
201.213	2835.89
201.288	2819.22
201.363	2825.84
201.438	2825.46
201.512	2841.75
201.587	2825.02
201.662	2829.21
201.737	2841.74
201.812	2849.46
201.886	2820.37
201.961	2827.38
202.036	2813.09
202.111	2810.14
202.186	2780.66
202.26	2761.98
202.335	2740.25
202.41	2733.81
202.485	2718.29
202.559	2696.56
202.634	2669.22
202.709	2678.26
202.784	2660.11
202.858	2662.3
202.933	2642.92
203.008	2633.34
203.082	2615.15
203.157	2613.39
203.232	2575.3
203.306	2550.86
203.381	2522.61
203.456	2499.65
203.53	2477.82
203.605	2462.12
203.68	2440.54
203.754	2434.79
203.829	2420.98
203.904	2403.51
203.978	2390.7
204.053	2396.8
204.127	2387.13
204.202	2384.75
204.277	2367.67
204.351	2359.95
204.426	2350.67
204.5	2343.77
204.575	2312.08
204.65	2319.93
204.724	2311.41
204.799	2318.02
204.873	2317.92
204.948	2315.64
205.022	2303.46
205.097	2294.22
205.171	2307.64
205.246	2319.93
205.32	2319.26
205.395	2320.16
205.469	2312.79
205.544	2317.74
205.618	2296.7
205.693	2305.22
205.767	2292.71
205.842	2313.8
205.916	2310.61
205.991	2301.66
206.065	2306.09
206.14	2321.07
206.214	2315.83
206.289	2309.69
206.363	2320.16
206.438	2322.21
206.512	2329.16
206.586	2347.76
206.661	2358.72
206.735	2336.45
206.81	2333.07
206.884	2348.73
206.958	2337.21
207.033	2351.06
207.107	2357.06
207.181	2388.53
207.256	2384.58
207.33	2403.71
207.405	2415
207.479	2430.9
207.553	2437.71
207.628	2423.15
207.702	2435.43
207.776	2432.62
207.851	2437.47
207.925	2453.34
207.999	2452.05
208.073	2447.86
208.148	2448.34
208.222	2438.29
208.296	2468.74
208.371	2488.33
208.445	2499.37
208.519	2528.46
208.593	2540.7
208.668	2539.32
208.742	2544.08
208.816	2547.75
208.89	2563.71
208.965	2561.18
209.039	2569.23
209.113	2588.33
209.187	2608.7
209.261	2607.7
209.336	2629.37
209.41	2648.62
209.484	2648.95
209.558	2674.82
209.632	2694.49
209.707	2711.4
209.781	2735.27
209.855	2754.76
209.929	2775.84
210.003	2787.23
210.077	2790.14
210.151	2843.94
210.226	2882.99
210.3	2914.38
210.374	2943.63
210.448	2954.26
210.522	2973.57
210.596	2992.16
210.67	3011.71
210.744	3070.18
210.818	3111.31
210.892	3141.27
210.966	3150.09
211.041	3177.6
211.115	3189.76
211.189	3229.16
211.263	3262.79
211.337	3287.41
211.411	3324.73
211.485	3340.01
211.559	3374.31
211.633	3405.64
211.707	3403.78
211.781	3442.09
211.855	3446.92
211.929	3470.96
212.003	3491.67
212.077	3540.15
212.151	3589
212.225	3641.44
212.299	3673.37
212.373	3708.09
212.447	3754.06
212.52	3832.51
212.594	3889.62
212.668	3951.25
212.742	3991.97
212.816	4046.13
212.89	4104.02
212.964	4161.08
213.038	4225.99
213.112	4301.23
213.186	4381.86
213.26	4430.25
213.333	4457.42
213.407	4531.52
213.481	4611.68
213.555	4696.87
213.629	4765.83
213.703	4837.55
213.777	4918.22
213.85	4984.7
213.924	5100.36
213.998	5186.28
214.072	5270.37
214.146	5346.99
214.219	5438.55
214.293	5527.74
214.367	5626.61
214.441	5725.87
214.515	5811
214.588	5888.04
214.662	5956.2
214.736	6038.86
214.81	6150.13
214.883	6263.39
214.957	6356.63
215.031	6443.96
215.105	6531.4
215.178	6623.79
215.252	6720.21
215.326	6805.14
215.4	6893.89
215.473	6955.83
215.547	7047.66
215.621	7140.29
215.694	7256.41
215.768	7340.09
215.842	7436.02
215.915	7529.26
215.989	7614.02
216.063	7718.18
216.136	7831.53
216.21	7942.81
216.284	8060.66
216.357	8172.69
216.431	8271.84
216.504	8379.47
216.578	8515.44
216.652	8632.55
216.725	8741.13
216.799	8861.23
216.873	8964.62
216.946	9080.19
217.02	9183.24
217.093	9286.37
217.167	9371.4
217.24	9458.03
217.314	9562.66
217.387	9663.88
217.461	9757.84
217.535	9876.56
217.608	9965.38
217.682	10063.12
217.755	10172.23
217.829	10267.91
217.902	10365.18
217.976	10471.55
218.049	10569.74
218.123	10652.09
218.196	10755.78
218.27	10850.52
218.343	10934.99
218.417	11038.84
218.49	11129.77
218.563	11249.53
218.637	11358.06
218.71	11478.89
218.784	11584.67
218.857	11691.38
218.931	11798.38
219.004	11894.14
219.077	11992.38
219.151	12090.94
219.224	12179.63
219.298	12273.82
219.371	12373.5
219.444	12449.81
219.518	12538.02
219.591	12622.67
219.665	12741.97
219.738	12829.99
219.811	12907.6
219.885	12998.08
219.958	13088.9
220.031	13173.79
220.105	13251.69
220.178	13324.87
220.251	13388.99
220.325	13475.52
220.398	13557.42
220.471	13637.59
220.544	13726.57
220.618	13788.57
220.691	13875.1
220.764	13952.71
220.838	14020.58
220.911	14088.26
220.984	14185.4
221.057	14266.05
221.131	14348.96
221.204	14386.9
221.277	14476.8
221.35	14578.37
221.424	14646.67
221.497	14709.05
221.57	14770.75
221.643	14840.5
221.716	14914.49
221.79	14983.52
221.863	15036.79
221.936	15090.63
222.009	15145.77
222.082	15211.04
222.155	15276.74
222.229	15342.63
222.302	15409.58
222.375	15467.57
222.448	15527.1
222.521	15576.07
222.594	15630.39
222.667	15666.26
222.74	15725.35
222.814	15765.84
222.887	15803.24
222.96	15863.87
223.033	15927.02
223.106	15990.25
223.179	16043.46
223.252	16090.36
223.325	16140.2
223.398	16195
223.471	16249.13
223.544	16300.36
223.617	16344.8
223.69	16385.72
223.763	16411.02
223.837	16459.8
223.91	16513.73
223.983	16542.75
224.056	16573.11
224.129	16612.63
224.202	16666.42
224.275	16707.1
224.348	16737.22
224.42	16767.73
224.493	16784.74
224.566	16807.58
224.639	16851.34
224.712	16882.48
224.785	16911.25
224.858	16948.22
224.931	16974.72
225.004	16996.31
225.077	17023.06
225.15	17022.44
225.223	17057.52
225.296	17112.99
225.369	17118.29
225.442	17132.12
225.514	17162.2
225.587	17201.72
225.66	17233.77
225.733	17262.83
225.806	17288.85
225.879	17314.54
225.952	17332.51
226.025	17375.65
226.097	17422.63
226.17	17443.26
226.243	17443.84
226.316	17470.59
226.389	17494.25
226.461	17515.36
226.534	17544.03
226.607	17570.25
226.68	17620.71
226.753	17640.18
226.825	17641.91
226.898	17686.25
226.971	17719.02
227.044	17747.55
227.117	17769.67
227.189	17800.75
227.262	17833.91
227.335	17860.31
227.407	17878.53
227.48	17902.15
227.553	17923.16
227.626	17935.35
227.698	17954.09
227.771	17981.66
227.844	17995.4
227.916	18011.35
227.989	18029.13
228.062	18044.07
228.134	18082.91
228.207	18099.58
228.28	18113.27
228.352	18132.88
228.425	18148.84
228.498	18171.68
228.57	18177.94
228.643	18196.74
228.716	18198.81
228.788	18203.44
228.861	18217.51
228.934	18242.37
229.006	18252.16
229.079	18257.79
229.151	18260.44
229.224	18247.14
229.296	18265.55
229.369	18288.83
229.442	18315.19
229.514	18320.87
229.587	18342.95
229.659	18327.96
229.732	18351.86
229.804	18378.13
229.877	18402.94
229.949	18415.57
230.022	18440.53
230.094	18450.12
230.167	18454.41
230.239	18454.07
230.312	18459.37
230.384	18483.47
230.457	18500.48
230.529	18515.08
230.602	18520.29
230.674	18537.68
230.747	18569.15
230.819	18587.08
230.892	18576.28
230.964	18578.02
231.037	18580.33
231.109	18584.28
231.181	18601.82
231.254	18578.6
231.326	18575.37
231.399	18581.49
231.471	18573.01
231.544	18546.36
231.616	18555.9
231.688	18568.04
231.761	18569.49
231.833	18571.17
231.905	18545.88
231.978	18540.77
232.05	18536.77
232.122	18531.61
232.195	18516.82
232.267	18523.13
232.339	18507.32
232.412	18513.97
232.484	18498.89
232.556	18504.53
232.629	18525.54
232.701	18527.61
232.773	18538.79
232.846	18537.35
232.918	18527.76
232.99	18531.56
233.062	18542.94
233.135	18544.09
233.207	18519.13
233.279	18521.44
233.351	18509.97
233.424	18500.09
233.496	18475.18
233.568	18492.96
233.64	18489.16
233.713	18487.66
233.785	18477.69
233.857	18480.43
233.929	18461.49
234.001	18481.78
234.074	18480.1
234.146	18447.86
234.218	18437.4
234.29	18418.46
234.362	18394.41
234.434	18373.79
234.507	18353.07
234.579	18318.51
234.651	18294.61
234.723	18296.73
234.795	18290.76
234.867	18286.47
234.939	18293.07
235.012	18287.67
235.084	18273.55
235.156	18268.59
235.228	18244.16
235.3	18224.4
235.372	18220.35
235.444	18218.76
235.516	18170.42
235.588	18158.91
235.66	18143.15
235.732	18119.01
235.804	18165.17
235.876	18162.52
235.948	18162.81
236.02	18134.28
236.092	18123.53
236.164	18108.69
236.236	18089.17
236.308	18056.89
236.38	18039.87
236.452	18008.55
236.524	17998.48
236.596	17986.33
236.668	17961.13
236.74	17944.99
236.812	17937.61
236.884	17913.76
236.956	17894.92
237.028	17872.94
237.1	17840.6
237.172	17834.96
237.244	17827.64
237.316	17766.53
237.388	17741.67
237.46	17706.78
237.532	17709.09
237.604	17683.74
237.675	17689.48
237.747	17676.95
237.819	17658.39
237.891	17640.46
237.963	17615.64
238.035	17582.34
238.107	17533.91
238.178	17531.93
238.25	17507.21
238.322	17503.26
238.394	17467.45
238.466	17441.38
238.538	17422.97
238.609	17407.98
238.681	17373.48
238.753	17345.04
238.825	17323.93
238.897	17304.75
238.968	17300.03
239.04	17269.81
239.112	17271.07
239.184	17226.78
239.255	17198.34
239.327	17177.14
239.399	17150.25
239.471	17142.39
239.542	17132.75
239.614	17127.35
239.686	17073.47
239.758	17067.98
239.829	17028.22
239.901	17018.44
239.973	16991.83
240.044	16982.87
240.116	16961.81
240.188	16929.76
240.259	16899.44
240.331	16861.61
240.403	16845.9
240.474	16806.81
240.546	16781.32
240.618	16739.34
240.689	16718.47
240.761	16691.72
240.833	16684.4
240.904	16660.01
240.976	16633.69
241.048	16609.45
241.119	16580
241.191	16569.74
241.262	16554.8
241.334	16529.11
241.405	16494.79
241.477	16466.26
241.549	16435.61
241.62	16417.63
241.692	16407.6
241.763	16403.17
241.835	16377.05
241.906	16347.45
241.978	16300.7
242.049	16279.54
242.121	16265.61
242.192	16253.03
242.264	16221.13
242.335	16175.68
242.407	16162.57
242.478	16127.82
242.55	16108.05
242.621	16077.16
242.693	16042.46
242.764	16004.33
242.836	15962.3
242.907	15954.01
242.979	15934.83
243.05	15915.07
243.122	15891.21
243.193	15857.71
243.264	15802.28
243.336	15775
243.407	15754.03
243.479	15764.83
243.55	15742.56
243.622	15713.59
243.693	15675.13
243.764	15664.57
243.836	15628.32
243.907	15591.21
243.978	15557.9
244.05	15523.83
244.121	15489.17
244.192	15472.15
244.264	15442.17
244.335	15426.99
244.407	15377.49
244.478	15350.01
244.549	15317.72
244.62	15274.33
244.692	15239.29
244.763	15230.81
244.834	15200.58
244.906	15171.13
244.977	15142.31
245.048	15129.39
245.119	15100.71
245.191	15070.87
245.262	15015.05
245.333	15006.91
245.405	14981.65
245.476	14967.48
245.547	14943.71
245.618	14926.45
245.689	14903.9
245.761	14877.96
245.832	14852.8
245.903	14835.78
245.974	14820.84
246.045	14796.16
246.117	14787.87
246.188	14754.56
246.259	14709.01
246.33	14682.78
246.401	14652.9
246.473	14607.68
246.544	14577.07
246.615	14559.48
246.686	14531.04
246.757	14530.36
246.828	14495.85
246.899	14491.94
246.97	14446.29
247.042	14419.58
247.113	14401.94
247.184	14401.31
247.255	14366.8
247.326	14339.23
247.397	14311.03
247.468	14289.29
247.539	14260.6
247.61	14216.3
247.681	14209.31
247.752	14202.42
247.823	14173.4
247.894	14145.97
247.965	14107.74
248.037	14080.6
248.108	14036.98
248.179	14009.88
248.25	13977.54
248.321	13958.11
248.392	13916.6
248.463	13921.81
248.534	13890.67
248.605	13868.69
248.675	13840.2
248.746	13825.16
248.817	13805.01
248.888	13789.1
248.959	13744.94
249.03	13725.95
249.101	13711.39
249.172	13679.14
249.243	13638.69
249.314	13631.66
249.385	13610.93
249.456	13597.09
249.527	13564.46
249.598	13555.2
249.669	13529.31
249.739	13512.1
249.81	13492.05
249.881	13454.45
249.952	13426.88
250.023	13410.82
250.094	13376.79
250.165	13339.33
250.235	13310.99
250.306	13292.62
250.377	13260.18
250.448	13246.05
250.519	13212.02
250.59	13193.17
250.66	13168.63
250.731	13156.97
250.802	13134.26
250.873	13117.15
250.944	13105.34
251.014	13081.52
251.085	13076.46
251.156	13066.63
251.227	13063.74
251.297	13059.93
251.368	13049.66
251.439	13044.6
251.51	13028.59
251.58	13000.1
251.651	12972.14
251.722	12973.49
251.792	12935.99
251.863	12914.3
251.934	12900.32
252.005	12904.32
252.075	12888.22
252.146	12881.9
252.217	12870.91
252.287	12859.29
252.358	12837.89
252.429	12830.9
252.499	12804.82
252.57	12788.48
252.641	12773.63
252.711	12744.13
252.782	12704.84
252.852	12705.23
252.923	12676.74
252.994	12657.84
253.064	12647.29
253.135	12617.5
253.205	12577.87
253.276	12568.52
253.347	12567.12
253.417	12540.37
253.488	12512.51
253.558	12491.2
253.629	12469.03
253.699	12458.9
253.77	12447.82
253.841	12425.55
253.911	12409.16
253.982	12392.72
254.052	12380.19
254.123	12365.82
254.193	12347.55
254.264	12361.43
254.334	12327.79
254.405	12291.93
254.475	12261.8
254.546	12239.24
254.616	12241.65
254.687	12229.41
254.757	12224.3
254.827	12193.3
254.898	12181.59
254.968	12160.77
255.039	12136.14
255.109	12129.63
255.18	12105.77
255.25	12063.3
255.321	12048.31
255.391	12012.83
255.461	12019.49
255.532	11971.43
255.602	11947.18
255.673	11909.59
255.743	11886.31
255.813	11848.86
255.884	11844.95
255.954	11840.81
256.024	11841.53
256.095	11818.39
256.165	11788.8
256.235	11770
256.306	11752.31
256.376	11743.54
256.446	11739.88
256.517	11724.16
256.587	11711.2
256.657	11695.29
256.728	11683
256.798	11665.75
256.868	11651.14
256.938	11619.09
257.009	11611.38
257.079	11603.76
257.149	11613.88
257.219	11576.14
257.29	11570.12
257.36	11538.79
257.43	11527.66
257.5	11485.44
257.571	11467.17
257.641	11463.8
257.711	11437
257.781	11430.06
257.852	11418.88
257.922	11381.48
257.992	11360.71
258.062	11334.39
258.132	11318.49
258.202	11295.4
258.273	11278.44
258.343	11272.13
258.413	11251.07
258.483	11240.66
258.553	11210.39
258.623	11182.34
258.693	11166.1
258.764	11158.58
258.834	11157.43
258.904	11139.26
258.974	11122.49
259.044	11098.73
259.114	11087.36
259.184	11073.33
259.254	11049.48
259.324	11011.45
259.394	10999.6
259.464	11005.58
259.535	10988.37
259.605	10966.2
259.675	10944.28
259.745	10940.91
259.815	10923.12
259.885	10900.19
259.955	10910.02
260.025	10882.94
260.095	10866.41
260.165	10856.34
260.235	10861.64
260.305	10839.19
260.375	10814.8
260.445	10823.76
260.515	10826.08
260.585	10819.72
260.655	10808.54
260.725	10799.28
260.795	10795.91
260.865	10792.2
260.934	10763.1
261.004	10753.03
261.074	10739.82
261.144	10745.32
261.214	10736.35
261.284	10709.37
261.354	10704.07
261.424	10672.65
261.494	10684.79
261.564	10670.53
261.634	10660.51
261.703	10621.28
261.773	10610.11
261.843	10601.58
261.913	10579.08
261.983	10549.54
262.053	10532.19
262.123	10509.07
262.192	10484.64
262.262	10470.86
262.332	10448.17
