Data from 20250625_urea_1M_1_MAYP1162681_19-55-05-550.txt Node
Date: Wed Jun 25 19:55:05 BST 2025
User: adleo
Spectrometer: MAYP116268
Trigger mode: 0
Integration Time (sec): 1.000000E0
Scans to average: 1
Electric dark correction enabled: true
Nonlinearity correction enabled: true
Boxcar width: 10
XAxis mode: Wavelengths
Number of Pixels in Spectrum: 2068
>>>>>Begin Spectral Data<<<<<
179.565	1185.3
179.642	1237.58
179.718	1279.97
179.795	1323.16
179.871	1354.13
179.948	1370.69
180.024	1390.46
180.101	1414.19
180.177	1428.65
180.254	1450.55
180.33	1471.69
180.407	1522.1
180.483	1614.03
180.56	1703.16
180.636	1785.48
180.712	1773.22
180.789	1782.11
180.865	1796.65
180.942	1805.58
181.018	1815.13
181.095	1825.35
181.171	1827.4
181.248	1829.06
181.324	1842.94
181.4	1848.55
181.477	1859.49
181.553	1873.22
181.63	1893.24
181.706	1905.88
181.782	1913.87
181.859	1916.2
181.935	1920.9
182.011	1923.42
182.088	1943.54
182.164	1959.37
182.24	1971.45
182.317	1981.72
182.393	1978.34
182.469	1987.23
182.546	2002.4
182.622	2005.87
182.698	2003.59
182.775	2018.95
182.851	2030.88
182.927	2022.75
183.003	2014.34
183.08	2007.63
183.156	2014.72
183.232	2015.29
183.308	2004.45
183.385	2011.24
183.461	2024.47
183.537	2025.89
183.613	2034.31
183.69	2022.14
183.766	2011.48
183.842	2018.14
183.918	2023.42
183.995	2036.26
184.071	2042.01
184.147	2034.69
184.223	2024.8
184.299	2036.22
184.375	2024.9
184.452	2033.94
184.528	2092.89
184.604	2104.64
184.68	2115.52
184.756	2122.23
184.832	2122.42
184.908	2128.03
184.985	2129.03
185.061	2111.15
185.137	2121.57
185.213	2109.96
185.289	2109.25
185.365	2103.78
185.441	2101.45
185.517	2113.4
185.593	2108.88
185.669	2106.31
185.745	2117.77
185.822	2135.27
185.898	2126.28
185.974	2132.89
186.05	2124.37
186.126	2082.54
186.202	2075.07
186.278	2074.36
186.354	2065.8
186.43	2074.27
186.506	2072.13
186.582	2069.85
186.658	2081.35
186.734	2060.62
186.81	2062.66
186.886	2069.46
186.962	2082.49
187.038	2081.64
187.114	2074.83
187.19	2081.73
187.266	2070.74
187.341	2068.6
187.417	2057.76
187.493	2055.95
187.569	2060
187.645	2052.72
187.721	2041.87
187.797	2050.15
187.873	2051.62
187.949	2046.49
188.025	2038.11
188.101	2041.35
188.176	2045.72
188.252	2039.35
188.328	2045.01
188.404	2044.2
188.48	2039.06
188.556	2028.55
188.632	2028.12
188.707	2028.31
188.783	2028.46
188.859	2024.23
188.935	2015.85
189.011	2028.41
189.086	2023.61
189.162	2016.66
189.238	2015.14
189.314	2014.19
189.39	2010.1
189.465	2005.01
189.541	2021.99
189.617	2010.96
189.693	2008.68
189.768	2014.34
189.844	2038.55
189.92	2029.24
189.996	2038.94
190.071	2049.31
190.147	2051.97
190.223	2062.2
190.298	2056.25
190.374	2040.7
190.45	2051.35
190.526	2059.77
190.601	2050.68
190.677	2052.02
190.753	2078.52
190.828	2083.42
190.904	2096.31
190.98	2109.97
191.055	2119.86
191.131	2112.25
191.207	2127.75
191.282	2133.65
191.358	2122.47
191.433	2109.62
191.509	2126.64
191.585	2123.6
191.66	2123.98
191.736	2134.06
191.811	2123.45
191.887	2137.92
191.963	2161.32
192.038	2166.32
192.114	2165.51
192.189	2172.69
192.265	2171.36
192.34	2149.37
192.416	2149.32
192.491	2145.32
192.567	2147.94
192.642	2149.89
192.718	2149.85
192.793	2138.95
192.869	2135.01
192.944	2139.71
193.02	2145.33
193.095	2146.71
193.171	2152.99
193.246	2153.46
193.322	2147.14
193.397	2149.61
193.473	2135
193.548	2117.73
193.624	2123.34
193.699	2126.1
193.775	2139.81
193.85	2141.05
193.925	2149.42
194.001	2145.71
194.076	2138.67
194.152	2129.77
194.227	2120.97
194.302	2109.08
194.378	2114.08
194.453	2111.75
194.529	2123.64
194.604	2110.32
194.679	2108.89
194.755	2089.63
194.83	2100.68
194.905	2100.39
194.981	2109.29
195.056	2101.68
195.131	2109.67
195.207	2108.29
195.282	2096.59
195.357	2076.94
195.433	2093.63
195.508	2082.98
195.583	2093.49
195.659	2106.52
195.734	2109.9
195.809	2109.05
195.884	2117.7
195.96	2117.94
196.035	2134.06
196.11	2129.35
196.185	2142.34
196.261	2141.29
196.336	2171.02
196.411	2156.08
196.486	2161.98
196.561	2152.94
196.637	2160.36
196.712	2175.3
196.787	2179.06
196.862	2195.71
196.937	2202.89
197.013	2207.56
197.088	2214.88
197.163	2235.02
197.238	2250.26
197.313	2252.4
197.388	2267.34
197.464	2298.56
197.539	2311.32
197.614	2306.84
197.689	2319.27
197.764	2332.93
197.839	2357.2
197.914	2352.25
197.989	2375.43
198.065	2388.33
198.14	2438.72
198.215	2465.52
198.29	2477.86
198.365	2494.62
198.44	2503.9
198.515	2535.76
198.59	2550.52
198.665	2577.85
198.74	2584.85
198.815	2586.57
198.89	2609.19
198.965	2640.2
199.04	2638.68
199.115	2651.06
199.19	2690.54
199.265	2694.54
199.34	2706.6
199.415	2735.72
199.49	2756.34
199.565	2765.39
199.64	2791.79
199.715	2786.83
199.79	2794.22
199.865	2800.46
199.94	2796.12
200.015	2828.68
200.09	2829.49
200.165	2836.87
200.24	2840.26
200.315	2881.56
200.39	2897.05
200.464	2902.34
200.539	2899.43
200.614	2914.92
200.689	2935.75
200.764	2943.24
200.839	2959.15
200.914	2959.44
200.989	2949.42
201.063	2966.63
201.138	2951.44
201.213	2950.82
201.288	2933.23
201.363	2939.57
201.438	2938
201.512	2955.39
201.587	2936.13
201.662	2943.14
201.737	2953.86
201.812	2963.4
201.886	2929.09
201.961	2941.07
202.036	2928.11
202.111	2926.68
202.186	2896.47
202.26	2880.98
202.335	2856.38
202.41	2849.81
202.485	2838.23
202.559	2821.84
202.634	2794
202.709	2802.82
202.784	2782.75
202.858	2784.56
202.933	2765.93
203.008	2757.64
203.082	2737.54
203.157	2737.87
203.232	2697.01
203.306	2675.18
203.381	2646.26
203.456	2622.2
203.53	2596.26
203.605	2578.17
203.68	2553.31
203.754	2545.22
203.829	2533.4
203.904	2518.02
203.978	2505.07
204.053	2508.83
204.127	2495.31
204.202	2488.88
204.277	2472.02
204.351	2464.83
204.426	2455.64
204.5	2448.5
204.575	2415.38
204.65	2422.71
204.724	2414.37
204.799	2422.94
204.873	2419.75
204.948	2415.65
205.022	2408.13
205.097	2402.7
205.171	2416.98
205.246	2427.84
205.32	2428.51
205.395	2426.79
205.469	2416.7
205.544	2425.71
205.618	2404.52
205.693	2415.95
205.767	2409.66
205.842	2427
205.916	2419.38
205.991	2410.29
206.065	2418.29
206.14	2435.13
206.214	2430.41
206.289	2423.03
206.363	2433.03
206.438	2436.22
206.512	2446.88
206.586	2462.97
206.661	2470.17
206.735	2449.18
206.81	2451.7
206.884	2467.55
206.958	2454.51
207.033	2470.6
207.107	2476.7
207.181	2510.32
207.256	2502.75
207.33	2521.7
207.405	2534.28
207.479	2554.18
207.553	2560.04
207.628	2543
207.702	2556.09
207.776	2552.52
207.851	2558.38
207.925	2575.62
207.999	2572.38
208.073	2567.34
208.148	2572.86
208.222	2560.14
208.296	2591.37
208.371	2607.1
208.445	2615.63
208.519	2646.82
208.593	2659.96
208.668	2654.91
208.742	2658.35
208.816	2664.2
208.89	2677.21
208.965	2679.55
209.039	2690.13
209.113	2713.23
209.187	2735.75
209.261	2738.04
209.336	2761
209.41	2785.41
209.484	2788.65
209.558	2817.67
209.632	2838.68
209.707	2855.03
209.781	2886.63
209.855	2914.86
209.929	2942.29
210.003	2960.64
210.077	2970.47
210.151	3028.35
210.226	3082.02
210.3	3123.11
210.374	3163.3
210.448	3187.63
210.522	3215.64
210.596	3245.93
210.67	3280.62
210.744	3351.78
210.818	3409.6
210.892	3462.55
210.966	3488.56
211.041	3539.54
211.115	3569.71
211.189	3636.32
211.263	3696.44
211.337	3744
211.411	3803.26
211.485	3849.34
211.559	3915.64
211.633	3978.88
211.707	4011.16
211.781	4079
211.855	4114.39
211.929	4175.85
212.003	4232.25
212.077	4325.22
212.151	4425.71
212.225	4520.51
212.299	4601.4
212.373	4689.58
212.447	4780.48
212.52	4914.62
212.594	5030.28
212.668	5160.24
212.742	5262.31
212.816	5379.94
212.89	5504.17
212.964	5631.37
213.038	5765.21
213.112	5919.55
213.186	6076.76
213.26	6203.39
213.333	6309.09
213.407	6465.67
213.481	6625.45
213.555	6798.11
213.629	6948.01
213.703	7095.87
213.777	7264.23
213.85	7419.39
213.924	7622.97
213.998	7803.34
214.072	7973
214.146	8140.26
214.219	8319.71
214.293	8500.93
214.367	8689.82
214.441	8891.86
214.515	9076.04
214.588	9248.58
214.662	9409.88
214.736	9581.34
214.81	9783.37
214.883	9992.59
214.957	10189.86
215.031	10377.37
215.105	10554.1
215.178	10744.21
215.252	10948.98
215.326	11130.17
215.4	11313.61
215.473	11473.28
215.547	11651.6
215.621	11849.26
215.694	12055.45
215.768	12234.99
215.842	12426.24
215.915	12615.58
215.989	12789.69
216.063	12974.84
216.136	13170.06
216.21	13361.23
216.284	13565.14
216.357	13765.71
216.431	13956.65
216.504	14149.85
216.578	14371.11
216.652	14565.66
216.725	14749.41
216.799	14932.39
216.873	15110.01
216.946	15304.32
217.02	15474.47
217.093	15649.73
217.167	15799.53
217.24	15955.27
217.314	16120.4
217.387	16278.11
217.461	16435.47
217.535	16609.36
217.608	16757.09
217.682	16914.25
217.755	17081.64
217.829	17232.87
217.902	17377.02
217.976	17523.62
218.049	17663.09
218.123	17793.64
218.196	17946.9
218.27	18088.63
218.343	18212.29
218.417	18358.16
218.49	18487.12
218.563	18642.54
218.637	18788.84
218.71	18934.91
218.784	19073.7
218.857	19213.84
218.931	19349.54
219.004	19470.84
219.077	19593.87
219.151	19721.09
219.224	19837.86
219.298	19952.36
219.371	20071.49
219.444	20177.71
219.518	20283.3
219.591	20390.19
219.665	20519.11
219.738	20636.03
219.811	20728.56
219.885	20838.93
219.958	20939.22
220.031	21025.05
220.105	21110.8
220.178	21195.87
220.251	21274.48
220.325	21362.63
220.398	21446.79
220.471	21528.48
220.544	21611.34
220.618	21681.95
220.691	21764.04
220.764	21842.95
220.838	21920.55
220.911	21983.51
220.984	22064.68
221.057	22145.76
221.131	22211.51
221.204	22236.58
221.277	22312.27
221.35	22396.25
221.424	22441.42
221.497	22492.67
221.57	22552.49
221.643	22614.35
221.716	22668.54
221.79	22714.68
221.863	22752.72
221.936	22785.98
222.009	22822.96
222.082	22875.22
222.155	22907.09
222.229	22955.65
222.302	22994.99
222.375	23020.35
222.448	23066.69
222.521	23100.58
222.594	23122.04
222.667	23150.58
222.74	23201.26
222.814	23209.89
222.887	23238.3
222.96	23273.4
223.033	23307.93
223.106	23336.14
223.179	23365.6
223.252	23383.3
223.325	23397.33
223.398	23416.28
223.471	23440.34
223.544	23465.46
223.617	23467.59
223.69	23488.76
223.763	23491.46
223.837	23503.7
223.91	23532.69
223.983	23515.76
224.056	23504.62
224.129	23508.58
224.202	23523.53
224.275	23511.18
224.348	23502.11
224.42	23480.94
224.493	23474.53
224.566	23475.06
224.639	23476.31
224.712	23457.17
224.785	23447.52
224.858	23447.52
224.931	23437.78
225.004	23415.79
225.077	23412.47
225.15	23381.7
225.223	23380.55
225.296	23395.26
225.369	23370.37
225.442	23345.63
225.514	23349.4
225.587	23352.48
225.66	23348.86
225.733	23335.22
225.806	23322.29
225.879	23304.94
225.952	23284.25
226.025	23279.81
226.097	23278.8
226.17	23267.61
226.243	23238.34
226.316	23220.02
226.389	23212.69
226.461	23208.98
226.534	23194.23
226.607	23164.72
226.68	23179.76
226.753	23154.25
226.825	23116.4
226.898	23114.95
226.971	23087.95
227.044	23070.4
227.117	23050.63
227.189	23038.62
227.262	23019.29
227.335	23003.28
227.407	22983.9
227.48	22973.29
227.553	22956.75
227.626	22915.28
227.698	22893.05
227.771	22874.01
227.844	22855.16
227.916	22836.79
227.989	22799.91
228.062	22788.91
228.134	22789.49
228.207	22771.31
228.28	22739.69
228.352	22711.53
228.425	22693.5
228.498	22687.57
228.57	22666.5
228.643	22664.19
228.716	22643.21
228.788	22619.69
228.861	22605.7
228.934	22606.38
229.006	22585.55
229.079	22557.69
229.151	22526.3
229.224	22478.38
229.296	22463.97
229.369	22483.74
229.442	22466.09
229.514	22432.35
229.587	22423.96
229.659	22384.24
229.732	22352.32
229.804	22344.85
229.877	22333.62
229.949	22308.16
230.022	22303.44
230.094	22277.94
230.167	22252.58
230.239	22209.05
230.312	22182.97
230.384	22172.36
230.457	22144.74
230.529	22123.19
230.602	22096.44
230.674	22085.64
230.747	22074.94
230.819	22064.91
230.892	21999.16
230.964	21982.24
231.037	21967.78
231.109	21934.42
231.181	21915.43
231.254	21889.4
231.326	21857.39
231.399	21828.33
231.471	21799.7
231.544	21733.32
231.616	21708.54
231.688	21673.79
231.761	21643.23
231.833	21618.07
231.905	21565.58
231.978	21530.39
232.05	21496.65
232.122	21471.54
232.195	21430.19
232.267	21417.9
232.339	21389.65
232.412	21372.68
232.484	21339.62
232.556	21315.9
232.629	21303.9
232.701	21283.32
232.773	21251.37
232.846	21213.63
232.918	21182.11
232.99	21153.96
233.062	21147.98
233.135	21123.79
233.207	21087.3
233.279	21072.17
233.351	21045.42
233.424	21014.63
233.496	20973.23
233.568	20964.07
233.64	20916.89
233.713	20893.99
233.785	20861.46
233.857	20823.34
233.929	20771.92
234.001	20750.52
234.074	20731.77
234.146	20682.27
234.218	20642.46
234.29	20611.24
234.362	20579.28
234.434	20537.16
234.507	20498.22
234.579	20446.08
234.651	20405.74
234.723	20376.1
234.795	20344.01
234.867	20310.42
234.939	20298.27
235.012	20276.63
235.084	20242.7
235.156	20219.77
235.228	20185.21
235.3	20141.74
235.372	20109.12
235.444	20091.09
235.516	20027.87
235.588	19998.03
235.66	19968.25
235.732	19929.89
235.804	19955.96
235.876	19935.68
235.948	19925.8
236.02	19890.09
236.092	19865.75
236.164	19833.08
236.236	19801.51
236.308	19762.72
236.38	19727.54
236.452	19678.19
236.524	19652.51
236.596	19642.39
236.668	19626.49
236.74	19590.2
236.812	19562.92
236.884	19536.32
236.956	19508.81
237.028	19477
237.1	19424.67
237.172	19409.68
237.244	19400.52
237.316	19327.08
237.388	19287.56
237.46	19238.65
237.532	19217.45
237.604	19172.1
237.675	19156.25
237.747	19131.91
237.819	19095.14
237.891	19067.96
237.963	19030.95
238.035	18985.13
238.107	18901.52
238.178	18881.9
238.25	18855.59
238.322	18856.46
238.394	18815.55
238.466	18777.19
238.538	18758.49
238.609	18733.96
238.681	18679.26
238.753	18630.5
238.825	18599.08
238.897	18568.38
238.968	18558.11
239.04	18529.59
239.112	18527.56
239.184	18476.14
239.255	18435.57
239.327	18399.28
239.399	18365.98
239.471	18339.57
239.542	18305.79
239.614	18302.37
239.686	18240.11
239.758	18223.43
239.829	18167.39
239.901	18143
239.973	18111.68
240.044	18078.38
240.116	18047.06
240.188	18017.42
240.259	17995.54
240.331	17954.82
240.403	17933.08
240.474	17881.86
240.546	17833.13
240.618	17787.5
240.689	17761.57
240.761	17740.41
240.833	17739.84
240.904	17712.7
240.976	17686.68
241.048	17671.07
241.119	17652.18
241.191	17627.6
241.262	17605.04
241.334	17569.86
241.405	17535.31
241.477	17498.59
241.549	17466.78
241.62	17444.27
241.692	17426.44
241.763	17406.01
241.835	17384.13
241.906	17353.82
241.978	17315.5
242.049	17292.99
242.121	17266.63
242.192	17244.8
242.264	17195.45
242.335	17137.57
242.407	17108.75
242.478	17071.93
242.55	17036.36
242.621	16986.38
242.693	16954.19
242.764	16917.71
242.836	16886.04
242.907	16865.95
242.979	16846.62
243.05	16818.19
243.122	16786.76
243.193	16749.6
243.264	16691.62
243.336	16655.57
243.407	16627.28
243.479	16613.4
243.55	16593.5
243.622	16566.22
243.693	16538.51
243.764	16527.9
243.836	16493.97
243.907	16460.86
243.978	16430.11
244.05	16417.24
244.121	16375.21
244.192	16358.54
244.264	16310.92
244.335	16285.95
244.407	16234.43
244.478	16200.74
244.549	16169.56
244.62	16128.2
244.692	16094.41
244.763	16078.89
244.834	16038.55
244.906	16007.66
244.977	15982.79
245.048	15968.23
245.119	15939.02
245.191	15900.41
245.262	15848.45
245.333	15842.57
245.405	15819.1
245.476	15799.68
245.547	15767.43
245.618	15752.73
245.689	15725.55
245.761	15702.36
245.832	15672.04
245.903	15650.02
245.974	15627.17
246.045	15595.65
246.117	15586.44
246.188	15549.71
246.259	15507.29
246.33	15476.1
246.401	15443.62
246.473	15400.67
246.544	15367.22
246.615	15340.8
246.686	15303.78
246.757	15287.35
246.828	15241.75
246.899	15219.33
246.97	15175.61
247.042	15141.05
247.113	15117.87
247.184	15105.29
247.255	15072.37
247.326	15046.48
247.397	15024.93
247.468	14998.47
247.539	14974.51
247.61	14931.47
247.681	14913.78
247.752	14898.21
247.823	14871.41
247.894	14852.08
247.965	14817.27
248.037	14783.48
248.108	14748.63
248.179	14734.99
248.25	14715.27
248.321	14706.4
248.392	14670.49
248.463	14666.88
248.534	14639.4
248.605	14623.68
248.675	14600.69
248.746	14582.66
248.817	14573.07
248.888	14550.32
248.959	14515.18
249.03	14501.1
249.101	14478.4
249.172	14446.97
249.243	14409.27
249.314	14404.54
249.385	14377.31
249.456	14364.34
249.527	14345.01
249.598	14323.61
249.669	14287.4
249.739	14264.99
249.81	14230.71
249.881	14195.43
249.952	14166.07
250.023	14142.69
250.094	14102.82
250.165	14058.43
250.235	14040.83
250.306	14013.45
250.377	13981.92
250.448	13963.75
250.519	13921.38
250.59	13915.98
250.66	13896.17
250.731	13891.49
250.802	13861.65
250.873	13838.37
250.944	13815.56
251.014	13780.76
251.085	13785
251.156	13780.95
251.227	13772.23
251.297	13774.25
251.368	13765.33
251.439	13754.49
251.51	13738.24
251.58	13710.52
251.651	13687.91
251.722	13669.11
251.792	13627.9
251.863	13605.72
251.934	13594.1
252.005	13601.58
252.075	13577.76
252.146	13571.01
252.217	13556.98
252.287	13546.23
252.358	13532.21
252.429	13535.73
252.499	13508.78
252.57	13482.17
252.641	13460.67
252.711	13434.93
252.782	13401.61
252.852	13400.31
252.923	13384.07
252.994	13363.77
253.064	13351.48
253.135	13330.51
253.205	13304.67
253.276	13308.62
253.347	13301.83
253.417	13277.34
253.488	13250.15
253.558	13225.42
253.629	13207.73
253.699	13194.66
253.77	13189.99
253.841	13166.95
253.911	13146.22
253.982	13135.18
254.052	13127.42
254.123	13116.67
254.193	13103.31
254.264	13117.73
254.334	13092.85
254.405	13059.49
254.475	13027.34
254.546	13005.84
254.616	12995.62
254.687	12984.44
254.757	12969.16
254.827	12954.07
254.898	12947.46
254.968	12927.12
255.039	12907.45
255.109	12892.65
255.18	12862.48
255.25	12814.7
255.321	12805.45
255.391	12773.15
255.461	12774.36
255.532	12731.16
255.602	12708.85
255.673	12666.52
255.743	12636.92
255.813	12587.75
255.884	12581.44
255.954	12578.45
256.024	12581.49
256.095	12559.94
256.165	12527.5
256.235	12511.98
256.306	12486.62
256.376	12467.97
256.446	12464.45
256.517	12450.23
256.587	12440.83
256.657	12427.09
256.728	12411.62
256.798	12388.67
256.868	12363.41
256.938	12334.63
257.009	12324.8
257.079	12308.99
257.149	12316.85
257.219	12280.79
257.29	12279.59
257.36	12248.93
257.43	12238.95
257.5	12204.44
257.571	12188.14
257.641	12179.32
257.711	12145.44
257.781	12130.49
257.852	12121.05
257.922	12077.42
257.992	12056.46
258.062	12037.8
258.132	12026.76
258.202	12006.23
258.273	11989.21
258.343	11995.48
258.413	11966.75
258.483	11953.3
258.553	11923.37
258.623	11895.56
258.693	11879.85
258.764	11880.71
258.834	11872.28
258.904	11856.95
258.974	11830.59
259.044	11806.97
259.114	11799.93
259.184	11788.07
259.254	11774.39
259.324	11733.66
259.394	11724.26
259.464	11724.93
259.535	11699.92
259.605	11678.04
259.675	11655.77
259.745	11647.05
259.815	11611.33
259.885	11595.62
259.955	11600.29
260.025	11577.5
260.095	11562.65
260.165	11553.06
260.235	11552.92
260.305	11529.2
260.375	11501.06
260.445	11505.49
260.515	11506.6
260.585	11486.45
260.655	11472.04
260.725	11461.34
260.795	11456.67
260.865	11457.82
260.934	11431.85
261.004	11425.34
261.074	11411.6
261.144	11415.51
261.214	11411.75
261.284	11394.83
261.354	11383.7
261.424	11356.42
261.494	11366.59
261.564	11349.96
261.634	11338.49
261.703	11294.87
261.773	11279.36
261.843	11277.43
261.913	11257.67
261.983	11228.22
262.053	11219.69
262.123	11203.02
262.192	11175.79
