Data from 20250625_urea_1M_1_MAYP1162681_01-35-05-942.txt Node
Date: Thu Jun 26 01:35:05 BST 2025
User: adleo
Spectrometer: MAYP116268
Trigger mode: 0
Integration Time (sec): 1.000000E0
Scans to average: 1
Electric dark correction enabled: true
Nonlinearity correction enabled: true
Boxcar width: 10
XAxis mode: Wavelengths
Number of Pixels in Spectrum: 2068
>>>>>Begin Spectral Data<<<<<
179.565	1110.45
179.642	1163.49
179.718	1203.69
179.795	1242.57
179.871	1272
179.948	1288.59
180.024	1308.4
180.101	1330.49
180.177	1344.16
180.254	1364.85
180.33	1385.8
180.407	1434.03
180.483	1524.25
180.56	1605.82
180.636	1685.53
180.712	1678.26
180.789	1687.76
180.865	1699.73
180.942	1705.57
181.018	1714.27
181.095	1728.95
181.171	1736.03
181.248	1736.6
181.324	1754.48
181.4	1759.32
181.477	1770.92
181.553	1784.51
181.63	1804.42
181.706	1818.64
181.782	1826.24
181.859	1826.9
181.935	1831.37
182.011	1827.71
182.088	1841.5
182.164	1859.9
182.24	1871.4
182.317	1880.09
182.393	1875.63
182.469	1886.13
182.546	1898.63
182.622	1905
182.698	1900.96
182.775	1912.94
182.851	1924.68
182.927	1914.93
183.003	1911.42
183.08	1906.38
183.156	1915.65
183.232	1912.37
183.308	1902.19
183.385	1908.23
183.461	1925.68
183.537	1925.63
183.613	1936.23
183.69	1929.86
183.766	1919.59
183.842	1924.49
183.918	1929.1
183.995	1941.65
184.071	1948.59
184.147	1944.08
184.223	1933.43
184.299	1946.18
184.375	1934.05
184.452	1942.57
184.528	1995.07
184.604	2004.06
184.68	2011.57
184.756	2016.14
184.832	2019.94
184.908	2027.02
184.985	2028.54
185.061	2010.29
185.137	2019.27
185.213	2010.19
185.289	2010.76
185.365	2005.53
185.441	2004.82
185.517	2018.62
185.593	2016.24
185.669	2014.19
185.745	2024.27
185.822	2040.86
185.898	2029.83
185.974	2035.68
186.05	2027.07
186.126	1987.45
186.202	1979.7
186.278	1977.75
186.354	1971.76
186.43	1976.85
186.506	1972.38
186.582	1968.86
186.658	1978.08
186.734	1960.25
186.81	1962.73
186.886	1963.82
186.962	1974.42
187.038	1971.95
187.114	1965.62
187.19	1973.18
187.266	1959.92
187.341	1959.54
187.417	1954.26
187.493	1957.06
187.569	1963.77
187.645	1957.26
187.721	1946.94
187.797	1957.35
187.873	1963.1
187.949	1956.3
188.025	1951.74
188.101	1954.97
188.176	1959.44
188.252	1955.73
188.328	1965.47
188.404	1962.86
188.48	1957.44
188.556	1952.59
188.632	1953.59
188.707	1953.02
188.783	1947.93
188.859	1949.16
188.935	1940.56
189.011	1946.36
189.086	1939.7
189.162	1933.04
189.238	1933.04
189.314	1933.28
189.39	1927.77
189.465	1919.54
189.541	1933.57
189.617	1920.97
189.693	1914.84
189.768	1922.21
189.844	1940.66
189.92	1930.68
189.996	1941.71
190.071	1951.93
190.147	1952.17
190.223	1958.16
190.298	1951.36
190.374	1941.85
190.45	1950.46
190.526	1956.21
190.601	1951.17
190.677	1953.88
190.753	1976.48
190.828	1978.28
190.904	1990.32
190.98	2002.54
191.055	2011.95
191.131	2004.63
191.207	2021.99
191.282	2031.78
191.358	2020.89
191.433	2009.66
191.509	2022.92
191.585	2020.97
191.66	2025.11
191.736	2032.77
191.811	2025.16
191.887	2037.1
191.963	2055.74
192.038	2060.73
192.114	2064.16
192.189	2068.58
192.265	2066.11
192.34	2046.08
192.416	2047.55
192.491	2042.75
192.567	2046.89
192.642	2052.5
192.718	2051.22
192.793	2042.04
192.869	2039.04
192.944	2041.32
193.02	2050.12
193.095	2054.17
193.171	2059.21
193.246	2058.97
193.322	2054.93
193.397	2056.16
193.473	2044.41
193.548	2028.2
193.624	2032.14
193.699	2029.01
193.775	2043.61
193.85	2043.71
193.925	2051.32
194.001	2045.56
194.076	2041.47
194.152	2031.2
194.227	2024.44
194.302	2017.12
194.378	2018.65
194.453	2015.94
194.529	2028.63
194.604	2014.03
194.679	2007.61
194.755	1988.69
194.83	1996.92
194.905	1994.07
194.981	2003.25
195.056	1998.07
195.131	2005.86
195.207	2003.44
195.282	1994.5
195.357	1973.33
195.433	1986.22
195.508	1974.95
195.583	1986.31
195.659	1999.25
195.734	2005.57
195.809	2003.43
195.884	2010.09
195.96	2008.47
196.035	2025.31
196.11	2022.98
196.185	2032.39
196.261	2035.34
196.336	2064.59
196.411	2051.65
196.486	2057.64
196.561	2051.74
196.637	2059.16
196.712	2072.67
196.787	2076.19
196.862	2089.98
196.937	2099.83
197.013	2107.58
197.088	2120.28
197.163	2139.26
197.238	2155.45
197.313	2154.88
197.388	2165.73
197.464	2194.85
197.539	2210.45
197.614	2199.46
197.689	2210.26
197.764	2225.35
197.839	2246
197.914	2240.29
197.989	2264.75
198.065	2279.02
198.14	2324.97
198.215	2347.58
198.29	2361.62
198.365	2373.43
198.44	2386.13
198.515	2415.36
198.59	2429.79
198.665	2455.12
198.74	2460.26
198.815	2458.73
198.89	2479.73
198.965	2509.35
199.04	2507.25
199.115	2519.68
199.19	2560.86
199.265	2566.05
199.34	2575.24
199.415	2601.44
199.49	2621.39
199.565	2627.72
199.64	2652.73
199.715	2651.02
199.79	2659.4
199.865	2666.12
199.94	2665.21
200.015	2690.7
200.09	2695.37
200.165	2698.56
200.24	2703.61
200.315	2745.33
200.39	2761.86
200.464	2767.87
200.539	2769.96
200.614	2786.3
200.689	2807.56
200.764	2812.32
200.839	2825.85
200.914	2833.04
200.989	2827.94
201.063	2842.05
201.138	2826.86
201.213	2826.67
201.288	2807.28
201.363	2812.42
201.438	2809.23
201.512	2823.52
201.587	2810.13
201.662	2815.46
201.737	2828.52
201.812	2835.81
201.886	2804.38
201.961	2812.73
202.036	2803.11
202.111	2799.63
202.186	2769.82
202.26	2755.42
202.335	2738.79
202.41	2732.93
202.485	2717.36
202.559	2697.49
202.634	2673.72
202.709	2682.91
202.784	2661.85
202.858	2661.52
202.933	2643.46
203.008	2638.7
203.082	2620.8
203.157	2619.03
203.232	2575.37
203.306	2558.51
203.381	2526.73
203.456	2503.31
203.53	2481
203.605	2459.92
203.68	2440.01
203.754	2435.58
203.829	2419.53
203.904	2399.25
203.978	2388.02
204.053	2393.73
204.127	2381.55
204.202	2375.69
204.277	2358.79
204.351	2351.94
204.426	2345.37
204.5	2339.61
204.575	2305.35
204.65	2317.59
204.724	2311.54
204.799	2321.24
204.873	2315.48
204.948	2314.67
205.022	2304.63
205.097	2296.97
205.171	2312.24
205.246	2320.48
205.32	2321.71
205.395	2321.52
205.469	2313.15
205.544	2319.82
205.618	2302.49
205.693	2315.58
205.767	2305.16
205.842	2324.53
205.916	2319.78
205.991	2310.54
206.065	2316.21
206.14	2331.38
206.214	2325.61
206.289	2318.66
206.363	2328.8
206.438	2331.13
206.512	2339.85
206.586	2356.6
206.661	2362.5
206.735	2343.04
206.81	2341.14
206.884	2353.51
206.958	2341.66
207.033	2357.74
207.107	2364.36
207.181	2394.5
207.256	2386.17
207.33	2403.73
207.405	2415.5
207.479	2434.73
207.553	2445.97
207.628	2428.08
207.702	2440.93
207.776	2436.78
207.851	2439.97
207.925	2457.17
207.999	2452.5
208.073	2447.55
208.148	2452.03
208.222	2443.65
208.296	2474.06
208.371	2488.73
208.445	2498.83
208.519	2526.91
208.593	2539.48
208.668	2534.01
208.742	2535.2
208.816	2541.77
208.89	2562.4
208.965	2560.87
209.039	2572.88
209.113	2588.55
209.187	2611.92
209.261	2611.3
209.336	2633.73
209.41	2657.65
209.484	2659.84
209.558	2685.85
209.632	2705.14
209.707	2720.81
209.781	2749.25
209.855	2772.37
209.929	2799.65
210.003	2815.76
210.077	2824.62
210.151	2883.54
210.226	2927.83
210.3	2966.77
210.374	3002.03
210.448	3019.2
210.522	3049.58
210.596	3074.38
210.67	3100.27
210.744	3164.72
210.818	3218.31
210.892	3259.06
210.966	3279.37
211.041	3324.89
211.115	3351.37
211.189	3408.06
211.263	3460.04
211.337	3500.65
211.411	3552.85
211.485	3584.14
211.559	3637.27
211.633	3688.29
211.707	3704.26
211.781	3762.1
211.855	3784.17
211.929	3836.66
212.003	3877.93
212.077	3947.73
212.151	4024.8
212.225	4101.91
212.299	4162.82
212.373	4229.58
212.447	4302.44
212.52	4412.95
212.594	4499.2
212.668	4601.64
212.742	4675.64
212.816	4765.7
212.89	4857.67
212.964	4962.27
213.038	5074.1
213.112	5192.12
213.186	5314.09
213.26	5410.39
213.333	5486.41
213.407	5612.08
213.481	5732.78
213.555	5871.32
213.629	5990.9
213.703	6104.1
213.777	6238.97
213.85	6361.09
213.924	6528.35
213.998	6672.37
214.072	6810.56
214.146	6942.95
214.219	7087.87
214.293	7241.57
214.367	7394.56
214.441	7557.22
214.515	7700.34
214.588	7834.65
214.662	7964.78
214.736	8106.76
214.81	8276.19
214.883	8451.94
214.957	8605.71
215.031	8759.57
215.105	8905.28
215.178	9057.39
215.252	9218.94
215.326	9361.02
215.4	9503.58
215.473	9625.04
215.547	9778.39
215.621	9924.73
215.694	10093.22
215.768	10237.79
215.842	10386.55
215.915	10533.55
215.989	10675.78
216.063	10828.43
216.136	10990.29
216.21	11149.45
216.284	11323.66
216.357	11487.61
216.431	11635.08
216.504	11801.94
216.578	11984.07
216.652	12151.41
216.725	12310.04
216.799	12473.11
216.873	12629.38
216.946	12799.38
217.02	12953.53
217.093	13102
217.167	13230.81
217.24	13362.65
217.314	13504.81
217.387	13641.71
217.461	13784.4
217.535	13939.62
217.608	14067.94
217.682	14209.9
217.755	14349.94
217.829	14477.15
217.902	14606.1
217.976	14741.6
218.049	14860.71
218.123	14980.54
218.196	15117.58
218.27	15235.82
218.343	15350.35
218.417	15483.82
218.49	15594.49
218.563	15722.94
218.637	15840.93
218.71	15981.34
218.784	16109.26
218.857	16227.3
218.931	16343.31
219.004	16449.93
219.077	16561.16
219.151	16676.4
219.224	16775.88
219.298	16887.69
219.371	17003.98
219.444	17097.96
219.518	17202.6
219.591	17304.09
219.665	17412.19
219.738	17501.92
219.811	17583.13
219.885	17686.5
219.958	17782.21
220.031	17881.78
220.105	17965.63
220.178	18049.68
220.251	18116.61
220.325	18205.67
220.398	18292.22
220.471	18384.27
220.544	18477.66
220.618	18541.9
220.691	18617.31
220.764	18692.25
220.838	18773.06
220.911	18836.34
220.984	18923.51
221.057	19001.29
221.131	19078.83
221.204	19122.92
221.277	19210.39
221.35	19308.02
221.424	19353.32
221.497	19405.75
221.57	19466.18
221.643	19538.71
221.716	19603.33
221.79	19660.39
221.863	19704.58
221.936	19764.62
222.009	19814.36
222.082	19863.08
222.155	19918.01
222.229	19976.57
222.302	20028.47
222.375	20070.73
222.448	20123.26
222.521	20163.5
222.594	20195.89
222.667	20216.08
222.74	20264.85
222.814	20289.57
222.887	20316.32
222.96	20369.47
223.033	20420.17
223.106	20450.53
223.179	20482.44
223.252	20518.15
223.325	20556.37
223.398	20594.25
223.471	20624.56
223.544	20643.69
223.617	20674.34
223.69	20708.56
223.763	20724.32
223.837	20748.27
223.91	20769.05
223.983	20772.71
224.056	20782.83
224.129	20803.41
224.202	20833.91
224.275	20855.99
224.348	20863.99
224.42	20871.31
224.493	20870.64
224.566	20877.48
224.639	20891.36
224.712	20897.72
224.785	20902.54
224.858	20916.23
224.931	20927.32
225.004	20925.53
225.077	20942.93
225.15	20926.21
225.223	20931.27
225.296	20962.36
225.369	20962.74
225.442	20958.21
225.514	20970.65
225.587	20971.22
225.66	20988.33
225.733	20993.97
225.806	21003.23
225.879	21000.96
225.952	20997.15
226.025	21007.76
226.097	21018.7
226.17	21019.42
226.243	20998.41
226.316	20997.97
226.389	21007.81
226.461	21011.23
226.534	21019.08
226.607	21012.53
226.68	21034.89
226.753	21028.96
226.825	21010.84
226.898	21022.07
226.971	21032.63
227.044	21033.78
227.117	21040.14
227.189	21041.11
227.262	21056.48
227.335	21045.06
227.407	21038.41
227.48	21039.37
227.553	21047.33
227.626	21042.02
227.698	21048.39
227.771	21058.27
227.844	21051.23
227.916	21041.11
227.989	21021.35
228.062	21014.46
228.134	21033.88
228.207	21028.67
228.28	21024.14
228.352	21009.49
228.425	21008.62
228.498	21011.37
228.57	20999.27
228.643	21008.14
228.716	20995.37
228.788	20981.2
228.861	20974.21
228.934	20989.92
229.006	20985.73
229.079	20969.15
229.151	20945.05
229.224	20914.11
229.296	20916.09
229.369	20927.99
229.442	20932.33
229.514	20918.74
229.587	20925.68
229.659	20897.63
229.732	20893.34
229.804	20891.17
229.877	20912.96
229.949	20906.84
230.022	20913.58
230.094	20901.2
230.167	20890.93
230.239	20871.22
230.312	20853.77
230.384	20866.06
230.457	20851.22
230.529	20841.97
230.602	20833.63
230.674	20832.28
230.747	20833.44
230.819	20837.39
230.892	20798.69
230.964	20792.13
231.037	20788.61
231.109	20760.76
231.181	20762.59
231.254	20738.59
231.326	20716.95
231.399	20688.32
231.471	20665.53
231.544	20616.75
231.616	20604.13
231.688	20588.41
231.761	20570.39
231.833	20552.94
231.905	20503.98
231.978	20485.09
232.05	20465.86
232.122	20450.68
232.195	20427.02
232.267	20430.68
232.339	20403.02
232.412	20404.61
232.484	20375.83
232.556	20344.56
232.629	20349.09
232.701	20333.18
232.773	20318.2
232.846	20304.7
232.918	20285.52
232.99	20264.32
233.062	20251.35
233.135	20245.14
233.207	20207.98
233.279	20195.79
233.351	20178.78
233.424	20163.6
233.496	20134.83
233.568	20136.03
233.64	20093.43
233.713	20073.48
233.785	20033.05
233.857	20008.57
233.929	19966.54
234.001	19954.59
234.074	19947.51
234.146	19906.93
234.218	19882.06
234.29	19855.27
234.362	19813.83
234.434	19773.15
234.507	19740.91
234.579	19709.25
234.651	19678.46
234.723	19674.27
234.795	19655.52
234.867	19631.52
234.939	19616.92
235.012	19602.37
235.084	19575.72
235.156	19560.92
235.228	19528.06
235.3	19497.41
235.372	19469.94
235.444	19459.58
235.516	19416.59
235.588	19395.34
235.66	19366.43
235.732	19321.51
235.804	19353.22
235.876	19345.56
235.948	19341.37
236.02	19314.24
236.092	19284.41
236.164	19251.98
236.236	19209.91
236.308	19182.44
236.38	19147.16
236.452	19112.18
236.524	19076.81
236.596	19061.29
236.668	19045.05
236.74	19014.4
236.812	19002.84
236.884	18976.52
236.956	18951.71
237.028	18910.79
237.1	18867.23
237.172	18854.22
237.244	18847.23
237.316	18774.03
237.388	18735.38
237.46	18691.38
237.532	18681.99
237.604	18655.82
237.675	18646.71
237.747	18625.07
237.819	18577.99
237.891	18557.71
237.963	18528.65
238.035	18500.74
238.107	18443.69
238.178	18430.82
238.25	18412.46
238.322	18400.27
238.394	18356.03
238.466	18312.9
238.538	18290.78
238.609	18267.94
238.681	18218.45
238.753	18180.71
238.825	18149.05
238.897	18125.82
238.968	18120.52
239.04	18077.58
239.112	18066.69
239.184	18017.88
239.255	17980.67
239.327	17956.19
239.399	17925.73
239.471	17907.13
239.542	17880.77
239.614	17861.25
239.686	17796.15
239.758	17756.92
239.829	17709.02
239.901	17693.88
239.973	17672.2
240.044	17642.27
240.116	17616.54
240.188	17583.38
240.259	17559.33
240.331	17523.43
240.403	17497.84
240.474	17444.2
240.546	17401.84
240.618	17354.32
240.689	17321.16
240.761	17298.61
240.833	17289.98
240.904	17257.74
240.976	17216.87
241.048	17195.52
241.119	17170.42
241.191	17153.69
241.262	17155.38
241.334	17122.17
241.405	17088.68
241.477	17049.3
241.549	17025.64
241.62	16988.05
241.692	16968.87
241.763	16950.79
241.835	16923.52
241.906	16899.71
241.978	16858.69
242.049	16846.31
242.121	16828.91
242.192	16814.35
242.264	16773.44
242.335	16719.99
242.407	16701.96
242.478	16664.51
242.55	16622.82
242.621	16578.1
242.693	16546.38
242.764	16500.65
242.836	16472.07
242.907	16447.58
242.979	16424.74
243.05	16397.94
243.122	16382.76
243.193	16349.26
243.264	16292.77
243.336	16256.53
243.407	16231.08
243.479	16215.66
243.55	16189.53
243.622	16159.27
243.693	16121.43
243.764	16103.89
243.836	16073.04
243.907	16040.99
243.978	16018.38
244.05	15996.07
244.121	15956.35
244.192	15933.89
244.264	15891.86
244.335	15862.22
244.407	15824.62
244.478	15802.26
244.549	15766.78
244.62	15721.62
244.692	15701.57
244.763	15683.3
244.834	15657.27
244.906	15618.47
244.977	15595.19
245.048	15580.97
245.119	15539.81
245.191	15517.2
245.262	15468.32
245.333	15454.25
245.405	15419.83
245.476	15392.5
245.547	15367.24
245.618	15346.9
245.689	15322.32
245.761	15306.7
245.832	15276.29
245.903	15256.67
245.974	15228.23
246.045	15206.1
246.117	15199.6
246.188	15151.54
246.259	15111.05
246.33	15078.17
246.401	15051.81
246.473	15011.65
246.544	14974.39
246.615	14965.76
246.686	14933.08
246.757	14932.36
246.828	14890.28
246.899	14877.84
246.97	14836.1
247.042	14802.69
247.113	14788.47
247.184	14775.65
247.255	14738.58
247.326	14716.69
247.397	14688.74
247.468	14663.86
247.539	14628.29
247.61	14580.81
247.681	14564.75
247.752	14555.45
247.823	14523.83
247.894	14499.68
247.965	14456.24
248.037	14421.63
248.108	14381.86
248.179	14348.07
248.25	14314.57
248.321	14299.34
248.392	14266.56
248.463	14264.63
248.534	14243.47
248.605	14222.54
248.675	14192.71
248.746	14170.24
248.817	14152.36
248.888	14129.56
248.959	14084.92
249.03	14068
249.101	14053.54
249.172	14025.77
249.243	13978.09
249.314	13971.2
249.385	13944.01
249.456	13935.14
249.527	13912.44
249.598	13890.45
249.669	13866.45
249.739	13844.85
249.81	13822.67
249.881	13787.68
249.952	13760.44
250.023	13733.3
250.094	13695.99
250.165	13668.32
250.235	13643.44
250.306	13610.66
250.377	13576.87
250.448	13569.11
250.519	13528.66
250.59	13517.67
250.66	13492.65
250.731	13487.74
250.802	13465.32
250.873	13446.09
250.944	13425.26
251.014	13397.73
251.085	13394.79
251.156	13378.36
251.227	13361.63
251.297	13352.08
251.368	13340.95
251.439	13330.87
251.51	13319.25
251.58	13290.81
251.651	13257.26
251.722	13251.19
251.792	13222.7
251.863	13195.22
251.934	13177.04
252.005	13191.75
252.075	13171.12
252.146	13159.55
252.217	13151.16
252.287	13130.91
252.358	13097.55
252.429	13097.84
252.499	13067.13
252.57	13049.64
252.641	13039.85
252.711	13027.41
252.782	12993.23
252.852	12993.28
252.923	12967.25
252.994	12946.14
253.064	12941.22
253.135	12918.13
253.205	12890.85
253.276	12882.02
253.347	12885.06
253.417	12862.79
253.488	12832.95
253.558	12806.77
253.629	12782.77
253.699	12763.1
253.77	12761.03
253.841	12746.81
253.911	12732.68
253.982	12722.13
254.052	12714.03
254.123	12691.37
254.193	12669.39
254.264	12691.18
254.334	12656.76
254.405	12630.25
254.475	12597.37
254.546	12578.48
254.616	12573.75
254.687	12560.35
254.757	12549.07
254.827	12522.99
254.898	12505.88
254.968	12494.65
255.039	12463.12
255.109	12454.88
255.18	12422.1
255.25	12373.75
255.321	12367.58
255.391	12338.56
255.461	12344.54
255.532	12302.27
255.602	12282.74
255.673	12244.66
255.743	12211.79
255.813	12167.73
255.884	12158.96
255.954	12156.6
256.024	12150.72
256.095	12127.1
256.165	12094.17
256.235	12083.04
256.306	12054.36
256.376	12049.54
256.446	12026.79
256.517	12022.16
256.587	12016.28
256.657	12005.24
256.728	11992.18
256.798	11969.86
256.868	11944.17
256.938	11916.41
257.009	11900.74
257.079	11893.9
257.149	11897.8
257.219	11864.3
257.29	11861.07
257.36	11823.09
257.43	11808.97
257.5	11770.31
257.571	11753.54
257.641	11746.21
257.711	11711.51
257.781	11700.43
257.852	11683.55
257.922	11647.36
257.992	11626.92
258.062	11607.98
258.132	11600.41
258.202	11575.64
258.273	11560.36
258.343	11565.66
258.413	11534.34
258.483	11519.54
258.553	11484.16
258.623	11458.14
258.693	11438.76
258.764	11435.19
258.834	11439.15
258.904	11423.1
258.974	11398.42
259.044	11376.25
259.114	11368.06
259.184	11358.23
259.254	11346.81
259.324	11313.31
259.394	11308.73
259.464	11312.59
259.535	11288.87
259.605	11268.73
259.675	11251.28
259.745	11236.1
259.815	11198.08
259.885	11181.16
259.955	11194.75
260.025	11177.21
260.095	11161.21
260.165	11155.29
260.235	11148.2
260.305	11126.61
260.375	11102.13
260.445	11107.24
260.515	11110.37
260.585	11098.75
260.655	11082.61
260.725	11076.11
260.795	11065.36
260.865	11072.73
260.934	11046.13
261.004	11041.26
261.074	11021.7
261.144	11025.75
261.214	11020.35
261.284	11002.13
261.354	10997.27
261.424	10971.63
261.494	10975.82
261.564	10961.84
261.634	10952.35
261.703	10923.48
261.773	10907.2
261.843	10898.14
261.913	10880.98
261.983	10847.16
262.053	10835.64
