Data from 20250625_urea_1M_1_MAYP1162681_00-15-06-318.txt Node
Date: Thu Jun 26 00:15:06 BST 2025
User: adleo
Spectrometer: MAYP116268
Trigger mode: 0
Integration Time (sec): 1.000000E0
Scans to average: 1
Electric dark correction enabled: true
Nonlinearity correction enabled: true
Boxcar width: 10
XAxis mode: Wavelengths
Number of Pixels in Spectrum: 2068
>>>>>Begin Spectral Data<<<<<
179.565	1140.02
179.642	1193.01
179.718	1231.4
179.795	1267.23
179.871	1292.29
179.948	1310.98
180.024	1330.4
180.101	1348.78
180.177	1360.23
180.254	1382.51
180.33	1405.09
180.407	1452.51
180.483	1542.11
180.56	1627.15
180.636	1706.01
180.712	1694.32
180.789	1704.48
180.865	1716.36
180.942	1722.58
181.018	1733.94
181.095	1747.3
181.171	1751.19
181.248	1749.06
181.324	1765.65
181.4	1770.35
181.477	1782.47
181.553	1793.92
181.63	1812.27
181.706	1829.52
181.782	1840.68
181.859	1839.59
181.935	1843.11
182.011	1842.4
182.088	1858.46
182.164	1874.92
182.24	1886.32
182.317	1897.92
182.393	1894.83
182.469	1908
182.546	1917.17
182.622	1917.27
182.698	1912.42
182.775	1923.64
182.851	1939.56
182.927	1930.2
183.003	1927.82
183.08	1924.73
183.156	1933.33
183.232	1931.29
183.308	1920.74
183.385	1925.92
183.461	1939.94
183.537	1939.94
183.613	1950.97
183.69	1942.27
183.766	1932.28
183.842	1937.28
183.918	1938.94
183.995	1949.07
184.071	1955.63
184.147	1952.54
184.223	1942.46
184.299	1956.73
184.375	1947.41
184.452	1953.74
184.528	2009.82
184.604	2019.85
184.68	2031.02
184.756	2035.4
184.832	2040.11
184.908	2045.43
184.985	2047.71
185.061	2035.45
185.137	2044.91
185.213	2033.4
185.289	2034.17
185.365	2028.89
185.441	2031.31
185.517	2048.3
185.593	2046.82
185.669	2043.35
185.745	2053.15
185.822	2068.98
185.898	2058.18
185.974	2065.41
186.05	2058.89
186.126	2017.79
186.202	2011.37
186.278	2008.23
186.354	2001.71
186.43	2007.33
186.506	2002.62
186.582	2000.15
186.658	2006.09
186.734	1988.26
186.81	1990.97
186.886	1992.87
186.962	2002.86
187.038	1998.29
187.114	1988.49
187.19	1996.48
187.266	1987.02
187.341	1987.4
187.417	1979.08
187.493	1978.03
187.569	1982.31
187.645	1976.75
187.721	1965.38
187.797	1972.85
187.873	1974.8
187.949	1967.95
188.025	1961.86
188.101	1966.57
188.176	1970.61
188.252	1966.05
188.328	1972.61
188.404	1972.22
188.48	1968.99
188.556	1961.91
188.632	1960.43
188.707	1960.43
188.783	1958.29
188.859	1952.26
188.935	1940.18
189.011	1949.21
189.086	1946.17
189.162	1937.9
189.238	1932.52
189.314	1930.34
189.39	1924.58
189.465	1918.02
189.541	1934.24
189.617	1920.64
189.693	1916.36
189.768	1921.88
189.844	1943.61
189.92	1936.58
189.996	1945.04
190.071	1957.22
190.147	1958.5
190.223	1968.96
190.298	1961.21
190.374	1949.66
190.45	1961.87
190.526	1969.77
190.601	1964.2
190.677	1965.91
190.753	1992.08
190.828	1998.4
190.904	2012.2
190.98	2028.84
191.055	2041.4
191.131	2033.74
191.207	2052.38
191.282	2063.17
191.358	2052.33
191.433	2040.91
191.509	2051.8
191.585	2049.75
191.66	2049.47
191.736	2056.84
191.811	2048.85
191.887	2063.83
191.963	2084.66
192.038	2088.18
192.114	2090.46
192.189	2097.41
192.265	2093.94
192.34	2072.57
192.416	2070.95
192.491	2070.48
192.567	2071.95
192.642	2073.38
192.718	2073.9
192.793	2061.82
192.869	2055.5
192.944	2060.44
193.02	2069.72
193.095	2073.67
193.171	2077.76
193.246	2076.76
193.322	2073.86
193.397	2075.33
193.473	2060.92
193.548	2043.51
193.624	2051.07
193.699	2047.98
193.775	2063.3
193.85	2063.16
193.925	2071.25
194.001	2067.59
194.076	2059.83
194.152	2048.94
194.227	2042.14
194.302	2032.01
194.378	2036.81
194.453	2034.06
194.529	2046.9
194.604	2029.21
194.679	2025.4
194.755	2007.72
194.83	2018.23
194.905	2017.95
194.981	2023.61
195.056	2017.81
195.131	2023.94
195.207	2021.13
195.282	2015.52
195.357	1993.5
195.433	2006.72
195.508	1994.06
195.583	2006.43
195.659	2019.84
195.734	2026.5
195.809	2024.27
195.884	2032.02
195.96	2031.3
196.035	2052.66
196.11	2045.52
196.185	2057.93
196.261	2057.03
196.336	2088.75
196.411	2076
196.486	2080.66
196.561	2073.82
196.637	2085.04
196.712	2100.45
196.787	2103.31
196.862	2116.01
196.937	2126.28
197.013	2137.08
197.088	2147.3
197.163	2165.58
197.238	2181.58
197.313	2181.43
197.388	2195.85
197.464	2225.21
197.539	2237.34
197.614	2226.02
197.689	2240.1
197.764	2255.28
197.839	2278.26
197.914	2272.84
197.989	2294.68
198.065	2307.91
198.14	2358.24
198.215	2380.37
198.29	2393.75
198.365	2408.42
198.44	2420.69
198.515	2446.59
198.59	2456.69
198.665	2482.77
198.74	2490.25
198.815	2489.25
198.89	2509.43
198.965	2536.96
199.04	2532.15
199.115	2547.25
199.19	2587.29
199.265	2586.67
199.34	2596.58
199.415	2626.98
199.49	2647.31
199.565	2656.03
199.64	2677.84
199.715	2674.74
199.79	2683.27
199.865	2690.7
199.94	2687.04
200.015	2717.63
200.09	2723.63
200.165	2730.82
200.24	2739.64
200.315	2775.12
200.39	2790.98
200.464	2797.03
200.539	2799.8
200.614	2817.76
200.689	2838.53
200.764	2844.07
200.839	2861.31
200.914	2866.55
200.989	2855.34
201.063	2867.35
201.138	2854.4
201.213	2854.45
201.288	2836.77
201.363	2837.39
201.438	2833.48
201.512	2851.77
201.587	2832.75
201.662	2837.38
201.737	2846.91
201.812	2851.53
201.886	2824.63
201.961	2833.98
202.036	2822.79
202.111	2817.4
202.186	2787.82
202.26	2775.1
202.335	2754.18
202.41	2749.94
202.485	2735.93
202.559	2719.88
202.634	2694.96
202.709	2700.58
202.784	2681.52
202.858	2682.24
202.933	2665.43
203.008	2661.57
203.082	2642.13
203.157	2643.75
203.232	2602.47
203.306	2582.04
203.381	2552.79
203.456	2530.64
203.53	2506.47
203.605	2488.1
203.68	2465.34
203.754	2459.96
203.829	2442.62
203.904	2426.06
203.978	2414.96
204.053	2414.91
204.127	2402.35
204.202	2397.78
204.277	2381.69
204.351	2376.69
204.426	2369.12
204.5	2364.17
204.575	2328.71
204.65	2336.62
204.724	2323.9
204.799	2333.18
204.873	2330.04
204.948	2328.89
205.022	2317.66
205.097	2311.33
205.171	2329.46
205.246	2340.32
205.32	2340.65
205.395	2340.7
205.469	2330.99
205.544	2336.71
205.618	2322.29
205.693	2332.81
205.767	2321.77
205.842	2340.33
205.916	2334.19
205.991	2324.2
206.065	2328.86
206.14	2343.7
206.214	2338.99
206.289	2336.61
206.363	2348.36
206.438	2353.74
206.512	2360.69
206.586	2379.68
206.661	2387.02
206.735	2363.42
206.81	2360.46
206.884	2374.07
206.958	2363.22
207.033	2379.59
207.107	2384.5
207.181	2415.21
207.256	2409.12
207.33	2426.87
207.405	2440.45
207.479	2458.68
207.553	2467.01
207.628	2451.83
207.702	2464.73
207.776	2458.92
207.851	2461.49
207.925	2477.93
207.999	2473.12
208.073	2470.93
208.148	2474.21
208.222	2464.12
208.296	2492.39
208.371	2510.3
208.445	2524.02
208.519	2552.16
208.593	2564.49
208.668	2562.01
208.742	2563.25
208.816	2567.82
208.89	2585.5
208.965	2585.11
209.039	2595.45
209.113	2610.31
209.187	2633.2
209.261	2633.63
209.336	2658.64
209.41	2682.7
209.484	2685.66
209.558	2714.2
209.632	2731.06
209.707	2743.49
209.781	2771.27
209.855	2795
209.929	2818.04
210.003	2830.05
210.077	2836.72
210.151	2894.73
210.226	2940.47
210.3	2980.21
210.374	3017.67
210.448	3037.7
210.522	3065.12
210.596	3091.35
210.67	3126.12
210.744	3199.94
210.818	3252.44
210.892	3299.3
210.966	3319.53
211.041	3363.48
211.115	3395.16
211.189	3456.83
211.263	3513.39
211.337	3558.07
211.411	3614.38
211.485	3650.73
211.559	3713.61
211.633	3767.27
211.707	3792.51
211.781	3859.02
211.855	3888.51
211.929	3941.77
212.003	3993.32
212.077	4073.32
212.151	4158.92
212.225	4243.72
212.299	4305.71
212.373	4377.98
212.447	4456.76
212.52	4578.55
212.594	4678.33
212.668	4785.8
212.742	4872.67
212.816	4971.1
212.89	5077.04
212.964	5183.24
213.038	5304.06
213.112	5434.13
213.186	5569.18
213.26	5671.27
213.333	5748.72
213.407	5881.25
213.481	6018.59
213.555	6165.31
213.629	6291.89
213.703	6415.94
213.777	6553.66
213.85	6683.67
213.924	6871.99
213.998	7025.89
214.072	7174.08
214.146	7316.59
214.219	7471.19
214.293	7626.7
214.367	7788.79
214.441	7961.1
214.515	8117.76
214.588	8265.25
214.662	8396.03
214.736	8548.41
214.81	8726.7
214.883	8915.66
214.957	9080.74
215.031	9247.62
215.105	9396.46
215.178	9558.05
215.252	9732.37
215.326	9892.46
215.4	10056.5
215.473	10178.09
215.547	10334.09
215.621	10494.43
215.694	10673.77
215.768	10828.77
215.842	10996.07
215.915	11165.75
215.989	11319.19
216.063	11479.53
216.136	11653.03
216.21	11830.33
216.284	12017.82
216.357	12193.55
216.431	12355.56
216.504	12529.37
216.578	12721.36
216.652	12905.87
216.725	13074.39
216.799	13247.63
216.873	13409.65
216.946	13569.88
217.02	13729.87
217.093	13891.84
217.167	14033.47
217.24	14172.2
217.314	14315.85
217.387	14460.61
217.461	14598.86
217.535	14759.04
217.608	14895.27
217.682	15034.82
217.755	15179.04
217.829	15307.4
217.902	15441.74
217.976	15582.82
218.049	15713.06
218.123	15824.83
218.196	15955.6
218.27	16082.51
218.343	16205.7
218.417	16338.05
218.49	16460.57
218.563	16603.76
218.637	16734.37
218.71	16869.56
218.784	17001.66
218.857	17134.1
218.931	17252.66
219.004	17365.77
219.077	17483.51
219.151	17608.91
219.224	17721.1
219.298	17837.63
219.371	17956.57
219.444	18055.45
219.518	18159.36
219.591	18268.51
219.665	18395.88
219.738	18493.7
219.811	18576.83
219.885	18672.44
219.958	18769.93
220.031	18862.84
220.105	18952.04
220.178	19035.8
220.251	19115.21
220.325	19201.38
220.398	19292.12
220.471	19370.96
220.544	19458.52
220.618	19519.63
220.691	19591.62
220.764	19666.03
220.838	19743.33
220.911	19805.93
220.984	19900.86
221.057	19971.8
221.131	20032.04
221.204	20067.51
221.277	20147.84
221.35	20241.43
221.424	20293
221.497	20345.86
221.57	20407.94
221.643	20460.51
221.716	20518.39
221.79	20569.48
221.863	20612.42
221.936	20650.2
222.009	20703.99
222.082	20756.18
222.155	20791.41
222.229	20853.1
222.302	20894.26
222.375	20928.62
222.448	20971.8
222.521	21006.89
222.594	21035.47
222.667	21058.41
222.74	21108.83
222.814	21145.36
222.887	21179.29
222.96	21226.14
223.033	21270.43
223.106	21303.06
223.179	21348.08
223.252	21376.28
223.325	21417.3
223.398	21446.46
223.471	21485.83
223.544	21508.1
223.617	21530.13
223.69	21567.19
223.763	21581.65
223.837	21617.9
223.91	21647.78
223.983	21648.94
224.056	21647.88
224.129	21674.44
224.202	21704.42
224.275	21718.54
224.348	21718.06
224.42	21709.96
224.493	21699.36
224.566	21696.66
224.639	21713.62
224.712	21716.52
224.785	21719.6
224.858	21717.43
224.931	21721.29
225.004	21713.09
225.077	21725.67
225.15	21702.1
225.223	21697.33
225.296	21721.19
225.369	21698.88
225.442	21690.54
225.514	21703.46
225.587	21710.88
225.66	21725
225.733	21735.03
225.806	21732.91
225.879	21734.16
225.952	21730.02
226.025	21750.26
226.097	21769.35
226.17	21759.9
226.243	21740.57
226.316	21737
226.389	21723.17
226.461	21724.04
226.534	21724.81
226.607	21710.01
226.68	21734.02
226.753	21740.33
226.825	21713.87
226.898	21736.57
226.971	21723.27
227.044	21723.46
227.117	21714.3
227.189	21697.96
227.262	21697.77
227.335	21694.06
227.407	21682.34
227.48	21681.38
227.553	21669.91
227.626	21655.64
227.698	21647.01
227.771	21639.59
227.844	21613.9
227.916	21620.02
227.989	21594.09
228.062	21575.19
228.134	21585.46
228.207	21560.15
228.28	21536.49
228.352	21515.67
228.425	21489.69
228.498	21493.3
228.57	21467.23
228.643	21471.03
228.716	21458.65
228.788	21434.11
228.861	21402.98
228.934	21402.59
229.006	21399.07
229.079	21377.96
229.151	21351.74
229.224	21325.33
229.296	21318.53
229.369	21340.32
229.442	21342.58
229.514	21327.11
229.587	21335.45
229.659	21303.88
229.732	21310.29
229.804	21307.21
229.877	21321.91
229.949	21319.79
230.022	21321.71
230.094	21305.09
230.167	21294.05
230.239	21273.71
230.312	21261.56
230.384	21286.87
230.457	21275.06
230.529	21257.42
230.602	21250.62
230.674	21242.53
230.747	21244.69
230.819	21234.57
230.892	21189.12
230.964	21165.8
231.037	21159.96
231.109	21137.79
231.181	21134.95
231.254	21090.13
231.326	21070.51
231.399	21045.55
231.471	21021.69
231.544	20979.23
231.616	20977.78
231.688	20955.61
231.761	20922.12
231.833	20893.01
231.905	20837.63
231.978	20812.08
232.05	20781.19
232.122	20761.43
232.195	20731.07
232.267	20711.55
232.339	20689.53
232.412	20679.84
232.484	20642.82
232.556	20617.43
232.629	20616.08
232.701	20598.87
232.773	20588.08
232.846	20564.9
232.918	20535.11
232.99	20519.69
233.062	20499.4
233.135	20472.46
233.207	20445.18
233.279	20440.03
233.351	20424.08
233.424	20398.53
233.496	20361.04
233.568	20359.5
233.64	20311.84
233.713	20294.15
233.785	20270.29
233.857	20243.93
233.929	20204.61
234.001	20197.19
234.074	20192.51
234.146	20140.37
234.218	20105.48
234.29	20076.13
234.362	20046.2
234.434	20010.44
234.507	19972.95
234.579	19932.81
234.651	19907.27
234.723	19877
234.795	19853.34
234.867	19826.35
234.939	19814.74
235.012	19802.21
235.084	19775.08
235.156	19768.62
235.228	19723.95
235.3	19687.47
235.372	19663.09
235.444	19649.54
235.516	19602.41
235.588	19560.34
235.66	19540.59
235.732	19513.5
235.804	19546.27
235.876	19525.55
235.948	19508.49
236.02	19473.65
236.092	19442.09
236.164	19409.75
236.236	19369.66
236.308	19329.13
236.38	19302
236.452	19269.18
236.524	19237.13
236.596	19221.33
236.668	19192.7
236.74	19169.81
236.812	19151.93
236.884	19120.76
236.956	19092.13
237.028	19053.1
237.1	19018.02
237.172	18997.1
237.244	18983.99
237.316	18915.56
237.388	18881.06
237.46	18844.87
237.532	18824.82
237.604	18796.82
237.675	18784.54
237.747	18770.13
237.819	18739.14
237.891	18708.35
237.963	18664.4
238.035	18628.64
238.107	18558.43
238.178	18543.2
238.25	18515.49
238.322	18508.21
238.394	18459.98
238.466	18423.25
238.538	18400.8
238.609	18379.02
238.681	18331.6
238.753	18292.61
238.825	18264.52
238.897	18234.93
238.968	18226.49
239.04	18187.94
239.112	18183.89
239.184	18137.05
239.255	18103.9
239.327	18078.21
239.399	18044.96
239.471	18024.38
239.542	18002.45
239.614	17990.7
239.686	17930.17
239.758	17902.75
239.829	17852.29
239.901	17840.63
239.973	17808.73
240.044	17782.65
240.116	17746.12
240.188	17713.02
240.259	17671.04
240.331	17627.86
240.403	17597.6
240.474	17546.27
240.546	17505.21
240.618	17444.39
240.689	17406.08
240.761	17366.32
240.833	17344.73
240.904	17310.66
240.976	17280.58
241.048	17245.07
241.119	17224.83
241.191	17202.27
241.262	17188.44
241.334	17147.09
241.405	17115.28
241.477	17087.52
241.549	17058.85
241.62	17033.54
241.692	17013.45
241.763	16997.06
241.835	16974.12
241.906	16949.06
241.978	16897.25
242.049	16887.71
242.121	16880.19
242.192	16864.57
242.264	16826.31
242.335	16777.39
242.407	16754.83
242.478	16719.07
242.55	16685.14
242.621	16642.54
242.693	16606.63
242.764	16570.48
242.836	16537.76
242.907	16513.66
242.979	16486.28
243.05	16454.43
243.122	16427.53
243.193	16390.13
243.264	16346.22
243.336	16305.5
243.407	16285.93
243.479	16289.16
243.55	16263.28
243.622	16235.56
243.693	16205.2
243.764	16201.54
243.836	16164.81
243.907	16125.96
243.978	16097.09
244.05	16081.38
244.121	16032.26
244.192	16019.39
244.264	15973.6
244.335	15955.82
244.407	15909.11
244.478	15887.37
244.549	15860.62
244.62	15813.63
244.692	15786.01
244.763	15768.03
244.834	15735.54
244.906	15689.32
244.977	15658.04
245.048	15643.72
245.119	15604.39
245.191	15570.17
245.262	15518.11
245.333	15512.09
245.405	15494.5
245.476	15468.95
245.547	15440.03
245.618	15430.48
245.689	15399.68
245.761	15387.54
245.832	15361.65
245.903	15337.36
245.974	15302.65
246.045	15274.6
246.117	15267.03
246.188	15232.71
246.259	15188.65
246.33	15167.4
246.401	15143.58
246.473	15101.84
246.544	15063.33
246.615	15046.94
246.686	15015.66
246.757	15003.89
246.828	14959.55
246.899	14947.69
246.97	14909.99
247.042	14871.96
247.113	14847.04
247.184	14838.6
247.255	14803.12
247.326	14772.42
247.397	14750.39
247.468	14730.39
247.539	14703.25
247.61	14667.86
247.681	14655.72
247.752	14646.46
247.823	14608.72
247.894	14584.04
247.965	14552.36
248.037	14522
248.108	14484.59
248.179	14460.1
248.25	14430.84
248.321	14417.15
248.392	14376.46
248.463	14373.14
248.534	14352.55
248.605	14330.48
248.675	14292.88
248.746	14276.54
248.817	14256.34
248.888	14242.55
248.959	14204.23
249.03	14188.51
249.101	14169.23
249.172	14132.16
249.243	14082.17
249.314	14075.71
249.385	14053.63
249.456	14032.76
249.527	14002.77
249.598	13979.83
249.669	13953.22
249.739	13931.91
249.81	13918.08
249.881	13882.45
249.952	13853.82
250.023	13822.87
250.094	13788.35
250.165	13764.54
250.235	13730.07
250.306	13703.65
250.377	13670.58
250.448	13654.77
250.519	13603.96
250.59	13593.84
250.66	13565.59
250.731	13568.67
250.802	13543.37
250.873	13527.8
250.944	13511.55
251.014	13486.63
251.085	13485.52
251.156	13464.84
251.227	13456.45
251.297	13447.92
251.368	13438.61
251.439	13428.49
251.51	13425.94
251.58	13400
251.651	13368.91
251.722	13358.35
251.792	13323.64
251.863	13293.42
251.934	13278.42
252.005	13289.7
252.075	13263.91
252.146	13256.92
252.217	13242.46
252.287	13227.18
252.358	13203.61
252.429	13199.17
252.499	13173.57
252.57	13159.5
252.641	13149.76
252.711	13129.56
252.782	13086.18
252.852	13085.12
252.923	13059.9
252.994	13029.68
253.064	13017.67
253.135	12994.2
253.205	12974.05
253.276	12974.19
253.347	12971.69
253.417	12947.87
253.488	12918.47
253.558	12895.67
253.629	12867.22
253.699	12849.48
253.77	12838.93
253.841	12814.44
253.911	12799.11
253.982	12786.72
254.052	12769.37
254.123	12752.3
254.193	12733.5
254.264	12748.25
254.334	12719.47
254.405	12694.7
254.475	12671.27
254.546	12649.14
254.616	12642.35
254.687	12627.79
254.757	12612.56
254.827	12592.89
254.898	12583.44
254.968	12569.75
255.039	12543.67
255.109	12543.09
255.18	12513.01
255.25	12469.58
255.321	12455.02
255.391	12419.64
255.461	12422.29
255.532	12381.95
255.602	12352.98
255.673	12312.05
255.743	12283.85
255.813	12233.29
255.884	12228.47
255.954	12218.63
256.024	12220.9
256.095	12203.88
256.165	12171.4
256.235	12159.49
256.306	12124.98
256.376	12115.05
256.446	12105.7
256.517	12089.5
256.587	12080.77
256.657	12067.9
256.728	12054.7
256.798	12043.8
256.868	12027.8
256.938	11989.34
257.009	11981.34
257.079	11981
257.149	11987.6
257.219	11946.63
257.29	11940.99
257.36	11899.97
257.43	11892.36
257.5	11848.35
257.571	11827.48
257.641	11821.36
257.711	11788.58
257.781	11783.38
257.852	11763.61
257.922	11725.44
257.992	11710.35
258.062	11693.15
258.132	11681.14
258.202	11667.94
258.273	11651.12
258.343	11646.83
258.413	11630.54
258.483	11611.88
258.553	11585.81
258.623	11556.7
258.693	11549.47
258.764	11548.31
258.834	11553.13
258.904	11536.36
258.974	11521.13
259.044	11499.29
259.114	11489.37
259.184	11474.47
259.254	11449.46
259.324	11406.13
259.394	11400.88
259.464	11401.17
259.535	11372.97
259.605	11351.14
259.675	11323.24
259.745	11310.13
259.815	11285.26
259.885	11268.49
259.955	11276.63
260.025	11247.53
260.095	11234.66
260.165	11221.02
260.235	11223.86
260.305	11195.53
260.375	11167.91
260.445	11175.14
260.515	11171.43
260.585	11159.04
260.655	11147.33
260.725	11143.72
260.795	11145.65
260.865	11146.85
260.934	11122.32
261.004	11111.14
261.074	11096.01
261.144	11100.34
261.214	11086.27
261.284	11063.96
261.354	11049.5
261.424	11019.86
261.494	11018.8
261.564	11000.25
261.634	11000.06
261.703	10964.59
261.773	10951.15
261.843	10937.65
261.913	10912.31
261.983	10886.09
262.053	10872.65
262.123	10855.2
262.192	10831.25
262.262	10825.28
