Data from 20250625_urea_1M_1_MAYP1162681_02-55-05-555.txt Node
Date: Thu Jun 26 02:55:05 BST 2025
User: adleo
Spectrometer: MAYP116268
Trigger mode: 0
Integration Time (sec): 1.000000E0
Scans to average: 1
Electric dark correction enabled: true
Nonlinearity correction enabled: true
Boxcar width: 10
XAxis mode: Wavelengths
Number of Pixels in Spectrum: 2068
>>>>>Begin Spectral Data<<<<<
179.565	1122.9
179.642	1173.8
179.718	1210.03
179.795	1250.71
179.871	1279.85
179.948	1295.74
180.024	1312.64
180.101	1332.09
180.177	1343.78
180.254	1365.02
180.33	1384.38
180.407	1434.41
180.483	1522.49
180.56	1604.92
180.636	1685.39
180.712	1675.27
180.789	1684.39
180.865	1696.79
180.942	1702.72
181.018	1710.28
181.095	1721.21
181.171	1723.44
181.248	1725.87
181.324	1743.4
181.4	1746.78
181.477	1757.42
181.553	1770.54
181.63	1790.88
181.706	1805.66
181.782	1814.26
181.859	1813.69
181.935	1820.96
182.011	1816.44
182.088	1834.46
182.164	1852.58
182.24	1862.03
182.317	1872.11
182.393	1868.59
182.469	1879.81
182.546	1888.36
182.622	1891.83
182.698	1888.31
182.775	1901.25
182.851	1911.37
182.927	1901.86
183.003	1898.06
183.08	1893.64
183.156	1902.1
183.232	1900.72
183.308	1891.26
183.385	1898.34
183.461	1911.47
183.537	1911.61
183.613	1921.54
183.69	1907.23
183.766	1899.29
183.842	1906.47
183.918	1913.13
183.995	1926.29
184.071	1933.67
184.147	1931.86
184.223	1923.64
184.299	1935.81
184.375	1923.78
184.452	1929.21
184.528	1983.52
184.604	1992.69
184.68	1999.78
184.756	2005.48
184.832	2010.43
184.908	2014.52
184.985	2015.99
185.061	2003.25
185.137	2013.33
185.213	2002.92
185.289	2007.67
185.365	1998.69
185.441	1997.64
185.517	2011.68
185.593	2009.35
185.669	2003.35
185.745	2010.06
185.822	2025.22
185.898	2016.85
185.974	2025.55
186.05	2019.22
186.126	1982.17
186.202	1978.04
186.278	1975.71
186.354	1967.67
186.43	1973.23
186.506	1972.33
186.582	1969.67
186.658	1975.9
186.734	1954.6
186.81	1954.22
186.886	1957.5
186.962	1971.9
187.038	1967.05
187.114	1954.97
187.19	1960.01
187.266	1952.07
187.341	1958.3
187.417	1950.55
187.493	1952.12
187.569	1956.97
187.645	1951.84
187.721	1939.85
187.797	1945.46
187.873	1949.36
187.949	1943.33
188.025	1932.62
188.101	1935.62
188.176	1938.61
188.252	1935.81
188.328	1947.26
188.404	1949.35
188.48	1943.84
188.556	1934.38
188.632	1935.19
188.707	1935.52
188.783	1934.19
188.859	1929.24
188.935	1916.55
189.011	1926.86
189.086	1921.16
189.162	1914.6
189.238	1914.64
189.314	1910.84
189.39	1906.66
189.465	1901.19
189.541	1918.55
189.617	1906.85
189.693	1901.91
189.768	1907.61
189.844	1929.45
189.92	1917.42
189.996	1925.27
190.071	1935.54
190.147	1935.2
190.223	1944.1
190.298	1939.72
190.374	1924.98
190.45	1936.11
190.526	1941.67
190.601	1935.58
190.677	1938.05
190.753	1959.7
190.828	1962.55
190.904	1976.72
190.98	1989.56
191.055	1999.6
191.131	1991.04
191.207	2009.62
191.282	2016.33
191.358	2005.77
191.433	1994.64
191.509	2006.24
191.585	2002.67
191.66	2003.91
191.736	2009.99
191.811	2000.01
191.887	2014.04
191.963	2038.67
192.038	2041.24
192.114	2042.62
192.189	2046.71
192.265	2040.15
192.34	2022.69
192.416	2019.83
192.491	2017.79
192.567	2022.69
192.642	2026.78
192.718	2028.11
192.793	2018.74
192.869	2015.51
192.944	2020.03
193.02	2025.35
193.095	2031.3
193.171	2036.91
193.246	2040.14
193.322	2038.67
193.397	2040.52
193.473	2027.96
193.548	2011.36
193.624	2018.36
193.699	2016.12
193.775	2029.63
193.85	2032.77
193.925	2037.48
194.001	2035.39
194.076	2026.11
194.152	2013.55
194.227	2003.28
194.302	1991.35
194.378	1995.1
194.453	1994.06
194.529	2005.85
194.604	1991.73
194.679	1986.55
194.755	1969.39
194.83	1977.38
194.905	1974.53
194.981	1982.28
195.056	1974.39
195.131	1980.38
195.207	1977.62
195.282	1971.82
195.357	1955.17
195.433	1968.82
195.508	1960.16
195.583	1971.95
195.659	1987.5
195.734	1993.93
195.809	1997.64
195.884	2006.1
195.96	2005.05
196.035	2021.27
196.11	2017.51
196.185	2028.97
196.261	2030.54
196.336	2061.97
196.411	2048.84
196.486	2054.5
196.561	2050.08
196.637	2061.3
196.712	2077.62
196.787	2081.57
196.862	2096.21
196.937	2103.92
197.013	2109.82
197.088	2117.9
197.163	2135.6
197.238	2150.98
197.313	2151.98
197.388	2162.92
197.464	2190.9
197.539	2202.74
197.614	2193.71
197.689	2204.55
197.764	2220.45
197.839	2241.81
197.914	2237.57
197.989	2259.84
198.065	2274.59
198.14	2322.64
198.215	2344.53
198.29	2354.91
198.365	2367.72
198.44	2374.95
198.515	2401.7
198.59	2415.89
198.665	2442.4
198.74	2450.35
198.815	2450.45
198.89	2470.2
198.965	2498.87
199.04	2495.64
199.115	2510.49
199.19	2548.81
199.265	2551.14
199.34	2559.14
199.415	2587.06
199.49	2606.35
199.565	2616.25
199.64	2638.11
199.715	2633.2
199.79	2638.97
199.865	2644.25
199.94	2642.97
200.015	2672.83
200.09	2679.6
200.165	2685.03
200.24	2688.89
200.315	2727.18
200.39	2743.09
200.464	2747.95
200.539	2750.33
200.614	2765.05
200.689	2785.54
200.764	2793.31
200.839	2811.45
200.914	2817.27
200.989	2810.59
201.063	2820.41
201.138	2801.03
201.213	2803.08
201.288	2786.02
201.363	2790.93
201.438	2792.12
201.512	2806.88
201.587	2793.44
201.662	2797.4
201.737	2810.17
201.812	2819.13
201.886	2789.71
201.961	2797.76
202.036	2788.33
202.111	2784.81
202.186	2754.43
202.26	2737.51
202.335	2721.59
202.41	2714.4
202.485	2702.02
202.559	2682.63
202.634	2659.57
202.709	2669.81
202.784	2648.18
202.858	2648.66
202.933	2631.42
203.008	2624.75
203.082	2606.27
203.157	2603.37
203.232	2561.9
203.306	2539.84
203.381	2511.31
203.456	2486.5
203.53	2462.72
203.605	2443.68
203.68	2421.44
203.754	2420.96
203.829	2406.63
203.904	2382.45
203.978	2370.88
204.053	2370.69
204.127	2359.36
204.202	2357.79
204.277	2342.7
204.351	2336.8
204.426	2328.51
204.5	2322.13
204.575	2288.73
204.65	2299.11
204.724	2294.4
204.799	2304.53
204.873	2301.91
204.948	2299.91
205.022	2291.3
205.097	2284.68
205.171	2301.29
205.246	2307.29
205.32	2304.91
205.395	2306.43
205.469	2301.91
205.544	2310.01
205.618	2293.54
205.693	2302.44
205.767	2291.73
205.842	2311.3
205.916	2305.68
205.991	2298.97
206.065	2303.3
206.14	2320.71
206.214	2314.43
206.289	2303.33
206.363	2313.28
206.438	2314.61
206.512	2320.75
206.586	2335.55
206.661	2346.94
206.735	2323.57
206.81	2323.96
206.884	2338.52
206.958	2325.57
207.033	2338.28
207.107	2343.66
207.181	2374.56
207.256	2370.99
207.33	2389.88
207.405	2400.32
207.479	2419.07
207.553	2425.4
207.628	2410.22
207.702	2418.7
207.776	2412.37
207.851	2416.89
207.925	2433.46
207.999	2432.03
208.073	2427.85
208.148	2433.65
208.222	2420.42
208.296	2451.49
208.371	2469.79
208.445	2479.98
208.519	2511.11
208.593	2525.96
208.668	2521.44
208.742	2524.44
208.816	2527.39
208.89	2539.21
208.965	2539.68
209.039	2548.31
209.113	2566.55
209.187	2590.91
209.261	2591.25
209.336	2613.49
209.41	2636.87
209.484	2638.25
209.558	2666.32
209.632	2686.22
209.707	2700.47
209.781	2728.48
209.855	2749.4
209.929	2769.57
210.003	2785.63
210.077	2791.45
210.151	2843.05
210.226	2888.02
210.3	2925.47
210.374	2957.53
210.448	2974.5
210.522	2995.39
210.596	3021.14
210.67	3047.03
210.744	3109.71
210.818	3158.38
210.892	3201.37
210.966	3218.91
211.041	3259.89
211.115	3282.17
211.189	3332.41
211.263	3375.31
211.337	3410.38
211.411	3458.74
211.485	3491.31
211.559	3543.2
211.633	3591.4
211.707	3609.27
211.781	3658.64
211.855	3678.08
211.929	3723.73
212.003	3762.35
212.077	3831.26
212.151	3907.31
212.225	3976.28
212.299	4031.82
212.373	4089.47
212.447	4158.11
212.52	4263.37
212.594	4344.85
212.668	4436.83
212.742	4509.71
212.816	4595.37
212.89	4683.57
212.964	4777.15
213.038	4879.27
213.112	4992.81
213.186	5102.58
213.26	5186.9
213.333	5254.7
213.407	5367.48
213.481	5491.92
213.555	5622.97
213.629	5732.47
213.703	5837
213.777	5967.31
213.85	6072.15
213.924	6232.41
213.998	6360.35
214.072	6482.95
214.146	6606.02
214.219	6740.93
214.293	6881.71
214.367	7026.12
214.441	7175.16
214.515	7307.53
214.588	7427.22
214.662	7534.42
214.736	7663.15
214.81	7819.9
214.883	7980.47
214.957	8119.49
215.031	8247.72
215.105	8375.75
215.178	8513.61
215.252	8661
215.326	8785.76
215.4	8923.1
215.473	9036
215.547	9171.39
215.621	9315.8
215.694	9469.61
215.768	9600.69
215.842	9731.59
215.915	9870.55
215.989	9994.24
216.063	10138.29
216.136	10292.15
216.21	10446.3
216.284	10608.57
216.357	10756.2
216.431	10901.91
216.504	11057.93
216.578	11232.86
216.652	11390.96
216.725	11542.82
216.799	11692.37
216.873	11836.38
216.946	11989.78
217.02	12125.27
217.093	12267.6
217.167	12386.28
217.24	12512.52
217.314	12639.44
217.387	12773.87
217.461	12900.17
217.535	13057.5
217.608	13173.25
217.682	13303.4
217.755	13444.69
217.829	13566.65
217.902	13697.72
217.976	13819.92
218.049	13941.01
218.123	14054.01
218.196	14181.7
218.27	14286.55
218.343	14392.46
218.417	14517.5
218.49	14635.5
218.563	14768.16
218.637	14882.11
218.71	15015.44
218.784	15130.41
218.857	15256.65
218.931	15371.42
219.004	15486.48
219.077	15600.37
219.151	15714.47
219.224	15819.78
219.298	15917.77
219.371	16025.79
219.444	16107.97
219.518	16210.48
219.591	16306.4
219.665	16424.77
219.738	16511.96
219.811	16601.8
219.885	16701.71
219.958	16790.25
220.031	16876.66
220.105	16958.59
220.178	17054.21
220.251	17132.86
220.325	17226.89
220.398	17318.26
220.471	17413.01
220.544	17499.85
220.618	17560.1
220.691	17642.89
220.764	17721.35
220.838	17802.36
220.911	17870.07
220.984	17968.14
221.057	18050.69
221.131	18125.24
221.204	18155.65
221.277	18251.5
221.35	18349.42
221.424	18412.51
221.497	18484.55
221.57	18545.42
221.643	18618.62
221.716	18685.31
221.79	18739.14
221.863	18797.06
221.936	18845.69
222.009	18886.22
222.082	18939.75
222.155	18989.82
222.229	19054.45
222.302	19097.87
222.375	19137.14
222.448	19191.45
222.521	19227.93
222.594	19265.85
222.667	19294.05
222.74	19355.05
222.814	19392.64
222.887	19424.64
222.96	19474.81
223.033	19518.13
223.106	19565.84
223.179	19604.39
223.252	19628.29
223.325	19669.35
223.398	19696.1
223.471	19732.53
223.544	19773.73
223.617	19808.62
223.69	19842.02
223.763	19847.27
223.837	19885
223.91	19918.78
223.983	19936.71
224.056	19956.23
224.129	19981.24
224.202	20024.42
224.275	20046.39
224.348	20049.43
224.42	20061.24
224.493	20072.37
224.566	20079.45
224.639	20095.45
224.712	20104.03
224.785	20123.07
224.858	20138.54
224.931	20152.03
225.004	20147.31
225.077	20169.38
225.15	20157.43
225.223	20169.96
225.296	20210.53
225.369	20198.34
225.442	20207.31
225.514	20215.79
225.587	20236.27
225.66	20251.31
225.733	20256.51
225.806	20256.99
225.879	20264.37
225.952	20270.82
226.025	20289.33
226.097	20318.1
226.17	20327.64
226.243	20320.27
226.316	20326.1
226.389	20335.84
226.461	20345.23
226.534	20359.06
226.607	20352.12
226.68	20378.73
226.753	20388.46
226.825	20372.46
226.898	20393.91
226.971	20400.22
227.044	20417.04
227.117	20418.44
227.189	20427.45
227.262	20439.01
227.335	20444.56
227.407	20444.85
227.48	20457.33
227.553	20456.07
227.626	20446.39
227.698	20438.53
227.771	20450.48
227.844	20450.53
227.916	20448.99
227.989	20435.01
228.062	20439.21
228.134	20460.17
228.207	20453.71
228.28	20446.92
228.352	20454.29
228.425	20453.91
228.498	20460.12
228.57	20441.04
228.643	20451.21
228.716	20441.09
228.788	20429.62
228.861	20424.89
228.934	20433.76
229.006	20424.6
229.079	20409.38
229.151	20400.17
229.224	20382.73
229.296	20381.14
229.369	20405.38
229.442	20418.92
229.514	20413.67
229.587	20414.87
229.659	20384.99
229.732	20386.53
229.804	20382.77
229.877	20393.09
229.949	20400.65
230.022	20412.41
230.094	20415.59
230.167	20409.52
230.239	20397.33
230.312	20386.78
230.384	20410.15
230.457	20406.73
230.529	20395.6
230.602	20400.13
230.674	20402.54
230.747	20406.92
230.819	20400.32
230.892	20349.09
230.964	20331.31
231.037	20326.05
231.109	20317.04
231.181	20318.53
231.254	20300.41
231.326	20295.55
231.399	20267.79
231.471	20245.43
231.544	20205.86
231.616	20198.15
231.688	20179.55
231.761	20161.67
231.833	20154.83
231.905	20106.49
231.978	20089.81
232.05	20081.72
232.122	20058.49
232.195	20032.13
232.267	20032.23
232.339	20011.31
232.412	20008.37
232.484	19985.72
232.556	19968.57
232.629	19972.81
232.701	19966.3
232.773	19945.96
232.846	19921.24
232.918	19912.09
232.99	19895.12
233.062	19889
233.135	19873
233.207	19848.57
233.279	19843.12
233.351	19825.63
233.424	19814.45
233.496	19784.86
233.568	19778.12
233.64	19749.39
233.713	19722.17
233.785	19708.53
233.857	19701.64
233.929	19670.12
234.001	19675.37
234.074	19671.71
234.146	19632.53
234.218	19604.63
234.29	19587.76
234.362	19567.62
234.434	19532.68
234.507	19504.73
234.579	19461.36
234.651	19438.86
234.723	19423.92
234.795	19399.05
234.867	19374.38
234.939	19358.67
235.012	19337.9
235.084	19315.78
235.156	19302.72
235.228	19281.85
235.3	19241.76
235.372	19219.21
235.444	19212.03
235.516	19156.27
235.588	19125.62
235.66	19103.84
235.732	19071.46
235.804	19098.54
235.876	19078.35
235.948	19069.87
236.02	19040.18
236.092	19017.34
236.164	18982.31
236.236	18953.68
236.308	18922.26
236.38	18906.07
236.452	18872.77
236.524	18856.05
236.596	18847.71
236.668	18830.07
236.74	18805.69
236.812	18787.52
236.884	18756.97
236.956	18733.45
237.028	18693.36
237.1	18655.72
237.172	18645.31
237.244	18630.57
237.316	18573.95
237.388	18547.83
237.46	18513.32
237.532	18506.96
237.604	18477.61
237.675	18465.71
237.747	18452.36
237.819	18423.06
237.891	18393.04
237.963	18365.86
238.035	18325.19
238.107	18263.02
238.178	18248.71
238.25	18222.3
238.322	18217.1
238.394	18177.68
238.466	18138.06
238.538	18121.68
238.609	18096.81
238.681	18045.68
238.753	18012.38
238.825	17982.17
238.897	17950.26
238.968	17936.58
239.04	17901.45
239.112	17900.77
239.184	17867.9
239.255	17830.07
239.327	17803.23
239.399	17768.1
239.471	17746.41
239.542	17731.71
239.614	17716.29
239.686	17656.82
239.758	17629.4
239.829	17582.8
239.901	17567.09
239.973	17543.48
240.044	17520.06
240.116	17490.66
240.188	17460.25
240.259	17428.97
240.331	17394.08
240.403	17374.71
240.474	17319.72
240.546	17280.73
240.618	17223.91
240.689	17185.02
240.761	17155.43
240.833	17139.28
240.904	17111.23
240.976	17075.76
241.048	17044.39
241.119	17021.3
241.191	17003.28
241.262	16998.36
241.334	16970.99
241.405	16937.69
241.477	16900.58
241.549	16873.15
241.62	16852.96
241.692	16834.69
241.763	16825.83
241.835	16791.08
241.906	16757.05
241.978	16727.41
242.049	16717
242.121	16702.78
242.192	16693.67
242.264	16650.25
242.335	16606
242.407	16591.06
242.478	16563.54
242.55	16540.89
242.621	16492.79
242.693	16458.96
242.764	16423.1
242.836	16392.69
242.907	16369.7
242.979	16351.38
243.05	16320.39
243.122	16295.42
243.193	16269.93
243.264	16215.75
243.336	16179.99
243.407	16159.31
243.479	16138.15
243.55	16103.93
243.622	16084.56
243.693	16046.72
243.764	16039.69
243.836	16010.48
243.907	15968.98
243.978	15932.63
244.05	15906.51
244.121	15868.34
244.192	15848.62
244.264	15805.53
244.335	15774.88
244.407	15728.61
244.478	15700.84
244.549	15676.45
244.62	15637.41
244.692	15597.69
244.763	15582.99
244.834	15554.17
244.906	15514.31
244.977	15502.45
245.048	15494.74
245.119	15450.29
245.191	15417.66
245.262	15367
245.333	15348.3
245.405	15326.75
245.476	15311.43
245.547	15280
245.618	15261.49
245.689	15240.09
245.761	15213.82
245.832	15179.54
245.903	15158.62
245.974	15135.29
246.045	15104.3
246.117	15097.07
246.188	15066.6
246.259	15027.08
246.33	14998.45
246.401	14968.94
246.473	14920.98
246.544	14879.14
246.615	14864.97
246.686	14828.24
246.757	14817.49
246.828	14782.11
246.899	14769.72
246.97	14726.62
247.042	14690.66
247.113	14672.01
247.184	14667.91
247.255	14638.99
247.326	14615.22
247.397	14594.35
247.468	14565.86
247.539	14537.61
247.61	14495.72
247.681	14475.57
247.752	14458.22
247.823	14426.31
247.894	14407.27
247.965	14374.49
248.037	14340.79
248.108	14302.47
248.179	14275.18
248.25	14249.54
248.321	14227.03
248.392	14183.06
248.463	14173.66
248.534	14150.77
248.605	14137.85
248.675	14100.34
248.746	14078.36
248.817	14061.73
248.888	14045.2
248.959	14004.51
249.03	13989.9
249.101	13973.37
249.172	13946.04
249.243	13904.14
249.314	13895.66
249.385	13874.06
249.456	13856.76
249.527	13839.4
249.598	13818.05
249.669	13802.67
249.739	13776.78
249.81	13765.79
249.881	13733.98
249.952	13715.42
250.023	13691.17
250.094	13645.76
250.165	13609.94
250.235	13582.56
250.306	13562.99
250.377	13517.24
250.448	13504.42
250.519	13462.09
250.59	13447.63
250.66	13416.68
250.731	13406.41
250.802	13374.45
250.873	13351.26
250.944	13335.07
251.014	13304.7
251.085	13307.44
251.156	13286.23
251.227	13274.37
251.297	13257.84
251.368	13248.2
251.439	13233.83
251.51	13224.24
251.58	13201.97
251.651	13176.08
251.722	13166.39
251.792	13127.68
251.863	13114.28
251.934	13100.54
252.005	13112.16
252.075	13094.03
252.146	13084.49
252.217	13078.37
252.287	13076.49
252.358	13055.81
252.429	13054.89
252.499	13025.97
252.57	13006.97
252.641	12993.28
252.711	12975.74
252.782	12941.94
252.852	12938.86
252.923	12914.95
252.994	12892.53
253.064	12882.51
253.135	12857
253.205	12832.42
253.276	12831.31
253.347	12819.5
253.417	12797.86
253.488	12764.16
253.558	12734.27
253.629	12720.87
253.699	12701.69
253.77	12689.06
253.841	12671.7
253.911	12649.48
253.982	12631.84
254.052	12618.15
254.123	12605.42
254.193	12592.36
254.264	12610.82
254.334	12577.56
254.405	12547.67
254.475	12518.99
254.546	12505.35
254.616	12500.72
254.687	12483.8
254.757	12471.32
254.827	12454.73
254.898	12438.15
254.968	12421.52
255.039	12398.87
255.109	12387.73
255.18	12363.58
255.25	12324.1
255.321	12308.87
255.391	12273.34
255.461	12276.91
255.532	12232.08
255.602	12211.88
255.673	12163.63
255.743	12133.6
255.813	12092.73
255.884	12089.88
255.954	12080.77
256.024	12070.8
256.095	12053.35
256.165	12027.03
256.235	12007.12
256.306	11987.7
256.376	11983.45
256.446	11972.95
256.517	11961.62
256.587	11947.59
256.657	11930.96
256.728	11916.17
256.798	11894.81
256.868	11875.58
256.938	11853.12
257.009	11846.28
257.079	11833.36
257.149	11847.72
257.219	11810.22
257.29	11804.25
257.36	11768.19
257.43	11761.4
257.5	11721.63
257.571	11689.34
257.641	11679.6
257.711	11655.7
257.781	11636.8
257.852	11619.89
257.922	11579.69
257.992	11559.59
258.062	11538.38
258.132	11528.55
258.202	11508.41
258.273	11490.04
258.343	11492.74
258.413	11464.26
258.483	11440.79
258.553	11414.08
258.623	11384.64
258.693	11375.29
258.764	11379.24
258.834	11374.85
258.904	11352.87
258.974	11337.6
259.044	11327.53
259.114	11320.1
259.184	11303.86
259.254	11289.02
259.324	11246.99
259.394	11238.22
259.464	11236.68
259.535	11220.15
259.605	11196.92
259.675	11175.14
259.745	11168.2
259.815	11138.85
259.885	11116.3
259.955	11128.01
260.025	11099.14
260.095	11082.85
260.165	11067.96
260.235	11061.31
260.305	11039.38
260.375	11016.11
260.445	11019.1
260.515	11022.71
260.585	11011.19
260.655	10994.57
260.725	10987.43
260.795	10984.11
260.865	10986.81
260.934	10960.59
261.004	10947.97
261.074	10930.23
261.144	10931.82
261.214	10923.97
261.284	10908.55
261.354	10908.55
261.424	10878.86
261.494	10880.74
261.564	10862.53
261.634	10855.35
261.703	10819.35
261.773	10807.21
261.843	10799.93
261.913	10781.62
261.983	10748.66
262.053	10740.23
262.123	10718.06
262.192	10683.76
