Data from 20250625_urea_1M_1_MAYP1162681_10-15-05-433.txt Node
Date: Thu Jun 26 10:15:05 BST 2025
User: adleo
Spectrometer: MAYP116268
Trigger mode: 0
Integration Time (sec): 1.000000E0
Scans to average: 1
Electric dark correction enabled: true
Nonlinearity correction enabled: true
Boxcar width: 10
XAxis mode: Wavelengths
Number of Pixels in Spectrum: 2068
>>>>>Begin Spectral Data<<<<<
179.565	1124.34
179.642	1175.38
179.718	1212.66
179.795	1251.17
179.871	1283.68
179.948	1301.27
180.024	1321.78
180.101	1342.85
180.177	1354.92
180.254	1376.71
180.33	1397.08
180.407	1446.6
180.483	1535.25
180.56	1618.48
180.636	1697.91
180.712	1687.26
180.789	1694.63
180.865	1704.08
180.942	1712.91
181.018	1722.94
181.095	1735.35
181.171	1741.95
181.248	1743.8
181.324	1762.39
181.4	1767.33
181.477	1776.6
181.553	1788.62
181.63	1807.59
181.706	1822.42
181.782	1831.73
181.859	1834.39
181.935	1842.09
182.011	1836.62
182.088	1854.16
182.164	1871.61
182.24	1883.97
182.317	1893.81
182.393	1891
182.469	1904.88
182.546	1919.62
182.622	1922.62
182.698	1920.05
182.775	1930.55
182.851	1945.05
182.927	1936.78
183.003	1932.88
183.08	1926.85
183.156	1936.36
183.232	1931.74
183.308	1921.33
183.385	1929.22
183.461	1941.35
183.537	1939.02
183.613	1953.66
183.69	1942.92
183.766	1935.88
183.842	1944.1
183.918	1949.71
183.995	1962.55
184.071	1966.35
184.147	1957.51
184.223	1947.72
184.299	1960.46
184.375	1951.43
184.452	1955.81
184.528	2010.66
184.604	2020.83
184.68	2032.38
184.756	2037.33
184.832	2044.41
184.908	2049.59
184.985	2048.74
185.061	2035.66
185.137	2045.75
185.213	2035.24
185.289	2035.09
185.365	2028.1
185.441	2026.82
185.517	2040.43
185.593	2037.86
185.669	2033.06
185.745	2044.52
185.822	2061.25
185.898	2051.31
185.974	2060.34
186.05	2053.97
186.126	2013.81
186.202	2008.39
186.278	2003.69
186.354	1998.88
186.43	2002.88
186.506	2001.17
186.582	2000.83
186.658	2006.49
186.734	1988.61
186.81	1987.28
186.886	1993.84
186.962	2003.4
187.038	1998.6
187.114	1988.04
187.19	1994.89
187.266	1988.66
187.341	1988.32
187.417	1981.48
187.493	1983
187.569	1987.8
187.645	1981.48
187.721	1969.49
187.797	1976.82
187.873	1981.24
187.949	1972.97
188.025	1968.78
188.101	1972.11
188.176	1977
188.252	1974.15
188.328	1982.28
188.404	1983.94
188.48	1978.43
188.556	1971.77
188.632	1970.58
188.707	1971.53
188.783	1970.58
188.859	1965.54
188.935	1956.22
189.011	1964.4
189.086	1960.79
189.162	1950.57
189.238	1949.09
189.314	1946.43
189.39	1942.67
189.465	1935.68
189.541	1948.57
189.617	1934.5
189.693	1929.65
189.768	1934.45
189.844	1955.57
189.92	1944.92
189.996	1953.15
190.071	1964.04
190.147	1964.52
190.223	1973.22
190.298	1967.27
190.374	1950.87
190.45	1961.33
190.526	1971.6
190.601	1964.7
190.677	1963.99
190.753	1989.78
190.828	1994.62
190.904	2009.56
190.98	2020.02
191.055	2032.29
191.131	2026.01
191.207	2043.7
191.282	2050.36
191.358	2038.56
191.433	2023.96
191.509	2038.12
191.585	2033.18
191.66	2033.18
191.736	2041.98
191.811	2031.56
191.887	2044.69
191.963	2069.89
192.038	2074.51
192.114	2073.56
192.189	2075.36
192.265	2069.99
192.34	2048.01
192.416	2044.54
192.491	2041.45
192.567	2045.21
192.642	2049.87
192.718	2049.92
192.793	2039.55
192.869	2037.12
192.944	2039.6
193.02	2048.44
193.095	2049.54
193.171	2058.48
193.246	2057.15
193.322	2054.1
193.397	2055.77
193.473	2044.49
193.548	2027.22
193.624	2036.07
193.699	2031.89
193.775	2049.82
193.85	2052.63
193.925	2060.14
194.001	2057
194.076	2047.44
194.152	2036.84
194.227	2026.28
194.302	2017.81
194.378	2022.66
194.453	2019.72
194.529	2032.89
194.604	2018.15
194.679	2014.25
194.755	1996.47
194.83	2011.84
194.905	2008.22
194.981	2015.21
195.056	2008.22
195.131	2015.26
195.207	2011.07
195.282	2005.32
195.357	1984.72
195.433	1997.18
195.508	1986.96
195.583	1999.51
195.659	2014.78
195.734	2024.29
195.809	2025.62
195.884	2032.99
195.96	2031.18
196.035	2047.54
196.11	2045.31
196.185	2055.82
196.261	2059
196.336	2085.3
196.411	2070.5
196.486	2075.4
196.561	2073.21
196.637	2081.25
196.712	2094.91
196.787	2098.09
196.862	2111.6
196.937	2122.35
197.013	2131.67
197.088	2142.04
197.163	2159.84
197.238	2174.79
197.313	2171.79
197.388	2184.68
197.464	2217.28
197.539	2231.79
197.614	2223.9
197.689	2233.75
197.764	2251.36
197.839	2270.96
197.914	2267.87
197.989	2287.66
198.065	2299.61
198.14	2346.18
198.215	2372.92
198.29	2379.69
198.365	2391.49
198.44	2403.53
198.515	2429.62
198.59	2445.24
198.665	2469.61
198.74	2477.47
198.815	2478.8
198.89	2504.22
198.965	2530.13
199.04	2524.08
199.115	2535.32
199.19	2578.65
199.265	2582.79
199.34	2590.32
199.415	2620.43
199.49	2642.29
199.565	2652.34
199.64	2681.82
199.715	2681.87
199.79	2687.82
199.865	2696.44
199.94	2696.35
200.015	2724.03
200.09	2732.27
200.165	2734.56
200.24	2743.9
200.315	2784.24
200.39	2799.73
200.464	2802.68
200.539	2806.97
200.614	2822.65
200.689	2844.38
200.764	2848.48
200.839	2865.1
200.914	2870.77
200.989	2861.38
201.063	2872.2
201.138	2856.81
201.213	2849.9
201.288	2831.32
201.363	2834.18
201.438	2835.37
201.512	2850.04
201.587	2834.83
201.662	2836.07
201.737	2851.13
201.812	2859
201.886	2824.52
201.961	2835.53
202.036	2821.86
202.111	2814.81
202.186	2784.95
202.26	2770.22
202.335	2751.25
202.41	2745.06
202.485	2728.77
202.559	2708.57
202.634	2683.37
202.709	2689.51
202.784	2673.36
202.858	2672.55
202.933	2655.84
203.008	2649.83
203.082	2633.5
203.157	2631.88
203.232	2592.83
203.306	2570.3
203.381	2536.81
203.456	2516.38
203.53	2490.73
203.605	2474.22
203.68	2451.17
203.754	2448.03
203.829	2432.17
203.904	2411.75
203.978	2399.03
204.053	2404.74
204.127	2395.84
204.202	2395.42
204.277	2381.71
204.351	2377.99
204.426	2366.8
204.5	2360.81
204.575	2327.73
204.65	2335.59
204.724	2329.4
204.799	2336.63
204.873	2333.87
204.948	2332.01
205.022	2320.4
205.097	2312.88
205.171	2328.2
205.246	2338.06
205.32	2337.63
205.395	2337.92
205.469	2329.26
205.544	2335.83
205.618	2315.27
205.693	2325.5
205.767	2312.18
205.842	2331.32
205.916	2324.37
205.991	2318.8
206.065	2319.94
206.14	2335.97
206.214	2331.4
206.289	2324.11
206.363	2336.96
206.438	2339.3
206.512	2350.67
206.586	2366.95
206.661	2373.85
206.735	2351.21
206.81	2351.49
206.884	2365.91
206.958	2353.68
207.033	2368.57
207.107	2373.77
207.181	2407.09
207.256	2401.19
207.33	2419.37
207.405	2431.81
207.479	2447.76
207.553	2453.23
207.628	2441
207.702	2452
207.776	2443.86
207.851	2446.38
207.925	2459.34
207.999	2458.34
208.073	2453.15
208.148	2457.24
208.222	2447.48
208.296	2479.75
208.371	2496.04
208.445	2505.57
208.519	2531.56
208.593	2544.7
208.668	2542.03
208.742	2544.27
208.816	2546.94
208.89	2561.04
208.965	2556.84
209.039	2566.37
209.113	2583.9
209.187	2605.17
209.261	2605.5
209.336	2627.94
209.41	2647.7
209.484	2647.85
209.558	2667.71
209.632	2683.1
209.707	2696.96
209.781	2720.3
209.855	2736.65
209.929	2757.25
210.003	2768.45
210.077	2774.5
210.151	2824
210.226	2864.25
210.3	2898.16
210.374	2929.9
210.448	2939.52
210.522	2957.02
210.596	2978.24
210.67	3000.65
210.744	3055.2
210.818	3094.91
210.892	3126.1
210.966	3135.4
211.041	3163.82
211.115	3177.69
211.189	3218.52
211.263	3253.25
211.337	3282.82
211.411	3313.03
211.485	3330.02
211.559	3362.65
211.633	3389.64
211.707	3388.02
211.781	3422.03
211.855	3416.3
211.929	3435.63
212.003	3452.8
212.077	3499.07
212.151	3541.29
212.225	3586.9
212.299	3615.95
212.373	3646.32
212.447	3686.79
212.52	3758.97
212.594	3812.78
212.668	3873.31
212.742	3909.24
212.816	3957.62
212.89	4003.02
212.964	4059.63
213.038	4114.43
213.112	4183.63
213.186	4258.64
213.26	4302.95
213.333	4325.86
213.407	4400.07
213.481	4477.4
213.555	4558.73
213.629	4620.68
213.703	4682.95
213.777	4754.73
213.85	4814.25
213.924	4926.62
213.998	5006.19
214.072	5081.28
214.146	5146.77
214.219	5224.97
214.293	5307.71
214.367	5392.01
214.441	5492.92
214.515	5576.88
214.588	5651.38
214.662	5716.31
214.736	5791.59
214.81	5894.29
214.883	6002.04
214.957	6084.73
215.031	6167.58
215.105	6245.29
215.178	6321.55
215.252	6411.16
215.326	6490.33
215.4	6571.21
215.473	6618.09
215.547	6698.74
215.621	6785.65
215.694	6891.82
215.768	6971.24
215.842	7057.61
215.915	7144.36
215.989	7221.7
216.063	7308.61
216.136	7411.62
216.21	7504.92
216.284	7615.41
216.357	7713.4
216.431	7798.9
216.504	7904.89
216.578	8030.58
216.652	8139.89
216.725	8249.48
216.799	8361.64
216.873	8460.18
216.946	8572.53
217.02	8669.71
217.093	8766.78
217.167	8846.2
217.24	8931.75
217.314	9028.3
217.387	9120.62
217.461	9220.57
217.535	9323.12
217.608	9411.53
217.682	9503.41
217.755	9622.84
217.829	9712.14
217.902	9804.03
217.976	9904.98
218.049	9993.65
218.123	10063.94
218.196	10165.68
218.27	10251.14
218.343	10325.29
218.417	10423.86
218.49	10507.11
218.563	10616.29
218.637	10707.4
218.71	10821.02
218.784	10916.72
218.857	11015.6
218.931	11111.78
219.004	11191.49
219.077	11290.96
219.151	11382.38
219.224	11469.76
219.298	11543.55
219.371	11635.12
219.444	11706.89
219.518	11789.54
219.591	11879.68
219.665	11986.97
219.738	12064.96
219.811	12137.93
219.885	12234.05
219.958	12321.68
220.031	12407.05
220.105	12489.86
220.178	12578.6
220.251	12646.24
220.325	12729.53
220.398	12812.64
220.471	12895.6
220.544	12987.86
220.618	13054.05
220.691	13132.19
220.764	13210.82
220.838	13290.55
220.911	13365.32
220.984	13462.07
221.057	13537.94
221.131	13610.88
221.204	13659.86
221.277	13757.33
221.35	13862.76
221.424	13928.36
221.497	13995.56
221.57	14062.38
221.643	14132.08
221.716	14201.35
221.79	14265.71
221.863	14329.44
221.936	14394.76
222.009	14452.89
222.082	14513
222.155	14567.23
222.229	14649.37
222.302	14714.02
222.375	14772.29
222.448	14834.82
222.521	14896.42
222.594	14953.25
222.667	15006.28
222.74	15077.14
222.814	15123.02
222.887	15165.49
222.96	15234.37
223.033	15294.72
223.106	15350.01
223.179	15415.37
223.252	15468
223.325	15518.13
223.398	15574.87
223.471	15622.83
223.544	15682.07
223.617	15737.59
223.69	15787.96
223.763	15809.99
223.837	15855.49
223.91	15907.35
223.983	15932.75
224.056	15962.83
224.129	16006.74
224.202	16050.8
224.275	16087.47
224.348	16110.51
224.42	16141.55
224.493	16154.23
224.566	16187.68
224.639	16228.98
224.712	16250.87
224.785	16277.86
224.858	16315.4
224.931	16338.34
225.004	16361.58
225.077	16392.66
225.15	16396.28
225.223	16430.45
225.296	16488
225.369	16502.74
225.442	16530.07
225.514	16568.53
225.587	16599.52
225.66	16639.28
225.733	16669.41
225.806	16703.67
225.879	16739.29
225.952	16766.91
226.025	16815.78
226.097	16866.28
226.17	16892.36
226.243	16898.96
226.316	16928.94
226.389	16960.6
226.461	16993.18
226.534	17031.64
226.607	17052.8
226.68	17100.08
226.753	17135.06
226.825	17147.64
226.898	17196.8
226.971	17218.05
227.044	17249.19
227.117	17280.46
227.189	17311.12
227.262	17355.02
227.335	17375.65
227.407	17396.71
227.48	17420.13
227.553	17434.73
227.626	17430.73
227.698	17450.2
227.771	17485.72
227.844	17494.49
227.916	17515.74
227.989	17527.6
228.062	17540.95
228.134	17580.56
228.207	17596.8
228.28	17600.8
228.352	17607.5
228.425	17623.02
228.498	17646.44
228.57	17646.92
228.643	17676.32
228.716	17679.74
228.788	17676.13
228.861	17680.08
228.934	17712.13
229.006	17724.56
229.079	17741.43
229.151	17755.74
229.224	17766.68
229.296	17783.74
229.369	17824.41
229.442	17854.29
229.514	17860.56
229.587	17887.06
229.659	17883.06
229.732	17896.12
229.804	17922.43
229.877	17972.74
229.949	17995.39
230.022	18024.26
230.094	18048.74
230.167	18069.66
230.239	18075.92
230.312	18090.86
230.384	18138.52
230.457	18141.08
230.529	18154.95
230.602	18161.46
230.674	18175.53
230.747	18190.71
230.819	18219.14
230.892	18201.8
230.964	18209.89
231.037	18221.36
231.109	18221.31
231.181	18241.75
231.254	18246.23
231.326	18248.4
231.399	18238.9
231.471	18232.45
231.544	18214.61
231.616	18223.77
231.688	18222.86
231.761	18222.47
231.833	18225.84
231.905	18197.46
231.978	18201.8
232.05	18210.09
232.122	18219.15
232.195	18216.74
232.267	18225.46
232.339	18210.47
232.412	18229.27
232.484	18221.36
232.556	18216.49
232.629	18247.1
232.701	18250.76
232.773	18256.2
232.846	18257.5
232.918	18253.12
232.99	18259.05
233.062	18266.18
233.135	18259.82
233.207	18244.11
233.279	18251.38
233.351	18252.11
233.424	18250.32
233.496	18237.12
233.568	18247.91
233.64	18228.93
233.713	18225.89
233.785	18215.53
233.857	18219.53
233.929	18200.06
234.001	18207.53
234.074	18219
234.146	18181.17
234.218	18173.12
234.29	18167.29
234.362	18151.39
234.434	18132.88
234.507	18111.01
234.579	18088.4
234.651	18081.27
234.723	18077.08
234.795	18069.27
234.867	18058.14
234.939	18061.47
235.012	18053.61
235.084	18041.76
235.156	18038.04
235.228	18020.02
235.3	18011.97
235.372	18000.46
235.444	18003.4
235.516	17965.04
235.588	17952.89
235.66	17937.95
235.732	17905.28
235.804	17942.14
235.876	17940.22
235.948	17940.22
236.02	17921.08
236.092	17910.63
236.164	17899.35
236.236	17881.52
236.308	17868.6
236.38	17855.35
236.452	17823.21
236.524	17810.73
236.596	17812.12
236.668	17795.3
236.74	17784.94
236.812	17766
236.884	17754.77
236.956	17738.05
237.028	17715.93
237.1	17691.84
237.172	17704.41
237.244	17708.46
237.316	17659.16
237.388	17626.97
237.46	17598.59
237.532	17592.51
237.604	17571.45
237.675	17560.22
237.747	17545.81
237.819	17516.27
237.891	17500.42
237.963	17487.07
238.035	17469.52
238.107	17408.75
238.178	17414.54
238.25	17384.42
238.322	17387.84
238.394	17342.1
238.466	17317.43
238.538	17306.15
238.609	17289.48
238.681	17247.69
238.753	17219.26
238.825	17190.2
238.897	17172.41
238.968	17175.45
239.04	17150.1
239.112	17156.41
239.184	17130.78
239.255	17109.43
239.327	17093.04
239.399	17068.99
239.471	17048.46
239.542	17022.29
239.614	17012.84
239.686	16963.16
239.758	16956.65
239.829	16924.22
239.901	16918.24
239.973	16897.32
240.044	16882.14
240.116	16859.83
240.188	16833.37
240.259	16808.69
240.331	16778.62
240.403	16773.41
240.474	16728.06
240.546	16697.46
240.618	16643.09
240.689	16611.28
240.761	16590.41
240.833	16591.43
240.904	16570.56
240.976	16549.93
241.048	16535.52
241.119	16528.58
241.191	16505.88
241.262	16496.86
241.334	16464.86
241.405	16438.55
241.477	16405.39
241.549	16379.84
241.62	16355.74
241.692	16342.2
241.763	16332.61
241.835	16305.62
241.906	16278.15
241.978	16238.67
242.049	16222.28
242.121	16213.95
242.192	16201.7
242.264	16159.43
242.335	16114.03
242.407	16088.34
242.478	16058.41
242.55	16027.22
242.621	15984.04
242.693	15959.26
242.764	15920.03
242.836	15895.02
242.907	15873.42
242.979	15855.01
243.05	15832.12
243.122	15811.44
243.193	15771.14
243.264	15722.36
243.336	15702.51
243.407	15678.36
243.479	15676.48
243.55	15651.9
243.622	15626.3
243.693	15601.33
243.764	15599.98
243.836	15562
243.907	15536.41
243.978	15512.4
244.05	15492.06
244.121	15452.54
244.192	15435.38
244.264	15402.99
244.335	15376.23
244.407	15334.25
244.478	15315.35
244.549	15285.85
244.62	15250.33
244.692	15225.75
244.763	15206.9
244.834	15171.71
244.906	15137.68
244.977	15111.84
245.048	15101.19
245.119	15067.45
245.191	15033.66
245.262	14976.88
245.333	14971.62
245.405	14948.68
245.476	14919.22
245.547	14894.45
245.618	14882.49
245.689	14856.17
245.761	14831.88
245.832	14809.51
245.903	14799.2
245.974	14777.7
246.045	14751.09
246.117	14741.93
246.188	14703.32
246.259	14673.29
246.33	14649.52
246.401	14618.91
246.473	14575.09
246.544	14540
246.615	14519.71
246.686	14489.87
246.757	14481.53
246.828	14438.05
246.899	14418.77
246.97	14378.42
247.042	14347.42
247.113	14325.92
247.184	14320.62
247.255	14294.49
247.326	14264.85
247.397	14237.08
247.468	14206.9
247.539	14179.86
247.61	14137.68
247.681	14124.81
247.752	14110.83
247.823	14081.81
247.894	14065.13
247.965	14029.79
248.037	14002.03
248.108	13967.56
248.179	13941.91
248.25	13913.91
248.321	13897.66
248.392	13860.49
248.463	13861.07
248.534	13835.33
248.605	13816.96
248.675	13787.46
248.746	13766.39
248.817	13751.98
248.888	13735.35
248.959	13696.4
249.03	13674.13
249.101	13660.2
249.172	13631.9
249.243	13593.24
249.314	13582.1
249.385	13559.93
249.456	13552.55
249.527	13530.23
249.598	13516.49
249.669	13492.05
249.739	13474.65
249.81	13455.41
249.881	13421.48
249.952	13393.47
250.023	13375.05
250.094	13336.39
250.165	13300.81
250.235	13275.6
250.306	13251.02
250.377	13218.91
250.448	13207.63
250.519	13165.6
250.59	13155.42
250.66	13139.32
250.731	13135.61
250.802	13113.2
250.873	13091.65
250.944	13074.53
251.014	13045.37
251.085	13045.03
251.156	13025.36
251.227	13017.99
251.297	13010.9
251.368	12997.65
251.439	12988.05
251.51	12972.72
251.58	12951.42
251.651	12928.04
251.722	12919.99
251.792	12879.44
251.863	12852.93
251.934	12840.45
252.005	12847.39
252.075	12816.97
252.146	12805.16
252.217	12790.02
252.287	12778.41
252.358	12756.42
252.429	12743.94
252.499	12720.94
252.57	12698.48
252.641	12695.15
252.711	12671.1
252.782	12636.83
252.852	12640.78
252.923	12620.68
252.994	12604.53
253.064	12590.07
253.135	12559.26
253.205	12532.41
253.276	12534.87
253.347	12529.19
253.417	12506.1
253.488	12487.01
253.558	12473.41
253.629	12448.97
253.699	12429.59
253.77	12410.12
253.841	12385.49
253.911	12369.44
253.982	12347.07
254.052	12332.85
254.123	12316.51
254.193	12292.79
254.264	12310.24
254.334	12283.39
254.405	12253.12
254.475	12228.15
254.546	12214.61
254.616	12217.21
254.687	12206.32
254.757	12195.09
254.827	12176.67
254.898	12154.79
254.968	12139.8
255.039	12108.95
255.109	12099.65
255.18	12072.22
255.25	12035.25
255.321	12027.63
255.391	12003
255.461	12013.03
255.532	11971.96
255.602	11944.2
255.673	11910.99
255.743	11884.09
255.813	11840.9
255.884	11837.53
255.954	11823.65
256.024	11824.56
256.095	11804.99
256.165	11769.52
256.235	11753.37
256.306	11726.19
256.376	11719.87
256.446	11704.5
256.517	11689.17
256.587	11679.34
256.657	11661.31
256.728	11644.25
256.798	11623.67
256.868	11603.33
256.938	11574.17
257.009	11571.09
257.079	11566.31
257.149	11576.19
257.219	11532
257.29	11525.06
257.36	11484.91
257.43	11477.15
257.5	11430.98
257.571	11408.76
257.641	11407.03
257.711	11378.97
257.781	11371.75
257.852	11366.35
257.922	11328.42
257.992	11310.59
258.062	11294.39
258.132	11290.49
258.202	11275.31
258.273	11258.97
258.343	11256.42
258.413	11228.51
258.483	11206.15
258.553	11166.97
258.623	11135.55
258.693	11127.93
258.764	11123.79
258.834	11123.5
258.904	11108.71
258.974	11088.61
259.044	11069.48
259.114	11054.3
259.184	11037.05
259.254	11018.64
259.324	10974.49
259.394	10971.31
259.464	10975.94
259.535	10949.05
259.605	10927.51
259.675	10901.49
259.745	10891.85
259.815	10863.71
259.885	10846.46
259.955	10851.13
260.025	10834.41
260.095	10818.32
260.165	10799.96
260.235	10792.01
260.305	10770.13
260.375	10735.29
260.445	10747.05
260.515	10740.35
260.585	10737.17
260.655	10729.75
260.725	10717.85
260.795	10718.52
260.865	10719.25
260.934	10688.6
261.004	10681.71
261.074	10656.12
261.144	10666.53
261.214	10660.8
261.284	10643.02
261.354	10638.87
261.424	10621.43
261.494	10620.85
261.564	10605.72
261.634	10607.5
261.703	10583.32
261.773	10568.72
261.843	10568.19
261.913	10543.23
261.983	10521.88
262.053	10510.32
262.123	10488.83
262.192	10462.09
262.262	10446.67
262.332	10418.34
262.402	10416.99
262.472	10400.76
