Data from 20250625_urea_1M_1_MAYP1162681_20-05-05-501.txt Node
Date: Wed Jun 25 20:05:05 BST 2025
User: adleo
Spectrometer: MAYP116268
Trigger mode: 0
Integration Time (sec): 1.000000E0
Scans to average: 1
Electric dark correction enabled: true
Nonlinearity correction enabled: true
Boxcar width: 10
XAxis mode: Wavelengths
Number of Pixels in Spectrum: 2068
>>>>>Begin Spectral Data<<<<<
179.565	1175.33
179.642	1233.17
179.718	1273.66
179.795	1312.72
179.871	1344.91
179.948	1361.41
180.024	1382.37
180.101	1405.82
180.177	1417.66
180.254	1440.8
180.33	1463.25
180.407	1516.9
180.483	1610.73
180.56	1699.67
180.636	1781.57
180.712	1773.86
180.789	1780.95
180.865	1798.1
180.942	1806.79
181.018	1818.01
181.095	1831.27
181.171	1833.79
181.248	1833.51
181.324	1848.82
181.4	1853.71
181.477	1863.51
181.553	1876.19
181.63	1897.73
181.706	1911.19
181.782	1922.45
181.859	1921.4
181.935	1924.92
182.011	1921.35
182.088	1938.57
182.164	1955.17
182.24	1968.33
182.317	1975.46
182.393	1972.66
182.469	1985.97
182.546	1998.81
182.622	2001.71
182.698	1999.05
182.775	2011.41
182.851	2023.59
182.927	2018.21
183.003	2014.55
183.08	2009.89
183.156	2019.31
183.232	2010.7
183.308	2002.76
183.385	2007.99
183.461	2025.11
183.537	2026.15
183.613	2036.38
183.69	2023.44
183.766	2016.45
183.842	2022.2
183.918	2030
183.995	2042.17
184.071	2045.27
184.147	2040.99
184.223	2030.43
184.299	2038.38
184.375	2027.87
184.452	2037.53
184.528	2092.72
184.604	2102.42
184.68	2111.88
184.756	2121.11
184.832	2127.11
184.908	2129.91
184.985	2131.34
185.061	2114.22
185.137	2124.78
185.213	2116.31
185.289	2118.21
185.365	2109.42
185.441	2110.65
185.517	2122.07
185.593	2120.36
185.669	2117.08
185.745	2126.4
185.822	2144.23
185.898	2140.62
185.974	2151.22
186.05	2140.7
186.126	2100.21
186.202	2096.93
186.278	2095.74
186.354	2085.32
186.43	2094.88
186.506	2093.65
186.582	2090.27
186.658	2098.64
186.734	2080.61
186.81	2082.42
186.886	2085.7
186.962	2098.16
187.038	2093.31
187.114	2085.84
187.19	2092.07
187.266	2080.52
187.341	2081.47
187.417	2071.62
187.493	2071.01
187.569	2075.24
187.645	2068.53
187.721	2056.36
187.797	2064.63
187.873	2066.63
187.949	2061.59
188.025	2055.97
188.101	2059.87
188.176	2066.48
188.252	2061.87
188.328	2068.29
188.404	2064.67
188.48	2061.58
188.556	2052.83
188.632	2052.93
188.707	2052.69
188.783	2051.31
188.859	2049.17
188.935	2037.37
189.011	2047.31
189.086	2041.32
189.162	2032.28
189.238	2031.24
189.314	2030.29
189.39	2022.39
189.465	2018.87
189.541	2035.57
189.617	2020.06
189.693	2014.69
189.768	2021.16
189.844	2044.14
189.92	2033.02
189.996	2042.53
190.071	2052.56
190.147	2054.51
190.223	2063.98
190.298	2057.37
190.374	2043.81
190.45	2052.23
190.526	2059.36
190.601	2052.94
190.677	2053.13
190.753	2079.64
190.828	2084.49
190.904	2097.81
190.98	2112.37
191.055	2119.93
191.131	2111.65
191.207	2127.96
191.282	2134.86
191.358	2121.26
191.433	2107.84
191.509	2124.67
191.585	2121.38
191.66	2121.05
191.736	2130.47
191.811	2121.76
191.887	2138.7
191.963	2161.87
192.038	2170.53
192.114	2172
192.189	2177.38
192.265	2175
192.34	2150.92
192.416	2149.97
192.491	2149.39
192.567	2154.54
192.642	2159.06
192.718	2156.58
192.793	2145.69
192.869	2143.26
192.944	2146.83
193.02	2153.54
193.095	2153.59
193.171	2160.06
193.246	2163.15
193.322	2155.73
193.397	2158.49
193.473	2145.02
193.548	2129.22
193.624	2132.51
193.699	2132.51
193.775	2145.78
193.85	2146.16
193.925	2154.87
194.001	2152.82
194.076	2144.54
194.152	2133.08
194.227	2123.99
194.302	2117.05
194.378	2122.71
194.453	2119.71
194.529	2134.17
194.604	2119.14
194.679	2117.71
194.755	2099.12
194.83	2109.26
194.905	2111.3
194.981	2115.58
195.056	2107.02
195.131	2113.25
195.207	2110.45
195.282	2099.22
195.357	2081.33
195.433	2097.36
195.508	2087.85
195.583	2098.27
195.659	2111.4
195.734	2118.06
195.809	2118.3
195.884	2126.38
195.96	2126.95
196.035	2143.03
196.11	2139.08
196.185	2152.45
196.261	2154.06
196.336	2184.99
196.411	2168.85
196.486	2170.04
196.561	2166.76
196.637	2175.08
196.712	2188.74
196.787	2196.78
196.862	2212.15
196.937	2221.04
197.013	2226.47
197.088	2236.46
197.163	2255.93
197.238	2271.93
197.313	2270.69
197.388	2282.45
197.464	2312.29
197.539	2325.48
197.614	2317.91
197.689	2329.67
197.764	2347.52
197.839	2369.27
197.914	2364.7
197.989	2389.02
198.065	2404.54
198.14	2452.08
198.215	2478.88
198.29	2487.55
198.365	2498.02
198.44	2509.68
198.515	2539.87
198.59	2553.54
198.665	2577.73
198.74	2584.55
198.815	2584.59
198.89	2608.5
198.965	2640.08
199.04	2637.23
199.115	2651.47
199.19	2695.05
199.265	2697.24
199.34	2703.43
199.415	2737.13
199.49	2757.71
199.565	2767.66
199.64	2792.06
199.715	2789.77
199.79	2797.92
199.865	2806.73
199.94	2802.64
200.015	2836.29
200.09	2844.25
200.165	2852.3
200.24	2859.83
200.315	2895.74
200.39	2911.04
200.464	2915.76
200.539	2917.1
200.614	2932.68
200.689	2955.18
200.764	2962.05
200.839	2979.06
200.914	2984.58
200.989	2970.8
201.063	2983
201.138	2966.05
201.213	2965.43
201.288	2946.17
201.363	2948.51
201.438	2947.51
201.512	2966.94
201.587	2947.92
201.662	2951.93
201.737	2961.7
201.812	2968.18
201.886	2938.37
201.961	2947.24
202.036	2935.9
202.111	2932.18
202.186	2902.36
202.26	2886.2
202.335	2863.22
202.41	2856.4
202.485	2840.73
202.559	2822.76
202.634	2799.03
202.709	2806.79
202.784	2785.35
202.858	2785.45
202.933	2766.53
203.008	2764.96
203.082	2743
203.157	2742.14
203.232	2697.6
203.306	2678.4
203.381	2648.23
203.456	2625.08
203.53	2600.39
203.605	2581.82
203.68	2560.62
203.754	2553.48
203.829	2538.95
203.904	2522.57
203.978	2513.33
204.053	2519.52
204.127	2507.61
204.202	2501.14
204.277	2486.71
204.351	2481.86
204.426	2473.81
204.5	2467.52
204.575	2429.01
204.65	2439.35
204.724	2431.06
204.799	2437.48
204.873	2431.96
204.948	2431.62
205.022	2421.15
205.097	2416.63
205.171	2430.34
205.246	2436.34
205.32	2436.2
205.395	2433.15
205.469	2422.3
205.544	2428.82
205.618	2409.83
205.693	2420.83
205.767	2412.31
205.842	2431.54
205.916	2425.93
205.991	2418.88
206.065	2425.6
206.14	2441.72
206.214	2436.96
206.289	2428.91
206.363	2442.76
206.438	2449.53
206.512	2460.15
206.586	2479.52
206.661	2487.67
206.735	2464.02
206.81	2464.44
206.884	2481.01
206.958	2469.82
207.033	2486.86
207.107	2491.77
207.181	2526.11
207.256	2518.88
207.33	2539.97
207.405	2550.93
207.479	2571.55
207.553	2578.4
207.628	2561.22
207.702	2575.65
207.776	2570.98
207.851	2574.74
207.925	2589.99
207.999	2583.37
208.073	2577.89
208.148	2580.51
208.222	2568.46
208.296	2603.31
208.371	2621.89
208.445	2632.18
208.519	2662.47
208.593	2672.14
208.668	2668.28
208.742	2669.33
208.816	2672.28
208.89	2683.62
208.965	2684.67
209.039	2694.3
209.113	2715.6
209.187	2736.88
209.261	2736.45
209.336	2760.22
209.41	2787.1
209.484	2790.01
209.558	2820.42
209.632	2837.85
209.707	2858.3
209.781	2885.61
209.855	2906.44
209.929	2929.06
210.003	2947.22
210.077	2957.62
210.151	3019.36
210.226	3065.92
210.3	3108.59
210.374	3152.79
210.448	3175.83
210.522	3206.6
210.596	3239.19
210.67	3273.5
210.744	3349.72
210.818	3408.96
210.892	3457.03
210.966	3481.99
211.041	3533.88
211.115	3564.67
211.189	3629.7
211.263	3688.11
211.337	3743.65
211.411	3806.86
211.485	3854.42
211.559	3926.19
211.633	3984.55
211.707	4018.27
211.781	4095.48
211.855	4131.25
211.929	4197.37
212.003	4261.08
212.077	4351.37
212.151	4445.79
212.225	4541.36
212.299	4620.05
212.373	4706.21
212.447	4805.49
212.52	4939.48
212.594	5052.07
212.668	5179.16
212.742	5283.1
212.816	5400.2
212.89	5517.97
212.964	5648.24
213.038	5785.76
213.112	5929.04
213.186	6089.25
213.26	6209.46
213.333	6312.43
213.407	6470.03
213.481	6630.28
213.555	6802.14
213.629	6956.62
213.703	7105.38
213.777	7271.24
213.85	7428.14
213.924	7633.63
213.998	7807.71
214.072	7984.2
214.146	8153.52
214.219	8334.75
214.293	8512.75
214.367	8701.63
214.441	8909.79
214.515	9091.47
214.588	9263.82
214.662	9428.63
214.736	9597.39
214.81	9806.35
214.883	10012.01
214.957	10199.79
215.031	10386.63
215.105	10565.11
215.178	10753.25
215.252	10951.22
215.326	11132.5
215.4	11313.05
215.473	11467.95
215.547	11655.23
215.621	11839.98
215.694	12050.99
215.768	12231.54
215.842	12420.82
215.915	12602.15
215.989	12766.43
216.063	12943.72
216.136	13139.81
216.21	13328.77
216.284	13540.43
216.357	13731.08
216.431	13915.31
216.504	14117.96
216.578	14334.54
216.652	14528.66
216.725	14706.92
216.799	14897.99
216.873	15076.05
216.946	15265.06
217.02	15439.45
217.093	15618.42
217.167	15774.54
217.24	15925.79
217.314	16096.66
217.387	16265.21
217.461	16425.51
217.535	16606.01
217.608	16768.87
217.682	16922.08
217.755	17092.69
217.829	17242.24
217.902	17400.22
217.976	17556.27
218.049	17686.49
218.123	17806.39
218.196	17956.94
218.27	18095.4
218.343	18224.45
218.417	18365.99
218.49	18497.22
218.563	18641.26
218.637	18778.03
218.71	18927.13
218.784	19059.12
218.857	19186.44
218.931	19310.87
219.004	19436.79
219.077	19563
219.151	19676.4
219.224	19791.48
219.298	19903.57
219.371	20021.16
219.444	20111.81
219.518	20222.45
219.591	20328.86
219.665	20465.78
219.738	20574.17
219.811	20674.7
219.885	20783.38
219.958	20881.89
220.031	20971.29
220.105	21065.95
220.178	21146.73
220.251	21220.52
220.325	21319.57
220.398	21411.68
220.471	21490.82
220.544	21579.99
220.618	21638.45
220.691	21718.37
220.764	21791.92
220.838	21863.07
220.911	21919.85
220.984	22010.47
221.057	22079.17
221.131	22154.46
221.204	22179.24
221.277	22240.08
221.35	22323.04
221.424	22374.82
221.497	22423.8
221.57	22485.02
221.643	22544.46
221.716	22605.4
221.79	22645.18
221.863	22677.14
221.936	22711.76
222.009	22761.13
222.082	22807.12
222.155	22842.51
222.229	22905.53
222.302	22950.17
222.375	22982.04
222.448	23026.93
222.521	23054.22
222.594	23078.52
222.667	23088.65
222.74	23130.31
222.814	23162.86
222.887	23173.66
222.96	23197.57
223.033	23238.61
223.106	23256.93
223.179	23292.18
223.252	23304.72
223.325	23336.35
223.398	23349.03
223.471	23371.6
223.544	23385.63
223.617	23391.32
223.69	23409.41
223.763	23406.42
223.837	23419.58
223.91	23438.97
223.983	23435.35
224.056	23435.25
224.129	23449.43
224.202	23479.13
224.275	23479.33
224.348	23460.57
224.42	23455.7
224.493	23444.27
224.566	23434.24
224.639	23437.95
224.712	23411.09
224.785	23403.28
224.858	23393.05
224.931	23393.87
225.004	23375.74
225.077	23375.26
225.15	23349.9
225.223	23345.94
225.296	23348.98
225.369	23326.22
225.442	23304.47
225.514	23290.2
225.587	23286.54
225.66	23275.97
225.733	23260.01
225.806	23252.88
225.879	23254.13
225.952	23233.3
226.025	23235.76
226.097	23236.82
226.17	23224.72
226.243	23192.36
226.316	23181.8
226.389	23164.06
226.461	23151.96
226.534	23136.58
226.607	23111.94
226.68	23123.56
226.753	23107.07
226.825	23071.82
226.898	23064.92
226.971	23048.96
227.044	23031.85
227.117	23013.86
227.189	23002.43
227.262	22992.12
227.335	22971.14
227.407	22940.04
227.48	22931.51
227.553	22915.21
227.626	22895.1
227.698	22876.49
227.771	22870.8
227.844	22841.2
227.916	22824.62
227.989	22795.78
228.062	22783.2
228.134	22782.72
228.207	22747.52
228.28	22718.79
228.352	22696.61
228.425	22677.08
228.498	22669.37
228.57	22646.47
228.643	22629.84
228.716	22602.31
228.788	22560.7
228.861	22534.09
228.934	22532.84
229.006	22504.92
229.079	22464.43
229.151	22432.03
229.224	22390.23
229.296	22377.89
229.369	22405.66
229.442	22399.44
229.514	22364.01
229.587	22350.18
229.659	22312.72
229.732	22304.62
229.804	22291.99
229.877	22286.06
229.949	22278.97
230.022	22270.2
230.094	22255.59
230.167	22236.5
230.239	22202.08
230.312	22188.15
230.384	22189.07
230.457	22163.13
230.529	22130.64
230.602	22113.29
230.674	22091.89
230.747	22087.02
230.819	22058.58
230.892	21975.18
230.964	21948.91
231.037	21934.74
231.109	21904.42
231.181	21885.38
231.254	21842.72
231.326	21810.71
231.399	21780.78
231.471	21733.97
231.544	21682.2
231.616	21662.2
231.688	21641.52
231.761	21607.49
231.833	21573.65
231.905	21514.99
231.978	21479.71
232.05	21463.23
232.122	21443.37
232.195	21411.22
232.267	21402.3
232.339	21378.97
232.412	21371.21
232.484	21329.62
232.556	21290.92
232.629	21279.78
232.701	21254.48
232.773	21228.26
232.846	21196.02
232.918	21167.39
232.99	21152.49
233.062	21131.82
233.135	21098.17
233.207	21048
233.279	21040.82
233.351	21024.43
233.424	20999.71
233.496	20960.24
233.568	20944.62
233.64	20897.25
233.713	20870.06
233.785	20823.36
233.857	20787.89
233.929	20748.52
234.001	20748.03
234.074	20740.42
234.146	20680.13
234.218	20640.75
234.29	20608.51
234.362	20576.32
234.434	20531.6
234.507	20486.05
234.579	20440.17
234.651	20403.69
234.723	20380.75
234.795	20340.17
234.867	20305.81
234.939	20286.05
235.012	20264.56
235.084	20232.75
235.156	20216.42
235.228	20173.38
235.3	20138.49
235.372	20115.02
235.444	20094.3
235.516	20027.89
235.588	19994.44
235.66	19975.26
235.732	19942.69
235.804	19965.87
235.876	19951.89
235.948	19937.29
236.02	19904.86
236.092	19873.92
236.164	19840.09
236.236	19812.81
236.308	19784.82
236.38	19753.78
236.452	19717.01
236.524	19683.28
236.596	19669.64
236.668	19639.81
236.74	19610.27
236.812	19584.15
236.884	19553.5
236.956	19513.07
237.028	19486.13
237.1	19438.47
237.172	19428.3
237.244	19406.19
237.316	19326.67
237.388	19277.32
237.46	19240.65
237.532	19224.75
237.604	19192.17
237.675	19183.16
237.747	19152.22
237.819	19114.15
237.891	19084.95
237.963	19037.24
238.035	18998.84
238.107	18928.82
238.178	18914.65
238.25	18881.64
238.322	18866.94
238.394	18821.3
238.466	18785.16
238.538	18750.66
238.609	18737.21
238.681	18677.22
238.753	18643.29
238.825	18622.14
238.897	18596.02
238.968	18584.45
239.04	18539.87
239.112	18533.47
239.184	18485.9
239.255	18449.28
239.327	18414.73
239.399	18381.47
239.471	18370.2
239.542	18344.99
239.614	18328.51
239.686	18268.08
239.758	18250.2
239.829	18211.8
239.901	18191.41
239.973	18163.8
240.044	18142.06
240.116	18101.29
240.188	18063.03
240.259	18024.24
240.331	17984.53
240.403	17963.85
240.474	17912.77
240.546	17877.45
240.618	17825.93
240.689	17790.03
240.761	17761.64
240.833	17743.81
240.904	17701.64
240.976	17661.69
241.048	17630.08
241.119	17611.57
241.191	17582.22
241.262	17566.51
241.334	17532.2
241.405	17498.9
241.477	17461.84
241.549	17428.2
241.62	17401.26
241.692	17384.97
241.763	17369.98
241.835	17338.47
241.906	17302.9
241.978	17244.1
242.049	17224.05
242.121	17206.41
242.192	17195.38
242.264	17153.31
242.335	17114.17
242.407	17096.68
242.478	17055.95
242.55	17038.55
242.621	16990.94
242.693	16953.06
242.764	16914.45
242.836	16870.74
242.907	16855.08
242.979	16831.17
243.05	16805.2
243.122	16773.15
243.193	16745.19
243.264	16699.12
243.336	16662.44
243.407	16640.32
243.479	16635.98
243.55	16612.41
243.622	16580.51
243.693	16548.41
243.764	16534.72
243.836	16500.55
243.907	16468.64
243.978	16440.88
244.05	16405.89
244.121	16362.8
244.192	16348.3
244.264	16296.24
244.335	16276.43
244.407	16218.64
244.478	16197.05
244.549	16161.14
244.62	16118.87
244.692	16079.59
244.763	16050
244.834	16017.95
244.906	15976.88
244.977	15959.29
245.048	15937.12
245.119	15901.74
245.191	15856.96
245.262	15806.69
245.333	15786.25
245.405	15762.06
245.476	15739.55
245.547	15717.28
245.618	15704.51
245.689	15678.14
245.761	15657.66
245.832	15622.47
245.903	15600.63
245.974	15570.99
246.045	15548.34
246.117	15555.23
246.188	15526.93
246.259	15490.83
246.33	15474.06
246.401	15443.64
246.473	15400.5
246.544	15368.06
246.615	15355.58
246.686	15329.74
246.757	15316.15
246.828	15274.6
246.899	15254.4
246.97	15220.13
247.042	15184.99
247.113	15169.86
247.184	15164.84
247.255	15136.31
247.326	15116.11
247.397	15099
247.468	15080.2
247.539	15048.43
247.61	14992.47
247.681	14973.33
247.752	14970.29
247.823	14925.85
247.894	14899.58
247.965	14863.23
248.037	14830.94
248.108	14787.12
248.179	14754.24
248.25	14722.19
248.321	14708.11
248.392	14678.13
248.463	14673.36
248.534	14642.56
248.605	14620.53
248.675	14585.43
248.746	14573.33
248.817	14550.82
248.888	14520.55
248.959	14471.57
249.03	14453.4
249.101	14434.31
249.172	14404.81
249.243	14353.86
249.314	14351.01
249.385	14339.59
249.456	14328.21
249.527	14301.51
249.598	14286.18
249.669	14272.87
249.739	14254.89
249.81	14232.19
249.881	14190.92
249.952	14162.19
250.023	14138.67
250.094	14102.75
250.165	14065.97
250.235	14028.47
250.306	14008.13
250.377	13978.91
250.448	13970.04
250.519	13927.96
250.59	13922.03
250.66	13895.47
250.731	13896.96
250.802	13864.57
250.873	13838.44
250.944	13810.77
251.014	13790.67
251.085	13791.58
251.156	13766.03
251.227	13752.58
251.297	13745.59
251.368	13735.52
251.439	13728.96
251.51	13723.85
251.58	13692.13
251.651	13668.7
251.722	13663.64
251.792	13621.89
251.863	13596.15
251.934	13583.67
252.005	13597.16
252.075	13572.29
252.146	13560.09
252.217	13550.12
252.287	13547.7
252.358	13531.17
252.429	13534.54
252.499	13500.17
252.57	13474.14
252.641	13464.45
252.711	13455.49
252.782	13417.16
252.852	13414.7
252.923	13388.96
252.994	13367.07
253.064	13360.04
253.135	13325.18
253.205	13296.89
253.276	13306.09
253.347	13306.87
253.417	13271.77
253.488	13246.75
253.558	13221.44
253.629	13198.98
253.699	13175.07
253.77	13154.1
253.841	13127.01
253.911	13104.49
253.982	13091.33
254.052	13075.72
254.123	13059.61
254.193	13038.45
254.264	13060
254.334	13035.66
254.405	13004.51
254.475	12971.54
254.546	12949.99
254.616	12956.07
254.687	12940.06
254.757	12915.14
254.827	12890.46
254.898	12888.39
254.968	12864.57
255.039	12843.03
255.109	12838.54
255.18	12813.62
255.25	12770.48
255.321	12759.97
255.391	12727.72
255.461	12729.5
255.532	12686.12
255.602	12656.57
255.673	12618.73
255.743	12589.8
255.813	12540.78
255.884	12543.29
255.954	12542.76
256.024	12539
256.095	12512.58
256.165	12485.78
256.235	12473.49
256.306	12453.77
256.376	12446.25
256.446	12440.56
256.517	12427.59
256.587	12418.2
256.657	12403.11
256.728	12397.37
256.798	12380.31
256.868	12357.31
256.938	12330.71
257.009	12323.57
257.079	12315.28
257.149	12313.83
257.219	12280.24
257.29	12272.43
257.36	12225.48
257.43	12213.86
257.5	12173.61
257.571	12153.75
257.641	12144.79
257.711	12112.73
257.781	12098.37
257.852	12080.1
257.922	12040.38
257.992	12024.96
258.062	12004.08
258.132	11996.42
258.202	11980.03
258.273	11967.98
258.343	11970.87
258.413	11946.1
258.483	11926.63
258.553	11899.05
258.623	11879.29
258.693	11861.8
258.764	11860.93
258.834	11862.33
258.904	11842.51
258.974	11817.36
259.044	11802.13
259.114	11783.42
259.184	11772.87
259.254	11755.81
259.324	11717.54
259.394	11706.4
259.464	11696.95
259.535	11676.13
259.605	11660.61
259.675	11635.21
259.745	11620.85
259.815	11590.58
259.885	11571.01
259.955	11581.71
260.025	11559.69
260.095	11539.83
260.165	11522.87
260.235	11513.76
260.305	11491.2
260.375	11463.29
260.445	11473.51
260.515	11469.37
260.585	11467.44
260.655	11455.87
260.725	11447.82
260.795	11438.91
260.865	11445.46
260.934	11426.18
261.004	11416.49
261.074	11388.35
261.144	11383.24
261.214	11374.71
261.284	11360.93
261.354	11356.4
261.424	11326.61
261.494	11332.2
261.564	11317.36
261.634	11312.15
261.703	11285.21
261.773	11273.79
261.843	11268.29
261.913	11248.49
261.983	11224.73
262.053	11210.27
262.123	11187.23
