Data from 20250625_urea_1M_1_MAYP1162681_12-05-05-781.txt Node
Date: Thu Jun 26 12:05:05 BST 2025
User: adleo
Spectrometer: MAYP116268
Trigger mode: 0
Integration Time (sec): 1.000000E0
Scans to average: 1
Electric dark correction enabled: true
Nonlinearity correction enabled: true
Boxcar width: 10
XAxis mode: Wavelengths
Number of Pixels in Spectrum: 2068
>>>>>Begin Spectral Data<<<<<
179.565	1133.37
179.642	1186.28
179.718	1228.36
179.795	1265.5
179.871	1295.35
179.948	1312.44
180.024	1330.39
180.101	1352.49
180.177	1366.29
180.254	1389.03
180.33	1410.94
180.407	1460.12
180.483	1551.33
180.56	1636.33
180.636	1717.36
180.712	1705.86
180.789	1715.65
180.865	1725.72
180.942	1735.94
181.018	1745.06
181.095	1758.46
181.171	1763.88
181.248	1765.73
181.324	1780.99
181.4	1787.32
181.477	1797.91
181.553	1809.41
181.63	1832.85
181.706	1846.35
181.782	1854.9
181.859	1852.66
181.935	1856.28
182.011	1852.9
182.088	1867.35
182.164	1888.04
182.24	1897.45
182.317	1907.72
182.393	1904.25
182.469	1919.22
182.546	1931.68
182.622	1937.38
182.698	1935.05
182.775	1947.51
182.851	1958.49
182.927	1948.89
183.003	1945.84
183.08	1940.9
183.156	1948.41
183.232	1940.04
183.308	1932.2
183.385	1939.56
183.461	1957.25
183.537	1959.72
183.613	1970.85
183.69	1960.53
183.766	1946.07
183.842	1955.58
183.918	1961.15
183.995	1974.13
184.071	1978.45
184.147	1974.36
184.223	1962.53
184.299	1970.38
184.375	1958.25
184.452	1968.77
184.528	2024.28
184.604	2033.5
184.68	2047.05
184.756	2054.04
184.832	2060.65
184.908	2061.7
184.985	2059.89
185.061	2044.77
185.137	2051.81
185.213	2041.82
185.289	2045.77
185.365	2041.02
185.441	2039.3
185.517	2049.44
185.593	2047.2
185.669	2042.64
185.745	2051.81
185.822	2069.07
185.898	2062.13
185.974	2071.73
186.05	2060.55
186.126	2022.25
186.202	2015.31
186.278	2010.08
186.354	2003.23
186.43	2011.7
186.506	2011.04
186.582	2011.13
186.658	2017.45
186.734	2001.57
186.81	2005.38
186.886	2006.66
186.962	2019.78
187.038	2016.12
187.114	2011.6
187.19	2018.21
187.266	2008.7
187.341	2008.28
187.417	2000.62
187.493	1999.95
187.569	2001.62
187.645	1996.53
187.721	1983.69
187.797	1990.96
187.873	1994.01
187.949	1984.74
188.025	1975.46
188.101	1980.22
188.176	1983.07
188.252	1978.03
188.328	1981.26
188.404	1977.17
188.48	1971.8
188.556	1963.81
188.632	1960.86
188.707	1957.39
188.783	1952.4
188.859	1947.98
188.935	1937.18
189.011	1945.74
189.086	1941.32
189.162	1933.05
189.238	1932.52
189.314	1931.52
189.39	1929.76
189.465	1922.16
189.541	1941.94
189.617	1928.86
189.693	1920.97
189.768	1928.34
189.844	1949.18
189.92	1941.86
189.996	1952.89
190.071	1967.15
190.147	1965.92
190.223	1974.05
190.298	1969.58
190.374	1961.59
190.45	1974.05
190.526	1982.13
190.601	1975.28
190.677	1972.95
190.753	1999.17
190.828	1997.17
190.904	2012.49
190.98	2023.52
191.055	2032.84
191.131	2022.9
191.207	2041.87
191.282	2054.14
191.358	2042.96
191.433	2032.07
191.509	2045.85
191.585	2040.38
191.66	2038.77
191.736	2048.75
191.811	2042.33
191.887	2059.65
191.963	2079.29
192.038	2084.19
192.114	2084.76
192.189	2088.99
192.265	2088.52
192.34	2069.49
192.416	2073.19
192.491	2067.63
192.567	2072
192.642	2077.57
192.718	2079
192.793	2069.87
192.869	2065.63
192.944	2068.25
193.02	2076.72
193.095	2081.14
193.171	2087.56
193.246	2087.51
193.322	2081.99
193.397	2082.14
193.473	2066.06
193.548	2050.79
193.624	2054.26
193.699	2053.97
193.775	2071.29
193.85	2072.96
193.925	2079.62
194.001	2078.09
194.076	2068.44
194.152	2055.55
194.227	2045.84
194.302	2038.52
194.378	2040.61
194.453	2038.62
194.529	2051.7
194.604	2036.76
194.679	2032.1
194.755	2016.79
194.83	2026.21
194.905	2026.07
194.981	2035.11
195.056	2025.88
195.131	2030.92
195.207	2029.16
195.282	2019.99
195.357	2000.53
195.433	2016.22
195.508	2005.14
195.583	2014.37
195.659	2030.3
195.734	2037.82
195.809	2038.01
195.884	2045.33
195.96	2044.71
196.035	2060.07
196.11	2055.41
196.185	2067.2
196.261	2066.92
196.336	2093.93
196.411	2080.28
196.486	2085.27
196.561	2079.19
196.637	2090.83
196.712	2103.97
196.787	2106.39
196.862	2119.52
196.937	2128.41
197.013	2132.65
197.088	2141.97
197.163	2161.2
197.238	2175.81
197.313	2175.62
197.388	2189.94
197.464	2219.16
197.539	2232.01
197.614	2221.73
197.689	2232.25
197.764	2247.24
197.839	2267.46
197.914	2265.56
197.989	2292.16
198.065	2306.06
198.14	2356.63
198.215	2382.48
198.29	2396.67
198.365	2410.85
198.44	2420.7
198.515	2444.74
198.59	2459.93
198.665	2481.68
198.74	2489.35
198.815	2490.3
198.89	2512.58
198.965	2542.78
199.04	2536.59
199.115	2549.78
199.19	2590.96
199.265	2593.63
199.34	2603.68
199.415	2635.89
199.49	2655.65
199.565	2660.03
199.64	2680.75
199.715	2676.18
199.79	2681.99
199.865	2688.42
199.94	2686.61
200.015	2719.63
200.09	2727.35
200.165	2732.92
200.24	2744.26
200.315	2780.6
200.39	2796.94
200.464	2802.23
200.539	2800.32
200.614	2817.8
200.689	2844.54
200.764	2851.17
200.839	2869.79
200.914	2875.75
200.989	2869.22
201.063	2883.71
201.138	2871.7
201.213	2874.09
201.288	2856.12
201.363	2864.8
201.438	2862.99
201.512	2879.51
201.587	2863.88
201.662	2868.46
201.737	2881.23
201.812	2886.71
201.886	2856.43
201.961	2867.77
202.036	2855.53
202.111	2853.15
202.186	2820.77
202.26	2799.51
202.335	2779.73
202.41	2774.16
202.485	2755.2
202.559	2735.61
202.634	2710.98
202.709	2717.74
202.784	2697.59
202.858	2699.07
202.933	2676.01
203.008	2671.48
203.082	2652.91
203.157	2651.43
203.232	2610.67
203.306	2589.04
203.381	2559.12
203.456	2539.45
203.53	2513.28
203.605	2494.58
203.68	2471.14
203.754	2468.91
203.829	2456.1
203.904	2436.48
203.978	2423.77
204.053	2430.86
204.127	2419.72
204.202	2417.96
204.277	2401.4
204.351	2395.54
204.426	2385.49
204.5	2380.88
204.575	2344.52
204.65	2353.9
204.724	2348.37
204.799	2358.56
204.873	2354.08
204.948	2351.89
205.022	2336.71
205.097	2330.14
205.171	2346.65
205.246	2357.94
205.32	2356.27
205.395	2356.61
205.469	2348.62
205.544	2356.66
205.618	2337.81
205.693	2344.19
205.767	2328.2
205.842	2348.24
205.916	2343.01
205.991	2333.58
206.065	2338.39
206.14	2357.04
206.214	2351.89
206.289	2342.75
206.363	2352.18
206.438	2357.32
206.512	2364.46
206.586	2382.87
206.661	2391.11
206.735	2367.61
206.81	2363.66
206.884	2379.74
206.958	2364.51
207.033	2379.26
207.107	2384.5
207.181	2414.55
207.256	2412.12
207.33	2430.35
207.405	2441.5
207.479	2458.73
207.553	2466.92
207.628	2451.79
207.702	2463.35
207.776	2458.45
207.851	2462.59
207.925	2477.17
207.999	2470.07
208.073	2470.02
208.148	2474.21
208.222	2462.02
208.296	2490.15
208.371	2509.68
208.445	2520.11
208.519	2549.2
208.593	2565.15
208.668	2562.63
208.742	2564.25
208.816	2566.82
208.89	2582.78
208.965	2578.82
209.039	2584.87
209.113	2600.97
209.187	2622.24
209.261	2618.44
209.336	2638.87
209.41	2656.69
209.484	2657.31
209.558	2683.36
209.632	2698.37
209.707	2711.61
209.781	2734.62
209.855	2754.63
209.929	2772.8
210.003	2780.95
210.077	2784.72
210.151	2836.28
210.226	2875.58
210.3	2906.68
210.374	2932.17
210.448	2941.7
210.522	2961.25
210.596	2983.51
210.67	3001.39
210.744	3058.53
210.818	3098.47
210.892	3126.42
210.966	3136.38
211.041	3164.52
211.115	3174.77
211.189	3212.31
211.263	3245.32
211.337	3270.64
211.411	3302.47
211.485	3314.31
211.559	3350.66
211.633	3375.26
211.707	3364.04
211.781	3392.08
211.855	3390.41
211.929	3414.4
212.003	3425.61
212.077	3465.2
212.151	3508.08
212.225	3552.68
212.299	3573.42
212.373	3598.15
212.447	3633.26
212.52	3696.3
212.594	3740.02
212.668	3793.08
212.742	3822.13
212.816	3864.61
212.89	3902.97
212.964	3951.55
213.038	4009.5
213.112	4074.29
213.186	4145.13
213.26	4181.11
213.333	4193.92
213.407	4252.81
213.481	4316.35
213.555	4393.83
213.629	4447.09
213.703	4495.47
213.777	4560.14
213.85	4608.87
213.924	4712.43
213.998	4783.91
214.072	4852.41
214.146	4916.2
214.219	4990.58
214.293	5070.27
214.367	5144.96
214.441	5236.22
214.515	5303.45
214.588	5360.87
214.662	5403.57
214.736	5466.46
214.81	5561.19
214.883	5657.31
214.957	5733.91
215.031	5806.83
215.105	5869.78
215.178	5943.89
215.252	6025.15
215.326	6086.42
215.4	6157.13
215.473	6202.98
215.547	6276.86
215.621	6355.9
215.694	6444.78
215.768	6511.62
215.842	6584.22
215.915	6662.99
215.989	6730.86
216.063	6811.86
216.136	6902.89
216.21	7001.84
216.284	7100.11
216.357	7189.83
216.431	7274.94
216.504	7375.25
216.578	7486.58
216.652	7585.34
216.725	7677.51
216.799	7775.76
216.873	7866.68
216.946	7971.46
217.02	8055.62
217.093	8146.54
217.167	8214.56
217.24	8289.67
217.314	8380.35
217.387	8467.04
217.461	8550.91
217.535	8655.88
217.608	8736.63
217.682	8823.95
217.755	8919.54
217.829	8996.33
217.902	9086.84
217.976	9183.75
218.049	9262.33
218.123	9333.74
218.196	9429.94
218.27	9511.76
218.343	9589.83
218.417	9689.38
218.49	9769.9
218.563	9871.91
218.637	9960.55
218.71	10069.07
218.784	10171.97
218.857	10269.42
218.931	10364.9
219.004	10450.99
219.077	10530.64
219.151	10614.8
219.224	10697.39
219.298	10779.5
219.371	10877.36
219.444	10941.88
219.518	11019.61
219.591	11106.26
219.665	11220.86
219.738	11305.49
219.811	11377.58
219.885	11465.05
219.958	11544.38
220.031	11618.07
220.105	11698.61
220.178	11780.45
220.251	11844.42
220.325	11923.66
220.398	11992.3
220.471	12068.89
220.544	12154.54
220.618	12226.51
220.691	12312.55
220.764	12393.48
220.838	12467.18
220.911	12536.31
220.984	12634.06
221.057	12706.27
221.131	12778.19
221.204	12811.7
221.277	12896.54
221.35	13004.81
221.424	13067.91
221.497	13142.1
221.57	13216.91
221.643	13292.36
221.716	13363.32
221.79	13432.54
221.863	13492.56
221.936	13568.05
222.009	13636.4
222.082	13705.58
222.155	13758.56
222.229	13834.73
222.302	13892.57
222.375	13944.39
222.448	14008.75
222.521	14069.87
222.594	14129.84
222.667	14177.62
222.74	14245.83
222.814	14294.71
222.887	14336.21
222.96	14407.07
223.033	14471.81
223.106	14525.95
223.179	14584.27
223.252	14629.39
223.325	14679.67
223.398	14731.88
223.471	14780.42
223.544	14820.72
223.617	14866.17
223.69	14925.56
223.763	14958.05
223.837	15016.13
223.91	15078.65
223.983	15108.64
224.056	15135.49
224.129	15190.24
224.202	15251.99
224.275	15292.05
224.348	15321.69
224.42	15349.79
224.493	15370.42
224.566	15398.77
224.639	15445.96
224.712	15464.42
224.785	15502.93
224.858	15541.64
224.931	15570.6
225.004	15591.57
225.077	15629.89
225.15	15641.65
225.223	15676.79
225.296	15731.45
225.369	15742.1
225.442	15765
225.514	15803.27
225.587	15845.35
225.66	15877.01
225.733	15910.32
225.806	15949.12
225.879	15985.12
225.952	16014.14
226.025	16064.17
226.097	16115.98
226.17	16149.53
226.243	16167.89
226.316	16201.39
226.389	16232.72
226.461	16278.89
226.534	16319.09
226.607	16354.08
226.68	16409.17
226.753	16445.75
226.825	16459.63
226.898	16505.56
226.971	16535.11
227.044	16573.57
227.117	16609.72
227.189	16642.3
227.262	16677.29
227.335	16712.23
227.407	16741.68
227.48	16769.24
227.553	16791.17
227.626	16803.03
227.698	16825.44
227.771	16863.22
227.844	16880.33
227.916	16905.15
227.989	16910.55
228.062	16931.32
228.134	16969.01
228.207	16992.44
228.28	17002.36
228.352	17016.82
228.425	17043.91
228.498	17076.87
228.57	17090.51
228.643	17120.68
228.716	17140.39
228.788	17148.73
228.861	17157.21
228.934	17184.78
229.006	17210.03
229.079	17224.15
229.151	17236.87
229.224	17235.81
229.296	17252.92
229.369	17296.1
229.442	17334.8
229.514	17347.48
229.587	17377.45
229.659	17379.24
229.732	17403.62
229.804	17432.3
229.877	17476.54
229.949	17506.32
230.022	17537.69
230.094	17551.38
230.167	17562.95
230.239	17562.56
230.312	17574.46
230.384	17620.01
230.457	17635.62
230.529	17647.76
230.602	17666.75
230.674	17688.39
230.747	17726.27
230.819	17758.94
230.892	17745.31
230.964	17756.82
231.037	17778.9
231.109	17785.26
231.181	17799.38
231.254	17792.92
231.326	17795.47
231.399	17806.65
231.471	17805.4
231.544	17788.39
231.616	17808.77
231.688	17822.51
231.761	17832.63
231.833	17838.12
231.905	17818.27
231.978	17823.52
232.05	17830.8
232.122	17840.92
232.195	17838.03
232.267	17850.8
232.339	17847.81
232.412	17862.94
232.484	17849.35
232.556	17848.2
232.629	17875.81
232.701	17890.41
232.773	17896.63
232.846	17901.54
232.918	17893.83
232.99	17893.01
233.062	17905.01
233.135	17915.47
233.207	17903.28
233.279	17914.7
233.351	17929.25
233.424	17925.93
233.496	17919.18
233.568	17950.41
233.64	17937.54
233.713	17937.11
233.785	17936.53
233.857	17943.76
233.929	17928.96
234.001	17951.61
234.074	17959.66
234.146	17931.52
234.218	17926.7
234.29	17917.4
234.362	17900.48
234.434	17885.25
234.507	17872.19
234.579	17849.5
234.651	17828.34
234.723	17823.81
234.795	17818.8
234.867	17804.63
234.939	17810.03
235.012	17798.56
235.084	17779.96
235.156	17779.81
235.228	17762.61
235.3	17737.02
235.372	17726.22
235.444	17726.37
235.516	17698.95
235.588	17690.56
235.66	17692.2
235.732	17676.68
235.804	17723.52
235.876	17732.25
235.948	17741.11
236.02	17730.56
236.092	17726.03
236.164	17712.49
236.236	17698.7
236.308	17675.43
236.38	17663.72
236.452	17649.69
236.524	17642.8
236.596	17635.43
236.668	17628.58
236.74	17622.56
236.812	17612.83
236.884	17591.57
236.956	17584.3
237.028	17555.86
237.1	17524.49
237.172	17521.89
237.244	17519.57
237.316	17473.45
237.388	17451.24
237.46	17418.95
237.532	17415.57
237.604	17391.24
237.675	17394.66
237.747	17403.57
237.819	17380.54
237.891	17369.55
237.963	17335.52
238.035	17321.07
238.107	17270.99
238.178	17256.83
238.25	17234.17
238.322	17234.9
238.394	17206.41
238.466	17175.57
238.538	17170.12
238.609	17166.65
238.681	17123.42
238.753	17095.91
238.825	17069.01
238.897	17048.29
238.968	17044.77
239.04	17016.05
239.112	17028.63
239.184	16997.74
239.255	16955.52
239.327	16943.66
239.399	16923.66
239.471	16919.52
239.542	16900.38
239.614	16895.71
239.686	16856.43
239.758	16850.21
239.829	16822.69
239.901	16810.93
239.973	16797.73
240.044	16773.92
240.116	16755.85
240.188	16734.49
240.259	16709.67
240.331	16682.25
240.403	16665.33
240.474	16626.1
240.546	16594.34
240.618	16542
240.689	16509.32
240.761	16483.01
240.833	16470.38
240.904	16441.75
240.976	16405.17
241.048	16380.83
241.119	16358.32
241.191	16341.6
241.262	16331.09
241.334	16309.4
241.405	16288.92
241.477	16254.94
241.549	16224.53
241.62	16198.16
241.692	16183.9
241.763	16171.94
241.835	16147.6
241.906	16124.56
241.978	16084.12
242.049	16077.67
242.121	16065.91
242.192	16051.88
242.264	16017.22
242.335	15976.06
242.407	15955.24
242.478	15930.61
242.55	15905.88
242.621	15878.22
242.693	15848.91
242.764	15816.47
242.836	15777.67
242.907	15757.04
242.979	15740.13
243.05	15721.95
243.122	15694.19
243.193	15660.64
243.264	15615
243.336	15591.14
243.407	15570.7
243.479	15562.51
243.55	15541.69
243.622	15527.66
243.693	15497.39
243.764	15492.62
243.836	15460.85
243.907	15432.75
243.978	15404.5
244.05	15388.07
244.121	15348.78
244.192	15335.29
244.264	15285.93
244.335	15260.43
244.407	15212.61
244.478	15190.87
244.549	15161.42
244.62	15131.49
244.692	15108.54
244.763	15092.01
244.834	15058.31
244.906	15026.74
244.977	15007.99
245.048	14995.6
245.119	14951.59
245.191	14925.8
245.262	14876.01
245.333	14864.87
245.405	14837.59
245.476	14822.84
245.547	14800.28
245.618	14782.06
245.689	14749.57
245.761	14732.12
245.832	14714.67
245.903	14706.04
245.974	14676.69
246.045	14652.34
246.117	14643.47
246.188	14606.64
246.259	14566.87
246.33	14541.28
246.401	14514.96
246.473	14473.79
246.544	14433.59
246.615	14416.23
246.686	14386.78
246.757	14382.06
246.828	14347.49
246.899	14338.43
246.97	14296.78
247.042	14261.88
247.113	14250.94
247.184	14248.14
247.255	14221.63
247.326	14196.56
247.397	14164.02
247.468	14141.85
247.539	14112.78
247.61	14073.64
247.681	14064.43
247.752	14058.16
247.823	14024.9
247.894	14001.09
247.965	13970.09
248.037	13938.47
248.108	13909.93
248.179	13882.98
248.25	13855.84
248.321	13842.73
248.392	13800.93
248.463	13805.32
248.534	13781.07
248.605	13763.62
248.675	13737.88
248.746	13719.37
248.817	13699.8
248.888	13686.83
248.959	13650.1
249.03	13638.43
249.101	13609.02
249.172	13575.95
249.243	13531.07
249.314	13531.27
249.385	13513.91
249.456	13500.75
249.527	13478.91
249.598	13456.69
249.669	13434.42
249.739	13407.13
249.81	13385.44
249.881	13356.9
249.952	13332.94
250.023	13310.14
250.094	13274.86
250.165	13238.12
250.235	13217.73
250.306	13198.01
250.377	13164.8
250.448	13146.24
250.519	13109.89
250.59	13111.48
250.66	13089.65
250.731	13084.49
250.802	13056.19
250.873	13038.26
250.944	13023.65
251.014	12996.95
251.085	12994.39
251.156	12977.18
251.227	12970.53
251.297	12966.82
251.368	12959.06
251.439	12942.09
251.51	12933.46
251.58	12910.71
251.651	12883.52
251.722	12874.31
251.792	12837.63
251.863	12812.08
251.934	12807.64
252.005	12816.56
252.075	12790.77
252.146	12781.08
252.217	12776.84
252.287	12764.64
252.358	12734.37
252.429	12728.15
252.499	12702.89
252.57	12693.54
252.641	12684.48
252.711	12672.33
252.782	12634.25
252.852	12631.5
252.923	12612.56
252.994	12584.79
253.064	12567.15
253.135	12544.15
253.205	12513.78
253.276	12506.07
253.347	12506.75
253.417	12481.1
253.488	12454.2
253.558	12428.46
253.629	12404.6
253.699	12376.98
253.77	12373.94
253.841	12356.25
253.911	12341.07
253.982	12327.14
254.052	12309.11
254.123	12296.19
254.193	12269.05
254.264	12283.13
254.334	12256.13
254.405	12221.52
254.475	12198.72
254.546	12185.37
254.616	12186.14
254.687	12167.15
254.757	12151.63
254.827	12129.89
254.898	12113.26
254.968	12088.82
255.039	12068.39
255.109	12068.87
255.18	12043.27
255.25	11990.3
255.321	11981.67
255.391	11948.17
255.461	11952.85
255.532	11910.48
255.602	11886.28
255.673	11849.6
255.743	11825.84
255.813	11782.07
255.884	11772.24
255.954	11754.99
256.024	11746.12
256.095	11718.31
256.165	11688.52
256.235	11677.05
256.306	11653.05
256.376	11647.94
256.446	11641.62
256.517	11629.77
256.587	11608.8
256.657	11600.03
256.728	11588.89
256.798	11567.01
256.868	11545.28
256.938	11513.03
257.009	11504.98
257.079	11492.45
257.149	11501.51
257.219	11462.42
257.29	11449.22
257.36	11415.29
257.43	11412.88
257.5	11370.76
257.571	11350.37
257.641	11354.13
257.711	11327.14
257.781	11321.12
257.852	11312.06
257.922	11275.28
257.992	11259.91
258.062	11238.08
258.132	11222.99
258.202	11202.46
258.273	11188.92
258.343	11190.22
258.413	11168.15
258.483	11153.89
258.553	11129.98
258.623	11102.32
258.693	11091.91
258.764	11098.95
258.834	11103.52
258.904	11087.23
258.974	11072.44
259.044	11056.01
259.114	11036.15
259.184	11023.38
259.254	10999.53
259.324	10957.36
259.394	10949.89
259.464	10945.12
259.535	10929.85
259.605	10906.62
259.675	10887.39
259.745	10877.95
259.815	10850.14
259.885	10831.25
259.955	10838.24
260.025	10815.93
260.095	10798.63
260.165	10781.19
260.235	10781
260.305	10754.93
260.375	10726.4
260.445	10731.46
260.515	10733.2
260.585	10730.21
260.655	10720.57
260.725	10716.67
260.795	10716.38
260.865	10716.38
260.934	10691.51
261.004	10685.64
261.074	10670.02
261.144	10671.52
261.214	10661.78
261.284	10646.85
261.354	10640.25
261.424	10616.68
261.494	10619.43
261.564	10609.94
261.634	10608.15
261.703	10564.11
261.773	10558.48
261.843	10551.73
261.913	10534.05
261.983	10499.6
262.053	10485.72
262.123	10464.43
262.192	10436.68
262.262	10425.79
