Data from 20250625_urea_1M_1_MAYP1162681_01-55-05-852.txt Node
Date: Thu Jun 26 01:55:05 BST 2025
User: adleo
Spectrometer: MAYP116268
Trigger mode: 0
Integration Time (sec): 1.000000E0
Scans to average: 1
Electric dark correction enabled: true
Nonlinearity correction enabled: true
Boxcar width: 10
XAxis mode: Wavelengths
Number of Pixels in Spectrum: 2068
>>>>>Begin Spectral Data<<<<<
179.565	1121.17
179.642	1169.73
179.718	1208.44
179.795	1245.54
179.871	1274.96
179.948	1292.29
180.024	1312.22
180.101	1330.27
180.177	1342.37
180.254	1363.44
180.33	1384.26
180.407	1434.53
180.483	1522.04
180.56	1605.66
180.636	1684.18
180.712	1673.25
180.789	1684.27
180.865	1698.62
180.942	1706.55
181.018	1715.05
181.095	1730.07
181.171	1735.63
181.248	1739.39
181.324	1755.5
181.4	1759.3
181.477	1769.81
181.553	1780.87
181.63	1797.56
181.706	1814.86
181.782	1823.88
181.859	1824.03
181.935	1831.06
182.011	1824.83
182.088	1843.56
182.164	1860.39
182.24	1871.61
182.317	1880.64
182.393	1876.65
182.469	1888.77
182.546	1898.99
182.622	1901.13
182.698	1897.09
182.775	1908.92
182.851	1920.67
182.927	1910.4
183.003	1908.54
183.08	1902.32
183.156	1911.59
183.232	1911.73
183.308	1901.84
183.385	1908.83
183.461	1923.04
183.537	1921.62
183.613	1932.79
183.69	1922.14
183.766	1914.43
183.842	1919.95
183.918	1925.8
183.995	1936.78
184.071	1940.87
184.147	1936.59
184.223	1926.66
184.299	1937.26
184.375	1925.66
184.452	1931.18
184.528	1988.02
184.604	1998.19
184.68	2010.36
184.756	2019.73
184.832	2023.58
184.908	2029.33
184.985	2030.52
185.061	2016.16
185.137	2024.82
185.213	2015.93
185.289	2016.02
185.365	2008.56
185.441	2010.89
185.517	2021.69
185.593	2021.55
185.669	2017.69
185.745	2028.34
185.822	2042.32
185.898	2032.66
185.974	2041.03
186.05	2032.56
186.126	1992.94
186.202	1986.9
186.278	1981.62
186.354	1969.64
186.43	1975.16
186.506	1969.93
186.582	1966.6
186.658	1974.49
186.734	1956.23
186.81	1960.04
186.886	1961.89
186.962	1973.06
187.038	1968.21
187.114	1960.79
187.19	1963.46
187.266	1954.23
187.341	1955.37
187.417	1951.19
187.493	1950.95
187.569	1953.19
187.645	1949
187.721	1936.64
187.797	1943.96
187.873	1949.38
187.949	1945.25
188.025	1939.87
188.101	1942.82
188.176	1947.14
188.252	1943.53
188.328	1950.61
188.404	1950.85
188.48	1950.42
188.556	1943.86
188.632	1943.53
188.707	1943.91
188.783	1941.82
188.859	1936.3
188.935	1926.51
189.011	1935.35
189.086	1928.93
189.162	1924.99
189.238	1923.28
189.314	1923.8
189.39	1917
189.465	1911.39
189.541	1924.18
189.617	1907.35
189.693	1905.12
189.768	1908.11
189.844	1928.56
189.92	1918.87
189.996	1924.77
190.071	1935.04
190.147	1934.8
190.223	1942.69
190.298	1938.18
190.374	1926.96
190.45	1941.17
190.526	1948.68
190.601	1942.88
190.677	1948.3
190.753	1970.9
190.828	1975.65
190.904	1986.64
190.98	1999.95
191.055	2010.27
191.131	2005.13
191.207	2025.44
191.282	2032.09
191.358	2023.96
191.433	2013.35
191.509	2029.08
191.585	2023.33
191.66	2024.85
191.736	2032.22
191.811	2026.56
191.887	2036.98
191.963	2058.19
192.038	2061.47
192.114	2062.23
192.189	2066.18
192.265	2060.76
192.34	2040.25
192.416	2040.59
192.491	2041.78
192.567	2048.53
192.642	2048.53
192.718	2047.68
192.793	2037.69
192.869	2035.41
192.944	2037.83
193.02	2043.3
193.095	2045.01
193.171	2053.57
193.246	2049.53
193.322	2044.73
193.397	2044.35
193.473	2033.41
193.548	2019.57
193.624	2024.89
193.699	2022.56
193.775	2035.69
193.85	2039.02
193.925	2045.82
194.001	2040.69
194.076	2030.56
194.152	2016.19
194.227	2009.15
194.302	2002.21
194.378	2006.16
194.453	2003.35
194.529	2015.19
194.604	2000.78
194.679	1995.03
194.755	1976.3
194.83	1989.19
194.905	1990.76
194.981	1997.04
195.056	1991.95
195.131	1995.47
195.207	1991.33
195.282	1979.35
195.357	1963.04
195.433	1974.78
195.508	1965.22
195.583	1975.49
195.659	1989.19
195.734	1997.28
195.809	1999.13
195.884	2005.88
195.96	2005.5
196.035	2020.15
196.11	2019.62
196.185	2032.13
196.261	2034.37
196.336	2066.23
196.411	2053.15
196.486	2054.57
196.561	2049.82
196.637	2059.95
196.712	2074.84
196.787	2079.26
196.862	2098.61
196.937	2107.46
197.013	2113.41
197.088	2124.06
197.163	2142.09
197.238	2156.33
197.313	2156.42
197.388	2172.5
197.464	2201.48
197.539	2213.33
197.614	2204.91
197.689	2213.52
197.764	2227.13
197.839	2247.26
197.914	2238.88
197.989	2259.01
198.065	2270.9
198.14	2317.19
198.215	2337.84
198.29	2351.41
198.365	2367.78
198.44	2377.64
198.515	2404.77
198.59	2416.62
198.665	2438.76
198.74	2448.85
198.815	2450.14
198.89	2470.94
198.965	2495.28
199.04	2490.47
199.115	2504.85
199.19	2550.6
199.265	2556.98
199.34	2564.41
199.415	2594.81
199.49	2615.66
199.565	2627.09
199.64	2653.33
199.715	2648.61
199.79	2654.42
199.865	2661.85
199.94	2656.09
200.015	2685.06
200.09	2689.92
200.165	2700.59
200.24	2708.45
200.315	2743.92
200.39	2759.5
200.464	2766.98
200.539	2766.27
200.614	2782.04
200.689	2801.24
200.764	2803.58
200.839	2817.86
200.914	2827.39
200.989	2819.57
201.063	2831.82
201.138	2811.16
201.213	2810.68
201.288	2796.53
201.363	2804.34
201.438	2803.15
201.512	2818.44
201.587	2803.38
201.662	2808.95
201.737	2823.4
201.812	2828.5
201.886	2800.88
201.961	2811.13
202.036	2799.32
202.111	2796.65
202.186	2768.65
202.26	2753.12
202.335	2735.05
202.41	2731.43
202.485	2714.81
202.559	2692.95
202.634	2668.32
202.709	2679.65
202.784	2661.88
202.858	2659.36
202.933	2641.59
203.008	2635.87
203.082	2619.63
203.157	2619.06
203.232	2574.83
203.306	2547.29
203.381	2519.76
203.456	2495.14
203.53	2467.6
203.605	2447.8
203.68	2428.79
203.754	2423.89
203.829	2410.75
203.904	2393.75
203.978	2382.61
204.053	2388.32
204.127	2381.28
204.202	2377.33
204.277	2360.67
204.351	2355.91
204.426	2350.58
204.5	2341.77
204.575	2308.08
204.65	2316.56
204.724	2307.55
204.799	2316.21
204.873	2314.74
204.948	2312.88
205.022	2304.08
205.097	2302.41
205.171	2318.16
205.246	2327.78
205.32	2325.83
205.395	2324.74
205.469	2309.89
205.544	2310.61
205.618	2293.47
205.693	2304.23
205.767	2296.47
205.842	2317.23
205.916	2308.52
205.991	2297.29
206.065	2303.71
206.14	2318.84
206.214	2313.89
206.289	2307.65
206.363	2322.31
206.438	2326.07
206.512	2337.07
206.586	2352.39
206.661	2357.58
206.735	2334.17
206.81	2332.65
206.884	2349.54
206.958	2337.27
207.033	2357.82
207.107	2368.87
207.181	2397.82
207.256	2390.34
207.33	2409.33
207.405	2418.58
207.479	2438.76
207.553	2447.56
207.628	2432.05
207.702	2442.52
207.776	2436.67
207.851	2439.67
207.925	2450.57
207.999	2447.15
208.073	2443
208.148	2447.19
208.222	2438
208.296	2470.84
208.371	2487.33
208.445	2494.04
208.519	2520.89
208.593	2530.84
208.668	2526.84
208.742	2533.99
208.816	2535.56
208.89	2546.75
208.965	2547.32
209.039	2555.18
209.113	2570.56
209.187	2593.93
209.261	2591.55
209.336	2612.89
209.41	2635.33
209.484	2642.57
209.558	2667.25
209.632	2681.96
209.707	2698.45
209.781	2726.17
209.855	2746.67
209.929	2769.42
210.003	2782.66
210.077	2794.05
210.151	2848.76
210.226	2893.06
210.3	2925.55
210.374	2963.29
210.448	2984.99
210.522	3009.97
210.596	3041.45
210.67	3076.54
210.744	3143
210.818	3196.54
210.892	3241.77
210.966	3262.8
211.041	3302.64
211.115	3323.53
211.189	3378.16
211.263	3424.64
211.337	3461.58
211.411	3517.64
211.485	3550.31
211.559	3609.84
211.633	3660
211.707	3678.68
211.781	3735.48
211.855	3757.88
211.929	3805.59
212.003	3850.77
212.077	3926.01
212.151	4003.23
212.225	4079.88
212.299	4133.71
212.373	4194.47
212.447	4267.2
212.52	4377.23
212.594	4464.03
212.668	4573.07
212.742	4657.12
212.816	4750.57
212.89	4844.2
212.964	4940.69
213.038	5053.62
213.112	5173.85
213.186	5293.33
213.26	5384
213.333	5451.24
213.407	5572.82
213.481	5693.16
213.555	5826.42
213.629	5938.69
213.703	6046.28
213.777	6168.38
213.85	6288.22
213.924	6458.95
213.998	6591.53
214.072	6727.11
214.146	6856.47
214.219	6994.84
214.293	7138.36
214.367	7288.75
214.441	7451.88
214.515	7590.69
214.588	7716.24
214.662	7833.77
214.736	7969.86
214.81	8139.06
214.883	8312.96
214.957	8464.44
215.031	8619.01
215.105	8749.25
215.178	8899.03
215.252	9054.79
215.326	9202.05
215.4	9341.99
215.473	9458.25
215.547	9605.75
215.621	9749.53
215.694	9915.84
215.768	10056.88
215.842	10197.53
215.915	10341.39
215.989	10475.91
216.063	10623.11
216.136	10786.25
216.21	10946.6
216.284	11116.13
216.357	11275.83
216.431	11426.28
216.504	11588.84
216.578	11758.87
216.652	11924.61
216.725	12082.56
216.799	12244.75
216.873	12391.95
216.946	12555.64
217.02	12705.79
217.093	12860.38
217.167	12993.18
217.24	13123.53
217.314	13261.59
217.387	13404.71
217.461	13536.79
217.535	13690.56
217.608	13824.96
217.682	13955.02
217.755	14102.62
217.829	14227.91
217.902	14370.3
217.976	14506.82
218.049	14624.48
218.123	14743.6
218.196	14882.57
218.27	14999.89
218.343	15110.09
218.417	15241.34
218.49	15358.95
218.563	15490.83
218.637	15608.1
218.71	15740.37
218.784	15870.6
218.857	15990.72
218.931	16105.53
219.004	16227.57
219.077	16335.05
219.151	16448.65
219.224	16559.26
219.298	16657.24
219.371	16773.64
219.444	16851.57
219.518	16953.07
219.591	17060.5
219.665	17184.06
219.738	17276.84
219.811	17363.39
219.885	17461.61
219.958	17550.91
220.031	17631.54
220.105	17722
220.178	17807.49
220.251	17886.24
220.325	17974.42
220.398	18063
220.471	18148.78
220.544	18226.85
220.618	18308.15
220.691	18385.16
220.764	18462.21
220.838	18537.34
220.911	18606.35
220.984	18698.83
221.057	18767.55
221.131	18828.51
221.204	18860.75
221.277	18944.5
221.35	19034.71
221.424	19093.46
221.497	19165.64
221.57	19223.95
221.643	19288.1
221.716	19352.43
221.79	19411.41
221.863	19459.89
221.936	19510.3
222.009	19549.62
222.082	19606.97
222.155	19639.55
222.229	19698.63
222.302	19746.38
222.375	19793.32
222.448	19841.85
222.521	19880.06
222.594	19910.52
222.667	19949.22
222.74	20013.51
222.814	20044.73
222.887	20079.62
222.96	20127.38
223.033	20165.6
223.106	20217.02
223.179	20249.98
223.252	20273.36
223.325	20296.15
223.398	20326.32
223.471	20367.33
223.544	20408.39
223.617	20439.04
223.69	20473.16
223.763	20492.97
223.837	20522.56
223.91	20560.82
223.983	20565.26
224.056	20573.79
224.129	20607.91
224.202	20633.16
224.275	20641.98
224.348	20657.6
224.42	20668.29
224.493	20676.82
224.566	20686.99
224.639	20706.17
224.712	20717.02
224.785	20732.06
224.858	20745.5
224.931	20760.39
225.004	20758.8
225.077	20779.24
225.15	20767.43
225.223	20778.9
225.296	20802.52
225.369	20792.97
225.442	20789.65
225.514	20797.26
225.587	20809.17
225.66	20828.06
225.733	20841.31
225.806	20839.87
225.879	20843.43
225.952	20843.77
226.025	20852.73
226.097	20861.51
226.17	20869.22
226.243	20855.58
226.316	20864.25
226.389	20873.56
226.461	20878.57
226.534	20889.8
226.607	20885.85
226.68	20908.21
226.753	20908.79
226.825	20886.71
226.898	20899.24
226.971	20888.21
227.044	20902.81
227.117	20907.77
227.189	20899.05
227.262	20906.86
227.335	20909.41
227.407	20910.23
227.48	20913.51
227.553	20919.53
227.626	20915.92
227.698	20906.66
227.771	20901.75
227.844	20897.8
227.916	20904.06
227.989	20879.87
228.062	20863.19
228.134	20873.12
228.207	20859.77
228.28	20850.9
228.352	20855.63
228.425	20848.64
228.498	20850.57
228.57	20836.11
228.643	20843.53
228.716	20833.46
228.788	20821.7
228.861	20817.22
228.934	20814.52
229.006	20796.01
229.079	20784.64
229.151	20769.5
229.224	20747.67
229.296	20759.72
229.369	20772.35
229.442	20763.09
229.514	20746.13
229.587	20754.9
229.659	20727.38
229.732	20725.94
229.804	20732.44
229.877	20738.37
229.949	20743.86
230.022	20768.54
230.094	20760.78
230.167	20754.08
230.239	20741.36
230.312	20724.78
230.384	20729.84
230.457	20708.49
230.529	20710.85
230.602	20699.38
230.674	20701.65
230.747	20710.61
230.819	20709.89
230.892	20667.96
230.964	20666.61
231.037	20676.63
231.109	20657.89
231.181	20653.6
231.254	20635.33
231.326	20615.33
231.399	20597.31
231.471	20571.14
231.544	20516.77
231.616	20514.27
231.688	20490.75
231.761	20463.18
231.833	20454.65
231.905	20418.7
231.978	20420.44
232.05	20395.57
232.122	20384.15
232.195	20353.06
232.267	20344.68
232.339	20314.7
232.412	20302.41
232.484	20276
232.556	20246.27
232.629	20259.52
232.701	20250.41
232.773	20228.01
232.846	20203.52
232.918	20180.63
232.99	20176.29
233.062	20177.26
233.135	20155.04
233.207	20132.49
233.279	20130.27
233.351	20109.65
233.424	20092.35
233.496	20052.35
233.568	20041.6
233.64	20000.93
233.713	19977.31
233.785	19944.69
233.857	19922.81
233.929	19903.05
234.001	19897.32
234.074	19889.7
234.146	19838.52
234.218	19809.08
234.29	19783.06
234.362	19760.89
234.434	19729.66
234.507	19689.18
234.579	19648.56
234.651	19614.39
234.723	19591.4
234.795	19566.73
234.867	19533.48
234.939	19527.12
235.012	19510.3
235.084	19500.47
235.156	19490.68
235.228	19461.43
235.3	19433.68
235.372	19407.03
235.444	19383.8
235.516	19324.19
235.588	19291.9
235.66	19265.16
235.732	19231.71
235.804	19259.66
235.876	19244.82
235.948	19229.88
236.02	19210.75
236.092	19184.73
236.164	19164.2
236.236	19140.01
236.308	19111.19
236.38	19097.26
236.452	19059.67
236.524	19033.03
236.596	19014.76
236.668	18980.55
236.74	18963.58
236.812	18932.6
236.884	18918.91
236.956	18885.42
237.028	18856.07
237.1	18815.93
237.172	18806.63
237.244	18799.16
237.316	18733.24
237.388	18684.57
237.46	18645.72
237.532	18621.63
237.604	18580.28
237.675	18564.52
237.747	18536.33
237.819	18500
237.891	18467.08
237.963	18427.23
238.035	18394.65
238.107	18332.58
238.178	18323.72
238.25	18291.53
238.322	18291.53
238.394	18255.67
238.466	18228.11
238.538	18207.58
238.609	18195.53
238.681	18148.26
238.753	18111.29
238.825	18086.77
238.897	18073.8
238.968	18066.19
239.04	18021.95
239.112	18029.71
239.184	17985.27
239.255	17957.47
239.327	17931.93
239.399	17903.59
239.471	17884.41
239.542	17868.51
239.614	17859.16
239.686	17801.09
239.758	17777.67
239.829	17730.92
239.901	17701.33
239.973	17678.15
240.044	17651.11
240.116	17619.5
240.188	17584.56
240.259	17554.15
240.331	17516.27
240.403	17490.92
240.474	17440.8
240.546	17409.72
240.618	17355.74
240.689	17322.2
240.761	17294.73
240.833	17288.56
240.904	17255.69
240.976	17219.36
241.048	17180.56
241.119	17143.31
241.191	17124.65
241.262	17115.93
241.334	17084.22
241.405	17051.45
241.477	17010.53
241.549	16975.93
241.62	16950
241.692	16934.14
241.763	16909.47
241.835	16875.49
241.906	16844.69
241.978	16797.32
242.049	16781.89
242.121	16762.37
242.192	16747.34
242.264	16699.14
242.335	16646.66
242.407	16624.25
242.478	16599.47
242.55	16575.42
242.621	16543.81
242.693	16509.3
242.764	16470.02
242.836	16435.99
242.907	16413.1
242.979	16395.27
243.05	16381.19
243.122	16351.16
243.193	16314.54
243.264	16256.84
243.336	16226.67
243.407	16199.2
243.479	16194.81
243.55	16168.4
243.622	16145.79
243.693	16111.14
243.764	16096.05
243.836	16061.74
243.907	16023.18
243.978	15982.64
244.05	15958.98
244.121	15916.66
244.192	15898.39
244.264	15843.83
244.335	15817.03
244.407	15778.47
244.478	15750.66
244.549	15713.45
244.62	15673.83
244.692	15641.92
244.763	15629.58
244.834	15596.9
244.906	15559.01
244.977	15532.69
245.048	15517.56
245.119	15483.29
245.191	15444.15
245.262	15400.67
245.333	15386.93
245.405	15364.81
245.476	15342.15
245.547	15315.16
245.618	15297.23
245.689	15265.13
245.761	15256.21
245.832	15236.3
245.903	15207.04
245.974	15174.41
246.045	15145.39
246.117	15138.89
246.188	15106.35
246.259	15077.81
246.33	15058.58
246.401	15031.59
246.473	14998.23
246.544	14961.93
246.615	14937.73
246.686	14913.25
246.757	14896.47
246.828	14854.58
246.899	14842.97
246.97	14804.26
247.042	14771.29
247.113	14757.93
247.184	14762.37
247.255	14723.37
247.326	14686.59
247.397	14657.72
247.468	14634.29
247.539	14598.95
247.61	14560.15
247.681	14535.28
247.752	14514.16
247.823	14468.7
247.894	14449.57
247.965	14408.64
248.037	14381.5
248.108	14342.21
248.179	14314.45
248.25	14296.8
248.321	14281.62
248.392	14243.54
248.463	14248.84
248.534	14224.35
248.605	14198.18
248.675	14161.54
248.746	14142.16
248.817	14129.68
248.888	14109.82
248.959	14074
249.03	14064.98
249.101	14030.13
249.172	14006.46
249.243	13963.22
249.314	13959.99
249.385	13935.94
249.456	13916.85
249.527	13890.24
249.598	13875.05
249.669	13850.95
249.739	13826.31
249.81	13808.09
249.881	13774.2
249.952	13737.66
250.023	13709.85
250.094	13672.29
250.165	13632.62
250.235	13610.2
250.306	13590.63
250.377	13562.91
250.448	13547.83
250.519	13502.41
250.59	13506.99
250.66	13480.91
250.731	13474.6
250.802	13451.85
250.873	13433.67
250.944	13414
251.014	13378.14
251.085	13378.86
251.156	13359.87
251.227	13344.78
251.297	13335.96
251.368	13329.84
251.439	13323.47
251.51	13314.22
251.58	13285.87
251.651	13267.31
251.722	13261.57
251.792	13219.54
251.863	13196.26
251.934	13180.3
252.005	13193.46
252.075	13170.99
252.146	13156.92
252.217	13146.31
252.287	13132.53
252.358	13113.1
252.429	13115.65
252.499	13098.35
252.57	13074.49
252.641	13069.52
252.711	13053.71
252.782	13015.92
252.852	13016.45
252.923	12991.52
252.994	12975.57
253.064	12960.67
253.135	12927.12
253.205	12895.16
253.276	12894.2
253.347	12893.67
253.417	12875.64
253.488	12844.06
253.558	12815.43
253.629	12796.63
253.699	12778.41
253.77	12774.16
253.841	12744.57
253.911	12726.49
253.982	12716.08
254.052	12705.9
254.123	12685.03
254.193	12661.75
254.264	12681.66
254.334	12643.29
254.405	12610.89
254.475	12573.82
254.546	12562.64
254.616	12558.49
254.687	12546.93
254.757	12526.58
254.827	12504.79
254.898	12483.63
254.968	12465.51
255.039	12434.66
255.109	12427.48
255.18	12401.01
255.25	12353.48
255.321	12338.4
255.391	12295.21
255.461	12291.35
255.532	12240.88
255.602	12220.01
255.673	12184.87
255.743	12157.39
255.813	12113.05
255.884	12106.97
255.954	12099.12
256.024	12087.21
256.095	12068.03
256.165	12038.38
256.235	12033.13
256.306	12004.21
256.376	11993.02
256.446	11990.13
256.517	11981.31
256.587	11974.08
256.657	11962.37
256.728	11952.53
256.798	11934.8
256.868	11920.1
256.938	11889.49
257.009	11894.98
257.079	11885.87
257.149	11889.92
257.219	11845.38
257.29	11839.46
257.36	11800.7
257.43	11791.26
257.5	11762.39
257.571	11746.19
257.641	11729.18
257.711	11697.46
257.781	11683.77
257.852	11675.77
257.922	11635.19
257.992	11619.72
258.062	11599.96
258.132	11594.12
258.202	11570.94
258.273	11560.14
258.343	11559.13
258.413	11535.76
258.483	11508.52
258.553	11477.29
258.623	11454.35
258.693	11445.77
258.764	11446.83
258.834	11451.99
258.904	11434.11
258.974	11413.63
259.044	11390.01
259.114	11383.84
259.184	11368.37
259.254	11349.86
259.324	11312.95
259.394	11301.14
259.464	11307.31
259.535	11291.45
259.605	11261.04
259.675	11236.66
259.745	11225.77
259.815	11202.29
259.885	11180.18
259.955	11188.61
260.025	11166.49
260.095	11149.19
260.165	11137.62
260.235	11126.3
260.305	11099.26
260.375	11073.62
260.445	11076.03
260.515	11076.28
260.585	11069.43
260.655	11057.96
260.725	11054.64
260.795	11050.54
260.865	11049.1
260.934	11011.84
261.004	10998.54
261.074	10983.31
261.144	10985.82
261.214	10975.22
261.284	10960.28
261.354	10960.81
261.424	10938.74
261.494	10937.1
261.564	10925.15
261.634	10915.17
261.703	10883.99
261.773	10886.26
261.843	10869.68
261.913	10846.5
261.983	10812.63
262.053	10802.9
262.123	10777.45
262.192	10747.58
