Data from 20250625_urea_1M_1_MAYP1162681_10-55-06-222.txt Node
Date: Thu Jun 26 10:55:06 BST 2025
User: adleo
Spectrometer: MAYP116268
Trigger mode: 0
Integration Time (sec): 1.000000E0
Scans to average: 1
Electric dark correction enabled: true
Nonlinearity correction enabled: true
Boxcar width: 10
XAxis mode: Wavelengths
Number of Pixels in Spectrum: 2068
>>>>>Begin Spectral Data<<<<<
179.565	1134.11
179.642	1186.69
179.718	1222.97
179.795	1261.55
179.871	1291.59
179.948	1310.02
180.024	1328.1
180.101	1348.11
180.177	1361.13
180.254	1382.98
180.33	1402.83
180.407	1451.96
180.483	1541.09
180.56	1623.57
180.636	1702.23
180.712	1690.87
180.789	1698.52
180.865	1707.07
180.942	1716.81
181.018	1723.37
181.095	1738.53
181.171	1742.47
181.248	1745.7
181.324	1762.39
181.4	1765.05
181.477	1774.6
181.553	1782.01
181.63	1801.59
181.706	1817.76
181.782	1828.02
181.859	1827.45
181.935	1835.01
182.011	1833.06
182.088	1851.5
182.164	1872.04
182.24	1884.64
182.317	1892.53
182.393	1888.39
182.469	1901.13
182.546	1913.16
182.622	1919.86
182.698	1915.01
182.775	1928.32
182.851	1937.21
182.927	1929.32
183.003	1927.42
183.08	1922
183.156	1935.69
183.232	1935.03
183.308	1925.18
183.385	1929.65
183.461	1945.63
183.537	1945.77
183.613	1958.13
183.69	1950.33
183.766	1938.92
183.842	1946.67
183.918	1948.19
183.995	1964.45
184.071	1967.45
184.147	1962.41
184.223	1951.52
184.299	1964.36
184.375	1954.9
184.452	1963.99
184.528	2020.4
184.604	2031
184.68	2044.41
184.756	2050.12
184.832	2052.73
184.908	2054.4
184.985	2056.25
185.061	2041.46
185.137	2051.31
185.213	2038.61
185.289	2036.28
185.365	2030.96
185.441	2028.77
185.517	2044.28
185.593	2040.62
185.669	2039.52
185.745	2051.13
185.822	2065.81
185.898	2058.92
185.974	2067.09
186.05	2058.39
186.126	2017.67
186.202	2009.01
186.278	2004.02
186.354	1994.56
186.43	2000.26
186.506	2001.36
186.582	2000.93
186.658	2006.68
186.734	1987.23
186.81	1988.9
186.886	1989.99
186.962	2001.64
187.038	1996.98
187.114	1992.22
187.19	1999.17
187.266	1989.47
187.341	1987.47
187.417	1979.15
187.493	1976.82
187.569	1978.01
187.645	1972.92
187.721	1960.37
187.797	1969.92
187.873	1973.97
187.949	1968.17
188.025	1961.79
188.101	1963.31
188.176	1966.26
188.252	1963.98
188.328	1970.16
188.404	1969.92
188.48	1968.83
188.556	1961.36
188.632	1964.64
188.707	1962.79
188.783	1958.32
188.859	1955.94
188.935	1945.91
189.011	1956.37
189.086	1950.8
189.162	1943.43
189.238	1940.01
189.314	1939.15
189.39	1934.02
189.465	1926.89
189.541	1943.86
189.617	1931.03
189.693	1927.56
189.768	1931.12
189.844	1952.96
189.92	1944.73
189.996	1953.39
190.071	1962.57
190.147	1962.09
190.223	1969.18
190.298	1963.23
190.374	1951.68
190.45	1964.28
190.526	1971.12
190.601	1965.13
190.677	1966.27
190.753	1993.68
190.828	1997.86
190.904	2011.89
190.98	2025.63
191.055	2036.1
191.131	2025.68
191.207	2044.27
191.282	2049.79
191.358	2038.8
191.433	2025.15
191.509	2038.13
191.585	2032.42
191.66	2035.89
191.736	2043.12
191.811	2032.28
191.887	2046.41
191.963	2068.14
192.038	2070.56
192.114	2073.85
192.189	2077.51
192.265	2073.28
192.34	2048.35
192.416	2045.78
192.491	2041.12
192.567	2043.16
192.642	2048.01
192.718	2049.11
192.793	2039.64
192.869	2037.31
192.944	2041.83
193.02	2048.78
193.095	2053.72
193.171	2063.47
193.246	2059.9
193.322	2055.48
193.397	2058.14
193.473	2045.77
193.548	2029.13
193.624	2035.69
193.699	2031.84
193.775	2049.82
193.85	2053.67
193.925	2062.33
194.001	2062.66
194.076	2055.19
194.152	2043.06
194.227	2032.6
194.302	2023.95
194.378	2026.61
194.453	2024.9
194.529	2038.12
194.604	2023.62
194.679	2017.05
194.755	1995.95
194.83	2008.13
194.905	2008.6
194.981	2017.11
195.056	2008.18
195.131	2014.45
195.207	2009.84
195.282	2002.9
195.357	1981.87
195.433	1996.18
195.508	1986.58
195.583	1995.66
195.659	2010.5
195.734	2019.39
195.809	2021.53
195.884	2028
195.96	2027.62
196.035	2044.55
196.11	2040.6
196.185	2053.68
196.261	2058.34
196.336	2089.3
196.411	2073.55
196.486	2077.26
196.561	2069.27
196.637	2081.16
196.712	2095.48
196.787	2101
196.862	2115.55
196.937	2125.25
197.013	2128.34
197.088	2137.52
197.163	2158.51
197.238	2173.41
197.313	2172.65
197.388	2183.88
197.464	2216
197.539	2227.75
197.614	2218.23
197.689	2227.94
197.764	2242.74
197.839	2259.25
197.914	2256.3
197.989	2280.1
198.065	2294.75
198.14	2343.99
198.215	2364.55
198.29	2375.64
198.365	2389.25
198.44	2399.01
198.515	2424.77
198.59	2441.09
198.665	2467.47
198.74	2471.99
198.815	2471.94
198.89	2494.37
198.965	2522.37
199.04	2516.32
199.115	2529.18
199.19	2570.74
199.265	2575.64
199.34	2582.45
199.415	2615.33
199.49	2635.62
199.565	2645.57
199.64	2670.06
199.715	2668.48
199.79	2677.67
199.865	2682.44
199.94	2681.25
200.015	2711.65
200.09	2715.36
200.165	2719.74
200.24	2729.27
200.315	2767.61
200.39	2782.24
200.464	2788.57
200.539	2790.1
200.614	2806.01
200.689	2828.45
200.764	2834.22
200.839	2852.27
200.914	2861.52
200.989	2851.84
201.063	2861.51
201.138	2841.99
201.213	2840.27
201.288	2820.59
201.363	2827.41
201.438	2831.03
201.512	2846.32
201.587	2828.35
201.662	2835.22
201.737	2848.08
201.812	2852.47
201.886	2820.71
201.961	2830.19
202.036	2819.29
202.111	2815
202.186	2787.57
202.26	2771.12
202.335	2751.16
202.41	2743.34
202.485	2725.57
202.559	2706.42
202.634	2682.84
202.709	2692.41
202.784	2672.02
202.858	2671.35
202.933	2653.82
203.008	2646.77
203.082	2626.91
203.157	2627.63
203.232	2585.68
203.306	2565.19
203.381	2533.75
203.456	2515.23
203.53	2493.92
203.605	2473.6
203.68	2453.26
203.754	2445.32
203.829	2433.17
203.904	2414.61
203.978	2402.99
204.053	2406.56
204.127	2395.23
204.202	2391.8
204.277	2377.38
204.351	2371.34
204.426	2365.29
204.5	2354.82
204.575	2321.93
204.65	2331.07
204.724	2324.74
204.799	2334.54
204.873	2331.11
204.948	2332.59
205.022	2318.03
205.097	2311.03
205.171	2324.83
205.246	2332.44
205.32	2334.68
205.395	2331.97
205.469	2323.45
205.544	2326.5
205.618	2311.51
205.693	2319.79
205.767	2311.03
205.842	2332.65
205.916	2328.6
205.991	2317.99
206.065	2323.36
206.14	2337.4
206.214	2331.35
206.289	2321.54
206.363	2332.01
206.438	2332.3
206.512	2338.01
206.586	2358.47
206.661	2368.66
206.735	2349.35
206.81	2348.4
206.884	2363.81
206.958	2351.35
207.033	2366.57
207.107	2375
207.181	2406.05
207.256	2400.91
207.33	2418.86
207.405	2429.58
207.479	2449.72
207.553	2458.85
207.628	2445.72
207.702	2460.57
207.776	2456
207.851	2462.28
207.925	2478
207.999	2477.62
208.073	2474.29
208.148	2477.19
208.222	2466.48
208.296	2496.41
208.371	2512.66
208.445	2523.09
208.519	2552.65
208.593	2567.08
208.668	2565.13
208.742	2563.84
208.816	2566.98
208.89	2581.75
208.965	2578.03
209.039	2584.18
209.113	2601.85
209.187	2621.89
209.261	2617.08
209.336	2637.46
209.41	2656.71
209.484	2659.76
209.558	2685.44
209.632	2700.54
209.707	2708.44
209.781	2730.45
209.855	2746.27
209.929	2766.49
210.003	2772.45
210.077	2778.74
210.151	2827.63
210.226	2864.06
210.3	2897.59
210.374	2925.94
210.448	2933.75
210.522	2954.21
210.596	2974.81
210.67	2991.01
210.744	3046.48
210.818	3089.23
210.892	3122
210.966	3131.77
211.041	3156.95
211.115	3167.16
211.189	3208.56
211.263	3246.38
211.337	3271.42
211.411	3307.88
211.485	3321.48
211.559	3360.08
211.633	3384.97
211.707	3379.24
211.781	3417.07
211.855	3412.87
211.929	3438.4
212.003	3452.75
212.077	3492.25
212.151	3538.76
212.225	3583.07
212.299	3608.83
212.373	3635.67
212.447	3672.02
212.52	3738.37
212.594	3789.07
212.668	3845.53
212.742	3881.76
212.816	3928.02
212.89	3972.41
212.964	4023.19
213.038	4085.4
213.112	4151.88
213.186	4224.54
213.26	4266.17
213.333	4279.18
213.407	4344.91
213.481	4416.16
213.555	4497.44
213.629	4557.7
213.703	4611.26
213.777	4681.73
213.85	4736.35
213.924	4843.67
213.998	4919.2
214.072	4990.78
214.146	5055.11
214.219	5137.86
214.293	5211.82
214.367	5295.58
214.441	5392.15
214.515	5467.8
214.588	5527.77
214.662	5580.7
214.736	5647.34
214.81	5746.99
214.883	5853.12
214.957	5931.95
215.031	6008.25
215.105	6073.32
215.178	6149.57
215.252	6235.52
215.326	6305.64
215.4	6383.48
215.473	6436.26
215.547	6511.21
215.621	6598.01
215.694	6704.17
215.768	6778.87
215.842	6865.09
215.915	6953.12
215.989	7018.9
216.063	7106.71
216.136	7206.18
216.21	7305.5
216.284	7418.95
216.357	7515.29
216.431	7604.14
216.504	7714.43
216.578	7837.01
216.652	7946.67
216.725	8048.92
216.799	8157.12
216.873	8258.51
216.946	8362.51
217.02	8451.32
217.093	8548.46
217.167	8630.81
217.24	8701.27
217.314	8792.81
217.387	8879.82
217.461	8965.41
217.535	9079.74
217.608	9162.54
217.682	9259.61
217.755	9370.02
217.829	9450.78
217.902	9540.2
217.976	9633.33
218.049	9714.72
218.123	9791.41
218.196	9892.74
218.27	9972.75
218.343	10042.41
218.417	10134.99
218.49	10221.17
218.563	10328.79
218.637	10427.56
218.71	10530.43
218.784	10632.19
218.857	10727.54
218.931	10826.51
219.004	10914.59
219.077	11001.19
219.151	11092.12
219.224	11173.42
219.298	11255.3
219.371	11348.6
219.444	11427.93
219.518	11513.86
219.591	11604.08
219.665	11714.6
219.738	11798.66
219.811	11878.95
219.885	11976.85
219.958	12062.55
220.031	12147.09
220.105	12225.66
220.178	12305.19
220.251	12370.03
220.325	12456.55
220.398	12535.9
220.471	12610.13
220.544	12690.15
220.618	12763.66
220.691	12843.73
220.764	12918.3
220.838	12990.37
220.911	13061.23
220.984	13151.14
221.057	13233.86
221.131	13302.55
221.204	13337.16
221.277	13422.78
221.35	13529.55
221.424	13591.45
221.497	13665.98
221.57	13733.52
221.643	13810.45
221.716	13879.97
221.79	13949.58
221.863	14009.35
221.936	14075.15
222.009	14138.45
222.082	14210.42
222.155	14270.19
222.229	14350.26
222.302	14411.39
222.375	14472.03
222.448	14538.36
222.521	14592.44
222.594	14641.23
222.667	14688.61
222.74	14758.56
222.814	14809.03
222.887	14855.64
222.96	14923.27
223.033	14980.25
223.106	15032.31
223.179	15082.58
223.252	15135.7
223.325	15184.34
223.398	15234.95
223.471	15286.09
223.544	15344.75
223.617	15396.43
223.69	15444.24
223.763	15464.44
223.837	15521.99
223.91	15573.18
223.983	15602.54
224.056	15639.31
224.129	15681.39
224.202	15737.88
224.275	15775.63
224.348	15804.21
224.42	15821.42
224.493	15843.92
224.566	15876.94
224.639	15925.19
224.712	15953.14
224.785	15987.37
224.858	16031.32
224.931	16067.47
225.004	16086.27
225.077	16115.62
225.15	16117.89
225.223	16148.06
225.296	16216.4
225.369	16227.63
225.442	16257.95
225.514	16294.77
225.587	16327.64
225.66	16369.33
225.733	16404.71
225.806	16440.57
225.879	16475.03
225.952	16500.48
226.025	16540.1
226.097	16588.72
226.17	16612.24
226.243	16630.85
226.316	16655.48
226.389	16677.36
226.461	16709.36
226.534	16745.41
226.607	16774.62
226.68	16833.66
226.753	16856.79
226.825	16858.62
226.898	16903.2
226.971	16925.81
227.044	16953.37
227.117	16983.59
227.189	17011.25
227.262	17049.13
227.335	17075.54
227.407	17093.91
227.48	17128.22
227.553	17158.1
227.626	17167.74
227.698	17191.02
227.771	17223.74
227.844	17243.65
227.916	17267.5
227.989	17273.28
228.062	17295.07
228.134	17338.39
228.207	17358.2
228.28	17385.19
228.352	17413.67
228.425	17438.83
228.498	17463.55
228.57	17475.65
228.643	17500.08
228.716	17512.47
228.788	17512.18
228.861	17515.65
228.934	17555.65
229.006	17567.94
229.079	17579.12
229.151	17592.95
229.224	17603.41
229.296	17616.03
229.369	17655.16
229.442	17683.5
229.514	17696.22
229.587	17731.6
229.659	17722.25
229.732	17736.08
229.804	17761.43
229.877	17795.55
229.949	17818.1
230.022	17847.54
230.094	17859.54
230.167	17875.06
230.239	17887.93
230.312	17913.23
230.384	17956.07
230.457	17961.81
230.529	17977.42
230.602	17996.55
230.674	18025.71
230.747	18044.55
230.819	18072.11
230.892	18050.57
230.964	18062.14
231.037	18080.5
231.109	18072.26
231.181	18094.76
231.254	18095.78
231.326	18101.08
231.399	18089.32
231.471	18078.62
231.544	18065.71
231.616	18087.49
231.688	18095.44
231.761	18091.92
231.833	18088.4
231.905	18068.21
231.978	18074.62
232.05	18077.37
232.122	18074.72
232.195	18064.6
232.267	18086.43
232.339	18079.2
232.412	18101.27
232.484	18093.95
232.556	18094.48
232.629	18122.09
232.701	18121.9
232.773	18119.01
232.846	18118.76
232.918	18119.05
232.99	18127.1
233.062	18141.51
233.135	18138.72
233.207	18125.41
233.279	18131.15
233.351	18136.21
233.424	18126.47
233.496	18108.21
233.568	18118.67
233.64	18101.7
233.713	18097.66
233.785	18085.37
233.857	18081.18
233.929	18059.1
234.001	18071.34
234.074	18078.14
234.146	18055.92
234.218	18050
234.29	18043.73
234.362	18025.66
234.434	18003.59
234.507	17979.25
234.579	17953.28
234.651	17938.67
234.723	17938.05
234.795	17938.58
234.867	17921.81
234.939	17932.22
235.012	17930.53
235.084	17924.55
235.156	17937.57
235.228	17911.83
235.3	17891.16
235.372	17889.62
235.444	17889.13
235.516	17861.18
235.588	17845.47
235.66	17830.73
235.732	17814.73
235.804	17853.28
235.876	17848.41
235.948	17854.92
236.02	17850.19
236.092	17826.82
236.164	17828.03
236.236	17810
236.308	17792.46
236.38	17787.06
236.452	17769.86
236.524	17758.68
236.596	17759.88
236.668	17737.52
236.74	17728.75
236.812	17724.46
236.884	17709.62
236.956	17696.85
237.028	17670.68
237.1	17644.03
237.172	17639.35
237.244	17633.86
237.316	17580.08
237.388	17552.08
237.46	17525
237.532	17520.66
237.604	17508.18
237.675	17497.91
237.747	17493.53
237.819	17471.31
237.891	17449.48
237.963	17427.84
238.035	17407.74
238.107	17360.66
238.178	17355.45
238.25	17331.5
238.322	17326.68
238.394	17295.79
238.466	17267.55
238.538	17262.1
238.609	17250.97
238.681	17218.25
238.753	17193.77
238.825	17179.64
238.897	17169.57
238.968	17167.79
239.04	17138.68
239.112	17139.64
239.184	17108.37
239.255	17075.31
239.327	17050.29
239.399	17025.18
239.471	17004.36
239.542	16979.83
239.614	16972.89
239.686	16935.49
239.758	16931.16
239.829	16893.27
239.901	16878.58
239.973	16858.53
240.044	16828.89
240.116	16806.57
240.188	16776.59
240.259	16743.96
240.331	16703.14
240.403	16684.11
240.474	16642.03
240.546	16607.23
240.618	16567.81
240.689	16532.58
240.761	16511.81
240.833	16503.52
240.904	16480.28
240.976	16458.69
241.048	16435.61
241.119	16414.88
241.191	16391.22
241.262	16377.29
241.334	16351.7
241.405	16321.77
241.477	16300.61
241.549	16285.23
241.62	16257.66
241.692	16243.25
241.763	16239.49
241.835	16225.03
241.906	16195.54
241.978	16159.68
242.049	16149.46
242.121	16130.42
242.192	16125.94
242.264	16089.59
242.335	16045.73
242.407	16030.31
242.478	15996.14
242.55	15974.64
242.621	15941.14
242.693	15913.91
242.764	15879.3
242.836	15852.55
242.907	15838.43
242.979	15818.04
243.05	15788.3
243.122	15772.78
243.193	15748.73
243.264	15695.66
243.336	15660.19
243.407	15644.47
243.479	15643.75
243.55	15628.33
243.622	15602.25
243.693	15568.41
243.764	15561.33
243.836	15532.21
243.907	15505.41
243.978	15485.94
244.05	15466.23
244.121	15422.75
244.192	15397.88
244.264	15357.48
244.335	15338.83
244.407	15296.56
244.478	15268.02
244.549	15235.68
244.62	15190.12
244.692	15164.72
244.763	15154.45
244.834	15126.93
244.906	15095.94
244.977	15078.73
245.048	15058.05
245.119	15029.8
245.191	14993.36
245.262	14940.77
245.333	14933.54
245.405	14901.63
245.476	14876.27
245.547	14853.33
245.618	14832.75
245.689	14816.6
245.761	14795
245.832	14766.51
245.903	14748.77
245.974	14728.29
246.045	14704.23
246.117	14699.7
246.188	14664.32
246.259	14624.46
246.33	14601.61
246.401	14570.08
246.473	14529.64
246.544	14503.85
246.615	14488.42
246.686	14459.21
246.757	14458.05
246.828	14416.21
246.899	14409.61
246.97	14373.45
247.042	14335.18
247.113	14325.83
247.184	14316.71
247.255	14289.29
247.326	14257.28
247.397	14232.98
247.468	14206.37
247.539	14185.11
247.61	14145.73
247.681	14126.45
247.752	14109.38
247.823	14079.73
247.894	14061.27
247.965	14021.36
248.037	13988.77
248.108	13946.97
248.179	13930.1
248.25	13900.7
248.321	13892.55
248.392	13848.54
248.463	13849.69
248.534	13833.64
248.605	13814.12
248.675	13786.3
248.746	13768.66
248.817	13752.7
248.888	13733.71
248.959	13693.02
249.03	13673.45
249.101	13648.58
249.172	13618.83
249.243	13584.37
249.314	13576.12
249.385	13559.88
249.456	13535.53
249.527	13507.86
249.598	13491.47
249.669	13464.72
249.739	13449.34
249.81	13428.47
249.881	13395.11
249.952	13365.75
250.023	13334.95
250.094	13291.66
250.165	13257.28
250.235	13231.73
250.306	13216.84
250.377	13180.4
250.448	13166.17
250.519	13126.98
250.59	13120.43
250.66	13096.52
250.731	13094.2
250.802	13073.18
250.873	13046.91
250.944	13039.01
251.014	13010.66
251.085	13007.91
251.156	12989.26
251.227	12975.13
251.297	12959.47
251.368	12953.58
251.439	12944.91
251.51	12941.24
251.58	12916.76
251.651	12893.47
251.722	12889.71
251.792	12843
251.863	12818.66
251.934	12811.47
252.005	12819.43
252.075	12797.64
252.146	12792.05
252.217	12779.51
252.287	12761.77
252.358	12739.55
252.429	12732.66
252.499	12711.4
252.57	12697.95
252.641	12692.07
252.711	12667.53
252.782	12637.26
252.852	12633.02
252.923	12603.52
252.994	12588.24
253.064	12590.16
253.135	12563.07
253.205	12531.84
253.276	12536.75
253.347	12538.05
253.417	12512.84
253.488	12488.31
253.558	12468.59
253.629	12447.72
253.699	12427.18
253.77	12414.02
253.841	12395.71
253.911	12376.47
253.982	12363.27
254.052	12354.2
254.123	12336.99
254.193	12320.7
254.264	12334.2
254.334	12306.58
254.405	12276.31
254.475	12240.97
254.546	12218.56
254.616	12210.94
254.687	12194.94
254.757	12177.64
254.827	12153.39
254.898	12136.76
254.968	12115.99
255.039	12087.26
255.109	12068.6
255.18	12040.31
255.25	12001.6
255.321	11996.4
255.391	11965.5
255.461	11972.01
255.532	11921.2
255.602	11893.92
255.673	11858.83
255.743	11831.41
255.813	11796.75
255.884	11798.24
255.954	11788.65
256.024	11789.57
256.095	11773.47
256.165	11742.33
256.235	11732.74
256.306	11709.66
256.376	11706.19
256.446	11698.76
256.517	11691.24
256.587	11686.95
256.657	11675.24
256.728	11659.48
256.798	11632.49
256.868	11610.56
256.938	11575.86
257.009	11573.11
257.079	11559.33
257.149	11570.03
257.219	11530.55
257.29	11513.68
257.36	11471.56
257.43	11462.6
257.5	11417.92
257.571	11392.52
257.641	11392.18
257.711	11363.26
257.781	11359.17
257.852	11347.74
257.922	11312.61
257.992	11295.65
258.062	11278.44
258.132	11274.05
258.202	11256.03
258.273	11245.57
258.343	11248.66
258.413	11220.27
258.483	11200.27
258.553	11178.01
258.623	11141.19
258.693	11131.16
258.764	11131.64
258.834	11135.6
258.904	11113.19
258.974	11086.01
259.044	11069.96
259.114	11057.24
259.184	11043.65
259.254	11023.7
259.324	10981.34
259.394	10969.05
259.464	10968.09
259.535	10947.17
259.605	10920.28
259.675	10901.2
259.745	10883.18
259.815	10857.54
259.885	10844.43
259.955	10851.32
260.025	10824.58
260.095	10813.02
260.165	10797.5
260.235	10795.62
260.305	10773.21
260.375	10745.65
260.445	10751.19
260.515	10749.8
260.585	10737.07
260.655	10723.68
260.725	10718.38
260.795	10711.73
260.865	10717.61
260.934	10687.64
261.004	10684.89
261.074	10672.99
261.144	10672.55
261.214	10668.12
261.284	10654.15
261.354	10648.94
261.424	10625.04
261.494	10629.62
261.564	10611.98
261.634	10605
261.703	10569.15
261.773	10556
261.843	10552.62
261.913	10541.78
261.983	10512.87
262.053	10503.67
262.123	10483.58
262.192	10451.35
262.262	10443.64
262.332	10412.13
