Data from 20250625_urea_1M_1_MAYP1162681_05-05-05-897.txt Node
Date: Thu Jun 26 05:05:05 BST 2025
User: adleo
Spectrometer: MAYP116268
Trigger mode: 0
Integration Time (sec): 1.000000E0
Scans to average: 1
Electric dark correction enabled: true
Nonlinearity correction enabled: true
Boxcar width: 10
XAxis mode: Wavelengths
Number of Pixels in Spectrum: 2068
>>>>>Begin Spectral Data<<<<<
179.565	1108.01
179.642	1158.43
179.718	1193.8
179.795	1227.75
179.871	1254.45
179.948	1272.82
180.024	1293.14
180.101	1311.15
180.177	1322.95
180.254	1343.85
180.33	1364.43
180.407	1410.94
180.483	1499.69
180.56	1581.55
180.636	1657.93
180.712	1644.48
180.789	1650.66
180.865	1663.24
180.942	1669.7
181.018	1677.11
181.095	1689.76
181.171	1695.31
181.248	1695.22
181.324	1711.33
181.4	1717.17
181.477	1729.62
181.553	1740.27
181.63	1759.66
181.706	1776.96
181.782	1787.03
181.859	1786.74
181.935	1792.54
182.011	1789.74
182.088	1801.05
182.164	1817.02
182.24	1830.18
182.317	1837.22
182.393	1834.27
182.469	1847.01
182.546	1858.8
182.622	1861.88
182.698	1857.99
182.775	1871.58
182.851	1884.51
182.927	1876.62
183.003	1873.01
183.08	1868.59
183.156	1878
183.232	1872.77
183.308	1859.84
183.385	1865.07
183.461	1878.95
183.537	1878.9
183.613	1891.88
183.69	1885.32
183.766	1877.62
183.842	1884.04
183.918	1891.02
183.995	1904.24
184.071	1908.33
184.147	1905
184.223	1896.35
184.299	1906.95
184.375	1894.5
184.452	1899.45
184.528	1953.33
184.604	1964.21
184.68	1974.53
184.756	1980.47
184.832	1983.94
184.908	1991.59
184.985	1991.4
185.061	1979.8
185.137	1987.6
185.213	1976.81
185.289	1977.19
185.365	1971.44
185.441	1971.82
185.517	1983.09
185.593	1979.33
185.669	1977.15
185.745	1987.8
185.822	2002.86
185.898	1992.4
185.974	2000.01
186.05	1997.58
186.126	1959.96
186.202	1953.4
186.278	1950.03
186.354	1938.52
186.43	1944.42
186.506	1940.99
186.582	1942.13
186.658	1946.08
186.734	1926.5
186.81	1928.73
186.886	1932.44
186.962	1943.42
187.038	1937.48
187.114	1931.06
187.19	1936.33
187.266	1924.69
187.341	1923.88
187.417	1919.74
187.493	1920.41
187.569	1925.78
187.645	1915.8
187.721	1905.67
187.797	1912.7
187.873	1916.17
187.949	1913.32
188.025	1909.14
188.101	1911.23
188.176	1915.6
188.252	1911.66
188.328	1920.87
188.404	1919.31
188.48	1917.07
188.556	1909.61
188.632	1909.99
188.707	1910.7
188.783	1910.23
188.859	1907.85
188.935	1894.96
189.011	1902.1
189.086	1900.58
189.162	1894.68
189.238	1895.77
189.314	1892.83
189.39	1887.74
189.465	1881.42
189.541	1896.68
189.617	1882.23
189.693	1880.04
189.768	1882.18
189.844	1905.58
189.92	1896.93
189.996	1907.06
190.071	1914.09
190.147	1913.62
190.223	1923.7
190.298	1918.23
190.374	1904.87
190.45	1913.43
190.526	1921.84
190.601	1915.28
190.677	1914
190.753	1937.74
190.828	1939.4
190.904	1950.05
190.98	1963.7
191.055	1972.78
191.131	1965.26
191.207	1981.95
191.282	1989.37
191.358	1978.48
191.433	1969.11
191.509	1982.46
191.585	1977.14
191.66	1978.85
191.736	1987.74
191.811	1978.47
191.887	1989.17
191.963	2013.8
192.038	2021.5
192.114	2024.78
192.189	2029.73
192.265	2027.45
192.34	2006.99
192.416	2008.61
192.491	2008.99
192.567	2011.94
192.642	2013.74
192.718	2011.51
192.793	2003.38
192.869	1998.67
192.944	2002.71
193.02	2005.37
193.095	2008.32
193.171	2017.5
193.246	2016.64
193.322	2011.18
193.397	2010.37
193.473	2000.19
193.548	1983.02
193.624	1987.49
193.699	1984.64
193.775	1997.01
193.85	1998
193.925	2005.71
194.001	2002.14
194.076	1993.68
194.152	1980.89
194.227	1974.04
194.302	1965.15
194.378	1968.19
194.453	1966.48
194.529	1977.37
194.604	1965.2
194.679	1960.44
194.755	1939.62
194.83	1953.8
194.905	1954.08
194.981	1963.54
195.056	1956.65
195.131	1963.12
195.207	1960.79
195.282	1950.33
195.357	1933.4
195.433	1949.56
195.508	1935.49
195.583	1946.14
195.659	1963.45
195.734	1971.06
195.809	1969.78
195.884	1979.66
195.96	1981.09
196.035	1997.54
196.11	1994.93
196.185	2005.1
196.261	2006.1
196.336	2034.39
196.411	2018.31
196.486	2023.4
196.561	2016.46
196.637	2025.87
196.712	2041.14
196.787	2043
196.862	2060.92
196.937	2068.34
197.013	2072.77
197.088	2084.61
197.163	2102.69
197.238	2115.59
197.313	2116.26
197.388	2131.38
197.464	2157.45
197.539	2168.73
197.614	2159.26
197.689	2171.06
197.764	2184.05
197.839	2204.51
197.914	2200.46
197.989	2222.11
198.065	2233.86
198.14	2281.8
198.215	2306.12
198.29	2317.74
198.365	2331.64
198.44	2340.72
198.515	2366.23
198.59	2378.37
198.665	2403.5
198.74	2410.84
198.815	2411.36
198.89	2431.64
198.965	2459.11
199.04	2456.16
199.115	2470.78
199.19	2510.81
199.265	2515.85
199.34	2524.33
199.415	2555.25
199.49	2575.67
199.565	2584.2
199.64	2605.34
199.715	2601.43
199.79	2605.19
199.865	2608.72
199.94	2607
200.015	2632.72
200.09	2639.58
200.165	2646.01
200.24	2653.54
200.315	2689.25
200.39	2704.26
200.464	2708.54
200.539	2709.83
200.614	2726.6
200.689	2744.65
200.764	2751.14
200.839	2767.8
200.914	2774.19
200.989	2765.99
201.063	2779.86
201.138	2765.43
201.213	2766.76
201.288	2750.33
201.363	2757.81
201.438	2758.66
201.512	2772
201.587	2755.66
201.662	2757.99
201.737	2770.19
201.812	2777.53
201.886	2746.92
201.961	2750.78
202.036	2744.49
202.111	2738.58
202.186	2709.4
202.26	2693.77
202.335	2676.42
202.41	2667.85
202.485	2653.56
202.559	2634.08
202.634	2607.07
202.709	2614.45
202.784	2595.35
202.858	2595.35
202.933	2576.4
203.008	2571.49
203.082	2554.73
203.157	2557.11
203.232	2517.84
203.306	2495.88
203.381	2464.49
203.456	2442.16
203.53	2422.86
203.605	2400.74
203.68	2381.69
203.754	2376.22
203.829	2362.08
203.904	2344.99
203.978	2334.09
204.053	2336.7
204.127	2322.43
204.202	2321.14
204.277	2304.87
204.351	2298.06
204.426	2290.02
204.5	2283.45
204.575	2249.33
204.65	2258.19
204.724	2251.81
204.799	2259.99
204.873	2258.7
204.948	2257.37
205.022	2246.81
205.097	2240.14
205.171	2256.79
205.246	2264.98
205.32	2268.26
205.395	2269.36
205.469	2257.33
205.544	2262.37
205.618	2246.43
205.693	2260.61
205.767	2247.86
205.842	2266.9
205.916	2261.76
205.991	2252.81
206.065	2257.1
206.14	2270.27
206.214	2264.7
206.289	2255.75
206.363	2269.79
206.438	2270.6
206.512	2280.31
206.586	2298.39
206.661	2304.72
206.735	2281.6
206.81	2279.98
206.884	2294.02
206.958	2281.17
207.033	2296.4
207.107	2302.2
207.181	2332.67
207.256	2326.39
207.33	2343.28
207.405	2356.29
207.479	2377.85
207.553	2386.89
207.628	2374.28
207.702	2386.7
207.776	2380.71
207.851	2385.13
207.925	2396.28
207.999	2392.94
208.073	2388.09
208.148	2391.23
208.222	2381.66
208.296	2411.35
208.371	2428.74
208.445	2436.64
208.519	2466.01
208.593	2477.2
208.668	2476.1
208.742	2478.29
208.816	2481.2
208.89	2497.77
208.965	2494.82
209.039	2501.1
209.113	2514.58
209.187	2536.57
209.261	2536.28
209.336	2561.76
209.41	2585
209.484	2590.72
209.558	2617.11
209.632	2635.92
209.707	2649.78
209.781	2675.16
209.855	2696.65
209.929	2718.97
210.003	2730.45
210.077	2732.69
210.151	2785.82
210.226	2826.15
210.3	2864.07
210.374	2898.75
210.448	2912.39
210.522	2938.9
210.596	2962.69
210.67	2992.34
210.744	3049.24
210.818	3097.43
210.892	3134.87
210.966	3148.89
211.041	3184.52
211.115	3203.5
211.189	3249.25
211.263	3291.27
211.337	3324.57
211.411	3369.48
211.485	3392.45
211.559	3440.21
211.633	3483.57
211.707	3494.27
211.781	3541.95
211.855	3552.6
211.929	3589.41
212.003	3619.47
212.077	3675.28
212.151	3740.78
212.225	3800.17
212.299	3846.98
212.373	3895.72
212.447	3949.46
212.52	4043.92
212.594	4115.6
212.668	4201.9
212.742	4261.4
212.816	4334.68
212.89	4405.99
212.964	4485.25
213.038	4573.27
213.112	4668.11
213.186	4768.9
213.26	4841.68
213.333	4889.23
213.407	4990.2
213.481	5087.63
213.555	5202.45
213.629	5297.97
213.703	5387.23
213.777	5493.52
213.85	5588.65
213.924	5727.35
213.998	5839.49
214.072	5948.2
214.146	6045.98
214.219	6160.4
214.293	6280.7
214.367	6405.71
214.441	6543.74
214.515	6656.6
214.588	6764.32
214.662	6863.27
214.736	6978.18
214.81	7111.5
214.883	7259.6
214.957	7378.09
215.031	7503.51
215.105	7618.76
215.178	7735.31
215.252	7865.62
215.326	7982.83
215.4	8097.77
215.473	8187.64
215.547	8308.74
215.621	8427.08
215.694	8569.56
215.768	8681.36
215.842	8804.13
215.915	8927.47
215.989	9037.96
216.063	9162.08
216.136	9291.21
216.21	9422.36
216.284	9564.04
216.357	9702.06
216.431	9832.53
216.504	9976.26
216.578	10126.45
216.652	10263.1
216.725	10399.72
216.799	10535.54
216.873	10671.46
216.946	10810.51
217.02	10937.12
217.093	11066.22
217.167	11174.79
217.24	11285.19
217.314	11410.3
217.387	11529.81
217.461	11642.11
217.535	11767.56
217.608	11877.26
217.682	11996.45
217.755	12135.51
217.829	12240.16
217.902	12348.8
217.976	12459.62
218.049	12563.98
218.123	12663.52
218.196	12779.17
218.27	12887.58
218.343	12991.61
218.417	13099.3
218.49	13203.37
218.563	13330.25
218.637	13441.27
218.71	13569.69
218.784	13693.29
218.857	13807.44
218.931	13909.97
219.004	14015.45
219.077	14139.53
219.151	14249.48
219.224	14344.45
219.298	14434.93
219.371	14539.82
219.444	14627.84
219.518	14726.47
219.591	14821.82
219.665	14945.02
219.738	15051.51
219.811	15134.22
219.885	15228.22
219.958	15316.04
220.031	15401.79
220.105	15485.04
220.178	15570.55
220.251	15644.87
220.325	15721.75
220.398	15803.11
220.471	15893.34
220.544	15982.8
220.618	16032.83
220.691	16115.2
220.764	16203.69
220.838	16278.69
220.911	16348.67
220.984	16444.2
221.057	16517.75
221.131	16594.62
221.204	16630.87
221.277	16707.69
221.35	16812.32
221.424	16868.13
221.497	16939.36
221.57	17015.95
221.643	17089.11
221.716	17148.34
221.79	17201.35
221.863	17267.52
221.936	17322.8
222.009	17375.14
222.082	17440.68
222.155	17503.09
222.229	17567.43
222.302	17623.86
222.375	17671.86
222.448	17740.82
222.521	17799.28
222.594	17845.11
222.667	17881.49
222.74	17950.84
222.814	17986.31
222.887	18016.04
222.96	18074.64
223.033	18120.14
223.106	18157.82
223.179	18207.51
223.252	18253.72
223.325	18305.38
223.398	18339.55
223.471	18378.68
223.544	18419.98
223.617	18454.34
223.69	18498.14
223.763	18523.44
223.837	18558.91
223.91	18599.53
223.983	18613.65
224.056	18631.15
224.129	18663
224.202	18701.65
224.275	18720.68
224.348	18732.39
224.42	18745.02
224.493	18744.92
224.566	18756.59
224.639	18779.43
224.712	18791.23
224.785	18815.18
224.858	18840.15
224.931	18855.81
225.004	18876.34
225.077	18898.79
225.15	18888.67
225.223	18903.18
225.296	18944.28
225.369	18953.73
225.442	18965.44
225.514	18983.75
225.587	19002.16
225.66	19034.01
225.733	19056.47
225.806	19073.34
225.879	19096.71
225.952	19108.51
226.025	19151.69
226.097	19196.41
226.17	19221.95
226.243	19226.63
226.316	19234.39
226.389	19252.46
226.461	19277.42
226.534	19305.13
226.607	19317.8
226.68	19360.6
226.753	19374.43
226.825	19362.14
226.898	19379.92
226.971	19391.15
227.044	19414.86
227.117	19432.11
227.189	19433.65
227.262	19451.77
227.335	19472.69
227.407	19483.91
227.48	19496.06
227.553	19508.25
227.626	19502.32
227.698	19513.69
227.771	19524.01
227.844	19525.79
227.916	19525.02
227.989	19519.38
228.062	19509.07
228.134	19535.91
228.207	19531.86
228.28	19526.95
228.352	19537.5
228.425	19537.6
228.498	19553.6
228.57	19544.44
228.643	19553.31
228.716	19555.23
228.788	19546.27
228.861	19537.98
228.934	19546.99
229.006	19547.77
229.079	19542.56
229.151	19542.99
229.224	19514.85
229.296	19524.44
229.369	19553.98
229.442	19570.13
229.514	19567.62
229.587	19581.21
229.659	19552.87
229.732	19565.11
229.804	19577.26
229.877	19594.27
229.949	19611.76
230.022	19625.16
230.094	19621.16
230.167	19624.48
230.239	19613.21
230.312	19613.5
230.384	19632.15
230.457	19639.13
230.529	19654.56
230.602	19656.72
230.674	19653.5
230.747	19675.47
230.819	19669.78
230.892	19639.57
230.964	19630.75
231.037	19637.25
231.109	19626.65
231.181	19637.5
231.254	19613.55
231.326	19604.68
231.399	19592.49
231.471	19572.44
231.544	19544.39
231.616	19549.79
231.688	19542.27
231.761	19544.49
231.833	19535.43
231.905	19505.55
231.978	19494.71
232.05	19475.48
232.122	19458.04
232.195	19437.94
232.267	19437.22
232.339	19426.33
232.412	19431
232.484	19418.33
232.556	19400.21
232.629	19407.63
232.701	19407.87
232.773	19408.26
232.846	19398.91
232.918	19392.21
232.99	19387.2
233.062	19389.85
233.135	19382.04
233.207	19360.93
233.279	19352.79
233.351	19344.16
233.424	19323.92
233.496	19301.51
233.568	19303.83
233.64	19282
233.713	19268.99
233.785	19247.4
233.857	19234.53
233.929	19199.02
234.001	19196.32
234.074	19200.8
234.146	19166.58
234.218	19144.56
234.29	19117.53
234.362	19103.07
234.434	19060.71
234.507	19034.06
234.579	18991.17
234.651	18964.57
234.723	18952.43
234.795	18939.95
234.867	18918.17
234.939	18917.39
235.012	18902.6
235.084	18886.65
235.156	18881.59
235.228	18863.23
235.3	18844.19
235.372	18828.77
235.444	18833.88
235.516	18782.8
235.588	18756.68
235.66	18742.32
235.732	18713.17
235.804	18745.65
235.876	18724.88
235.948	18725.12
236.02	18706.32
236.092	18688.88
236.164	18674.86
236.236	18638.28
236.308	18605.46
236.38	18589.17
236.452	18551.05
236.524	18528.31
236.596	18516.02
236.668	18489.66
236.74	18468.22
236.812	18447.98
236.884	18430.58
236.956	18393.33
237.028	18372.94
237.1	18337.04
237.172	18323.21
237.244	18314.39
237.316	18257.29
237.388	18224.33
237.46	18194.35
237.532	18185.34
237.604	18157.24
237.675	18148.86
237.747	18135.22
237.819	18101.25
237.891	18081.49
237.963	18060.96
238.035	18028.57
238.107	17967.03
238.178	17963.56
238.25	17937.35
238.322	17931.52
238.394	17891.57
238.466	17877.01
238.538	17865.45
238.609	17849.06
238.681	17807.33
238.753	17777.83
238.825	17751.38
238.897	17730.51
238.968	17715.86
239.04	17679.86
239.112	17683.81
239.184	17637.89
239.255	17610.32
239.327	17597.6
239.399	17568.06
239.471	17541.84
239.542	17524.63
239.614	17512.06
239.686	17456.2
239.758	17444.39
239.829	17399.48
239.901	17381.94
239.973	17343.04
240.044	17312.97
240.116	17280.87
240.188	17258.85
240.259	17220.68
240.331	17184.29
240.403	17159.76
240.474	17108.58
240.546	17075.62
240.618	17017.74
240.689	16986.94
240.761	16957.59
240.833	16944.14
240.904	16911.85
240.976	16883.42
241.048	16855.32
241.119	16840.14
241.191	16816.72
241.262	16794.69
241.334	16769.39
241.405	16737.19
241.477	16707.07
241.549	16685.77
241.62	16662.2
241.692	16635.6
241.763	16620.71
241.835	16596.66
241.906	16566.24
241.978	16533.95
242.049	16511.35
242.121	16503.49
242.192	16497.8
242.264	16453.9
242.335	16404.69
242.407	16376.01
242.478	16348.63
242.55	16320.68
242.621	16276.1
242.693	16242.07
242.764	16211.08
242.836	16180.38
242.907	16162.69
242.979	16149.67
243.05	16119.74
243.122	16096.99
243.193	16067.69
243.264	16022.91
243.336	15997.37
243.407	15979.05
243.479	15973.36
243.55	15949.84
243.622	15923.19
243.693	15881.4
243.764	15878.99
243.836	15843.66
243.907	15819.22
243.978	15784.66
244.05	15762.64
244.121	15724.22
244.192	15711.35
244.264	15672.26
244.335	15648.54
244.407	15599.77
244.478	15568.44
244.549	15531.46
244.62	15484.47
244.692	15450.92
244.763	15430
244.834	15395.01
244.906	15361.65
244.977	15330.03
245.048	15316.58
245.119	15285.98
245.191	15243.94
245.262	15198.3
245.333	15185.09
245.405	15153.47
245.476	15137.61
245.547	15106.76
245.618	15086.61
245.689	15057.88
245.761	15029.15
245.832	14996.81
245.903	14982.54
245.974	14954.15
246.045	14929.71
246.117	14924.7
246.188	14894.37
246.259	14858.75
246.33	14829.35
246.401	14801.44
246.473	14766.2
246.544	14727.64
246.615	14702.96
246.686	14677.07
246.757	14666.56
246.828	14629.93
246.899	14623.23
246.97	14575.6
247.042	14537.95
247.113	14524.74
247.184	14522.91
247.255	14495.19
247.326	14465.64
247.397	14441.25
247.468	14414.26
247.539	14385.43
247.61	14338.09
247.681	14320.84
247.752	14310.47
247.823	14275.43
247.894	14252
247.965	14216.57
248.037	14185.81
248.108	14143.68
248.179	14124.83
248.25	14096.87
248.321	14079.28
248.392	14038.83
248.463	14040.62
248.534	14017.77
248.605	13995.59
248.675	13961.08
248.746	13940.88
248.817	13932.25
248.888	13914.17
248.959	13870.79
249.03	13860.13
249.101	13838.97
249.172	13808.26
249.243	13759.86
249.314	13755.86
249.385	13739.33
249.456	13722.36
249.527	13695.6
249.598	13670.87
249.669	13639.2
249.739	13617.94
249.81	13596.25
249.881	13562.17
249.952	13535.75
250.023	13512.51
250.094	13476.17
250.165	13445.07
250.235	13420.1
250.306	13388.86
250.377	13347.17
250.448	13341.48
250.519	13294.91
250.59	13294.86
250.66	13263.72
250.731	13263.62
250.802	13235.42
250.873	13212.96
250.944	13198.79
251.014	13172.8
251.085	13180.95
251.156	13168.51
251.227	13150.72
251.297	13146.63
251.368	13137.61
251.439	13126.28
251.51	13121.51
251.58	13091.96
251.651	13056.24
251.722	13044.62
251.792	13006.88
251.863	12981.57
251.934	12966.72
252.005	12982
252.075	12955.63
252.146	12953.8
252.217	12933.27
252.287	12926.32
252.358	12903.38
252.429	12898.41
252.499	12869.88
252.57	12847.46
252.641	12835.46
252.711	12820.18
252.782	12778.77
252.852	12775.97
252.923	12749.41
252.994	12731.72
253.064	12725.4
253.135	12701.73
253.205	12676.96
253.276	12671.37
253.347	12679.08
253.417	12658.01
253.488	12627.16
253.558	12611.59
253.629	12589.27
253.699	12580.69
253.77	12559.92
253.841	12541.84
253.911	12526.51
253.982	12515.76
254.052	12510.46
254.123	12491.8
254.193	12467.27
254.264	12482.11
254.334	12457.34
254.405	12433.09
254.475	12402.05
254.546	12381.66
254.616	12379.73
254.687	12364.5
254.757	12351.72
254.827	12320.15
254.898	12304.39
254.968	12281.3
255.039	12248.62
255.109	12238.64
255.18	12206.05
255.25	12167.01
255.321	12148.31
255.391	12110.76
255.461	12115.91
255.532	12066.12
255.602	12047.13
255.673	12009.15
255.743	11983.79
255.813	11941.04
255.884	11937.52
255.954	11928.12
256.024	11924.99
256.095	11908.6
256.165	11883.63
256.235	11865.6
256.306	11849.75
256.376	11841.55
256.446	11834.61
256.517	11819.52
256.587	11812.97
256.657	11796.05
256.728	11783.09
256.798	11765.2
256.868	11744.58
256.938	11712.19
257.009	11708.23
257.079	11691.22
257.149	11700.18
257.219	11672.18
257.29	11664.23
257.36	11623.98
257.43	11615.35
257.5	11577.81
257.571	11551.73
257.641	11535.68
257.711	11509.75
257.781	11490.48
257.852	11475.49
257.922	11443.44
257.992	11426.57
258.062	11403.09
258.132	11401.22
258.202	11385.41
258.273	11373.5
258.343	11377.6
258.413	11350.95
258.483	11332.68
258.553	11313.12
258.623	11288.25
258.693	11270.56
258.764	11264.68
258.834	11263.23
258.904	11243.57
258.974	11218.08
259.044	11202.51
259.114	11193.69
259.184	11180.1
259.254	11156.3
259.324	11124.92
259.394	11114.32
259.464	11119.48
259.535	11093.89
259.605	11067.53
259.675	11037.26
259.745	11023.39
259.815	10991.19
259.885	10969.22
259.955	10972.74
260.025	10942.33
260.095	10924.7
260.165	10906.09
260.235	10900.84
260.305	10876.36
260.375	10852.8
260.445	10860.51
260.515	10856.6
260.585	10856.75
260.655	10845.04
260.725	10853.9
260.795	10841.62
260.865	10848.89
260.934	10819.02
261.004	10814.44
261.074	10798.05
261.144	10807.84
261.214	10801.96
261.284	10789.04
261.354	10787.26
261.424	10761.77
261.494	10768.27
261.564	10753.91
261.634	10753
261.703	10719.61
261.773	10715.41
261.843	10710.06
261.913	10690.84
261.983	10661.11
262.053	10651.38
262.123	10630.8
262.192	10598.91
262.262	10592.59
262.332	10562.62
