Data from 20250625_urea_1M_1_MAYP1162681_00-45-06-144.txt Node
Date: Thu Jun 26 00:45:06 BST 2025
User: adleo
Spectrometer: MAYP116268
Trigger mode: 0
Integration Time (sec): 1.000000E0
Scans to average: 1
Electric dark correction enabled: true
Nonlinearity correction enabled: true
Boxcar width: 10
XAxis mode: Wavelengths
Number of Pixels in Spectrum: 2068
>>>>>Begin Spectral Data<<<<<
179.565	1130.43
179.642	1182.37
179.718	1220.88
179.795	1259.51
179.871	1289.27
179.948	1306.2
180.024	1323.9
180.101	1344.01
180.177	1358.23
180.254	1380.45
180.33	1402.32
180.407	1452.68
180.483	1542.28
180.56	1625.94
180.636	1705.94
180.712	1692.11
180.789	1699.38
180.865	1710.21
180.942	1720.04
181.018	1730.31
181.095	1747.94
181.171	1753.69
181.248	1755.31
181.324	1770.47
181.4	1772.94
181.477	1784.82
181.553	1796.46
181.63	1815.57
181.706	1830.92
181.782	1840.14
181.859	1839.66
181.935	1843.13
182.011	1838.57
182.088	1856.54
182.164	1875.18
182.24	1885.54
182.317	1894.57
182.393	1892.67
182.469	1906.55
182.546	1919.43
182.622	1923.19
182.698	1915.86
182.775	1926.32
182.851	1939.16
182.927	1933.93
183.003	1929.89
183.08	1921.24
183.156	1930.94
183.232	1929.27
183.308	1918.67
183.385	1922.19
183.461	1938.26
183.537	1940.26
183.613	1952.19
183.69	1943.78
183.766	1933.41
183.842	1942.16
183.918	1948.1
183.995	1961.17
184.071	1966.4
184.147	1957.61
184.223	1946.11
184.299	1958.99
184.375	1949.58
184.452	1952.91
184.528	2005.9
184.604	2018.4
184.68	2031.19
184.756	2038.61
184.832	2043.89
184.908	2049.45
184.985	2053.01
185.061	2037.09
185.137	2044.5
185.213	2033.85
185.289	2034.23
185.365	2026.77
185.441	2024.3
185.517	2035.86
185.593	2032.34
185.669	2023.97
185.745	2036.95
185.822	2053.68
185.898	2046.07
185.974	2052.11
186.05	2047.16
186.126	2007.01
186.202	2001.4
186.278	1996.98
186.354	1987.33
186.43	1991.99
186.506	1988.28
186.582	1984.95
186.658	1991.51
186.734	1973.45
186.81	1974.25
186.886	1976.3
186.962	1988.9
187.038	1984.14
187.114	1977.91
187.19	1985.66
187.266	1978.96
187.341	1976.58
187.417	1969.21
187.493	1969.21
187.569	1973.59
187.645	1969.26
187.721	1957.28
187.797	1965.88
187.873	1972.35
187.949	1966.12
188.025	1960.46
188.101	1965.74
188.176	1970.73
188.252	1968.11
188.328	1977.1
188.404	1975.72
188.48	1970.2
188.556	1961.98
188.632	1964.36
188.707	1964.31
188.783	1962.07
188.859	1957.51
188.935	1945.67
189.011	1954.56
189.086	1946.72
189.162	1939.63
189.238	1936.21
189.314	1935.21
189.39	1927.75
189.465	1919.9
189.541	1934.26
189.617	1921.42
189.693	1917.76
189.768	1920.09
189.844	1941.78
189.92	1930.47
189.996	1943.64
190.071	1953.63
190.147	1955.58
190.223	1965.85
190.298	1958.24
190.374	1946.64
190.45	1960.09
190.526	1967.13
190.601	1961.95
190.677	1965.18
190.753	1993.35
190.828	1995.77
190.904	2010.09
190.98	2021.5
191.055	2031.77
191.131	2023.69
191.207	2043.18
191.282	2050.41
191.358	2044.32
191.433	2031.57
191.509	2046.12
191.585	2040.65
191.66	2041.31
191.736	2048.49
191.811	2034.13
191.887	2049.11
191.963	2069.04
192.038	2072.61
192.114	2076.74
192.189	2080.98
192.265	2077.22
192.34	2053.29
192.416	2052.19
192.491	2048.2
192.567	2054.72
192.642	2059.04
192.718	2061.28
192.793	2050.48
192.869	2044.68
192.944	2045.4
193.02	2053.15
193.095	2057.1
193.171	2063.76
193.246	2062.76
193.322	2058.05
193.397	2063.18
193.473	2052.34
193.548	2037.26
193.624	2043.2
193.699	2040.35
193.775	2056.15
193.85	2061.04
193.925	2068.56
194.001	2066.51
194.076	2059.33
194.152	2046.68
194.227	2035.5
194.302	2026.47
194.378	2029.37
194.453	2029.84
194.529	2042.12
194.604	2027.89
194.679	2023.09
194.755	2004.5
194.83	2019.58
194.905	2019.63
194.981	2027.62
195.056	2019.73
195.131	2023.58
195.207	2020.63
195.282	2013.88
195.357	1992.9
195.433	2006.6
195.508	1994.14
195.583	2005.6
195.659	2018.2
195.734	2026.62
195.809	2026.19
195.884	2033.18
195.96	2029.71
196.035	2043.02
196.11	2037.08
196.185	2048.3
196.261	2047.97
196.336	2075.89
196.411	2061.23
196.486	2065.7
196.561	2058.23
196.637	2066.27
196.712	2083.21
196.787	2084.82
196.862	2100.76
196.937	2109.51
197.013	2116.79
197.088	2131.53
197.163	2151.14
197.238	2169.18
197.313	2169.04
197.388	2185.21
197.464	2214.38
197.539	2230.13
197.614	2222.52
197.689	2235.94
197.764	2250.5
197.839	2273.81
197.914	2270.34
197.989	2288.76
198.065	2301.17
198.14	2348.65
198.215	2373.44
198.29	2381.92
198.365	2395.44
198.44	2401.43
198.515	2428.71
198.59	2441.71
198.665	2462.89
198.74	2467.51
198.815	2465.99
198.89	2487.98
198.965	2513.61
199.04	2510.23
199.115	2524.22
199.19	2565.12
199.265	2568.6
199.34	2579.27
199.415	2605.57
199.49	2626.37
199.565	2636.66
199.64	2662.48
199.715	2659.95
199.79	2664.09
199.865	2675.77
199.94	2674.48
200.015	2706.59
200.09	2711.93
200.165	2717.98
200.24	2727.46
200.315	2769.28
200.39	2785.76
200.464	2787.81
200.539	2787.33
200.614	2802.34
200.689	2821.16
200.764	2826.03
200.839	2844.08
200.914	2846.84
200.989	2840.64
201.063	2850.94
201.138	2832.7
201.213	2832.13
201.288	2814.21
201.363	2821.41
201.438	2818.74
201.512	2835.7
201.587	2817.59
201.662	2824.35
201.737	2835.55
201.812	2839.7
201.886	2805.17
201.961	2817.09
202.036	2809.62
202.111	2810.04
202.186	2781.57
202.26	2766.79
202.335	2748.92
202.41	2744.16
202.485	2730.25
202.559	2713
202.634	2689.61
202.709	2701.51
202.784	2682.03
202.858	2682.03
202.933	2666.31
203.008	2658.88
203.082	2638.97
203.157	2638.3
203.232	2594.55
203.306	2573.68
203.381	2544.05
203.456	2524
203.53	2498.07
203.605	2479.03
203.68	2455.98
203.754	2451.79
203.829	2439.6
203.904	2419.03
203.978	2408.75
204.053	2413.17
204.127	2399.51
204.202	2398.28
204.277	2381.09
204.351	2375.05
204.426	2368.95
204.5	2360.19
204.575	2326.88
204.65	2339.07
204.724	2332.17
204.799	2343.06
204.873	2337.87
204.948	2336.25
205.022	2325.22
205.097	2319.36
205.171	2334.97
205.246	2343.4
205.32	2342.97
205.395	2341.25
205.469	2331.79
205.544	2334.12
205.618	2317.94
205.693	2329.12
205.767	2316.56
205.842	2336.5
205.916	2332.46
205.991	2322.42
206.065	2327.6
206.14	2341.4
206.214	2334.2
206.289	2327.78
206.363	2337.01
206.438	2339.15
206.512	2349.58
206.586	2366.76
206.661	2375.05
206.735	2351.92
206.81	2353.3
206.884	2366.15
206.958	2352.83
207.033	2371.29
207.107	2377.14
207.181	2404.52
207.256	2401.29
207.33	2420.18
207.405	2433.24
207.479	2448.33
207.553	2454.75
207.628	2440.43
207.702	2454.95
207.776	2451.09
207.851	2457.9
207.925	2473.9
207.999	2472.38
208.073	2468.9
208.148	2471.19
208.222	2455.52
208.296	2484.41
208.371	2499.04
208.445	2512.61
208.519	2542.7
208.593	2555.51
208.668	2551.98
208.742	2555.79
208.816	2556.22
208.89	2568.7
208.965	2569.66
209.039	2581.23
209.113	2596.95
209.187	2620.08
209.261	2621.51
209.336	2643.52
209.41	2663.62
209.484	2668.05
209.558	2697.36
209.632	2714.79
209.707	2730.85
209.781	2760.47
209.855	2785.69
209.929	2809.68
210.003	2822.12
210.077	2828.79
210.151	2883.12
210.226	2931
210.3	2970.84
210.374	3008.34
210.448	3030.28
210.522	3055.08
210.596	3085.32
210.67	3117.5
210.744	3184.11
210.818	3234.99
210.892	3279.51
210.966	3301.83
211.041	3343.54
211.115	3370.26
211.189	3427.82
211.263	3480.27
211.337	3526.47
211.411	3583.97
211.485	3622.05
211.559	3680.25
211.633	3733.7
211.707	3757.07
211.781	3817.46
211.855	3842.94
211.929	3899.4
212.003	3948.41
212.077	4023.43
212.151	4100.8
212.225	4183.61
212.299	4250.57
212.373	4321.59
212.447	4402.28
212.52	4515.92
212.594	4613.96
212.668	4715.8
212.742	4796.67
212.816	4896.95
212.89	4993.39
212.964	5088.12
213.038	5202.99
213.112	5331.5
213.186	5460.4
213.26	5561.46
213.333	5642.88
213.407	5775.54
213.481	5906.64
213.555	6051.32
213.629	6179.76
213.703	6303.5
213.777	6441.82
213.85	6564.47
213.924	6743.3
213.998	6887.13
214.072	7033.37
214.146	7166.47
214.219	7323.25
214.293	7482.91
214.367	7637.14
214.441	7806.14
214.515	7962.54
214.588	8102.17
214.662	8240.05
214.736	8394.67
214.81	8574.34
214.883	8750.96
214.957	8907.26
215.031	9071.14
215.105	9222.42
215.178	9377.12
215.252	9544.29
215.326	9698.97
215.4	9854.71
215.473	9982.22
215.547	10140.6
215.621	10302.48
215.694	10478.41
215.768	10626.66
215.842	10781.57
215.915	10940.96
215.989	11092.03
216.063	11254.44
216.136	11426.82
216.21	11583.97
216.284	11756.27
216.357	11917.39
216.431	12075.82
216.504	12247.65
216.578	12426.67
216.652	12596.52
216.725	12763.98
216.799	12926.71
216.873	13074.84
216.946	13247.46
217.02	13400.61
217.093	13546.57
217.167	13680.73
217.24	13821.73
217.314	13968.95
217.387	14112.31
217.461	14259
217.535	14420.72
217.608	14559.5
217.682	14704.45
217.755	14861.21
217.829	14988.9
217.902	15126.95
217.976	15266.88
218.049	15399.44
218.123	15522.59
218.196	15655.29
218.27	15775.84
218.343	15893.78
218.417	16034.91
218.49	16154.97
218.563	16290.84
218.637	16419.39
218.71	16553.42
218.784	16684.95
218.857	16812.43
218.931	16942.36
219.004	17059.24
219.077	17167.48
219.151	17276.45
219.224	17376.69
219.298	17486.43
219.371	17602.76
219.444	17696.4
219.518	17795.29
219.591	17896.55
219.665	18014.47
219.738	18107.43
219.811	18205.16
219.885	18303.38
219.958	18400.53
220.031	18486.74
220.105	18582.3
220.178	18672.32
220.251	18750.97
220.325	18838.92
220.398	18923.78
220.471	18998.28
220.544	19082.47
220.618	19151.28
220.691	19230.65
220.764	19307.37
220.838	19370.36
220.911	19433.87
220.984	19524.32
221.057	19601.43
221.131	19671.59
221.204	19706.29
221.277	19793.61
221.35	19878.81
221.424	19940.79
221.497	20003.24
221.57	20069.07
221.643	20134.61
221.716	20198.81
221.79	20249.74
221.863	20293.5
221.936	20344.2
222.009	20395.19
222.082	20447.14
222.155	20495.19
222.229	20551.62
222.302	20598.95
222.375	20651.04
222.448	20705.36
222.521	20753.46
222.594	20794.52
222.667	20816.25
222.74	20870.42
222.814	20901.99
222.887	20930.33
222.96	20970.48
223.033	21004.07
223.106	21031.88
223.179	21062.34
223.252	21088.22
223.325	21119.02
223.398	21152.28
223.471	21180.42
223.544	21202.88
223.617	21225.92
223.69	21248.96
223.763	21255.9
223.837	21277.59
223.91	21300.58
223.983	21299.9
224.056	21291.47
224.129	21307.18
224.202	21334.17
224.275	21341.06
224.348	21340.44
224.42	21336.29
224.493	21334.36
224.566	21342.32
224.639	21357.59
224.712	21356.68
224.785	21364.58
224.858	21378.66
224.931	21378.13
225.004	21371.38
225.077	21383.19
225.15	21364.44
225.223	21367.81
225.296	21408.83
225.369	21404.25
225.442	21393.17
225.514	21408.06
225.587	21421.32
225.66	21433.27
225.733	21436.98
225.806	21446.57
225.879	21445.56
225.952	21445.46
226.025	21466.57
226.097	21483.2
226.17	21490.48
226.243	21469.85
226.316	21471.35
226.389	21467.15
226.461	21478.43
226.534	21485.28
226.607	21486.58
226.68	21509.14
226.753	21510.97
226.825	21480.26
226.898	21495.69
226.971	21498.92
227.044	21497.37
227.117	21494.48
227.189	21482.77
227.262	21485.71
227.335	21483.4
227.407	21479.3
227.48	21480.65
227.553	21473.13
227.626	21453.8
227.698	21438.47
227.771	21446.09
227.844	21427.1
227.916	21422.71
227.989	21394.71
228.062	21383.09
228.134	21389.94
228.207	21379.24
228.28	21360.2
228.352	21346.22
228.425	21333.45
228.498	21330.03
228.57	21315.47
228.643	21308.87
228.716	21296.82
228.788	21282.5
228.861	21262.21
228.934	21271.18
229.006	21257.01
229.079	21247.17
229.151	21223.03
229.224	21197.1
229.296	21183.36
229.369	21200.81
229.442	21200.47
229.514	21177.43
229.587	21181.82
229.659	21146.2
229.732	21137.19
229.804	21141.33
229.877	21154.4
229.949	21153.77
230.022	21159.84
230.094	21141.09
230.167	21143.07
230.239	21128.18
230.312	21111.26
230.384	21131.41
230.457	21119.12
230.529	21113.57
230.602	21089.19
230.674	21085.28
230.747	21083.11
230.819	21077.43
230.892	21024.7
230.964	21013.09
231.037	21010.43
231.109	20986.58
231.181	20977.04
231.254	20954.29
231.326	20936.89
231.399	20916.93
231.471	20882.23
231.544	20840.83
231.616	20837.99
231.688	20817.75
231.761	20793.27
231.833	20774.37
231.905	20715.48
231.978	20687.91
232.05	20655.48
232.122	20643.77
232.195	20623.81
232.267	20612.58
232.339	20590.08
232.412	20592.78
232.484	20563.09
232.556	20538.17
232.629	20544.29
232.701	20541.69
232.773	20517.55
232.846	20492.97
232.918	20461.69
232.99	20444.34
233.062	20428.15
233.135	20411.23
233.207	20371.14
233.279	20357.74
233.351	20338.9
233.424	20321.02
233.496	20283.91
233.568	20282.7
233.64	20245.26
233.713	20223.28
233.785	20199.14
233.857	20169.07
233.929	20120.54
234.001	20113.5
234.074	20104.83
234.146	20052.11
234.218	20015.29
234.29	19984.98
234.362	19950.04
234.434	19916.5
234.507	19883.2
234.579	19831.25
234.651	19793.47
234.723	19778.09
234.795	19758.24
234.867	19732.99
234.939	19720.7
235.012	19706.1
235.084	19681.66
235.156	19663.78
235.228	19629.71
235.3	19587.74
235.372	19571.98
235.444	19569.09
235.516	19516.61
235.588	19489.67
235.66	19465.19
235.732	19431.31
235.804	19463.51
235.876	19457.53
235.948	19437.34
236.02	19410.06
236.092	19396.33
236.164	19367.56
236.236	19333.1
236.308	19287.32
236.38	19265.2
236.452	19225.69
236.524	19195.23
236.596	19178.99
236.668	19151.86
236.74	19123.96
236.812	19107.96
236.884	19081.55
236.956	19045.89
237.028	19014.47
237.1	18971.1
237.172	18949.9
237.244	18939.3
237.316	18868.84
237.388	18818.2
237.46	18781.62
237.532	18769.52
237.604	18731.12
237.675	18719.5
237.747	18708.03
237.819	18675.22
237.891	18628.13
237.963	18589.97
238.035	18556.72
238.107	18490.7
238.178	18475.23
238.25	18438.31
238.322	18432.92
238.394	18386.27
238.466	18355.47
238.538	18329.4
238.609	18306.18
238.681	18270.71
238.753	18230.13
238.825	18200.88
238.897	18176.98
238.968	18169.03
239.04	18125.8
239.112	18124.31
239.184	18074.09
239.255	18028.21
239.327	18008.41
239.399	17997.76
239.471	17976.31
239.542	17950.24
239.614	17934.29
239.686	17879.06
239.758	17861.9
239.829	17821.33
239.901	17802.87
239.973	17769.62
240.044	17742.82
240.116	17713.04
240.188	17675.07
240.259	17642.1
240.331	17603.31
240.403	17580.42
240.474	17533.24
240.546	17495.41
240.618	17442.15
240.689	17410.73
240.761	17389.09
240.833	17375.69
240.904	17338.68
240.976	17304.46
241.048	17280.18
241.119	17261.91
241.191	17237.62
241.262	17223.93
241.334	17185.38
241.405	17150.97
241.477	17119.69
241.549	17084.17
241.62	17058.97
241.692	17037.47
241.763	17013.62
241.835	16980.84
241.906	16951.88
241.978	16904.12
242.049	16888.89
242.121	16874.91
242.192	16862.57
242.264	16811.24
242.335	16763.34
242.407	16733.89
242.478	16699.91
242.55	16660.05
242.621	16617.64
242.693	16588.39
242.764	16547.76
242.836	16512.24
242.907	16483.51
242.979	16466.36
243.05	16442.98
243.122	16410.59
243.193	16379.5
243.264	16335.84
243.336	16309.43
243.407	16282.29
243.479	16277.95
243.55	16249.57
243.622	16225.27
243.693	16190.81
243.764	16183
243.836	16142.37
243.907	16117.94
243.978	16090.03
244.05	16075.62
244.121	16032.19
244.192	16004.09
244.264	15965.92
244.335	15935.79
244.407	15897.23
244.478	15867.3
244.549	15830.86
244.62	15793.65
244.692	15755.81
244.763	15732.77
244.834	15706.02
244.906	15663.56
244.977	15633.72
245.048	15613.14
245.119	15570.24
245.191	15537.8
245.262	15484.45
245.333	15472.01
245.405	15434.89
245.476	15409.3
245.547	15384.86
245.618	15369.34
245.689	15352.28
245.761	15324.95
245.832	15298.44
245.903	15286.24
245.974	15261.95
246.045	15235.48
246.117	15227.63
246.188	15192
246.259	15154.7
246.33	15123.94
246.401	15095.12
246.473	15053.95
246.544	15022.91
246.615	15007.92
246.686	14972.3
246.757	14961.02
246.828	14918.89
246.899	14905.48
246.97	14862.63
247.042	14821.22
247.113	14806.14
247.184	14797.46
247.255	14757.6
247.326	14730.12
247.397	14691.7
247.468	14659.89
247.539	14633.81
247.61	14595.87
247.681	14586.61
247.752	14575.72
247.823	14538.02
247.894	14521.01
247.965	14486.01
248.037	14456.89
248.108	14417.22
248.179	14395.96
248.25	14369.5
248.321	14358.07
248.392	14318.4
248.463	14318.55
248.534	14290.88
248.605	14263.5
248.675	14229.13
248.746	14216.64
248.817	14200.83
248.888	14185.5
248.959	14146.16
249.03	14128.13
249.101	14100.13
249.172	14061.75
249.243	14019.91
249.314	14012.49
249.385	13984.48
249.456	13974.5
249.527	13942.2
249.598	13918.49
249.669	13891.3
249.739	13872.83
249.81	13848.54
249.881	13818.7
249.952	13799.42
250.023	13782.06
250.094	13739.74
250.165	13704.16
250.235	13679
250.306	13657.01
250.377	13627.17
250.448	13616.57
250.519	13577.28
250.59	13570.15
250.66	13542.09
250.731	13533.89
250.802	13512.25
250.873	13500.1
250.944	13475.95
251.014	13452.71
251.085	13457.34
251.156	13431.94
251.227	13418.58
251.297	13416.85
251.368	13412.22
251.439	13396.79
251.51	13382.28
251.58	13362.76
251.651	13335.38
251.722	13328.73
251.792	13290.4
251.863	13262.06
251.934	13255.02
252.005	13261
252.075	13236.99
252.146	13232.75
252.217	13230.92
252.287	13217.27
252.358	13192.74
252.429	13190.23
252.499	13167.67
252.57	13149.11
252.641	13140
252.711	13125.97
252.782	13094.59
252.852	13087.16
252.923	13063.54
252.994	13043.54
253.064	13025.75
253.135	13003.91
253.205	12969.54
253.276	12964.29
253.347	12958.74
253.417	12922.4
253.488	12890.68
253.558	12869.95
253.629	12852.4
253.699	12820.3
253.77	12808.29
253.841	12784.19
253.911	12770.84
253.982	12756.62
254.052	12746.44
254.123	12737.86
254.193	12710.97
254.264	12718
254.334	12685.8
254.405	12661.17
254.475	12630.41
254.546	12620.77
254.616	12611.76
254.687	12603.85
254.757	12593.78
254.827	12575.8
254.898	12568.71
254.968	12559.6
255.039	12536.99
255.109	12528.85
255.18	12496.65
255.25	12452.54
255.321	12436.97
255.391	12404.39
255.461	12401.49
255.532	12345.58
255.602	12319.59
255.673	12276.69
255.743	12254.28
255.813	12213.4
255.884	12207.23
255.954	12199.76
256.024	12193.21
256.095	12178.41
256.165	12146.64
256.235	12132.38
256.306	12102.54
256.376	12086.39
256.446	12073.95
256.517	12061.42
256.587	12054.67
256.657	12052.02
256.728	12034.53
256.798	12019.15
256.868	11994.9
256.938	11967.24
257.009	11967.62
257.079	11953.64
257.149	11971.33
257.219	11925.4
257.29	11921.64
257.36	11879.7
257.43	11871.12
257.5	11833.58
257.571	11810.68
257.641	11802.68
257.711	11770.05
257.781	11766.96
257.852	11755.4
257.922	11708.4
257.992	11681.51
258.062	11654.32
258.132	11637.31
258.202	11623.86
258.273	11611.14
258.343	11611.09
258.413	11586.17
258.483	11565.54
258.553	11537.15
258.623	11504.91
258.693	11489.73
258.764	11483.65
258.834	11488.72
258.904	11467.94
258.974	11446.83
259.044	11421.48
259.114	11409.39
259.184	11400.13
259.254	11376.85
259.324	11338.06
259.394	11338.15
259.464	11337.48
259.535	11313.43
259.605	11294.2
259.675	11267.36
259.745	11253.86
259.815	11228.7
259.885	11204.95
259.955	11220.37
260.025	11199.74
260.095	11182.06
260.165	11179.07
260.235	11174.01
260.305	11137.86
260.375	11113.43
260.445	11117.86
260.515	11125.48
260.585	11126.1
260.655	11103.74
260.725	11100.08
260.795	11101.09
260.865	11099.5
260.934	11074.88
261.004	11065.19
261.074	11046.64
261.144	11048.23
261.214	11043.89
261.284	11019.65
261.354	11020.28
261.424	10992.9
261.494	11001.19
261.564	10991.26
261.634	10980.32
261.703	10945.19
261.773	10941.05
261.843	10931.7
261.913	10913.58
261.983	10882.89
262.053	10860.77
262.123	10841.59
262.192	10808.34
262.262	10788.44
