Data from 20250625_urea_1M_1_MAYP1162681_13-25-05-526.txt Node
Date: Thu Jun 26 13:25:05 BST 2025
User: adleo
Spectrometer: MAYP116268
Trigger mode: 0
Integration Time (sec): 1.000000E0
Scans to average: 1
Electric dark correction enabled: true
Nonlinearity correction enabled: true
Boxcar width: 10
XAxis mode: Wavelengths
Number of Pixels in Spectrum: 2068
>>>>>Begin Spectral Data<<<<<
179.565	1142.9
179.642	1198.17
179.718	1236.03
179.795	1273.76
179.871	1306.33
179.948	1322.67
180.024	1341.54
180.101	1363.58
180.177	1375.01
180.254	1396.32
180.33	1417.31
180.407	1466.2
180.483	1556.18
180.56	1640.46
180.636	1720.12
180.712	1708.19
180.789	1718.36
180.865	1729.52
180.942	1737.36
181.018	1744.06
181.095	1758.46
181.171	1761.74
181.248	1762.55
181.324	1777.24
181.4	1782.13
181.477	1793.02
181.553	1806.09
181.63	1825.38
181.706	1836.98
181.782	1849.48
181.859	1849.53
181.935	1855.51
182.011	1853.99
182.088	1869.44
182.164	1890.03
182.24	1903.1
182.317	1912.28
182.393	1910.61
182.469	1922.02
182.546	1935.47
182.622	1941.18
182.698	1937.42
182.775	1951.16
182.851	1961.24
182.927	1955.87
183.003	1954.16
183.08	1945.93
183.156	1956.77
183.232	1956.77
183.308	1946.7
183.385	1950.02
183.461	1965.33
183.537	1964.29
183.613	1976.37
183.69	1969.95
183.766	1960.01
183.842	1967.8
183.918	1973.8
183.995	1982.78
184.071	1990.53
184.147	1984.35
184.223	1974.56
184.299	1984.4
184.375	1974.13
184.452	1982.32
184.528	2035.78
184.604	2043.53
184.68	2056.51
184.756	2062.93
184.832	2065.03
184.908	2071.06
184.985	2071.82
185.061	2057.7
185.137	2067.12
185.213	2055.42
185.289	2054.61
185.365	2045.67
185.441	2043.34
185.517	2056.66
185.593	2057.14
185.669	2050.43
185.745	2058.37
185.822	2074.63
185.898	2067.21
185.974	2075.25
186.05	2069.68
186.126	2029.72
186.202	2024.02
186.278	2020.31
186.354	2010.13
186.43	2015.12
186.506	2014.93
186.582	2014.93
186.658	2018.69
186.734	2000.95
186.81	2002.57
186.886	2005.61
186.962	2017.45
187.038	2013.03
187.114	2005.04
187.19	2010.93
187.266	2003.99
187.341	2007.51
187.417	1997.57
187.493	1994.72
187.569	1998.57
187.645	1989.35
187.721	1978.46
187.797	1985.5
187.873	1988.68
187.949	1979.98
188.025	1972.7
188.101	1972.42
188.176	1975.18
188.252	1975.51
188.328	1982.69
188.404	1981.17
188.48	1978.31
188.556	1970.8
188.632	1971.42
188.707	1970.04
188.783	1968.04
188.859	1963.71
188.935	1951.02
189.011	1959.62
189.086	1956.91
189.162	1948.88
189.238	1948.16
189.314	1948.59
189.39	1941.7
189.465	1933.71
189.541	1952.3
189.617	1940.08
189.693	1937.9
189.768	1942.7
189.844	1962.63
189.92	1955.22
189.996	1967.68
190.071	1977.23
190.147	1976.14
190.223	1983.85
190.298	1979.33
190.374	1966.06
190.45	1978.04
190.526	1988.17
190.601	1983.37
190.677	1982.08
190.753	2008.68
190.828	2011.06
190.904	2022.76
190.98	2039.21
191.055	2048.68
191.131	2041.11
191.207	2058.09
191.282	2067.45
191.358	2056.95
191.433	2045.1
191.509	2056.55
191.585	2052.13
191.66	2050.85
191.736	2062.35
191.811	2052.84
191.887	2064.55
191.963	2088.61
192.038	2091.75
192.114	2092.32
192.189	2095.84
192.265	2093.75
192.34	2072.62
192.416	2072.38
192.491	2068.77
192.567	2070.43
192.642	2072
192.718	2070.34
192.793	2062.68
192.869	2060.54
192.944	2061.78
193.02	2067.44
193.095	2070.72
193.171	2075.67
193.246	2078.28
193.322	2072.15
193.397	2074.19
193.473	2064.34
193.548	2046.17
193.624	2053.45
193.699	2048.98
193.775	2062.63
193.85	2063.77
193.925	2074.05
194.001	2075.43
194.076	2066.35
194.152	2056.07
194.227	2049.79
194.302	2042.23
194.378	2043.04
194.453	2036.86
194.529	2052.65
194.604	2041.05
194.679	2038.33
194.755	2018.41
194.83	2029.21
194.905	2030.45
194.981	2037.87
195.056	2026.98
195.131	2032.4
195.207	2028.17
195.282	2019.99
195.357	2003.39
195.433	2019.41
195.508	2005.38
195.583	2014.09
195.659	2031.35
195.734	2038.87
195.809	2039.96
195.884	2048.71
195.96	2050.56
196.035	2066.45
196.11	2062.83
196.185	2072.15
196.261	2072.11
196.336	2103.21
196.411	2086.42
196.486	2088.6
196.561	2082.23
196.637	2093.17
196.712	2108.58
196.787	2112.44
196.862	2129.08
196.937	2135.45
197.013	2140.93
197.088	2149.87
197.163	2166.38
197.238	2179.33
197.313	2179.19
197.388	2191.8
197.464	2218.21
197.539	2229.96
197.614	2221.49
197.689	2232.34
197.764	2247.53
197.839	2270.27
197.914	2266.37
197.989	2287.3
198.065	2301.53
198.14	2353.3
198.215	2379.43
198.29	2390.95
198.365	2402.37
198.44	2411.04
198.515	2440.55
198.59	2455.83
198.665	2480.35
198.74	2490.54
198.815	2494.64
198.89	2516.49
198.965	2542.69
199.04	2539.3
199.115	2553.59
199.19	2598.82
199.265	2599.58
199.34	2609.25
199.415	2638.32
199.49	2656.99
199.565	2670.18
199.64	2691.23
199.715	2686.08
199.79	2693.8
199.865	2700.04
199.94	2701.23
200.015	2732.44
200.09	2737.3
200.165	2741.25
200.24	2750.83
200.315	2787.08
200.39	2800.85
200.464	2804.23
200.539	2806.8
200.614	2821.62
200.689	2843.88
200.764	2848.88
200.839	2865.84
200.914	2871.6
200.989	2863.11
201.063	2876.94
201.138	2859.22
201.213	2863.46
201.288	2844.69
201.363	2850.36
201.438	2849.07
201.512	2862.79
201.587	2846.78
201.662	2851.69
201.737	2862.84
201.812	2866.79
201.886	2835.22
201.961	2845.04
202.036	2834.42
202.111	2832.13
202.186	2804.28
202.26	2789.55
202.335	2769.96
202.41	2766.76
202.485	2750.81
202.559	2731.42
202.634	2706.59
202.709	2714.78
202.784	2691.91
202.858	2690.82
202.933	2670.05
203.008	2664.9
203.082	2645.9
203.157	2645.61
203.232	2603.62
203.306	2586.85
203.381	2556.84
203.456	2532.36
203.53	2507.95
203.605	2489.63
203.68	2466.67
203.754	2460.39
203.829	2443.82
203.904	2422.16
203.978	2409.44
204.053	2413.34
204.127	2401.78
204.202	2398.73
204.277	2384.02
204.351	2379.74
204.426	2373.26
204.5	2365.93
204.575	2332.9
204.65	2343.33
204.724	2333.85
204.799	2343.42
204.873	2338.08
204.948	2340.18
205.022	2331.66
205.097	2321.99
205.171	2338.27
205.246	2348.55
205.32	2349.46
205.395	2348.03
205.469	2341.66
205.544	2345.18
205.618	2328.61
205.693	2339.37
205.767	2331
205.842	2349.66
205.916	2345.85
205.991	2335.24
206.065	2339.9
206.14	2353.84
206.214	2350.12
206.289	2343.5
206.363	2352.69
206.438	2356.17
206.512	2361.74
206.586	2378.58
206.661	2389.35
206.735	2367.46
206.81	2366.7
206.884	2382.92
206.958	2370.6
207.033	2385.26
207.107	2395.21
207.181	2426.31
207.256	2420.4
207.33	2434.63
207.405	2446.26
207.479	2462.59
207.553	2473.25
207.628	2462.07
207.702	2474.44
207.776	2468.11
207.851	2474.2
207.925	2488.3
207.999	2484.64
208.073	2480.35
208.148	2481.92
208.222	2471.06
208.296	2500.29
208.371	2516.15
208.445	2526.01
208.519	2557.34
208.593	2570.05
208.668	2566.96
208.742	2569.1
208.816	2571.34
208.89	2584.44
208.965	2586.44
209.039	2596.54
209.113	2613.35
209.187	2631.35
209.261	2630.3
209.336	2653.64
209.41	2670.79
209.484	2673.41
209.558	2697.52
209.632	2713.71
209.707	2728.29
209.781	2750.15
209.855	2768.17
209.929	2788.05
210.003	2795.39
210.077	2795.54
210.151	2844.57
210.226	2883.43
210.3	2912.91
210.374	2942.55
210.448	2949.27
210.522	2964.72
210.596	2978.26
210.67	2993.99
210.744	3049.79
210.818	3085.44
210.892	3110.43
210.966	3119.25
211.041	3143.95
211.115	3150.58
211.189	3184.39
211.263	3216.44
211.337	3239.1
211.411	3268.2
211.485	3277.99
211.559	3309.09
211.633	3334.03
211.707	3325.14
211.781	3352.47
211.855	3346.17
211.929	3359.71
212.003	3373.07
212.077	3407.06
212.151	3451.22
212.225	3491.42
212.299	3509.15
212.373	3532.49
212.447	3562.39
212.52	3620.98
212.594	3667.75
212.668	3717.8
212.742	3746.93
212.816	3781.57
212.89	3817.44
212.964	3863.38
213.038	3916.63
213.112	3978.01
213.186	4041.19
213.26	4071.52
213.333	4079.22
213.407	4135.42
213.481	4194.63
213.555	4265.64
213.629	4313.52
213.703	4358.21
213.777	4420.52
213.85	4465.01
213.924	4560.59
213.998	4631.39
214.072	4697.58
214.146	4749.57
214.219	4816.65
214.293	4883.76
214.367	4956.74
214.441	5042.9
214.515	5104.41
214.588	5155.77
214.662	5194.24
214.736	5248.19
214.81	5333.58
214.883	5421.43
214.957	5487.74
215.031	5553.77
215.105	5609.45
215.178	5671.39
215.252	5746.87
215.326	5801.98
215.4	5866.09
215.473	5904.24
215.547	5963.12
215.621	6029.02
215.694	6117.72
215.768	6183.52
215.842	6256.32
215.915	6332.76
215.989	6387.4
216.063	6462.89
216.136	6551.78
216.21	6637.62
216.284	6737.85
216.357	6820.27
216.431	6901.07
216.504	6999.03
216.578	7112.23
216.652	7211.24
216.725	7303.02
216.799	7392.15
216.873	7482.37
216.946	7582.63
217.02	7664.34
217.093	7751.52
217.167	7816.82
217.24	7887.42
217.314	7961.28
217.387	8039.43
217.461	8114.71
217.535	8214.72
217.608	8289
217.682	8368.78
217.755	8461.06
217.829	8535.89
217.902	8624.92
217.976	8712.08
218.049	8789.19
218.123	8856.68
218.196	8945.93
218.27	9025.79
218.343	9098.64
218.417	9190.26
218.49	9260.03
218.563	9356.37
218.637	9441.7
218.71	9548.8
218.784	9642.38
218.857	9742.78
218.931	9833.47
219.004	9919.49
219.077	10006.68
219.151	10090.1
219.224	10168.53
219.298	10253.22
219.371	10343.45
219.444	10412.25
219.518	10492.71
219.591	10565.6
219.665	10670.7
219.738	10747.5
219.811	10818.42
219.885	10903.14
219.958	10979.9
220.031	11063.65
220.105	11149.29
220.178	11227.69
220.251	11289.82
220.325	11363.22
220.398	11437.29
220.471	11510.89
220.544	11591.33
220.618	11655.04
220.691	11732.45
220.764	11806.77
220.838	11887.84
220.911	11950.41
220.984	12042.56
221.057	12118.29
221.131	12199.46
221.204	12241.83
221.277	12330.33
221.35	12428.62
221.424	12491.04
221.497	12551.34
221.57	12616.18
221.643	12688.1
221.716	12763.59
221.79	12831.03
221.863	12892.78
221.936	12950.43
222.009	13018.69
222.082	13083.67
222.155	13144.8
222.229	13220.24
222.302	13285.37
222.375	13335.36
222.448	13405.3
222.521	13463.44
222.594	13512.95
222.667	13555.9
222.74	13619.82
222.814	13665.67
222.887	13714.84
222.96	13783.48
223.033	13855.6
223.106	13921.26
223.179	13977.27
223.252	14024.8
223.325	14068.77
223.398	14128.16
223.471	14191.45
223.544	14239.95
223.617	14291.04
223.69	14343.83
223.763	14379.02
223.837	14435.51
223.91	14494.61
223.983	14517.46
224.056	14548.41
224.129	14607.46
224.202	14674.23
224.275	14719.54
224.348	14758.29
224.42	14797.53
224.493	14821.54
224.566	14857.79
224.639	14903.29
224.712	14937.85
224.785	14975.36
224.858	15026.31
224.931	15056.72
225.004	15082.46
225.077	15125.17
225.15	15143.87
225.223	15180.32
225.296	15246.45
225.369	15263.56
225.442	15288.34
225.514	15335.72
225.587	15381.51
225.66	15416.31
225.733	15448.8
225.806	15484.37
225.879	15515.03
225.952	15535.27
226.025	15589.31
226.097	15633.7
226.17	15663.92
226.243	15680.84
226.316	15720.89
226.389	15756.51
226.461	15798.64
226.534	15838.36
226.607	15869.59
226.68	15929.93
226.753	15964.54
226.825	15970.23
226.898	16014.96
226.971	16052.6
227.044	16092.37
227.117	16123.36
227.189	16160.76
227.262	16199.61
227.335	16232.38
227.407	16256.14
227.48	16296.58
227.553	16327.04
227.626	16356.06
227.698	16382.61
227.771	16423.87
227.844	16432.98
227.916	16463.97
227.989	16476.5
228.062	16500.07
228.134	16550.29
228.207	16564.7
228.28	16582.82
228.352	16608.7
228.425	16636.51
228.498	16665.24
228.57	16679.41
228.643	16710.88
228.716	16726.74
228.788	16741.15
228.861	16755.41
228.934	16799.08
229.006	16815.17
229.079	16828.09
229.151	16833.44
229.224	16841.06
229.296	16860.53
229.369	16913.01
229.442	16947.66
229.514	16961.4
229.587	16986.02
229.659	16991.13
229.732	17008.68
229.804	17043.76
229.877	17082.27
229.949	17113.26
230.022	17150.32
230.094	17171.57
230.167	17191.67
230.239	17206.75
230.312	17224.1
230.384	17265.79
230.457	17279.76
230.529	17302.99
230.602	17320.87
230.674	17345.12
230.747	17372.63
230.819	17391.33
230.892	17379.86
230.964	17388.88
231.037	17408.92
231.109	17423.58
231.181	17432.39
231.254	17440.59
231.326	17450.61
231.399	17457.6
231.471	17452.59
231.544	17433.94
231.616	17451.09
231.688	17467.72
231.761	17468.25
231.833	17470.8
231.905	17457.55
231.978	17468.25
232.05	17466.9
232.122	17473.89
232.195	17470.23
232.267	17488.35
232.339	17490.18
232.412	17510.66
232.484	17505.65
232.556	17511.91
232.629	17538.18
232.701	17550.42
232.773	17552.1
232.846	17543.38
232.918	17550.56
232.99	17566.22
233.062	17586.13
233.135	17595.91
233.207	17580.44
233.279	17599.67
233.351	17608.88
233.424	17611.67
233.496	17605.98
233.568	17627.24
233.64	17616.34
233.713	17623
233.785	17621.26
233.857	17634.22
233.929	17619.43
234.001	17646.37
234.074	17657.79
234.146	17645.93
234.218	17646.61
234.29	17650.37
234.362	17656.92
234.434	17632.73
234.507	17620.2
234.579	17590.47
234.651	17572.63
234.723	17583.72
234.795	17575.77
234.867	17572.49
234.939	17578.95
235.012	17562.71
235.084	17561.36
235.156	17572.3
235.228	17555.91
235.3	17541.94
235.372	17532.78
235.444	17541.12
235.516	17502.32
235.588	17490.03
235.66	17478.95
235.732	17461.65
235.804	17502.75
235.876	17495.72
235.948	17507.53
236.02	17496.92
236.092	17493.45
236.164	17497.26
236.236	17484.06
236.308	17464.73
236.38	17457.36
236.452	17438.47
236.524	17442.42
236.596	17448.68
236.668	17439.53
236.74	17437.41
236.812	17440.39
236.884	17431.77
236.956	17420.39
237.028	17401.31
237.1	17382.75
237.172	17377.45
237.244	17384.92
237.316	17332.3
237.388	17314.85
237.46	17293.02
237.532	17291.09
237.604	17271.48
237.675	17265.26
237.747	17257.79
237.819	17240.97
237.891	17217.64
237.963	17191.19
238.035	17166.12
238.107	17107.18
238.178	17106.51
238.25	17081.88
238.322	17078.27
238.394	17047.42
238.466	17019.95
238.538	17012.29
238.609	17002.89
238.681	16971.47
238.753	16944.72
238.825	16932.67
238.897	16912.72
238.968	16914.5
239.04	16883.8
239.112	16901.83
239.184	16868.96
239.255	16839.9
239.327	16826.79
239.399	16811.13
239.471	16807.27
239.542	16789.53
239.614	16789.53
239.686	16747.36
239.758	16742.64
239.829	16705.34
239.901	16694.3
239.973	16673.19
240.044	16657.24
240.116	16634.83
240.188	16615.11
240.259	16582.73
240.331	16555.35
240.403	16548.12
240.474	16504.46
240.546	16472.12
240.618	16407.96
240.689	16374.76
240.761	16355.04
240.833	16350.37
240.904	16320.44
240.976	16290.56
241.048	16279.57
241.119	16260.96
241.191	16237.49
241.262	16223.75
241.334	16199.22
241.405	16171.65
241.477	16146.35
241.549	16115.74
241.62	16089.91
241.692	16073.09
241.763	16059.35
241.835	16033.37
241.906	15996.89
241.978	15957.8
242.049	15951.43
242.121	15948.16
242.192	15941.94
242.264	15896.77
242.335	15851.32
242.407	15839.32
242.478	15814.35
242.55	15784.37
242.621	15751.93
242.693	15726.63
242.764	15695.93
242.836	15667.01
242.907	15644.3
242.979	15627.53
243.05	15611.09
243.122	15594.13
243.193	15566.85
243.264	15521.87
243.336	15494.16
243.407	15492.76
243.479	15497.1
243.55	15478.78
243.622	15459.7
243.693	15431.16
243.764	15432.12
243.836	15401.56
243.907	15371
243.978	15342.76
244.05	15326.03
244.121	15291.81
244.192	15273.01
244.264	15231.02
244.335	15207.12
244.407	15167.06
244.478	15140.5
244.549	15115.05
244.62	15078.8
244.692	15048.87
244.763	15041.39
244.834	15014.45
244.906	14969.52
244.977	14943.54
245.048	14933.37
245.119	14902.09
245.191	14875.91
245.262	14830.36
245.333	14822.12
245.405	14806.4
245.476	14790.74
245.547	14763.79
245.618	14744.03
245.689	14720.94
245.761	14706.52
245.832	14685.56
245.903	14673.7
245.974	14650.51
246.045	14625.4
246.117	14624.34
246.188	14595.94
246.259	14558.2
246.33	14530.48
246.401	14501.46
246.473	14453.4
246.544	14417.2
246.615	14405.68
246.686	14372.56
246.757	14362
246.828	14325.22
246.899	14313.36
246.97	14273.16
247.042	14240.53
247.113	14225.82
247.184	14218.83
247.255	14188.8
247.326	14164.41
247.397	14138.67
247.468	14117.6
247.539	14079.9
247.61	14031.79
247.681	14007.02
247.752	13994.14
247.823	13966.96
247.894	13946.42
247.965	13917.21
248.037	13879.22
248.108	13833.18
248.179	13810.67
248.25	13784.45
248.321	13773.79
248.392	13735.42
248.463	13736.58
248.534	13712.33
248.605	13688.18
248.675	13654.53
248.746	13636.84
248.817	13620.88
248.888	13603.09
248.959	13565.2
249.03	13560.96
249.101	13542.93
249.172	13521.19
249.243	13479.93
249.314	13469.9
249.385	13449.56
249.456	13441.6
249.527	13423.77
249.598	13412.73
249.669	13392.58
249.739	13365.77
249.81	13348.13
249.881	13311.78
249.952	13287.29
250.023	13266.37
250.094	13232.77
250.165	13204.81
250.235	13178.44
250.306	13151.64
250.377	13122.96
250.448	13103.87
250.519	13059.37
250.59	13049.44
250.66	13022.74
250.731	13012.28
250.802	12986.53
250.873	12968.79
250.944	12949.8
251.014	12923
251.085	12925.31
251.156	12911.09
251.227	12909.21
251.297	12894.56
251.368	12883.9
251.439	12867.8
251.51	12855.41
251.58	12821.81
251.651	12801.38
251.722	12800.8
251.792	12768.55
251.863	12743.77
251.934	12741.07
252.005	12755.87
252.075	12736.2
252.146	12728.87
252.217	12722.03
252.287	12710.8
252.358	12687.47
252.429	12682.5
252.499	12655.31
252.57	12628.9
252.641	12613.38
252.711	12592.98
252.782	12563.1
252.852	12561.02
252.923	12536.1
252.994	12518.94
253.064	12518.03
253.135	12485.2
253.205	12450.88
253.276	12448.71
253.347	12450.88
253.417	12424.56
253.488	12398.77
253.558	12379.25
253.629	12355.67
253.699	12338.08
253.77	12327.43
253.841	12308.29
253.911	12290.26
253.982	12268.09
254.052	12254.59
254.123	12236.9
254.193	12212.9
254.264	12229.43
254.334	12198.44
254.405	12173.27
254.475	12146.43
254.546	12125.41
254.616	12121.65
254.687	12106.13
254.757	12088.78
254.827	12060.72
254.898	12046.26
254.968	12025.49
255.039	11994.11
255.109	11989.48
255.18	11964.9
255.25	11923.16
255.321	11904.55
255.391	11875.25
255.461	11885.8
255.532	11849.02
255.602	11827.62
255.673	11794.75
255.743	11762.79
255.813	11723.99
255.884	11715.7
255.954	11707.08
256.024	11710.31
256.095	11695.75
256.165	11672.81
256.235	11653.53
256.306	11626.34
256.376	11620.46
256.446	11607.35
256.517	11599.74
256.587	11588.99
256.657	11576.89
256.728	11567.49
256.798	11553.57
256.868	11534.29
256.938	11507.1
257.009	11499.97
257.079	11485.61
257.149	11491.78
257.219	11448.54
257.29	11437.89
257.36	11408.16
257.43	11391.43
257.5	11357.21
257.571	11330.08
257.641	11315.77
257.711	11289.12
257.781	11277.94
257.852	11257.98
257.922	11219.52
257.992	11201.16
258.062	11178.61
258.132	11168.82
258.202	11147.52
258.273	11141.31
258.343	11133.4
258.413	11109.79
258.483	11086.03
258.553	11057.65
258.623	11032.25
258.693	11020.2
258.764	11024.2
258.834	11016.92
258.904	11005.84
258.974	10977.84
259.044	10955.97
259.114	10948.83
259.184	10936.59
259.254	10925.32
259.324	10897.8
259.394	10890.96
259.464	10890.52
259.535	10869.47
259.605	10845.42
259.675	10825.04
259.745	10808.32
259.815	10787.31
259.885	10765.62
259.955	10778.68
260.025	10757.05
260.095	10743.03
260.165	10732.52
260.235	10725.53
260.305	10703.42
260.375	10678.75
260.445	10686.75
260.515	10693.25
260.585	10690.21
260.655	10684.38
260.725	10677.3
260.795	10667.81
260.865	10669.16
260.934	10641.4
261.004	10637.26
261.074	10625.02
261.144	10623.62
261.214	10615.34
261.284	10596.59
261.354	10593.94
261.424	10572.88
261.494	10576.98
261.564	10558.14
261.634	10557.71
261.703	10526.39
261.773	10517.28
261.843	10509.33
261.913	10492.47
261.983	10458.45
262.053	10442.31
262.123	10415.86
262.192	10383.58
262.262	10372.45
262.332	10343.06
262.402	10334.78
