Data from 20250625_urea_1M_1_MAYP1162681_14-25-06-219.txt Node
Date: Thu Jun 26 14:25:06 BST 2025
User: adleo
Spectrometer: MAYP116268
Trigger mode: 0
Integration Time (sec): 1.000000E0
Scans to average: 1
Electric dark correction enabled: true
Nonlinearity correction enabled: true
Boxcar width: 10
XAxis mode: Wavelengths
Number of Pixels in Spectrum: 2068
>>>>>Begin Spectral Data<<<<<
179.565	1155.07
179.642	1208.89
179.718	1246.3
179.795	1281.72
179.871	1308.42
179.948	1325.68
180.024	1343.72
180.101	1365.35
180.177	1378.94
180.254	1397.34
180.33	1416.85
180.407	1467.6
180.483	1556.53
180.56	1641.62
180.636	1722.04
180.712	1709.78
180.789	1719.52
180.865	1734.72
180.942	1742.8
181.018	1751.78
181.095	1766.38
181.171	1769.7
181.248	1767.57
181.324	1784.11
181.4	1792.14
181.477	1804.45
181.553	1815.28
181.63	1837.72
181.706	1852.17
181.782	1859.58
181.859	1864.24
181.935	1873.37
182.011	1869.94
182.088	1882.92
182.164	1903.51
182.24	1914.44
182.317	1923.52
182.393	1919.62
182.469	1930.27
182.546	1937.83
182.622	1942.82
182.698	1938.54
182.775	1953.19
182.851	1968.64
182.927	1960.27
183.003	1953.76
183.08	1946.49
183.156	1958.66
183.232	1953.38
183.308	1944.35
183.385	1952.57
183.461	1964.79
183.537	1961.56
183.613	1971.92
183.69	1968.93
183.766	1956.18
183.842	1964.26
183.918	1966.5
183.995	1978.62
184.071	1982.81
184.147	1979.43
184.223	1966.5
184.299	1975.11
184.375	1962.32
184.452	1970.79
184.528	2023.01
184.604	2035.32
184.68	2047.49
184.756	2053.25
184.832	2057.62
184.908	2061.52
184.985	2060.62
185.061	2046.07
185.137	2058.06
185.213	2047.12
185.289	2047.59
185.365	2042.13
185.441	2040.6
185.517	2056.02
185.593	2055.97
185.669	2052.55
185.745	2063.53
185.822	2081.5
185.898	2077.46
185.974	2087.54
186.05	2076.93
186.126	2041.4
186.202	2034.55
186.278	2032.98
186.354	2023.56
186.43	2027.85
186.506	2025.71
186.582	2024.52
186.658	2031.51
186.734	2010.68
186.81	2015.34
186.886	2019.33
186.962	2030.79
187.038	2026.04
187.114	2017.33
187.19	2022.71
187.266	2013.2
187.341	2015.29
187.417	2007.25
187.493	2005.16
187.569	2007.16
187.645	2003.97
187.721	1990.23
187.797	1997.26
187.873	1998.93
187.949	1992.08
188.025	1986.8
188.101	1990.42
188.176	1992.94
188.252	1988.32
188.328	1997.78
188.404	1997.26
188.48	1991.17
188.556	1983.76
188.632	1985.32
188.707	1985.32
188.783	1982.14
188.859	1981.47
188.935	1967.35
189.011	1975.05
189.086	1968.11
189.162	1960.36
189.238	1957.41
189.314	1956.84
189.39	1952.18
189.465	1947.04
189.541	1961.36
189.617	1951.32
189.693	1948.23
189.768	1955.65
189.844	1978.53
189.92	1970.4
189.996	1976.39
190.071	1984.95
190.147	1982.77
190.223	1987.81
190.298	1982.34
190.374	1971.54
190.45	1981.05
190.526	1989.61
190.601	1983.1
190.677	1986.04
190.753	2014.93
190.828	2019.02
190.904	2033.19
190.98	2043.42
191.055	2052.74
191.131	2043.8
191.207	2062.01
191.282	2069.57
191.358	2058.59
191.433	2049.78
191.509	2061.05
191.585	2056.1
191.66	2059.29
191.736	2068.85
191.811	2062.33
191.887	2075.99
191.963	2096.68
192.038	2101.34
192.114	2103.43
192.189	2108.99
192.265	2105.19
192.34	2079.26
192.416	2074.22
192.491	2068.75
192.567	2075.55
192.642	2077.6
192.718	2081.73
192.793	2068.65
192.869	2064.04
192.944	2068.89
193.02	2073.36
193.095	2077.78
193.171	2087.15
193.246	2083.68
193.322	2080.59
193.397	2083.11
193.473	2069.93
193.548	2053.09
193.624	2056.04
193.699	2054.33
193.775	2069.08
193.85	2071.22
193.925	2083.21
194.001	2085.06
194.076	2079.26
194.152	2065.89
194.227	2057.04
194.302	2048.91
194.378	2054.71
194.453	2052.67
194.529	2060.47
194.604	2045.77
194.679	2038.88
194.755	2021.05
194.83	2035.46
194.905	2033.09
194.981	2042.84
195.056	2036.99
195.131	2044.12
195.207	2043.36
195.282	2033.66
195.357	2012.82
195.433	2028.04
195.508	2017.1
195.583	2025.52
195.659	2039.41
195.734	2050.49
195.809	2053.39
195.884	2060.72
195.96	2060.81
196.035	2074.89
196.11	2074.13
196.185	2084.59
196.261	2087.4
196.336	2115.51
196.411	2100.23
196.486	2103.89
196.561	2096.43
196.637	2106.27
196.712	2121.93
196.787	2125.02
196.862	2140.66
196.937	2151.36
197.013	2156.6
197.088	2162.64
197.163	2181.58
197.238	2194.29
197.313	2191.2
197.388	2204.23
197.464	2229.36
197.539	2239.59
197.614	2231.93
197.689	2242.5
197.764	2260.11
197.839	2281.38
197.914	2277.19
197.989	2301.75
198.065	2319.07
198.14	2367.17
198.215	2389.68
198.29	2399.58
198.365	2412.72
198.44	2422.53
198.515	2449.09
198.59	2462.8
198.665	2487.99
198.74	2494.75
198.815	2500.18
198.89	2527.75
198.965	2556.57
199.04	2555.47
199.115	2570.33
199.19	2612.42
199.265	2618.75
199.34	2626.75
199.415	2657.01
199.49	2673.68
199.565	2684.11
199.64	2706.21
199.715	2704.21
199.79	2713.55
199.865	2722.08
199.94	2719.36
200.015	2753.29
200.09	2760.1
200.165	2767.92
200.24	2778.02
200.315	2818.12
200.39	2835.66
200.464	2837.9
200.539	2836.38
200.614	2853.24
200.689	2877.84
200.764	2885.89
200.839	2900.04
200.914	2906.95
200.989	2896.6
201.063	2911.09
201.138	2892.47
201.213	2890.42
201.288	2870.12
201.363	2874.6
201.438	2872.17
201.512	2888.17
201.587	2866.91
201.662	2871.2
201.737	2880.07
201.812	2884.69
201.886	2853.98
201.961	2859.32
202.036	2843.69
202.111	2840.55
202.186	2811.02
202.26	2792.52
202.335	2770.17
202.41	2767.26
202.485	2749.87
202.559	2733.86
202.634	2711.28
202.709	2718.38
202.784	2700.99
202.858	2702.89
202.933	2683.08
203.008	2677.55
203.082	2664.12
203.157	2662.21
203.232	2619.74
203.306	2598.01
203.381	2568
203.456	2545.85
203.53	2521.64
203.605	2507.22
203.68	2489.49
203.754	2484.26
203.829	2468.78
203.904	2451.02
203.978	2434.83
204.053	2438.21
204.127	2424.41
204.202	2420.41
204.277	2407.51
204.351	2402.08
204.426	2394.89
204.5	2387.75
204.575	2354.1
204.65	2359.2
204.724	2354.39
204.799	2363.57
204.873	2360.47
204.948	2358.19
205.022	2346.77
205.097	2340.29
205.171	2353.76
205.246	2355.71
205.32	2354.76
205.395	2355.52
205.469	2344.06
205.544	2352.54
205.618	2336.59
205.693	2348.44
205.767	2335.88
205.842	2351.78
205.916	2344.83
205.991	2332.79
206.065	2337.88
206.14	2353.82
206.214	2348.82
206.289	2343.86
206.363	2354.91
206.438	2360.43
206.512	2366.67
206.586	2385.94
206.661	2392.85
206.735	2370.25
206.81	2377.39
206.884	2390.43
206.958	2376.91
207.033	2394.76
207.107	2399.28
207.181	2431.09
207.256	2423.86
207.33	2444.37
207.405	2458.81
207.479	2476.23
207.553	2484.99
207.628	2471.09
207.702	2480.71
207.776	2473.14
207.851	2474.57
207.925	2489
207.999	2483.67
208.073	2483.1
208.148	2481.71
208.222	2471.24
208.296	2502.65
208.371	2517.47
208.445	2529.47
208.519	2558.28
208.593	2569.47
208.668	2568.85
208.742	2571.04
208.816	2572.94
208.89	2586.14
208.965	2584.23
209.039	2593.38
209.113	2613.15
209.187	2636.09
209.261	2636.19
209.336	2657.62
209.41	2679.63
209.484	2682.77
209.558	2708.03
209.632	2723.6
209.707	2736.22
209.781	2759.76
209.855	2776.34
209.929	2794.51
210.003	2803.8
210.077	2805.66
210.151	2856.6
210.226	2894.28
210.3	2923.8
210.374	2956.2
210.448	2966.84
210.522	2983.81
210.596	2998.45
210.67	3012.37
210.744	3066.51
210.818	3105.64
210.892	3132.3
210.966	3136.16
211.041	3161.72
211.115	3170.3
211.189	3203.12
211.263	3235.55
211.337	3257.58
211.411	3286.78
211.485	3296.09
211.559	3323.85
211.633	3348.46
211.707	3336.19
211.781	3359.4
211.855	3350.47
211.929	3362.01
212.003	3370.84
212.077	3405.5
212.151	3446.46
212.225	3483.84
212.299	3495.17
212.373	3513.02
212.447	3544.35
212.52	3607.63
212.594	3645.08
212.668	3690.39
212.742	3714.7
212.816	3749.29
212.89	3783.49
212.964	3828.66
213.038	3877.46
213.112	3934.91
213.186	3991.39
213.26	4018.76
213.333	4025.31
213.407	4076.19
213.481	4131.19
213.555	4197.23
213.629	4238.79
213.703	4279.07
213.777	4332.03
213.85	4374.7
213.924	4469.17
213.998	4531.15
214.072	4585.21
214.146	4635.7
214.219	4699.17
214.293	4760.76
214.367	4832.16
214.441	4909.92
214.515	4960.93
214.588	5009.93
214.662	5048.73
214.736	5102.95
214.81	5187.41
214.883	5272.65
214.957	5337.55
215.031	5402.32
215.105	5453.48
215.178	5518.91
215.252	5591.5
215.326	5646.58
215.4	5705.11
215.473	5734.28
215.547	5793.09
215.621	5856.96
215.694	5941.12
215.768	5997.93
215.842	6063.26
215.915	6128.59
215.989	6180.57
216.063	6252.82
216.136	6326.88
216.21	6405.79
216.284	6496.2
216.357	6572.74
216.431	6649.24
216.504	6739.86
216.578	6842.23
216.652	6938.37
216.725	7018.61
216.799	7107.13
216.873	7187.18
216.946	7280.63
217.02	7360.68
217.093	7435.8
217.167	7503.54
217.24	7563.83
217.314	7647.09
217.387	7725.26
217.461	7798.01
217.535	7894.96
217.608	7964.31
217.682	8050.22
217.755	8140.74
217.829	8217.63
217.902	8297.78
217.976	8371.58
218.049	8443.32
218.123	8512.63
218.196	8591.21
218.27	8667.98
218.343	8729.49
218.417	8824.36
218.49	8901.77
218.563	8995.3
218.637	9083.88
218.71	9177.67
218.784	9273.14
218.857	9356.68
218.931	9450.38
219.004	9533.59
219.077	9620.38
219.151	9710.96
219.224	9782.38
219.298	9859.83
219.371	9946.97
219.444	10017.39
219.518	10095.85
219.591	10174.27
219.665	10268.32
219.738	10347.42
219.811	10415.01
219.885	10506.5
219.958	10585.04
220.031	10654.47
220.105	10737.15
220.178	10815.26
220.251	10890.25
220.325	10968.17
220.398	11043.15
220.471	11115.29
220.544	11194.03
220.618	11251.53
220.691	11329.12
220.764	11405.8
220.838	11483.73
220.911	11544.89
220.984	11628.85
221.057	11708.95
221.131	11783.41
221.204	11831.66
221.277	11919.43
221.35	12015.98
221.424	12075.31
221.497	12137.16
221.57	12208.11
221.643	12276.51
221.716	12347.8
221.79	12398.94
221.863	12461.03
221.936	12523.94
222.009	12588.05
222.082	12655.2
222.155	12724.23
222.229	12793.35
222.302	12855.2
222.375	12909
222.448	12975.09
222.521	13034.24
222.594	13093.72
222.667	13134.79
222.74	13199.49
222.814	13244.9
222.887	13298.79
222.96	13366.86
223.033	13433.29
223.106	13493.54
223.179	13554.77
223.252	13607.07
223.325	13669.06
223.398	13723.73
223.471	13782.69
223.544	13837.55
223.617	13890.19
223.69	13940.85
223.763	13979.61
223.837	14033.55
223.91	14093.18
223.983	14123.79
224.056	14171.66
224.129	14218.66
224.202	14282.25
224.275	14327.32
224.348	14369.64
224.42	14403.63
224.493	14429.9
224.566	14473.19
224.639	14522.84
224.712	14555.67
224.785	14599.77
224.858	14639.59
224.931	14678.64
225.004	14706.74
225.077	14745.54
225.15	14762.22
225.223	14805.22
225.296	14869.38
225.369	14894.4
225.442	14915.94
225.514	14961.98
225.587	15002.71
225.66	15053.08
225.733	15102.35
225.806	15138.79
225.879	15174.46
225.952	15201.35
226.025	15251.77
226.097	15292.89
226.17	15329.09
226.243	15343.84
226.316	15377.05
226.389	15421.4
226.461	15457.16
226.534	15501.6
226.607	15546.77
226.68	15604.66
226.753	15636.86
226.825	15647.6
226.898	15707.13
226.971	15749.79
227.044	15791.77
227.117	15825.7
227.189	15854.77
227.262	15890.58
227.335	15931.36
227.407	15956.52
227.48	16001.87
227.553	16040.96
227.626	16069.54
227.698	16100.1
227.771	16139.43
227.844	16156.49
227.916	16182.76
227.989	16196.98
228.062	16224.36
228.134	16265.13
228.207	16283.64
228.28	16299.64
228.352	16328.9
228.425	16343.79
228.498	16374.06
228.57	16383.31
228.643	16416.04
228.716	16446.26
228.788	16462.02
228.861	16480.81
228.934	16522.89
229.006	16537.93
229.079	16552.63
229.151	16568.48
229.224	16573.5
229.296	16600.1
229.369	16643.04
229.442	16675.29
229.514	16694.28
229.587	16721.31
229.659	16729.12
229.732	16756.21
229.804	16795.29
229.877	16835.34
229.949	16867.63
230.022	16911.25
230.094	16936.89
230.167	16959.83
230.239	16961.76
230.312	16973.28
230.384	17010.58
230.457	17031.54
230.529	17057.33
230.602	17077.47
230.674	17096.56
230.747	17120.56
230.819	17155.5
230.892	17153.76
230.964	17174.58
231.037	17197.52
231.109	17216.32
231.181	17230.34
231.254	17238.15
231.326	17243.12
231.399	17245.72
231.471	17250.97
231.544	17238.06
231.616	17263.16
231.688	17269.81
231.761	17281.82
231.833	17294.73
231.905	17289.77
231.978	17298.06
232.05	17310.3
232.122	17318.88
232.195	17318.97
232.267	17344.27
232.339	17341.38
232.412	17361.58
232.484	17358.78
232.556	17358.01
232.629	17381.82
232.701	17394.39
232.773	17409.29
232.846	17414.68
232.918	17424.08
232.99	17438.2
233.062	17452.66
233.135	17460.51
233.207	17451.55
233.279	17467.5
233.351	17474.68
233.424	17471.7
233.496	17458.06
233.568	17474.73
233.64	17463.36
233.713	17466.88
233.785	17468.9
233.857	17469.62
233.929	17454.68
234.001	17476.66
234.074	17490.88
234.146	17467.94
234.218	17463.17
234.29	17454.3
234.362	17453.09
234.434	17429.77
234.507	17410.15
234.579	17389.77
234.651	17372.13
234.723	17388.18
234.795	17380.18
234.867	17375.7
234.939	17380.47
235.012	17385
235.084	17375.55
235.156	17382.39
235.228	17375.12
235.3	17359.94
235.372	17358.54
235.444	17360.8
235.516	17324.66
235.588	17322.3
235.66	17323.6
235.732	17313.86
235.804	17353.33
235.876	17349.19
235.948	17368.42
236.02	17364.22
236.092	17360.22
236.164	17361.48
236.236	17336.27
236.308	17325.67
236.38	17324.13
236.452	17311.12
236.524	17305.62
236.596	17312.56
236.668	17309.09
236.74	17302.78
236.812	17294.54
236.884	17282.87
236.956	17269.38
237.028	17252.17
237.1	17227.6
237.172	17227.84
237.244	17223.45
237.316	17179.21
237.388	17153.86
237.46	17123.16
237.532	17117.09
237.604	17096.8
237.675	17099.69
237.747	17104.22
237.819	17089.62
237.891	17069.62
237.963	17045.47
238.035	17019.93
238.107	16972.55
238.178	16968.46
238.25	16944.75
238.322	16956.17
238.394	16930.91
238.466	16913.47
238.538	16906.53
238.609	16902.77
238.681	16862.33
238.753	16841.27
238.825	16824.07
238.897	16816.26
238.968	16823.97
239.04	16799.68
239.112	16813.41
239.184	16775.53
239.255	16739
239.327	16713.41
239.399	16692.93
239.471	16678.23
239.542	16669.45
239.614	16663.77
239.686	16617.79
239.758	16614.75
239.829	16574.12
239.901	16568.24
239.973	16556.15
240.044	16543.33
240.116	16520.82
240.188	16505.64
240.259	16478.45
240.331	16451.94
240.403	16438.3
240.474	16393.82
240.546	16366.11
240.618	16314.39
240.689	16288.56
240.761	16277.38
240.833	16276.8
240.904	16257.9
240.976	16238.29
241.048	16213.46
241.119	16193.13
241.191	16181.12
241.262	16173.65
241.334	16147.29
241.405	16117.94
241.477	16090.95
241.549	16057.93
241.62	16032.91
241.692	16016.77
241.763	16012.38
241.835	15995.9
241.906	15967.8
241.978	15933.62
242.049	15928.18
242.121	15919.89
242.192	15910.05
242.264	15876.89
242.335	15838
242.407	15817.61
242.478	15798.76
242.55	15781.89
242.621	15752.54
242.693	15727.47
242.764	15699.81
242.836	15677.68
242.907	15665.54
242.979	15650.88
243.05	15631.41
243.122	15613.87
243.193	15590.05
243.264	15544.6
243.336	15515.01
243.407	15505.41
243.479	15502.38
243.55	15481.07
243.622	15451.62
243.693	15425.64
243.764	15419.18
243.836	15388.77
243.907	15361.24
243.978	15323.45
244.05	15311.21
244.121	15274.62
244.192	15256.45
244.264	15212.35
244.335	15190.03
244.407	15148.62
244.478	15128.23
244.549	15101.67
244.62	15068.17
244.692	15037.66
244.763	15016.79
244.834	14984.92
244.906	14944.34
244.977	14919.08
245.048	14901.87
245.119	14877.05
245.191	14845.81
245.262	14794.95
245.333	14779.87
245.405	14757.98
245.476	14740.19
245.547	14706.93
245.618	14699.51
245.689	14676.13
245.761	14657.77
245.832	14630.58
245.903	14611.92
245.974	14583.43
246.045	14561.93
246.117	14552.15
246.188	14522.74
246.259	14490.98
246.33	14466.58
246.401	14441.13
246.473	14396.83
246.544	14364.44
246.615	14353.64
246.686	14319.51
246.757	14316.71
246.828	14288.8
246.899	14277.96
246.97	14241.42
247.042	14213.31
247.113	14193.31
247.184	14189.02
247.255	14161.4
247.326	14139.08
247.397	14110.35
247.468	14085.66
247.539	14065.76
247.61	14028.97
247.681	14011.91
247.752	14001.79
247.823	13966.59
247.894	13955.94
247.965	13931.74
248.037	13901.47
248.108	13857.74
248.179	13836.29
248.25	13807.9
248.321	13793.53
248.392	13754.82
248.463	13760.27
248.534	13729.27
248.605	13699.92
248.675	13673.5
248.746	13656.29
248.817	13641.25
248.888	13622.64
248.959	13587.11
249.03	13565.23
249.101	13537.17
249.172	13507.19
249.243	13467.03
249.314	13462.64
249.385	13430.68
249.456	13415.06
249.527	13391.11
249.598	13374.81
249.669	13364.4
249.739	13343.28
249.81	13316.72
249.881	13285.05
249.952	13256.9
250.023	13235.64
250.094	13202.18
250.165	13165.45
250.235	13139.42
250.306	13115.03
250.377	13083.74
250.448	13069.57
250.519	13025.94
250.59	13019.53
250.66	13001.21
250.731	12997.4
250.802	12972.92
250.873	12953.73
250.944	12933.05
251.014	12906.97
251.085	12914.88
251.156	12892.65
251.227	12882.38
251.297	12879.11
251.368	12873.95
251.439	12862.14
251.51	12855.68
251.58	12832.11
251.651	12802.31
251.722	12793.45
251.792	12756.33
251.863	12729.33
251.934	12722.82
252.005	12733.96
252.075	12716.99
252.146	12703.45
252.217	12685.8
252.287	12677.9
252.358	12657.41
252.429	12664.54
252.499	12632.78
252.57	12604.58
252.641	12590.41
252.711	12566.11
252.782	12527.64
252.852	12525.14
252.923	12500.99
252.994	12477.56
253.064	12466.62
253.135	12442.18
253.205	12411.18
253.276	12414.12
253.347	12418.41
253.417	12391.51
253.488	12364.18
253.558	12341
253.629	12317.62
253.699	12308.89
253.77	12293.37
253.841	12266.57
253.911	12244.83
253.982	12241.17
254.052	12231.48
254.123	12214.99
254.193	12201.79
254.264	12221.16
254.334	12187.66
254.405	12157.05
254.475	12128.9
254.546	12115.5
254.616	12112.18
254.687	12097.19
254.757	12077.81
254.827	12059.88
254.898	12037.51
254.968	12019.53
255.039	11988.59
255.109	11982.81
255.18	11949.07
255.25	11909.3
255.321	11901.68
255.391	11870.02
255.461	11873.82
255.532	11836.32
255.602	11814.63
255.673	11779.98
255.743	11750.24
255.813	11713.27
255.884	11711.29
255.954	11705.41
256.024	11696.64
256.095	11679.77
256.165	11652.88
256.235	11641.45
256.306	11611.47
256.376	11611.72
256.446	11599.71
256.517	11592.92
256.587	11587.28
256.657	11575.86
256.728	11565.16
256.798	11549.73
256.868	11521.49
256.938	11484.72
257.009	11468.28
257.079	11461.58
257.149	11464.14
257.219	11426.5
257.29	11417.19
257.36	11376.08
257.43	11364.23
257.5	11322.69
257.571	11298.01
257.641	11284.95
257.711	11254.15
257.781	11246.92
257.852	11226.59
257.922	11191.98
257.992	11177.14
258.062	11149.96
258.132	11139.26
258.202	11121.19
258.273	11106.25
258.343	11113.23
258.413	11097.14
258.483	11086.68
258.553	11056.37
258.623	11032.56
258.693	11012.9
258.764	11010.97
258.834	11019.36
258.904	11004.22
258.974	10988.28
259.044	10965.96
259.114	10962.06
259.184	10948.95
259.254	10923.99
259.324	10891.13
259.394	10880.72
259.464	10882.89
259.535	10864.09
259.605	10841.73
259.675	10810.66
259.745	10800.87
259.815	10779.86
259.885	10760.3
259.955	10767.14
260.025	10740.79
260.095	10719.97
260.165	10716.7
260.235	10711.88
260.305	10681.91
260.375	10659.06
260.445	10668.36
260.515	10678.05
260.585	10671.74
260.655	10664.89
260.725	10658
260.795	10651.21
260.865	10653.14
260.934	10622.4
261.004	10618.4
261.074	10602.93
261.144	10610.11
261.214	10603.8
261.284	10584.09
261.354	10576.77
261.424	10551.71
261.494	10556.96
261.564	10547.13
261.634	10538.94
261.703	10508.44
261.773	10502.08
261.843	10490.37
261.913	10470.52
261.983	10433.81
262.053	10419.3
262.123	10393.63
262.192	10374.69
262.262	10367.8
262.332	10336.58
