Data from 20250625_urea_1M_1_MAYP1162681_22-35-05-768.txt Node
Date: Wed Jun 25 22:35:05 BST 2025
User: adleo
Spectrometer: MAYP116268
Trigger mode: 0
Integration Time (sec): 1.000000E0
Scans to average: 1
Electric dark correction enabled: true
Nonlinearity correction enabled: true
Boxcar width: 10
XAxis mode: Wavelengths
Number of Pixels in Spectrum: 2068
>>>>>Begin Spectral Data<<<<<
179.565	1166.49
179.642	1220.53
179.718	1257.36
179.795	1297.12
179.871	1327.91
179.948	1346.26
180.024	1363.67
180.101	1384.31
180.177	1395.69
180.254	1417.7
180.33	1438.61
180.407	1488.74
180.483	1583
180.56	1667.95
180.636	1750.22
180.712	1737.29
180.789	1746.18
180.865	1759.15
180.942	1766.51
181.018	1775.92
181.095	1786.67
181.171	1789.28
181.248	1790.52
181.324	1810.2
181.4	1812.67
181.477	1820.65
181.553	1832.82
181.63	1852.97
181.706	1869.23
181.782	1877.5
181.859	1877.64
181.935	1881.97
182.011	1880.16
182.088	1891.71
182.164	1910.45
182.24	1921.95
182.317	1931.32
182.393	1927.42
182.469	1940.44
182.546	1952.81
182.622	1958.51
182.698	1957.46
182.775	1969.78
182.851	1980.72
182.927	1973.11
183.003	1971.06
183.08	1968.78
183.156	1978.01
183.232	1975.34
183.308	1964.26
183.385	1971.06
183.461	1984.23
183.537	1984.37
183.613	1994.31
183.69	1986.61
183.766	1977.71
183.842	1983.99
183.918	1990.03
183.995	2000.78
184.071	2002.16
184.147	1994.98
184.223	1984.38
184.299	1994.98
184.375	1982.81
184.452	1989.61
184.528	2042.23
184.604	2054.64
184.68	2065.43
184.756	2073.61
184.832	2077.85
184.908	2083.65
184.985	2086.69
185.061	2073.47
185.137	2082.7
185.213	2073.38
185.289	2075.52
185.365	2066.29
185.441	2063.96
185.517	2076.33
185.593	2077.71
185.669	2076.29
185.745	2088.08
185.822	2102.15
185.898	2093.59
185.974	2104.1
186.05	2096.58
186.126	2055.62
186.202	2044.92
186.278	2042.83
186.354	2031.12
186.43	2036.64
186.506	2034.41
186.582	2031.79
186.658	2038.78
186.734	2021
186.81	2020.86
186.886	2024.71
186.962	2039.02
187.038	2037.26
187.114	2028.79
187.19	2031.88
187.266	2022.85
187.341	2024.23
187.417	2016.62
187.493	2015.86
187.569	2015.53
187.645	2011.2
187.721	2000.17
187.797	2009.68
187.873	2009.96
187.949	2004.68
188.025	1999.21
188.101	2002.59
188.176	2009.01
188.252	2004.35
188.328	2011.1
188.404	2009.39
188.48	2003.78
188.556	1996.02
188.632	1996.4
188.707	1995.4
188.783	1992.98
188.859	1991.55
188.935	1980.8
189.011	1989.55
189.086	1984.94
189.162	1978.38
189.238	1978.09
189.314	1975.91
189.39	1970.96
189.465	1966.68
189.541	1983.33
189.617	1971.53
189.693	1964.97
189.768	1969.78
189.844	1993.23
189.92	1985.05
189.996	1999.32
190.071	2009.64
190.147	2011.78
190.223	2021.25
190.298	2015.97
190.374	2003.65
190.45	2013.4
190.526	2020.1
190.601	2015.35
190.677	2016.01
190.753	2043.66
190.828	2046.28
190.904	2060.64
190.98	2076.43
191.055	2086.28
191.131	2077.48
191.207	2098.02
191.282	2110.91
191.358	2097.78
191.433	2088.08
191.509	2102.29
191.585	2095.87
191.66	2096.53
191.736	2103.91
191.811	2092.06
191.887	2105.95
191.963	2130.78
192.038	2135.3
192.114	2135.54
192.189	2142.86
192.265	2141.48
192.34	2120.02
192.416	2118.4
192.491	2114.22
192.567	2113.5
192.642	2114.26
192.718	2114.64
192.793	2102.23
192.869	2094
192.944	2098.38
193.02	2102.71
193.095	2106.51
193.171	2116.31
193.246	2117.93
193.322	2112.12
193.397	2112.31
193.473	2101.99
193.548	2086.57
193.624	2092.47
193.699	2091.05
193.775	2103.04
193.85	2103.85
193.925	2110.46
194.001	2109.32
194.076	2105.89
194.152	2094.9
194.227	2089.62
194.302	2080.16
194.378	2081.45
194.453	2079.83
194.529	2092.24
194.604	2077.69
194.679	2072.41
194.755	2049.16
194.83	2059.29
194.905	2059.67
194.981	2070.33
195.056	2061.96
195.131	2064.81
195.207	2062.15
195.282	2054.02
195.357	2033.18
195.433	2047.64
195.508	2036.36
195.583	2044.54
195.659	2056.2
195.734	2063.95
195.809	2065.05
195.884	2071.99
195.96	2072.85
196.035	2086.35
196.11	2080.98
196.185	2089.73
196.261	2088.21
196.336	2118.55
196.411	2105.13
196.486	2107.08
196.561	2101.47
196.637	2110.93
196.712	2127.02
196.787	2130.82
196.862	2144.33
196.937	2155.36
197.013	2162.02
197.088	2171.25
197.163	2188.96
197.238	2205.57
197.313	2206.91
197.388	2217.33
197.464	2246.02
197.539	2257.16
197.614	2251.16
197.689	2263.82
197.764	2282.96
197.839	2306.13
197.914	2302.22
197.989	2324.36
198.065	2342.16
198.14	2387.68
198.215	2410.67
198.29	2420.24
198.365	2431.62
198.44	2445.52
198.515	2474.37
198.59	2488.32
198.665	2514.51
198.74	2524.56
198.815	2521.18
198.89	2544.56
198.965	2573.9
199.04	2572.8
199.115	2589.8
199.19	2630.42
199.265	2636.09
199.34	2646.23
199.415	2680.93
199.49	2699.93
199.565	2709.45
199.64	2730.22
199.715	2729.56
199.79	2734.18
199.865	2741.56
199.94	2742.47
200.015	2772.25
200.09	2779.59
200.165	2788.12
200.24	2795.98
200.315	2835.38
200.39	2855.3
200.464	2859.35
200.539	2860.87
200.614	2877.41
200.689	2899.57
200.764	2907.49
200.839	2922.21
200.914	2925.07
200.989	2912.48
201.063	2927.06
201.138	2907.73
201.213	2906.68
201.288	2887.8
201.363	2895.05
201.438	2895.81
201.512	2909.53
201.587	2890.61
201.662	2894.9
201.737	2904.62
201.812	2914.44
201.886	2883.72
201.961	2894.4
202.036	2883.45
202.111	2879.97
202.186	2851.01
202.26	2833.61
202.335	2812.11
202.41	2807.34
202.485	2792.72
202.559	2775.42
202.634	2750.03
202.709	2761.22
202.784	2741.3
202.858	2743.21
202.933	2726.06
203.008	2719.29
203.082	2700.67
203.157	2702.86
203.232	2659.24
203.306	2637.32
203.381	2604.82
203.456	2578.24
203.53	2550.97
203.605	2533.46
203.68	2511.59
203.754	2502.93
203.829	2485.88
203.904	2469.07
203.978	2456.97
204.053	2460.31
204.127	2446.98
204.202	2443.07
204.277	2425.13
204.351	2421.51
204.426	2413.98
204.5	2407.75
204.575	2373.05
204.65	2382.01
204.724	2370.19
204.799	2379
204.873	2374.71
204.948	2372.76
205.022	2364.81
205.097	2359.33
205.171	2375.23
205.246	2383.09
205.32	2381.9
205.395	2384.66
205.469	2374.34
205.544	2380.58
205.618	2363.96
205.693	2373.34
205.767	2362.01
205.842	2382.15
205.916	2376.06
205.991	2365.73
206.065	2371.59
206.14	2389.9
206.214	2383.76
206.289	2376.99
206.363	2385.09
206.438	2389.8
206.512	2395.32
206.586	2414.03
206.661	2418.7
206.735	2392.19
206.81	2392.53
206.884	2407.66
206.958	2393.57
207.033	2409.56
207.107	2414.28
207.181	2443.71
207.256	2441.33
207.33	2462.84
207.405	2476.09
207.479	2494.47
207.553	2501.46
207.628	2483.33
207.702	2492.52
207.776	2489.04
207.851	2497.38
207.925	2517.24
207.999	2513.38
208.073	2511.81
208.148	2513.29
208.222	2504.48
208.296	2535.18
208.371	2548.52
208.445	2561.57
208.519	2592.33
208.593	2605.04
208.668	2603.9
208.742	2607
208.816	2609
208.89	2622.2
208.965	2622.91
209.039	2633.15
209.113	2652.16
209.187	2678.72
209.261	2678.53
209.336	2701.54
209.41	2721.55
209.484	2722.7
209.558	2751.34
209.632	2771.82
209.707	2789.07
209.781	2816.66
209.855	2844.74
209.929	2870.16
210.003	2885.32
210.077	2896.71
210.151	2955.11
210.226	3003.05
210.3	3044.76
210.374	3086.51
210.448	3109.93
210.522	3139.18
210.596	3170.66
210.67	3204.62
210.744	3275.35
210.818	3331.96
210.892	3379.87
210.966	3409.03
211.041	3459.19
211.115	3490.31
211.189	3550.74
211.263	3606.89
211.337	3657.26
211.411	3714.63
211.485	3760.46
211.559	3824.84
211.633	3881.28
211.707	3911.36
211.781	3978.13
211.855	4011.16
211.929	4067.5
212.003	4122.84
212.077	4207.27
212.151	4298.5
212.225	4386.96
212.299	4463.62
212.373	4545.73
212.447	4639
212.52	4761.8
212.594	4868.61
212.668	4986.21
212.742	5081.2
212.816	5189.06
212.89	5304.68
212.964	5421.81
213.038	5548.49
213.112	5692.47
213.186	5833.1
213.26	5940.98
213.333	6034.45
213.407	6181.38
213.481	6332.71
213.555	6493.7
213.629	6635.92
213.703	6774.49
213.777	6931.06
213.85	7070.03
213.924	7262.37
213.998	7421.91
214.072	7584.73
214.146	7737.93
214.219	7906.58
214.293	8075.23
214.367	8252.98
214.441	8441.92
214.515	8615.69
214.588	8776.96
214.662	8920.02
214.736	9090.7
214.81	9292.02
214.883	9489.62
214.957	9664.55
215.031	9840.5
215.105	10005.38
215.178	10179.32
215.252	10357.74
215.326	10523.18
215.4	10697.24
215.473	10839.29
215.547	11010.83
215.621	11182.1
215.694	11375.4
215.768	11543.3
215.842	11719.25
215.915	11899.71
215.989	12054.48
216.063	12223.47
216.136	12411.88
216.21	12595.04
216.284	12788.28
216.357	12973.05
216.431	13154.82
216.504	13346.1
216.578	13540.16
216.652	13723.87
216.725	13900.88
216.799	14083.48
216.873	14266.85
216.946	14453.39
217.02	14627.27
217.093	14794.63
217.167	14947.19
217.24	15101.68
217.314	15258.05
217.387	15413.46
217.461	15563.12
217.535	15736.07
217.608	15879.17
217.682	16030.13
217.755	16194.68
217.829	16326.94
217.902	16474.23
217.976	16611.2
218.049	16741.82
218.123	16870.93
218.196	17016.05
218.27	17141.21
218.343	17262.13
218.417	17397.36
218.49	17508.59
218.563	17647.29
218.637	17775.58
218.71	17924.83
218.784	18048.58
218.857	18184.58
218.931	18313.35
219.004	18431.37
219.077	18551.7
219.151	18674.54
219.224	18786
219.298	18886.33
219.371	19007.63
219.444	19095.87
219.518	19207.28
219.591	19314.36
219.665	19442.84
219.738	19539.89
219.811	19630.3
219.885	19743.5
219.958	19838.24
220.031	19940.5
220.105	20035.63
220.178	20124.45
220.251	20187.68
220.325	20283.44
220.398	20358.09
220.471	20444.93
220.544	20526.23
220.618	20587.68
220.691	20667.05
220.764	20731.97
220.838	20820.46
220.911	20876.12
220.984	20967.45
221.057	21039.5
221.131	21105.44
221.204	21137.58
221.277	21215.57
221.35	21314.57
221.424	21363.97
221.497	21422.39
221.57	21471.84
221.643	21519.6
221.716	21585.35
221.79	21643.86
221.863	21678.76
221.936	21721.32
222.009	21753.71
222.082	21807.99
222.155	21851.66
222.229	21903.81
222.302	21946.62
222.375	21965.56
222.448	22013.48
222.521	22041.39
222.594	22068.09
222.667	22084.48
222.74	22125.89
222.814	22148.59
222.887	22165.61
222.96	22199.64
223.033	22225.77
223.106	22262.41
223.179	22301.6
223.252	22305.89
223.325	22332.99
223.398	22352.56
223.471	22378.16
223.544	22400.86
223.617	22409.83
223.69	22430.17
223.763	22437.98
223.837	22453.79
223.91	22479.97
223.983	22480.12
224.056	22472.26
224.129	22492.99
224.202	22523.94
224.275	22529.77
224.348	22530.69
224.42	22519.31
224.493	22507.5
224.566	22511.45
224.639	22515.65
224.712	22511.93
224.785	22513.91
224.858	22502.63
224.931	22504.7
225.004	22496.41
225.077	22501.76
225.15	22477.03
225.223	22476.07
225.296	22497.09
225.369	22482.72
225.442	22473.95
225.514	22470.96
225.587	22486.87
225.66	22475.78
225.733	22471.78
225.806	22463.77
225.879	22456.01
225.952	22447.67
226.025	22451.39
226.097	22465.75
226.17	22458.91
226.243	22435.72
226.316	22431.19
226.389	22431.72
226.461	22433.5
226.534	22435.67
226.607	22422.7
226.68	22441.41
226.753	22425.69
226.825	22385.29
226.898	22390.45
226.971	22387.07
227.044	22394.3
227.117	22379.65
227.189	22379.02
227.262	22374.2
227.335	22360.41
227.407	22337.56
227.48	22326.91
227.553	22316.64
227.626	22281.21
227.698	22266.99
227.771	22250.64
227.844	22238.69
227.916	22224.9
227.989	22197.81
228.062	22175.01
228.134	22186.77
228.207	22159.92
228.28	22140.16
228.352	22121.12
228.425	22112.2
228.498	22102.61
228.57	22064.86
228.643	22055.85
228.716	22022.68
228.788	21995.49
228.861	21986.38
228.934	21993.85
229.006	21971.68
229.079	21950.23
229.151	21930.8
229.224	21894.31
229.296	21877.2
229.369	21911
229.442	21901.45
229.514	21867.23
229.587	21861.16
229.659	21811.99
229.732	21805.92
229.804	21800.85
229.877	21820.43
229.949	21810.01
230.022	21810.21
230.094	21794.35
230.167	21776.61
230.239	21752.17
230.312	21729.42
230.384	21729.52
230.457	21705.13
230.529	21692.21
230.602	21685.7
230.674	21661.31
230.747	21653.7
230.819	21642.08
230.892	21562.93
230.964	21535.51
231.037	21530.01
231.109	21506.06
231.181	21500.99
231.254	21458.39
231.326	21432.31
231.399	21394.42
231.471	21360.35
231.544	21313.4
231.616	21302.84
231.688	21286.94
231.761	21266.6
231.833	21239.61
231.905	21189.48
231.978	21163.99
232.05	21140.61
232.122	21114.34
232.195	21090.44
232.267	21083.4
232.339	21066.82
232.412	21055.16
232.484	21033.13
232.556	21011.15
232.629	21010.58
232.701	20986.48
232.773	20979.01
232.846	20951.44
232.918	20929.13
232.99	20916.02
233.062	20902.86
233.135	20888.98
233.207	20842.23
233.279	20826.9
233.351	20808.06
233.424	20784.59
233.496	20743.48
233.568	20737.46
233.64	20697.02
233.713	20667.58
233.785	20630.51
233.857	20599.53
233.929	20556.39
234.001	20543.19
234.074	20525.02
234.146	20463.86
234.218	20435.19
234.29	20401.55
234.362	20374.37
234.434	20321.5
234.507	20267.52
234.579	20208.2
234.651	20161.21
234.723	20144.54
234.795	20116.1
234.867	20081.41
234.939	20065.55
235.012	20045.07
235.084	20013.5
235.156	19991.1
235.228	19958.66
235.3	19920.88
235.372	19886.33
235.444	19868.93
235.516	19810.81
235.588	19769.22
235.66	19748.6
235.732	19709.32
235.804	19728.6
235.876	19703.16
235.948	19692.99
236.02	19665.9
236.092	19644.36
236.164	19613.38
236.236	19573.77
236.308	19538.1
236.38	19519.99
236.452	19480.23
236.524	19460.81
236.596	19444.28
236.668	19410.55
236.74	19387.13
236.812	19362.64
236.884	19346.21
236.956	19318.31
237.028	19283.23
237.1	19253.54
237.172	19246.12
237.244	19235.66
237.316	19165.6
237.388	19118.13
237.46	19079.63
237.532	19059.29
237.604	19010.38
237.675	18993.65
237.747	18965.27
237.819	18923.63
237.891	18886.09
237.963	18842.63
238.035	18798.44
238.107	18728.8
238.178	18715.74
238.25	18672.52
238.322	18662.98
238.394	18610.11
238.466	18571.03
238.538	18550.26
238.609	18523.56
238.681	18465.83
238.753	18414.89
238.825	18383.81
238.897	18360.39
238.968	18342.9
239.04	18297.94
239.112	18304.25
239.184	18266.47
239.255	18242.47
239.327	18217.07
239.399	18182.86
239.471	18168.06
239.542	18139.05
239.614	18132.59
239.686	18071.68
239.758	18054.62
239.829	18015.06
239.901	17999.2
239.973	17966.19
240.044	17934.63
240.116	17894.1
240.188	17860.22
240.259	17831.45
240.331	17797.23
240.403	17774.63
240.474	17724.08
240.546	17696.46
240.618	17638.63
240.689	17593.96
240.761	17567.84
240.833	17554.15
240.904	17524.46
240.976	17487.02
241.048	17468.85
241.119	17437.72
241.191	17417.67
241.262	17398.63
241.334	17363.36
241.405	17326.35
241.477	17299.98
241.549	17264.13
241.62	17244.99
241.692	17215.89
241.763	17198.68
241.835	17162.68
241.906	17131.16
241.978	17088.94
242.049	17067.54
242.121	17048.51
242.192	17038.15
242.264	16975.83
242.335	16922.77
242.407	16898.67
242.478	16863.54
242.55	16826.04
242.621	16782.57
242.693	16748.49
242.764	16711.53
242.836	16671.24
242.907	16645.26
242.979	16616.54
243.05	16596.82
243.122	16572.82
243.193	16543.9
243.264	16492.48
243.336	16464.14
243.407	16444.38
243.479	16435.85
243.55	16407.12
243.622	16380.61
243.693	16343.84
243.764	16343.07
243.836	16309.23
243.907	16276.51
243.978	16249.23
244.05	16231.68
244.121	16191.34
244.192	16175.48
244.264	16138.85
244.335	16108.34
244.407	16069.69
244.478	16042.12
244.549	16011.13
244.62	15963.22
244.692	15932.8
244.763	15919.11
244.834	15875.49
244.906	15831.44
244.977	15804.59
245.048	15792.54
245.119	15764.39
245.191	15733.59
245.262	15679.22
245.333	15663.66
245.405	15640.42
245.476	15610.63
245.547	15587.21
245.618	15564.41
245.689	15534.62
245.761	15507.82
245.832	15484.4
245.903	15462.47
245.974	15436.15
246.045	15405.11
246.117	15390.93
246.188	15360.09
246.259	15320.27
246.33	15303.88
246.401	15276.74
246.473	15239.19
246.544	15197.07
246.615	15173.4
246.686	15131.56
246.757	15128.81
246.828	15091.41
246.899	15077.28
246.97	15041.23
247.042	14995.72
247.113	14989.46
247.184	14989.55
247.255	14958.85
247.326	14928.29
247.397	14899.7
247.468	14870.68
247.539	14845.81
247.61	14807.34
247.681	14786.9
247.752	14773.07
247.823	14733.49
247.894	14710.6
247.965	14667.69
248.037	14642.24
248.108	14601.99
248.179	14584.93
248.25	14550.22
248.321	14534.12
248.392	14493.43
248.463	14490.3
248.534	14468.22
248.605	14447.4
248.675	14407.53
248.746	14389.22
248.817	14369.6
248.888	14347.52
248.959	14311.12
249.03	14292.66
249.101	14277.28
249.172	14253.32
249.243	14204.06
249.314	14199.62
249.385	14180
249.456	14165.69
249.527	14142.31
249.598	14122.06
249.669	14098.29
249.739	14087.16
249.81	14071.73
249.881	14035.34
249.952	14008.58
250.023	13979.32
250.094	13935.02
250.165	13895.54
250.235	13867.97
250.306	13844.25
250.377	13817.35
250.448	13806.16
250.519	13764.47
250.59	13759.65
250.66	13734.96
250.731	13733.32
250.802	13709.85
250.873	13686.71
250.944	13670.46
251.014	13637.59
251.085	13640.19
251.156	13625
251.227	13603.89
251.297	13593.53
251.368	13580.94
251.439	13572.31
251.51	13565.52
251.58	13536.74
251.651	13515.48
251.722	13502.46
251.792	13462.74
251.863	13436.71
251.934	13419.93
252.005	13423.21
252.075	13392.12
252.146	13376.55
252.217	13362.81
252.287	13353.94
252.358	13329.45
252.429	13329.74
252.499	13301.83
252.57	13287.9
252.641	13271.7
252.711	13254.2
252.782	13224.79
252.852	13222.87
252.923	13203.24
252.994	13181.84
253.064	13175.09
253.135	13147.66
253.205	13124.04
253.276	13130.36
253.347	13130.07
253.417	13101.77
253.488	13081.62
253.558	13056.6
253.629	13036.36
253.699	13018.23
253.77	13009.07
253.841	12991.28
253.911	12973.78
253.982	12963.9
254.052	12945.53
254.123	12932.04
254.193	12912.85
254.264	12920.71
254.334	12890.77
254.405	12849.03
254.475	12820.3
254.546	12798.7
254.616	12797.35
254.687	12780.77
254.757	12762.64
254.827	12737.24
254.898	12726.73
254.968	12702.53
255.039	12676.84
255.109	12669.46
255.18	12646.71
255.25	12594.89
255.321	12582.16
255.391	12543.36
255.461	12542.1
255.532	12500.07
255.602	12480.74
255.673	12447.29
255.743	12419.95
255.813	12379.22
255.884	12369.39
255.954	12361.53
256.024	12364.42
256.095	12340.71
256.165	12308.17
256.235	12294.38
256.306	12265.8
256.376	12254.66
256.446	12247.87
256.517	12234.08
256.587	12225.74
256.657	12204.2
256.728	12192.44
256.798	12170.99
256.868	12152.62
256.938	12119.55
257.009	12109.09
257.079	12095.31
257.149	12098.78
257.219	12061.13
257.29	12050.58
257.36	12014.23
257.43	12006.67
257.5	11961.21
257.571	11942.46
257.641	11933.4
257.711	11906.79
257.781	11900.38
257.852	11893.3
257.922	11855.8
257.992	11840.42
258.062	11811.02
258.132	11807.93
258.202	11789.81
258.273	11781.04
258.343	11783.01
258.413	11764.84
258.483	11744.36
258.553	11714.81
258.623	11686.81
258.693	11670.37
258.764	11669.89
258.834	11672.16
258.904	11644.25
258.974	11621.31
259.044	11598.22
259.114	11585.11
259.184	11569.59
259.254	11550.55
259.324	11502.65
259.394	11493.3
259.464	11487.17
259.535	11470.21
259.605	11444.28
259.675	11415.03
259.745	11397.82
259.815	11367.94
259.885	11346.88
259.955	11356.47
260.025	11334.78
260.095	11313.14
260.165	11301.96
260.235	11297.19
260.305	11281.09
260.375	11266.92
260.445	11277.09
260.515	11281
260.585	11278.68
260.655	11263.36
260.725	11258.97
260.795	11259.55
260.865	11259.93
260.934	11240.9
261.004	11233.67
261.074	11225.67
261.144	11228.8
261.214	11227.16
261.284	11208.46
261.354	11205.28
261.424	11179.84
261.494	11181.28
261.564	11168.65
261.634	11159.26
261.703	11120.95
261.773	11105.77
261.843	11090.34
261.913	11070.3
261.983	11037.33
262.053	11028.71
262.123	11003.55
262.192	10968.28
