Data from 20250625_urea_1M_1_MAYP1162681_19-25-05-692.txt Node
Date: Wed Jun 25 19:25:05 BST 2025
User: adleo
Spectrometer: MAYP116268
Trigger mode: 0
Integration Time (sec): 1.000000E0
Scans to average: 1
Electric dark correction enabled: true
Nonlinearity correction enabled: true
Boxcar width: 10
XAxis mode: Wavelengths
Number of Pixels in Spectrum: 2068
>>>>>Begin Spectral Data<<<<<
179.565	1162.62
179.642	1217.37
179.718	1258.56
179.795	1297.57
179.871	1328.78
179.948	1344.93
180.024	1369.15
180.101	1391.91
180.177	1405.33
180.254	1428.29
180.33	1449.12
180.407	1502.43
180.483	1593.7
180.56	1682.64
180.636	1765.29
180.712	1749.84
180.789	1755.88
180.865	1770.08
180.942	1775.69
181.018	1786
181.095	1801.78
181.171	1807.58
181.248	1808.86
181.324	1824.84
181.4	1829.78
181.477	1840.19
181.553	1853.54
181.63	1871.09
181.706	1887.11
181.782	1895.47
181.859	1893.76
181.935	1899.51
182.011	1892.38
182.088	1909.02
182.164	1926
182.24	1939.12
182.317	1950.39
182.393	1946.77
182.469	1958.99
182.546	1972.97
182.622	1979.91
182.698	1975.77
182.775	1988.61
182.851	2002.26
182.927	1996.17
183.003	1995.51
183.08	1991.37
183.156	2000.59
183.232	1996.74
183.308	1982.19
183.385	1989.66
183.461	2005.73
183.537	2006.49
183.613	2017.76
183.69	2008.39
183.766	1995.45
183.842	2002.3
183.918	2009.29
183.995	2022.08
184.071	2026.31
184.147	2019.75
184.223	2008.34
184.299	2020.38
184.375	2009.15
184.452	2014.67
184.528	2069.29
184.604	2078.61
184.68	2090.5
184.756	2096.4
184.832	2100.49
184.908	2107.91
184.985	2108.76
185.061	2095.54
185.137	2104.25
185.213	2096.5
185.289	2099.73
185.365	2093.83
185.441	2091.98
185.517	2103.97
185.593	2102.31
185.669	2099.31
185.745	2108.72
185.822	2123.65
185.898	2114.09
185.974	2121.79
186.05	2114.61
186.126	2075.45
186.202	2068.27
186.278	2063.23
186.354	2055.52
186.43	2063.94
186.506	2062.85
186.582	2059.28
186.658	2064.7
186.734	2047.73
186.81	2050.44
186.886	2052.2
186.962	2065.37
187.038	2057.52
187.114	2050.05
187.19	2055.71
187.266	2046.3
187.341	2047.96
187.417	2042.59
187.493	2041.21
187.569	2047.06
187.645	2041.68
187.721	2029.41
187.797	2036.26
187.873	2038.35
187.949	2031.93
188.025	2022.27
188.101	2020.32
188.176	2026.51
188.252	2023.99
188.328	2029.17
188.404	2027.46
188.48	2022.18
188.556	2014.09
188.632	2018.61
188.707	2019.9
188.783	2019.99
188.859	2015.43
188.935	2007.25
189.011	2013.9
189.086	2009.29
189.162	2001.49
189.238	1998.97
189.314	1998.88
189.39	1994.07
189.465	1989.13
189.541	2006.11
189.617	1996.31
189.693	1994.93
189.768	2000.31
189.844	2021.19
189.92	2015.16
189.996	2024.33
190.071	2034.51
190.147	2035.84
190.223	2044.79
190.298	2037.94
190.374	2024.57
190.45	2038.5
190.526	2046.78
190.601	2043.31
190.677	2046.49
190.753	2071.9
190.828	2075.09
190.904	2086.08
190.98	2099.11
191.055	2107.39
191.131	2097.45
191.207	2115.04
191.282	2125.17
191.358	2115.37
191.433	2104.43
191.509	2115.17
191.585	2110.18
191.66	2111.8
191.736	2119.98
191.811	2109.37
191.887	2123.41
191.963	2145.91
192.038	2149.05
192.114	2148.9
192.189	2152.71
192.265	2148.57
192.34	2127.16
192.416	2126.68
192.491	2125.39
192.567	2128.11
192.642	2131.58
192.718	2132.63
192.793	2118.02
192.869	2113.17
192.944	2115.69
193.02	2121.64
193.095	2127.63
193.171	2133.68
193.246	2135.15
193.322	2128.82
193.397	2131.2
193.473	2117.93
193.548	2099.94
193.624	2106.32
193.699	2103.51
193.775	2116.17
193.85	2118.07
193.925	2125.3
194.001	2122.78
194.076	2112.41
194.152	2102.23
194.227	2098.04
194.302	2091.1
194.378	2096.09
194.453	2094.67
194.529	2105.89
194.604	2091.24
194.679	2084.25
194.755	2066.33
194.83	2076.51
194.905	2077.51
194.981	2084.12
195.056	2076.18
195.131	2082.65
195.207	2076.41
195.282	2068.95
195.357	2052.2
195.433	2070.23
195.508	2059.19
195.583	2071.18
195.659	2087.11
195.734	2092.11
195.809	2089.97
195.884	2097.81
195.96	2097.62
196.035	2113.65
196.11	2112.42
196.185	2123.88
196.261	2125.35
196.336	2157.37
196.411	2144.66
196.486	2147.8
196.561	2144.33
196.637	2152.7
196.712	2165.78
196.787	2171.49
196.862	2185.43
196.937	2191.04
197.013	2195.14
197.088	2204.79
197.163	2223.07
197.238	2237.4
197.313	2238.69
197.388	2248.87
197.464	2276.43
197.539	2290.37
197.614	2283.71
197.689	2290.75
197.764	2306.65
197.839	2329.54
197.914	2322.69
197.989	2343.82
198.065	2356.81
198.14	2404.49
198.215	2430.86
198.29	2447.15
198.365	2461.67
198.44	2472.05
198.515	2502.47
198.59	2514.71
198.665	2542.37
198.74	2551.28
198.815	2553
198.89	2574.85
198.965	2606.01
199.04	2602.62
199.115	2618.05
199.19	2657.96
199.265	2664.72
199.34	2674.68
199.415	2704.9
199.49	2725.18
199.565	2734.04
199.64	2760.39
199.715	2758.19
199.79	2764.67
199.865	2767.2
199.94	2766.34
200.015	2796.79
200.09	2802.8
200.165	2812.99
200.24	2822.38
200.315	2861.54
200.39	2877.84
200.464	2885.56
200.539	2885.18
200.614	2903.53
200.689	2923.55
200.764	2930.08
200.839	2947.66
200.914	2952.38
200.989	2943.46
201.063	2959.91
201.138	2943.43
201.213	2942.9
201.288	2924.08
201.363	2927.98
201.438	2930.89
201.512	2944.56
201.587	2928.74
201.662	2935.36
201.737	2944.61
201.812	2949.33
201.886	2914.18
201.961	2921.14
202.036	2908.32
202.111	2907.46
202.186	2876.07
202.26	2863.49
202.335	2844.47
202.41	2837.13
202.485	2823.69
202.559	2803.92
202.634	2775.32
202.709	2784.13
202.784	2762.93
202.858	2763.93
202.933	2747.73
203.008	2739.4
203.082	2720.82
203.157	2721.25
203.232	2676.1
203.306	2654.08
203.381	2623.73
203.456	2604.29
203.53	2580.98
203.605	2562.08
203.68	2538.79
203.754	2532.93
203.829	2515.97
203.904	2494.74
203.978	2484.31
204.053	2485.59
204.127	2473.88
204.202	2472.02
204.277	2456.79
204.351	2453.74
204.426	2445.41
204.5	2438.03
204.575	2405.09
204.65	2412.19
204.724	2402.9
204.799	2413.84
204.873	2412.74
204.948	2410.89
205.022	2398.04
205.097	2393.61
205.171	2406.79
205.246	2414.36
205.32	2413.6
205.395	2412.75
205.469	2403.75
205.544	2409.23
205.618	2392.14
205.693	2403.61
205.767	2391.05
205.842	2411.05
205.916	2405.43
205.991	2396.1
206.065	2399
206.14	2415.99
206.214	2414.7
206.289	2407.7
206.363	2417.75
206.438	2418.75
206.512	2426.89
206.586	2447.02
206.661	2455.6
206.735	2434.52
206.81	2437.47
206.884	2452.27
206.958	2437.81
207.033	2453.51
207.107	2460.32
207.181	2489.13
207.256	2483.56
207.33	2504.99
207.405	2515.95
207.479	2533.71
207.553	2542.18
207.628	2527.29
207.702	2538.28
207.776	2532.95
207.851	2539.33
207.925	2554.29
207.999	2551.72
208.073	2549.01
208.148	2549.39
208.222	2534.95
208.296	2568.27
208.371	2585.1
208.445	2599.2
208.519	2630.29
208.593	2643.05
208.668	2639.1
208.742	2645.34
208.816	2650.01
208.89	2664.16
208.965	2662.92
209.039	2672.03
209.113	2690.94
209.187	2718.41
209.261	2719.36
209.336	2744.37
209.41	2766.77
209.484	2771.4
209.558	2798.94
209.632	2816.76
209.707	2836.82
209.781	2866.27
209.855	2893.07
209.929	2915.35
210.003	2931.27
210.077	2939.42
210.151	3000.74
210.226	3049.68
210.3	3089.05
210.374	3130.2
210.448	3155.62
210.522	3191.98
210.596	3227.71
210.67	3262.02
210.744	3337.25
210.818	3396.45
210.892	3446.19
210.966	3472.2
211.041	3522.89
211.115	3558.36
211.189	3623.86
211.263	3679.4
211.337	3733.55
211.411	3796.72
211.485	3848.92
211.559	3919.72
211.633	3988.21
211.707	4021.73
211.781	4096.37
211.855	4134
211.929	4196.42
212.003	4254.69
212.077	4344.08
212.151	4440.27
212.225	4538.52
212.299	4614.48
212.373	4699.15
212.447	4796.76
212.52	4931.23
212.594	5043.62
212.668	5170.85
212.742	5278.54
212.816	5394.47
212.89	5514.72
212.964	5643.57
213.038	5781.16
213.112	5925.81
213.186	6079.32
213.26	6202.51
213.333	6307.49
213.407	6464.46
213.481	6625.3
213.555	6793.31
213.629	6950.19
213.703	7095.93
213.777	7262.66
213.85	7418.83
213.924	7627.06
213.998	7805.33
214.072	7980.48
214.146	8149.17
214.219	8329.97
214.293	8512.84
214.367	8706.76
214.441	8909.04
214.515	9084.7
214.588	9254.22
214.662	9420.96
214.736	9593.86
214.81	9803.11
214.883	10013.01
214.957	10209.61
215.031	10405.07
215.105	10581.94
215.178	10765.71
215.252	10970.77
215.326	11154.31
215.4	11337.32
215.473	11500.8
215.547	11677.05
215.621	11870.22
215.694	12077.38
215.768	12251.71
215.842	12448.99
215.915	12637.9
215.989	12811.19
216.063	13003.81
216.136	13203.7
216.21	13396.47
216.284	13602.16
216.357	13797.33
216.431	13984.61
216.504	14178.44
216.578	14391.11
216.652	14601.33
216.725	14793.7
216.799	14982.85
216.873	15164.19
216.946	15352.8
217.02	15531.25
217.093	15719.9
217.167	15878.05
217.24	16042.84
217.314	16214.86
217.387	16363.56
217.461	16534.7
217.535	16711.92
217.608	16863.74
217.682	17019.51
217.755	17187.37
217.829	17340.58
217.902	17496.58
217.976	17647
218.049	17792.92
218.123	17918.85
218.196	18068.58
218.27	18195.57
218.343	18320.81
218.417	18463.12
218.49	18601.62
218.563	18737.14
218.637	18874.09
218.71	19025.03
218.784	19160.11
218.857	19291.91
218.931	19434.89
219.004	19549.82
219.077	19677.43
219.151	19799.16
219.224	19921.52
219.298	20039.25
219.371	20163.64
219.444	20256.94
219.518	20366.09
219.591	20463.15
219.665	20585.81
219.738	20689.67
219.811	20786.25
219.885	20889.24
219.958	20988.04
220.031	21077.92
220.105	21173.98
220.178	21254.47
220.251	21330.91
220.325	21413.38
220.398	21504
220.471	21579.24
220.544	21660.6
220.618	21733
220.691	21815.38
220.764	21892.65
220.838	21974.45
220.911	22032.83
220.984	22126.3
221.057	22191.23
221.131	22265.08
221.204	22307.64
221.277	22391.34
221.35	22481.3
221.424	22529.12
221.497	22582.68
221.57	22638.5
221.643	22702.24
221.716	22767.76
221.79	22811.88
221.863	22856.18
221.936	22897.12
222.009	22939.5
222.082	22984.72
222.155	23014.42
222.229	23064.81
222.302	23099.86
222.375	23114.09
222.448	23153.14
222.521	23173.2
222.594	23208.54
222.667	23231.25
222.74	23274.7
222.814	23281.26
222.887	23308.17
222.96	23359.67
223.033	23388.75
223.106	23414.35
223.179	23437.79
223.252	23451.29
223.325	23470.44
223.398	23493.68
223.471	23517.16
223.544	23534.72
223.617	23554.39
223.69	23574.6
223.763	23569.34
223.837	23587.38
223.91	23613.42
223.983	23606.42
224.056	23607.49
224.129	23618.05
224.202	23642.25
224.275	23650.36
224.348	23649.78
224.42	23631.69
224.493	23613.7
224.566	23613.75
224.639	23613.56
224.712	23598.42
224.785	23588.39
224.858	23579.08
224.931	23579.61
225.004	23567.41
225.077	23561.28
225.15	23523
225.223	23514.51
225.296	23541.13
225.369	23507.76
225.442	23483.84
225.514	23486.01
225.587	23483.5
225.66	23482.64
225.733	23473.91
225.806	23450.32
225.879	23433.93
225.952	23410.69
226.025	23405.33
226.097	23404.56
226.17	23390.72
226.243	23364.83
226.316	23350.27
226.389	23330.69
226.461	23304.6
226.534	23290.71
226.607	23276.87
226.68	23287.53
226.753	23265.11
226.825	23220.55
226.898	23224.74
226.971	23218.52
227.044	23195.09
227.117	23171.37
227.189	23145.71
227.262	23122.23
227.335	23108.82
227.407	23089.49
227.48	23075.8
227.553	23058.2
227.626	23030.66
227.698	23009.49
227.771	22993.63
227.844	22969.23
227.916	22953.95
227.989	22924.54
228.062	22902.41
228.134	22903.71
228.207	22880.23
228.28	22853.09
228.352	22829.99
228.425	22806.37
228.498	22780.14
228.57	22750.68
228.643	22749.09
228.716	22730.05
228.788	22697.31
228.861	22672.58
228.934	22660.28
229.006	22636.27
229.079	22610.14
229.151	22584.88
229.224	22545.4
229.296	22523.27
229.369	22548.87
229.442	22548.68
229.514	22517.3
229.587	22505.05
229.659	22459.78
229.732	22439.82
229.804	22422.95
229.877	22412.92
229.949	22391.27
230.022	22386.5
230.094	22360.91
230.167	22328.36
230.239	22295.39
230.312	22271.53
230.384	22259.86
230.457	22230.41
230.529	22212.43
230.602	22192.76
230.674	22167.11
230.747	22160.8
230.819	22149.08
230.892	22067.23
230.964	22036.71
231.037	22019.41
231.109	21989.61
231.181	21981.18
231.254	21933.84
231.326	21909.26
231.399	21886.12
231.471	21857.1
231.544	21804.32
231.616	21785.86
231.688	21756.5
231.761	21723.97
231.833	21705.6
231.905	21651.67
231.978	21624.14
232.05	21587.95
232.122	21555.89
232.195	21517.28
232.267	21497.91
232.339	21463.2
232.412	21452.07
232.484	21412.16
232.556	21379.58
232.629	21373.94
232.701	21334.61
232.773	21316.73
232.846	21278.6
232.918	21244.38
232.99	21213.48
233.062	21197.58
233.135	21172.04
233.207	21132.85
233.279	21107.65
233.351	21070.58
233.424	21034.44
233.496	20991.73
233.568	20985.04
233.64	20938.82
233.713	20906
233.785	20870.38
233.857	20851.68
233.929	20806.18
234.001	20799.97
234.074	20781.6
234.146	20729.46
234.218	20698.61
234.29	20671.28
234.362	20644.68
234.434	20602.27
234.507	20564.97
234.579	20521.16
234.651	20485.88
234.723	20467.47
234.795	20444.87
234.867	20418.85
234.939	20413.16
235.012	20392.29
235.084	20359.72
235.156	20343.57
235.228	20315.96
235.3	20276.83
235.372	20234.42
235.444	20211.24
235.516	20158.46
235.588	20124.73
235.66	20087.28
235.732	20044.35
235.804	20063
235.876	20040.64
235.948	20021.26
236.02	19985.99
236.092	19945.75
236.164	19921.08
236.236	19881.8
236.308	19834.86
236.38	19798.09
236.452	19753.76
236.524	19724.79
236.596	19702.58
236.668	19675.64
236.74	19646.1
236.812	19616.32
236.884	19588.03
236.956	19567.94
237.028	19523.21
237.1	19487.31
237.172	19481.48
237.244	19471.36
237.316	19402.06
237.388	19353.3
237.46	19312.38
237.532	19293.15
237.604	19258.99
237.675	19242.8
237.747	19221.4
237.819	19193.88
237.891	19163.62
237.963	19122.95
238.035	19081.17
238.107	19019.77
238.178	18999.97
238.25	18965.08
238.322	18960.4
238.394	18909.32
238.466	18848.46
238.538	18814.63
238.609	18789.47
238.681	18723.65
238.753	18669.24
238.825	18643.36
238.897	18615.89
238.968	18590.74
239.04	18547.08
239.112	18548.96
239.184	18502.99
239.255	18465.35
239.327	18426.84
239.399	18395.67
239.471	18377.5
239.542	18353.98
239.614	18335.09
239.686	18275.48
239.758	18256.06
239.829	18210.04
239.901	18197.8
239.973	18178.33
240.044	18160.69
240.116	18125.41
240.188	18095.34
240.259	18072.74
240.331	18023.35
240.403	17997.18
240.474	17962.19
240.546	17929.66
240.618	17867.21
240.689	17827.16
240.761	17796.94
240.833	17787.88
240.904	17753.18
240.976	17713.43
241.048	17682.1
241.119	17663.4
241.191	17636.13
241.262	17612.61
241.334	17581.19
241.405	17541.62
241.477	17505
241.549	17468.13
241.62	17442.2
241.692	17417.82
241.763	17395.45
241.835	17373.62
241.906	17346.73
241.978	17300.9
242.049	17281.43
242.121	17271.4
242.192	17258.34
242.264	17216.9
242.335	17172.9
242.407	17147.69
242.478	17116.32
242.55	17088.27
242.621	17044.03
242.693	17009.33
242.764	16969.71
242.836	16934.29
242.907	16917.13
242.979	16902.58
243.05	16874.38
243.122	16846.72
243.193	16817.03
243.264	16765.56
243.336	16725.75
243.407	16707.91
243.479	16697.12
243.55	16676.78
243.622	16648.06
243.693	16616.49
243.764	16600.01
243.836	16556.39
243.907	16524.53
243.978	16488.38
244.05	16460.38
244.121	16422.93
244.192	16409.53
244.264	16366.49
244.335	16333.38
244.407	16290.05
244.478	16258.87
244.549	16227.1
244.62	16184.06
244.692	16158.47
244.763	16140.3
244.834	16115.38
244.906	16073.98
244.977	16049.3
245.048	16028.43
245.119	15995.32
245.191	15952.52
245.262	15905.62
245.333	15904.17
245.405	15882.44
245.476	15864.51
245.547	15837.27
245.618	15817.56
245.689	15783.15
245.761	15760.64
245.832	15730.75
245.903	15709.25
245.974	15686.79
246.045	15653.39
246.117	15646.74
246.188	15604.71
246.259	15568.36
246.33	15534.09
246.401	15502.66
246.473	15456.39
246.544	15423.04
246.615	15402.07
246.686	15383.61
246.757	15367.7
246.828	15323.55
246.899	15310.05
246.97	15265.03
247.042	15229.7
247.113	15211.62
247.184	15214.9
247.255	15186.61
247.326	15164.19
247.397	15142.07
247.468	15120.52
247.539	15103.07
247.61	15058.19
247.681	15045.56
247.752	15032.79
247.823	14997.55
247.894	14978.46
247.965	14946.94
248.037	14911.56
248.108	14872.61
248.179	14836.55
248.25	14810.43
248.321	14789.36
248.392	14747.81
248.463	14751.81
248.534	14732.19
248.605	14703.17
248.675	14665.72
248.746	14643.88
248.817	14625.61
248.888	14599
248.959	14554.95
249.03	14530.99
249.101	14505
249.172	14476.56
249.243	14427.1
249.314	14426.33
249.385	14406.47
249.456	14393.55
249.527	14363.18
249.598	14335.71
249.669	14307.6
249.739	14287.07
249.81	14272.17
249.881	14232.21
249.952	14209.22
250.023	14178.41
250.094	14143.99
250.165	14107.12
250.235	14090.39
250.306	14073.71
250.377	14032.2
250.448	14018.66
250.519	13982.6
250.59	13981.44
250.66	13956.47
250.731	13956.81
250.802	13929.67
250.873	13914.15
250.944	13890.28
251.014	13867.05
251.085	13877.85
251.156	13863.1
251.227	13855.09
251.297	13841.4
251.368	13842.56
251.439	13831.57
251.51	13825.4
251.58	13801.68
251.651	13777.1
251.722	13764.32
251.792	13721.75
251.863	13706.52
251.934	13694.42
252.005	13701.07
252.075	13671.86
252.146	13663.23
252.217	13654.17
252.287	13636.96
252.358	13610.4
252.429	13610.69
252.499	13585.04
252.57	13559.73
252.641	13559.88
252.711	13537.12
252.782	13500.82
252.852	13493.74
252.923	13467.47
252.994	13450.06
253.064	13440.57
253.135	13414.39
253.205	13382.72
253.276	13379.49
253.347	13376.11
253.417	13342.51
253.488	13318.7
253.558	13305.73
253.629	13283.32
253.699	13262.64
253.77	13255.98
253.841	13234.68
253.911	13212.74
253.982	13200.21
254.052	13191.1
254.123	13166.66
254.193	13145.98
254.264	13161.35
254.334	13130.4
254.405	13099.17
254.475	13073.09
254.546	13047.35
254.616	13048.07
254.687	13043.83
254.757	13034.33
254.827	13013.99
254.898	13003.86
254.968	12984
255.039	12950.26
255.109	12938.21
255.18	12912.47
255.25	12874.91
255.321	12860.36
255.391	12829.7
255.461	12828.73
255.532	12780.72
255.602	12757.87
255.673	12725.14
255.743	12698.53
255.813	12655.87
255.884	12650.66
255.954	12636.63
256.024	12635.09
256.095	12612.53
256.165	12575.22
256.235	12555.41
256.306	12522.29
256.376	12515.16
256.446	12503.64
256.517	12495.3
256.587	12482.19
256.657	12466.47
256.728	12446.71
256.798	12425.93
256.868	12410.36
256.938	12386.02
257.009	12386.45
257.079	12372.38
257.149	12381.29
257.219	12336.8
257.29	12329.04
257.36	12295.73
257.43	12283.78
257.5	12247.92
257.571	12221.93
257.641	12209.4
257.711	12183.85
257.781	12174.99
257.852	12162.12
257.922	12122.11
257.992	12110.73
258.062	12095.55
258.132	12085.86
258.202	12062.43
258.273	12047.97
258.343	12039.34
258.413	12005.75
258.483	11984.2
258.553	11954.17
258.623	11925.16
258.693	11913.83
258.764	11910.36
258.834	11908.67
258.904	11894.45
258.974	11866.3
259.044	11851.94
259.114	11843.89
259.184	11825.62
259.254	11813.52
259.324	11774.58
259.394	11769.86
259.464	11769.76
259.535	11744.79
259.605	11723.73
259.675	11704.84
259.745	11698.67
259.815	11669.22
259.885	11656.11
259.955	11664.98
260.025	11644.4
260.095	11621.98
260.165	11615.57
260.235	11608.2
260.305	11576.15
260.375	11546.99
260.445	11553.83
260.515	11548.24
260.585	11538.51
260.655	11525.73
260.725	11514.74
260.795	11510.45
260.865	11509.54
260.934	11476.47
261.004	11469.73
261.074	11453.1
261.144	11450.74
261.214	11443.12
261.284	11430.01
261.354	11421.58
261.424	11394.11
261.494	11394.73
261.564	11382.83
261.634	11374.49
261.703	11344.8
261.773	11339.98
261.843	11326.39
261.913	11316.56
261.983	11291.4
262.053	11280.9
262.123	11261.04
262.192	11235.98
262.262	11224.7
