Data from 20250625_urea_1M_1_MAYP1162681_23-25-05-570.txt Node
Date: Wed Jun 25 23:25:05 BST 2025
User: adleo
Spectrometer: MAYP116268
Trigger mode: 0
Integration Time (sec): 1.000000E0
Scans to average: 1
Electric dark correction enabled: true
Nonlinearity correction enabled: true
Boxcar width: 10
XAxis mode: Wavelengths
Number of Pixels in Spectrum: 2068
>>>>>Begin Spectral Data<<<<<
179.565	1145.43
179.642	1197.75
179.718	1235.26
179.795	1274.69
179.871	1304
179.948	1321.42
180.024	1343.41
180.101	1365.57
180.177	1376.53
180.254	1395.07
180.33	1415.07
180.407	1464.44
180.483	1555.08
180.56	1639.17
180.636	1720.36
180.712	1710.28
180.789	1718.69
180.865	1730.95
180.942	1741.83
181.018	1755.04
181.095	1766.68
181.171	1769.06
181.248	1769.73
181.324	1786.6
181.4	1789.55
181.477	1801
181.553	1812.69
181.63	1831.13
181.706	1844.49
181.782	1855.56
181.859	1859.32
181.935	1864.59
182.011	1861.69
182.088	1877.81
182.164	1897.26
182.24	1910.14
182.317	1920.45
182.393	1918.5
182.469	1929.72
182.546	1940.85
182.622	1941.47
182.698	1939.66
182.775	1954.49
182.851	1966.62
182.927	1957.01
183.003	1954.68
183.08	1949.36
183.156	1958.58
183.232	1956.16
183.308	1946.74
183.385	1949.98
183.461	1964.43
183.537	1967.33
183.613	1980.03
183.69	1972.47
183.766	1962.67
183.842	1968.33
183.918	1971.46
183.995	1982.26
184.071	1987.44
184.147	1982.31
184.223	1973.42
184.299	1983.79
184.375	1971.28
184.452	1978.8
184.528	2035.93
184.604	2046.34
184.68	2057.8
184.756	2065.79
184.832	2070.02
184.908	2075.92
184.985	2080.58
185.061	2068.12
185.137	2076.82
185.213	2063.93
185.289	2066.79
185.365	2057.33
185.441	2055.66
185.517	2070.74
185.593	2069.6
185.669	2066.89
185.745	2075.78
185.822	2090.28
185.898	2080.06
185.974	2091.18
186.05	2084.48
186.126	2042.8
186.202	2035.15
186.278	2030.72
186.354	2023.73
186.43	2027.35
186.506	2023.35
186.582	2021.74
186.658	2026.82
186.734	2008.47
186.81	2010.7
186.886	2009.85
186.962	2021.45
187.038	2017.98
187.114	2007.51
187.19	2014.07
187.266	2004.04
187.341	2004.9
187.417	1997.57
187.493	1997.86
187.569	1999.67
187.645	1991.68
187.721	1983.64
187.797	1993.39
187.873	1996.86
187.949	1986.49
188.025	1981.83
188.101	1986.25
188.176	1988.44
188.252	1983.59
188.328	1989.15
188.404	1990.06
188.48	1986.16
188.556	1980.55
188.632	1979.59
188.707	1978.88
188.783	1973.98
188.859	1968.61
188.935	1956.77
189.011	1964.52
189.086	1958.25
189.162	1954.01
189.238	1954.54
189.314	1952.3
189.39	1946.26
189.465	1938.37
189.541	1956.06
189.617	1942.79
189.693	1936.42
189.768	1942.75
189.844	1967.06
189.92	1957.69
189.996	1966.54
190.071	1976.86
190.147	1978.28
190.223	1988.18
190.298	1983.18
190.374	1971.82
190.45	1984.42
190.526	1993.36
190.601	1988.7
190.677	1991.31
190.753	2016.58
190.828	2017.96
190.904	2029.94
190.98	2044.02
191.055	2057.53
191.131	2049.25
191.207	2067.85
191.282	2076.97
191.358	2066.23
191.433	2052.66
191.509	2066.26
191.585	2061.5
191.66	2062.6
191.736	2071.78
191.811	2061.41
191.887	2078.77
191.963	2102.46
192.038	2104.93
192.114	2105.69
192.189	2107.64
192.265	2106.31
192.34	2081.33
192.416	2082.37
192.491	2081.09
192.567	2086.99
192.642	2088.51
192.718	2088.32
192.793	2077.38
192.869	2074.1
192.944	2074.29
193.02	2080.71
193.095	2085.9
193.171	2094.94
193.246	2094.94
193.322	2088.7
193.397	2092.7
193.473	2075.62
193.548	2058.3
193.624	2064.87
193.699	2063.82
193.775	2078.43
193.85	2077.33
193.925	2085.42
194.001	2082.42
194.076	2073.67
194.152	2057.93
194.227	2053.07
194.302	2045.13
194.378	2049.6
194.453	2045.99
194.529	2059.4
194.604	2043.09
194.679	2037.14
194.755	2018.08
194.83	2030.83
194.905	2029.97
194.981	2038.01
195.056	2032.5
195.131	2037.2
195.207	2036.63
195.282	2030.88
195.357	2011.14
195.433	2025.93
195.508	2015.7
195.583	2026.73
195.659	2040.1
195.734	2049.57
195.809	2047.62
195.884	2053.37
195.96	2052.23
196.035	2071.35
196.11	2068.3
196.185	2080.95
196.261	2084.09
196.336	2114.58
196.411	2098.93
196.486	2100.64
196.561	2092.03
196.637	2102.73
196.712	2118.48
196.787	2121.05
196.862	2133.37
196.937	2144.3
197.013	2152.15
197.088	2164.47
197.163	2179.94
197.238	2193.13
197.313	2192.41
197.388	2203.17
197.464	2233.19
197.539	2246.94
197.614	2236.48
197.689	2248.9
197.764	2265.94
197.839	2286.3
197.914	2278.93
197.989	2301.29
198.065	2316.04
198.14	2365.14
198.215	2386.46
198.29	2399.51
198.365	2413.7
198.44	2423.17
198.515	2452.21
198.59	2467.54
198.665	2491.4
198.74	2505.26
198.815	2509.07
198.89	2530.06
198.965	2560.02
199.04	2557.12
199.115	2565.5
199.19	2605.49
199.265	2607.63
199.34	2614.63
199.415	2643.22
199.49	2663.41
199.565	2672.61
199.64	2698.52
199.715	2697.09
199.79	2705.38
199.865	2708.71
199.94	2704.09
200.015	2735.02
200.09	2739.4
200.165	2743.54
200.24	2750.36
200.315	2784.08
200.39	2800.42
200.464	2805.42
200.539	2804.95
200.614	2820.38
200.689	2846.16
200.764	2853.93
200.839	2872.27
200.914	2878.04
200.989	2871.22
201.063	2885.71
201.138	2872.42
201.213	2873.04
201.288	2853.02
201.363	2861.13
201.438	2863.13
201.512	2881.23
201.587	2864.07
201.662	2867.93
201.737	2879.46
201.812	2887.62
201.886	2858.09
201.961	2867.82
202.036	2858.82
202.111	2855.91
202.186	2830.14
202.26	2813.79
202.335	2794.87
202.41	2789.3
202.485	2775.39
202.559	2754.19
202.634	2729.12
202.709	2731.7
202.784	2709.97
202.858	2710.21
202.933	2692.39
203.008	2687.67
203.082	2666.91
203.157	2668.19
203.232	2629.96
203.306	2608.32
203.381	2576.55
203.456	2553.92
203.53	2526.99
203.605	2508.28
203.68	2487.33
203.754	2477.67
203.829	2463
203.904	2444.33
203.978	2431.29
204.053	2433.09
204.127	2423.43
204.202	2421.29
204.277	2406.39
204.351	2399.92
204.426	2391.01
204.5	2379.68
204.575	2344.8
204.65	2355.32
204.724	2345.56
204.799	2352.07
204.873	2351.55
204.948	2348.03
205.022	2338.13
205.097	2333.13
205.171	2348.41
205.246	2357.5
205.32	2360.64
205.395	2360.5
205.469	2348.66
205.544	2355.08
205.618	2337.9
205.693	2347.94
205.767	2334.19
205.842	2358.52
205.916	2355.52
205.991	2348.38
206.065	2355.09
206.14	2368.84
206.214	2362.98
206.289	2356.89
206.363	2366.5
206.438	2368.6
206.512	2377.55
206.586	2395.4
206.661	2402.68
206.735	2378.08
206.81	2378.46
206.884	2393.27
206.958	2380.13
207.033	2396.55
207.107	2405.74
207.181	2438.88
207.256	2433.55
207.33	2456.88
207.405	2468.93
207.479	2487.07
207.553	2497.12
207.628	2482.51
207.702	2497.83
207.776	2493.79
207.851	2498.31
207.925	2516.41
207.999	2512.41
208.073	2513.55
208.148	2516.51
208.222	2504.46
208.296	2535.39
208.371	2551.17
208.445	2561.74
208.519	2591.35
208.593	2604.92
208.668	2599.25
208.742	2600.68
208.816	2604.68
208.89	2619.03
208.965	2616.21
209.039	2627.22
209.113	2643.51
209.187	2667.65
209.261	2663.74
209.336	2687.23
209.41	2709.72
209.484	2712.05
209.558	2738.45
209.632	2754.31
209.707	2771.56
209.781	2804.58
209.855	2829.13
209.929	2853.74
210.003	2868.23
210.077	2877.1
210.151	2933.15
210.226	2980.66
210.3	3024.99
210.374	3065.65
210.448	3084.25
210.522	3113.11
210.596	3141.87
210.67	3175.26
210.744	3241.2
210.818	3296.8
210.892	3345.63
210.966	3370.58
211.041	3418.83
211.115	3449.46
211.189	3510.28
211.263	3564.75
211.337	3611.35
211.411	3671.96
211.485	3713.97
211.559	3777.34
211.633	3834.01
211.707	3858.87
211.781	3927.55
211.855	3951.35
211.929	4004.05
212.003	4057.23
212.077	4138.05
212.151	4224.43
212.225	4312.22
212.299	4386.99
212.373	4466.5
212.447	4550.28
212.52	4670.75
212.594	4769.78
212.668	4878.83
212.742	4967.43
212.816	5072.78
212.89	5177.78
212.964	5287.52
213.038	5407.7
213.112	5543.56
213.186	5686.23
213.26	5799.02
213.333	5889.36
213.407	6038.28
213.481	6186.83
213.555	6335.83
213.629	6476.52
213.703	6616.47
213.777	6768.07
213.85	6901.72
213.924	7092.01
213.998	7251.47
214.072	7408.63
214.146	7566.65
214.219	7737.77
214.293	7906.58
214.367	8077.04
214.441	8262.71
214.515	8424.51
214.588	8584.31
214.662	8725.75
214.736	8887.18
214.81	9075.62
214.883	9260.05
214.957	9420.84
215.031	9590.8
215.105	9750.25
215.178	9914.97
215.252	10089.38
215.326	10247.86
215.4	10418.24
215.473	10552.14
215.547	10713.59
215.621	10881.23
215.694	11070.09
215.768	11229.59
215.842	11396.43
215.915	11559.61
215.989	11713.84
216.063	11888.27
216.136	12062.6
216.21	12238.28
216.284	12422.85
216.357	12599.79
216.431	12770.09
216.504	12956.49
216.578	13152.05
216.652	13345.73
216.725	13523.17
216.799	13697.62
216.873	13861.18
216.946	14024.31
217.02	14183.53
217.093	14345.45
217.167	14479.75
217.24	14615.92
217.314	14770.66
217.387	14922.16
217.461	15073.13
217.535	15229.84
217.608	15364.42
217.682	15514.08
217.755	15676.95
217.829	15802.52
217.902	15947.16
217.976	16094.17
218.049	16225.08
218.123	16338.19
218.196	16475.89
218.27	16599.52
218.343	16720.44
218.417	16863.05
218.49	16991.59
218.563	17143.06
218.637	17281.86
218.71	17434.39
218.784	17565.09
218.857	17698.83
218.931	17826.68
219.004	17946.35
219.077	18071.4
219.151	18189.62
219.224	18291.45
219.298	18393.27
219.371	18521.08
219.444	18612.4
219.518	18704.83
219.591	18813.01
219.665	18944.96
219.738	19037.82
219.811	19124.23
219.885	19227.16
219.958	19323.69
220.031	19418.52
220.105	19505.12
220.178	19582.03
220.251	19661.02
220.325	19747.09
220.398	19830.6
220.471	19907.03
220.544	20000.57
220.618	20066.11
220.691	20139.17
220.764	20222.74
220.838	20299.84
220.911	20362.88
220.984	20439.07
221.057	20516.56
221.131	20583.84
221.204	20618.78
221.277	20701.44
221.35	20798.16
221.424	20852.14
221.497	20907.61
221.57	20963.13
221.643	21016.2
221.716	21077.36
221.79	21122.95
221.863	21173.17
221.936	21208.79
222.009	21256.84
222.082	21293.43
222.155	21338.68
222.229	21400.23
222.302	21441.01
222.375	21478.51
222.448	21522.32
222.521	21568.06
222.594	21608.69
222.667	21630.29
222.74	21679.69
222.814	21700.08
222.887	21717.19
222.96	21748.67
223.033	21780.82
223.106	21810.95
223.179	21847.39
223.252	21867.3
223.325	21897.04
223.398	21915.98
223.471	21948.9
223.544	21967.61
223.617	21989.73
223.69	22008.34
223.763	22018.27
223.837	22035.33
223.91	22064.54
223.983	22072.88
224.056	22072.02
224.129	22081.08
224.202	22107.74
224.275	22111.21
224.348	22110.48
224.42	22109.9
224.493	22099.73
224.566	22105.18
224.639	22121.96
224.712	22115.45
224.785	22120.03
224.858	22121.67
224.931	22121.81
225.004	22113.23
225.077	22127.26
225.15	22106.68
225.223	22114
225.296	22136.13
225.369	22124.32
225.442	22107.3
225.514	22107.11
225.587	22113.96
225.66	22125.09
225.733	22117.19
225.806	22114.39
225.879	22119.02
225.952	22114.92
226.025	22129.53
226.097	22134.88
226.17	22120.75
226.243	22104.17
226.316	22095.01
226.389	22098.63
226.461	22103.35
226.534	22102.58
226.607	22094.96
226.68	22105.42
226.753	22094.43
226.825	22060.74
226.898	22063.19
226.971	22052.35
227.044	22045.36
227.117	22037.55
227.189	22024.97
227.262	22029.4
227.335	22025.93
227.407	22017.98
227.48	22002.17
227.553	21989.15
227.626	21979.22
227.698	21981.68
227.771	21977.92
227.844	21961.19
227.916	21941.86
227.989	21914.05
228.062	21900.36
228.134	21900.7
228.207	21892.6
228.28	21873.9
228.352	21866.14
228.425	21858.81
228.498	21860.45
228.57	21832.88
228.643	21837.89
228.716	21817.98
228.788	21792.44
228.861	21766.07
228.934	21754.74
229.006	21744.04
229.079	21731.03
229.151	21709.34
229.224	21660.99
229.296	21644.65
229.369	21684.08
229.442	21680.9
229.514	21660.99
229.587	21652.61
229.659	21619.01
229.732	21601.32
229.804	21588.16
229.877	21588.45
229.949	21588.12
230.022	21584.4
230.094	21573.7
230.167	21554.71
230.239	21521.02
230.312	21501.21
230.384	21508.25
230.457	21490.08
230.529	21471.76
230.602	21457.88
230.674	21436.38
230.747	21445.73
230.819	21440.87
230.892	21372.08
230.964	21360.56
231.037	21344.9
231.109	21327.88
231.181	21319.31
231.254	21293.18
231.326	21274.14
231.399	21245.76
231.471	21206.57
231.544	21160.83
231.616	21143.77
231.688	21125.26
231.761	21102.61
231.833	21084.63
231.905	21037.06
231.978	21017.98
232.05	20993.4
232.122	20975.61
232.195	20945.2
232.267	20935.42
232.339	20908.52
232.412	20895.85
232.484	20861.48
232.556	20839.27
232.629	20831.99
232.701	20806.97
232.773	20779.6
232.846	20755.31
232.918	20735.07
232.99	20710.15
233.062	20701.77
233.135	20693.57
233.207	20656.9
233.279	20654.1
233.351	20627.02
233.424	20606.78
233.496	20570.49
233.568	20564.99
233.64	20518.87
233.713	20501.33
233.785	20456.03
233.857	20422.63
233.929	20383.4
234.001	20373.43
234.074	20358.15
234.146	20312.94
234.218	20282.68
234.29	20257.19
234.362	20225.04
234.434	20181.48
234.507	20144.66
234.579	20086.88
234.651	20042.01
234.723	20008.08
234.795	19979.36
234.867	19951.12
234.939	19931.7
235.012	19904.95
235.084	19879.17
235.156	19862.26
235.228	19828.48
235.3	19804.43
235.372	19784.81
235.444	19765.39
235.516	19703.23
235.588	19672.82
235.66	19641.88
235.732	19602.99
235.804	19631.76
235.876	19612.97
235.948	19608.29
236.02	19581.02
236.092	19566.13
236.164	19541.12
236.236	19515.19
236.308	19473.8
236.38	19451.82
236.452	19410.28
236.524	19396.88
236.596	19382.14
236.668	19349.42
236.74	19318
236.812	19289.13
236.884	19256.65
236.956	19229.09
237.028	19200.46
237.1	19160.13
237.172	19140.9
237.244	19132.76
237.316	19060.42
237.388	19022.54
237.46	18972.43
237.532	18959.75
237.604	18919.03
237.675	18904.77
237.747	18886.55
237.819	18855.42
237.891	18826.94
237.963	18791.81
238.035	18741.21
238.107	18667.92
238.178	18660.25
238.25	18623.97
238.322	18618.95
238.394	18573.51
238.466	18537.85
238.538	18508.5
238.609	18485.37
238.681	18435.69
238.753	18392.51
238.825	18363.55
238.897	18335.45
238.968	18324.42
239.04	18281.29
239.112	18278.44
239.184	18224.61
239.255	18182.3
239.327	18147.8
239.399	18112.52
239.471	18089.1
239.542	18059.51
239.614	18046.69
239.686	17990.74
239.758	17972.24
239.829	17918.51
239.901	17905.88
239.973	17883.13
240.044	17855.71
240.116	17816.29
240.188	17788.44
240.259	17751.86
240.331	17723.33
240.403	17700.15
240.474	17659.19
240.546	17624.87
240.618	17571.33
240.689	17547.57
240.761	17520.97
240.833	17514.85
240.904	17474.75
240.976	17446.51
241.048	17429.45
241.119	17402.71
241.191	17371.24
241.262	17353.6
241.334	17319.19
241.405	17285.79
241.477	17240.83
241.549	17216.3
241.62	17197.45
241.692	17171.86
241.763	17154.94
241.835	17115.38
241.906	17086.41
241.978	17035.57
242.049	17018.84
242.121	17000
242.192	16971.32
242.264	16929.78
242.335	16884.48
242.407	16864.91
242.478	16825.82
242.55	16791.89
242.621	16747.94
242.693	16714.97
242.764	16683.7
242.836	16653.14
242.907	16628.66
242.979	16604.85
243.05	16566.34
243.122	16530.1
243.193	16498.67
243.264	16448.98
243.336	16422.09
243.407	16393.07
243.479	16380.4
243.55	16347.62
243.622	16312.82
243.693	16286.03
243.764	16273.5
243.836	16230.94
243.907	16195.22
243.978	16169.24
244.05	16146.97
244.121	16115.45
244.192	16099.88
244.264	16045.18
244.335	16020.69
244.407	15968.88
244.478	15947.53
244.549	15922.9
244.62	15886.89
244.692	15855.08
244.763	15840.86
244.834	15801.1
244.906	15770.2
244.977	15747.69
245.048	15739.89
245.119	15707.49
245.191	15673.85
245.262	15624.69
245.333	15616.06
245.405	15593.55
245.476	15567.76
245.547	15532.04
245.618	15511.32
245.689	15483.02
245.761	15470.59
245.832	15437.04
245.903	15421.81
245.974	15394.62
246.045	15364.45
246.117	15358.04
246.188	15323.19
246.259	15279.9
246.33	15248.57
246.401	15206.39
246.473	15161.71
246.544	15113.22
246.615	15095.91
246.686	15061.35
246.757	15041.49
246.828	15000.08
246.899	14988.27
246.97	14944.12
247.042	14913.46
247.113	14887.96
247.184	14878.76
247.255	14841.3
247.326	14822.65
247.397	14796.28
247.468	14769.58
247.539	14742.77
247.61	14700.79
247.681	14688.11
247.752	14675.19
247.823	14654.7
247.894	14634.7
247.965	14601.34
248.037	14578.25
248.108	14541.37
248.179	14521.8
248.25	14491.67
248.321	14476.2
248.392	14440.96
248.463	14447.76
248.534	14421.25
248.605	14408.57
248.675	14383.5
248.746	14372.66
248.817	14345.86
248.888	14329.32
248.959	14283.72
249.03	14270.37
249.101	14252.77
249.172	14210.45
249.243	14173.04
249.314	14157.66
249.385	14139
249.456	14120.11
249.527	14090.94
249.598	14068.38
249.669	14036.85
249.739	14023.16
249.81	14002.1
249.881	13962.04
249.952	13933.93
250.023	13913.64
250.094	13868.95
250.165	13826.19
250.235	13797.13
250.306	13777.89
250.377	13739.57
250.448	13729.3
250.519	13684.13
250.59	13669.67
250.66	13648.79
250.731	13640.31
250.802	13613.31
250.873	13592.68
250.944	13578.22
251.014	13545.05
251.085	13553.54
251.156	13541.44
251.227	13533.97
251.297	13527.17
251.368	13515.41
251.439	13499.26
251.51	13487.74
251.58	13462.33
251.651	13437.65
251.722	13429.65
251.792	13395.95
251.863	13367.75
251.934	13350.97
252.005	13358.35
252.075	13341.33
252.146	13330.63
252.217	13318.68
252.287	13306.58
252.358	13287.82
252.429	13282.14
252.499	13257.98
252.57	13226.75
252.641	13209.44
252.711	13184.66
252.782	13146.34
252.852	13151.74
252.923	13126.96
252.994	13105.89
253.064	13105.02
253.135	13074.7
253.205	13036.81
253.276	13030.79
253.347	13031.94
253.417	13015.02
253.488	12988.65
253.558	12962.29
253.629	12945.08
253.699	12919.58
253.77	12909.16
253.841	12882.02
253.911	12862.89
253.982	12855.51
254.052	12842.78
254.123	12827.84
254.193	12809.71
254.264	12825.62
254.334	12789.23
254.405	12762.52
254.475	12732.92
254.546	12708.82
254.616	12710.56
254.687	12694.55
254.757	12680.28
254.827	12659.07
254.898	12643.74
254.968	12621.28
255.039	12593.9
255.109	12577.51
255.18	12555.92
255.25	12514.17
255.321	12505.3
255.391	12477.53
255.461	12477.34
255.532	12437.09
255.602	12412.31
255.673	12376.35
255.743	12345.65
255.813	12306.36
255.884	12302.6
255.954	12293.06
256.024	12291.85
256.095	12269.29
256.165	12244.71
256.235	12228.37
256.306	12204.51
256.376	12190.34
256.446	12180.79
256.517	12174.38
256.587	12170.38
256.657	12155.49
256.728	12142.13
256.798	12120.83
256.868	12092.54
256.938	12057.78
257.009	12054.74
257.079	12045.59
257.149	12048.19
257.219	12014.88
257.29	12003.84
257.36	11962.87
257.43	11949.52
257.5	11906.43
257.571	11892.79
257.641	11885.9
257.711	11860.59
257.781	11848.44
257.852	11843.38
257.922	11813.31
257.992	11794.12
258.062	11778.65
258.132	11770.26
258.202	11748.86
258.273	11735.99
258.343	11742.45
258.413	11729.25
258.483	11703.99
258.553	11678.4
258.623	11655.98
258.693	11640.8
258.764	11636.37
258.834	11636.9
258.904	11623.79
258.974	11602.77
259.044	11579.45
259.114	11567.11
259.184	11549.61
259.254	11530.72
259.324	11485.85
259.394	11468.21
259.464	11457.12
259.535	11428.5
259.605	11404.88
259.675	11381.22
259.745	11371.1
259.815	11341.45
259.885	11313.89
259.955	11322.71
260.025	11297.02
260.095	11278.13
260.165	11263.43
260.235	11259.24
260.305	11236.92
260.375	11208.63
260.445	11219.09
260.515	11219.76
260.585	11210.75
260.655	11192.73
260.725	11189.6
260.795	11180.83
260.865	11187.43
260.934	11162.46
261.004	11156.78
261.074	11144.15
261.144	11145.93
261.214	11138.51
261.284	11125.21
261.354	11120.54
261.424	11094.61
261.494	11105.45
261.564	11088.82
261.634	11082.41
261.703	11050.71
261.773	11032.01
261.843	11027.19
261.913	11002.08
261.983	10965.89
262.053	10956.35
262.123	10941.99
