Data from 20250625_urea_1M_1_MAYP1162681_04-55-05-942.txt Node
Date: Thu Jun 26 04:55:05 BST 2025
User: adleo
Spectrometer: MAYP116268
Trigger mode: 0
Integration Time (sec): 1.000000E0
Scans to average: 1
Electric dark correction enabled: true
Nonlinearity correction enabled: true
Boxcar width: 10
XAxis mode: Wavelengths
Number of Pixels in Spectrum: 2068
>>>>>Begin Spectral Data<<<<<
179.565	1103.58
179.642	1153.11
179.718	1188.26
179.795	1222.38
179.871	1250.09
179.948	1265.73
180.024	1282.94
180.101	1303.33
180.177	1315.7
180.254	1335.31
180.33	1355.57
180.407	1402.46
180.483	1489.59
180.56	1570.69
180.636	1647.83
180.712	1634.95
180.789	1640.94
180.865	1651.86
180.942	1658.99
181.018	1667.4
181.095	1681.99
181.171	1687.12
181.248	1687.83
181.324	1704.94
181.4	1708.03
181.477	1720.38
181.553	1732.83
181.63	1755.6
181.706	1769.9
181.782	1779.97
181.859	1781.44
181.935	1787.1
182.011	1784.25
182.088	1797.37
182.164	1817.29
182.24	1827.74
182.317	1836.67
182.393	1834.2
182.469	1847.22
182.546	1857.01
182.622	1859.34
182.698	1857.3
182.775	1869.61
182.851	1879.73
182.927	1871.99
183.003	1872.08
183.08	1866.28
183.156	1876.03
183.232	1873.46
183.308	1863.24
183.385	1867.14
183.461	1882.59
183.537	1883.06
183.613	1894.33
183.69	1888.91
183.766	1880.25
183.842	1889.24
183.918	1895.42
183.995	1907.92
184.071	1913.25
184.147	1908.59
184.223	1899.04
184.299	1906.12
184.375	1897.85
184.452	1906.93
184.528	1959.43
184.604	1969.32
184.68	1979.59
184.756	1984.3
184.832	1985.06
184.908	1991.14
184.985	1993.94
185.061	1978.83
185.137	1986.2
185.213	1977.5
185.289	1979.21
185.365	1970.27
185.441	1970.32
185.517	1982.64
185.593	1983.21
185.669	1979.55
185.745	1990.72
185.822	2008.3
185.898	2001.6
185.974	2007.73
186.05	1999.22
186.126	1962.55
186.202	1956.99
186.278	1952.43
186.354	1944.96
186.43	1949.81
186.506	1948.58
186.582	1946.39
186.658	1952.09
186.734	1936.02
186.81	1935.79
186.886	1937.83
186.962	1948.72
187.038	1942.44
187.114	1935.31
187.19	1938.3
187.266	1929.27
187.341	1930.13
187.417	1920.52
187.493	1921.43
187.569	1925.33
187.645	1922.14
187.721	1909.63
187.797	1918.38
187.873	1924.28
187.949	1916.63
188.025	1913.49
188.101	1916.1
188.176	1919.9
188.252	1917.76
188.328	1926.27
188.404	1925.18
188.48	1920.66
188.556	1914.2
188.632	1914.2
188.707	1915.2
188.783	1913.77
188.859	1911.11
188.935	1898.79
189.011	1907.64
189.086	1902.74
189.162	1895.13
189.238	1892.85
189.314	1891.66
189.39	1884.77
189.465	1876.92
189.541	1896.23
189.617	1881.54
189.693	1875.55
189.768	1879.07
189.844	1899.71
189.92	1891.3
189.996	1901.28
190.071	1909.5
190.147	1909.27
190.223	1919.11
190.298	1908.65
190.374	1898.05
190.45	1908.84
190.526	1918.96
190.601	1911.07
190.677	1910.31
190.753	1936.24
190.828	1938.28
190.904	1951.5
190.98	1964.15
191.055	1973.85
191.131	1964.91
191.207	1985.54
191.282	1995.38
191.358	1986.97
191.433	1976.03
191.509	1985.72
191.585	1982.01
191.66	1984.72
191.736	1990.95
191.811	1981.54
191.887	1997.37
191.963	2018.11
192.038	2019.63
192.114	2019.63
192.189	2027.66
192.265	2027.57
192.34	2005.63
192.416	2004.78
192.491	2000.69
192.567	2004.83
192.642	2006.06
192.718	2003.07
192.793	1992.03
192.869	1989.37
192.944	1991.56
193.02	1997.46
193.095	2002.31
193.171	2008.49
193.246	2008.3
193.322	2004.87
193.397	2005.63
193.473	1993.89
193.548	1975.1
193.624	1982.9
193.699	1982.62
193.775	1992.8
193.85	1993.6
193.925	2000.88
194.001	1999.26
194.076	1992.18
194.152	1982.43
194.227	1976.72
194.302	1970.78
194.378	1973.54
194.453	1966.41
194.529	1978.53
194.604	1965.55
194.679	1959.75
194.755	1940.74
194.83	1952.2
194.905	1951.73
194.981	1960.52
195.056	1953.06
195.131	1960.19
195.207	1958.38
195.282	1947.78
195.357	1931.38
195.433	1945.93
195.508	1934.51
195.583	1942.21
195.659	1955.96
195.734	1960.38
195.809	1960.71
195.884	1967.75
195.96	1964.14
196.035	1982.01
196.11	1977.83
196.185	1987.62
196.261	1989.1
196.336	2016.67
196.411	2001.02
196.486	2006.92
196.561	2000.64
196.637	2009.91
196.712	2026.61
196.787	2031.84
196.862	2046.58
196.937	2054.1
197.013	2058.52
197.088	2067.84
197.163	2088.2
197.238	2105.58
197.313	2106.1
197.388	2118.23
197.464	2146.35
197.539	2161.52
197.614	2152.39
197.689	2164.66
197.764	2181.13
197.839	2202.25
197.914	2200.92
197.989	2222.28
198.065	2233.27
198.14	2281.31
198.215	2306.15
198.29	2314.67
198.365	2324.43
198.44	2334.71
198.515	2364.21
198.59	2377.54
198.665	2403.15
198.74	2409.53
198.815	2409.39
198.89	2431.81
198.965	2461.38
199.04	2458.66
199.115	2472.8
199.19	2512.55
199.265	2516.21
199.34	2525.64
199.415	2557.42
199.49	2577.61
199.565	2587.56
199.64	2612.89
199.715	2609.51
199.79	2614.94
199.865	2621.94
199.94	2621.7
200.015	2653.52
200.09	2659.38
200.165	2667.67
200.24	2672.81
200.315	2708.85
200.39	2721.95
200.464	2723.62
200.539	2722.43
200.614	2737.81
200.689	2754.63
200.764	2763.12
200.839	2781.21
200.914	2784.17
200.989	2772.58
201.063	2785.16
201.138	2770.55
201.213	2770.5
201.288	2750.87
201.363	2755.59
201.438	2755.78
201.512	2769.11
201.587	2750.29
201.662	2753.86
201.737	2764.58
201.812	2772.35
201.886	2745.08
201.961	2754.76
202.036	2746.14
202.111	2746.23
202.186	2716.19
202.26	2702.56
202.335	2682.31
202.41	2674.17
202.485	2658.4
202.559	2640.73
202.634	2615.58
202.709	2624.05
202.784	2604.72
202.858	2608.19
202.933	2591.33
203.008	2586.76
203.082	2568.9
203.157	2569.62
203.232	2531.2
203.306	2511
203.381	2481.33
203.456	2459
203.53	2438.03
203.605	2419.14
203.68	2397.28
203.754	2394.66
203.829	2381.57
203.904	2360.53
203.978	2349.96
204.053	2354.96
204.127	2344.54
204.202	2340.54
204.277	2325.69
204.351	2318.93
204.426	2309.79
204.5	2302.79
204.575	2268.91
204.65	2278.01
204.724	2268.96
204.799	2274.14
204.873	2270.29
204.948	2270.14
205.022	2260.3
205.097	2249.35
205.171	2264.43
205.246	2270.71
205.32	2270.38
205.395	2269.57
205.469	2265.05
205.544	2272.53
205.618	2256.16
205.693	2266.39
205.767	2254.11
205.842	2270.01
205.916	2265.44
205.991	2254.4
206.065	2260.45
206.14	2278.33
206.214	2271.62
206.289	2266.62
206.363	2277.23
206.438	2280.23
206.512	2285.66
206.586	2302.74
206.661	2315.69
206.735	2294.28
206.81	2295.9
206.884	2307.65
206.958	2297.76
207.033	2310.55
207.107	2313.41
207.181	2342.74
207.256	2336.93
207.33	2358.68
207.405	2374.11
207.479	2391.3
207.553	2399.24
207.628	2384.63
207.702	2392.77
207.776	2391.2
207.851	2394.87
207.925	2410.68
207.999	2404.54
208.073	2401.82
208.148	2405.16
208.222	2390.4
208.296	2422.9
208.371	2437.14
208.445	2447.23
208.519	2475.37
208.593	2486.75
208.668	2484.51
208.742	2488.08
208.816	2491.27
208.89	2506.94
208.965	2504.18
209.039	2513.28
209.113	2529.47
209.187	2550.59
209.261	2547.31
209.336	2569.03
209.41	2589.03
209.484	2592.99
209.558	2619.66
209.632	2637.09
209.707	2651.33
209.781	2677.43
209.855	2695.92
209.929	2718.76
210.003	2734.2
210.077	2737.82
210.151	2794.09
210.226	2834.71
210.3	2866.81
210.374	2899.59
210.448	2912.99
210.522	2936.4
210.596	2959.14
210.67	2986.6
210.744	3049.17
210.818	3097.55
210.892	3134.13
210.966	3149.2
211.041	3185.69
211.115	3205.29
211.189	3252.56
211.263	3295.64
211.337	3330.8
211.411	3375.09
211.485	3399.3
211.559	3446.02
211.633	3489.24
211.707	3498.5
211.781	3546.57
211.855	3560.27
211.929	3597.46
212.003	3627.48
212.077	3685.05
212.151	3751.08
212.225	3811.38
212.299	3854.46
212.373	3905.06
212.447	3961.09
212.52	4053.54
212.594	4123.88
212.668	4207.98
212.742	4269.63
212.816	4342.87
212.89	4419.07
212.964	4493.92
213.038	4585.88
213.112	4680.87
213.186	4783.63
213.26	4856.38
213.333	4907.56
213.407	5009.01
213.481	5117.28
213.555	5233.16
213.629	5329.17
213.703	5420.3
213.777	5528.17
213.85	5626.71
213.924	5769.36
213.998	5887.03
214.072	5999.47
214.146	6103.59
214.219	6222.81
214.293	6338.07
214.367	6458.81
214.441	6591.24
214.515	6710.43
214.588	6809.71
214.662	6909.53
214.736	7022.19
214.81	7157.68
214.883	7299.39
214.957	7425.48
215.031	7544.97
215.105	7655.37
215.178	7773.84
215.252	7902.38
215.326	8012.37
215.4	8127.03
215.473	8218.49
215.547	8336.23
215.621	8460.6
215.694	8605.36
215.768	8724.34
215.842	8850.67
215.915	8971.5
215.989	9081.75
216.063	9215.51
216.136	9355.52
216.21	9488.22
216.284	9626.96
216.357	9761.66
216.431	9887.56
216.504	10025.7
216.578	10182.79
216.652	10328.4
216.725	10466.57
216.799	10608.32
216.873	10741.58
216.946	10883.33
217.02	11013.09
217.093	11139.53
217.167	11246.18
217.24	11361.08
217.314	11472.11
217.387	11591.87
217.461	11719.1
217.535	11856.46
217.608	11964.09
217.682	12080.54
217.755	12211.89
217.829	12325.94
217.902	12445.53
217.976	12568.39
218.049	12673.72
218.123	12768.39
218.196	12878.3
218.27	12979.24
218.343	13072.42
218.417	13194.33
218.49	13299.23
218.563	13430.59
218.637	13548.93
218.71	13683.19
218.784	13794.98
218.857	13918.77
218.931	14029.93
219.004	14131.31
219.077	14238.42
219.151	14339.17
219.224	14443.05
219.298	14540.47
219.371	14648.06
219.444	14742.21
219.518	14846.57
219.591	14948.13
219.665	15068.35
219.738	15164.32
219.811	15252.05
219.885	15356.75
219.958	15448.86
220.031	15528.15
220.105	15609.85
220.178	15695.51
220.251	15768.58
220.325	15856.2
220.398	15944.07
220.471	16027.55
220.544	16114.5
220.618	16189.21
220.691	16273.61
220.764	16345.42
220.838	16421.81
220.911	16496.81
220.984	16580.09
221.057	16654.7
221.131	16732.39
221.204	16776.92
221.277	16858.13
221.35	16955.29
221.424	17008.69
221.497	17069.85
221.57	17139.35
221.643	17203.16
221.716	17270.68
221.79	17320.17
221.863	17380.32
221.936	17432.65
222.009	17488.46
222.082	17550.53
222.155	17604.37
222.229	17679.16
222.302	17739.64
222.375	17792.12
222.448	17839.45
222.521	17889.95
222.594	17930.53
222.667	17965.32
222.74	18020.21
222.814	18065.37
222.887	18106.18
222.96	18161.8
223.033	18212.4
223.106	18264.44
223.179	18320.2
223.252	18356.63
223.325	18402.7
223.398	18434.94
223.471	18470.6
223.544	18512.53
223.617	18549.63
223.69	18583.37
223.763	18599.99
223.837	18643.89
223.91	18688.08
223.983	18708.52
224.056	18721.96
224.129	18755.16
224.202	18793.57
224.275	18817.47
224.348	18841.38
224.42	18854.19
224.493	18868.07
224.566	18897.66
224.639	18921.9
224.712	18932.55
224.785	18952.4
224.858	18977.66
224.931	18996.02
225.004	19011.29
225.077	19033.8
225.15	19033.46
225.223	19057.36
225.296	19099
225.369	19095
225.442	19099.29
225.514	19124.25
225.587	19151.81
225.66	19170.17
225.733	19189.79
225.806	19209.45
225.879	19229.98
225.952	19236.53
226.025	19272.48
226.097	19303.47
226.17	19316.19
226.243	19307.85
226.316	19327.61
226.389	19344.24
226.461	19366.16
226.534	19388.52
226.607	19395.75
226.68	19424.57
226.753	19439.07
226.825	19433.34
226.898	19457.1
226.971	19473.67
227.044	19488.76
227.117	19501.24
227.189	19510.15
227.262	19536.66
227.335	19547.74
227.407	19540.51
227.48	19562.49
227.553	19569.57
227.626	19563.35
227.698	19576.9
227.771	19599.35
227.844	19593.09
227.916	19609.14
227.989	19597.62
228.062	19595.21
228.134	19625.95
228.207	19628.41
228.28	19621.67
228.352	19626.53
228.425	19635.45
228.498	19632.07
228.57	19624.6
228.643	19641.95
228.716	19640.8
228.788	19621.33
228.861	19618.68
228.934	19637.04
229.006	19630.48
229.079	19625.13
229.151	19615.06
229.224	19604.8
229.296	19606.05
229.369	19628.7
229.442	19629.91
229.514	19630.82
229.587	19647.21
229.659	19627.16
229.732	19628.51
229.804	19640.22
229.877	19652.22
229.949	19648.51
230.022	19677.37
230.094	19678.05
230.167	19682.39
230.239	19685.85
230.312	19683.11
230.384	19709.71
230.457	19708.46
230.529	19722.29
230.602	19719.93
230.674	19732.21
230.747	19733.66
230.819	19750.72
230.892	19713.56
230.964	19706.19
231.037	19711.3
231.109	19708.7
231.181	19706.14
231.254	19693.57
231.326	19681.95
231.399	19676.02
231.471	19665.42
231.544	19627.93
231.616	19639.35
231.688	19623.79
231.761	19612.56
231.833	19606.05
231.905	19575.64
231.978	19570.05
232.05	19546.92
232.122	19544.37
232.195	19517.96
232.267	19526.44
232.339	19499.41
232.412	19510.68
232.484	19491.7
232.556	19473.09
232.629	19479.12
232.701	19480.61
232.773	19466.3
232.846	19448.42
232.918	19436.62
232.99	19427.07
233.062	19430.98
233.135	19412.47
233.207	19388.33
233.279	19378.11
233.351	19375.46
233.424	19352.57
233.496	19328.43
233.568	19330.21
233.64	19300.67
233.713	19287.32
233.785	19262.89
233.857	19249.98
233.929	19225.3
234.001	19232.97
234.074	19235.47
234.146	19189.88
234.218	19167.67
234.29	19158.61
234.362	19146.46
234.434	19110.32
234.507	19091.58
234.579	19056.45
234.651	19039.15
234.723	19034.42
234.795	19029.22
234.867	18998.81
234.939	18990.57
235.012	18978.47
235.084	18958.14
235.156	18934.57
235.228	18910.33
235.3	18887.64
235.372	18867.16
235.444	18862.24
235.516	18817.04
235.588	18794.73
235.66	18778.87
235.732	18744.66
235.804	18769.14
235.876	18750.59
235.948	18752.18
236.02	18727.79
236.092	18702.97
236.164	18675.79
236.236	18638.25
236.308	18598.59
236.38	18584.23
236.452	18562.26
236.524	18535.42
236.596	18529.97
236.668	18525.83
236.74	18510.31
236.812	18490.99
236.884	18478.22
236.956	18448.82
237.028	18417.4
237.1	18386.75
237.172	18378.99
237.244	18371.52
237.316	18312.44
237.388	18278.23
237.46	18240.54
237.532	18230.13
237.604	18198.95
237.675	18188.59
237.747	18178.76
237.819	18142.67
237.891	18114.71
237.963	18074.57
238.035	18041.37
238.107	17979.25
238.178	17965.47
238.25	17926.91
238.322	17919.78
238.394	17877.42
238.466	17846.29
238.538	17833.23
238.609	17806.15
238.681	17755.98
238.753	17722.78
238.825	17696.99
238.897	17682.44
238.968	17668.22
239.04	17639.55
239.112	17642.63
239.184	17601.72
239.255	17565.24
239.327	17548.51
239.399	17533.04
239.471	17518.39
239.542	17510.44
239.614	17505.09
239.686	17452.56
239.758	17436.85
239.829	17392.56
239.901	17379.74
239.973	17355.94
240.044	17325.43
240.116	17299.21
240.188	17272.8
240.259	17245.86
240.331	17207.79
240.403	17186.44
240.474	17143.45
240.546	17099.45
240.618	17052.7
240.689	17027.16
240.761	17009.09
240.833	17001.76
240.904	16958.14
240.976	16926.77
241.048	16893.27
241.119	16868.94
241.191	16850.62
241.262	16845.27
241.334	16809.75
241.405	16765.8
241.477	16735.05
241.549	16702.04
241.62	16676.78
241.692	16656.54
241.763	16641.26
241.835	16623.72
241.906	16588.63
241.978	16546.89
242.049	16534.46
242.121	16519.27
242.192	16492.09
242.264	16445.77
242.335	16393.77
242.407	16383.79
242.478	16354.73
242.55	16327.06
242.621	16291.54
242.693	16250.91
242.764	16210.52
242.836	16185.94
242.907	16168.35
242.979	16139.05
243.05	16112.25
243.122	16087.91
243.193	16060.63
243.264	16003.7
243.336	15963.84
243.407	15942.3
243.479	15935.46
243.55	15911.26
243.622	15882.48
243.693	15858.19
243.764	15848.79
243.836	15816.06
243.907	15782.81
243.978	15755.33
244.05	15730.75
244.121	15682.98
244.192	15661.87
244.264	15616.85
244.335	15594.05
244.407	15557.13
244.478	15534.77
244.549	15510.86
244.62	15465.94
244.692	15431.47
244.763	15420.1
244.834	15396.24
244.906	15360.95
244.977	15338.06
245.048	15327.4
245.119	15294.53
245.191	15261.37
245.262	15212.97
245.333	15202.32
245.405	15174.51
245.476	15143.9
245.547	15117.53
245.618	15105.58
245.689	15084.18
245.761	15073.14
245.832	15046.87
245.903	15025.22
245.974	14999.87
246.045	14972.83
246.117	14962.94
246.188	14927.71
246.259	14893.96
246.33	14861.67
246.401	14835.35
246.473	14789.89
246.544	14752.54
246.615	14729.98
246.686	14697.24
246.757	14688.52
246.828	14655.07
246.899	14637.81
246.97	14600.88
247.042	14568.92
247.113	14548.1
247.184	14547.09
247.255	14506.59
247.326	14481.48
247.397	14460.61
247.468	14440.94
247.539	14421.22
247.61	14383.86
247.681	14371.09
247.752	14354.41
247.823	14327.37
247.894	14300.42
247.965	14262.68
248.037	14231.2
248.108	14200.88
248.179	14185.31
248.25	14156.62
248.321	14135.75
248.392	14096.56
248.463	14096.32
248.534	14062.77
248.605	14044.21
248.675	14007.18
248.746	13991.81
248.817	13971.27
248.888	13941.38
248.959	13897.61
249.03	13873.27
249.101	13850.66
249.172	13818.55
249.243	13780.23
249.314	13764.71
249.385	13742.97
249.456	13730.87
249.527	13702.13
249.598	13674.85
249.669	13645.01
249.739	13627.85
249.81	13606.54
249.881	13575.59
249.952	13546.86
250.023	13527.29
250.094	13491.71
250.165	13464.81
250.235	13438.73
250.306	13413.14
250.377	13386.09
250.448	13373.7
250.519	13331.43
250.59	13329.74
250.66	13312.77
250.731	13308.24
250.802	13279.89
250.873	13262.35
250.944	13246.15
251.014	13217.8
251.085	13222.91
251.156	13202.81
251.227	13194.13
251.297	13191.96
251.368	13181.26
251.439	13171.86
251.51	13163.33
251.58	13133.44
251.651	13098.69
251.722	13093.72
251.792	13055.11
251.863	13032.16
251.934	13018.95
252.005	13030.76
252.075	13006.03
252.146	12989.55
252.217	12975.18
252.287	12969.06
252.358	12944.76
252.429	12944.33
252.499	12922.54
252.57	12896.17
252.641	12881.66
252.711	12855.05
252.782	12816.58
252.852	12812.53
252.923	12783.18
252.994	12755.51
253.064	12745.43
253.135	12723.45
253.205	12693.52
253.276	12694.14
253.347	12682.86
253.417	12657.27
253.488	12623.28
253.558	12598.41
253.629	12578.84
253.699	12559.22
253.77	12546.97
253.841	12524.17
253.911	12504.31
253.982	12491.54
254.052	12487.44
254.123	12472.5
254.193	12454.8
254.264	12468.93
254.334	12436.2
254.405	12411.42
254.475	12390.41
254.546	12371.99
254.616	12365.82
254.687	12354.25
254.757	12340.66
254.827	12324.99
254.898	12309.33
254.968	12293.13
255.039	12266.72
255.109	12257.61
255.18	12233.41
255.25	12195.95
255.321	12184.63
255.391	12150.07
255.461	12154.31
255.532	12105.24
255.602	12085.14
255.673	12046.96
255.743	12020.3
255.813	11980.73
255.884	11974.03
255.954	11965.16
256.024	11964.68
256.095	11945.98
256.165	11909.54
256.235	11891.08
256.306	11868.52
256.376	11861
256.446	11850.78
256.517	11836.03
256.587	11820.61
256.657	11800.41
256.728	11782.05
256.798	11769.86
256.868	11751.97
256.938	11715.54
257.009	11714.38
257.079	11705.36
257.149	11711.92
257.219	11671.09
257.29	11662.28
257.36	11628.68
257.43	11616.1
257.5	11576.87
257.571	11553.73
257.641	11553.2
257.711	11525.97
257.781	11511.85
257.852	11493.25
257.922	11463.32
257.992	11445.53
258.062	11427.12
258.132	11414.2
258.202	11398.78
258.273	11375.21
258.343	11376.85
258.413	11359.46
258.483	11335.55
258.553	11301.38
258.623	11273.72
258.693	11257.52
258.764	11259.98
258.834	11253.86
258.904	11236.65
258.974	11206.83
259.044	11185.19
259.114	11168.46
259.184	11158.83
259.254	11140.66
259.324	11105.77
259.394	11094.44
259.464	11094.92
259.535	11072.42
259.605	11057
259.675	11032.23
259.745	11023.6
259.815	10994.73
259.885	10970.78
259.955	10981.87
260.025	10960.86
260.095	10941.01
260.165	10930.79
260.235	10928.67
260.305	10907.13
260.375	10881.35
260.445	10896.48
260.515	10901.97
260.585	10889.39
260.655	10872.38
260.725	10866.02
260.795	10861.2
260.865	10864.34
260.934	10840
261.004	10834.31
261.074	10817.79
261.144	10818.94
261.214	10812.73
261.284	10792.25
261.354	10787.24
261.424	10761.12
261.494	10764.25
261.564	10755.09
261.634	10758.18
261.703	10721.8
261.773	10716.74
261.843	10713.94
261.913	10686.48
261.983	10655.64
262.053	10651.98
262.123	10630.2
262.192	10600.42
