Data from 20250625_urea_1M_1_MAYP1162681_04-25-06-094.txt Node
Date: Thu Jun 26 04:25:06 BST 2025
User: adleo
Spectrometer: MAYP116268
Trigger mode: 0
Integration Time (sec): 1.000000E0
Scans to average: 1
Electric dark correction enabled: true
Nonlinearity correction enabled: true
Boxcar width: 10
XAxis mode: Wavelengths
Number of Pixels in Spectrum: 2068
>>>>>Begin Spectral Data<<<<<
179.565	1102.15
179.642	1155.02
179.718	1195
179.795	1230.63
179.871	1259.77
179.948	1275.61
180.024	1293.58
180.101	1312.48
180.177	1322.68
180.254	1344.17
180.33	1365.24
180.407	1412.32
180.483	1501.5
180.56	1583.92
180.636	1661.16
180.712	1645.81
180.789	1655.93
180.865	1668.52
180.942	1678.78
181.018	1690.85
181.095	1704.72
181.171	1707.34
181.248	1706.67
181.324	1719.46
181.4	1727.58
181.477	1738.99
181.553	1750.06
181.63	1768.21
181.706	1783.94
181.782	1796.53
181.859	1796.77
181.935	1801.81
182.011	1800.43
182.088	1814.16
182.164	1832.56
182.24	1844.73
182.317	1853.09
182.393	1851.1
182.469	1864.45
182.546	1877.81
182.622	1879.9
182.698	1877.86
182.775	1891.21
182.851	1905.81
182.927	1898.44
183.003	1892.93
183.08	1886.08
183.156	1895.73
183.232	1895.35
183.308	1885.46
183.385	1890.12
183.461	1906.81
183.537	1906.81
183.613	1915.51
183.69	1906.81
183.766	1895.59
183.842	1901.91
183.918	1909.85
183.995	1920.64
184.071	1923.68
184.147	1915.65
184.223	1906.95
184.299	1914.89
184.375	1902.11
184.452	1905.82
184.528	1958.31
184.604	1968.11
184.68	1978.66
184.756	1983.22
184.832	1986.22
184.908	1986.84
184.985	1988.26
185.061	1972.48
185.137	1983.13
185.213	1972.34
185.289	1974
185.365	1968.49
185.441	1966.21
185.517	1977.81
185.593	1975.24
185.669	1972.68
185.745	1982.8
185.822	1998.06
185.898	1993.4
185.974	2002.19
186.05	1998.1
186.126	1962.34
186.202	1955.69
186.278	1953.12
186.354	1946.6
186.43	1954.4
186.506	1955.36
186.582	1954.83
186.658	1960.63
186.734	1942.76
186.81	1945.27
186.886	1949.22
186.962	1959.06
187.038	1955.11
187.114	1944.74
187.19	1950.4
187.266	1940.56
187.341	1942.04
187.417	1935.19
187.493	1933.72
187.569	1937.76
187.645	1930.91
187.721	1920.21
187.797	1926.82
187.873	1929.67
187.949	1922.78
188.025	1913.93
188.101	1919.88
188.176	1922.11
188.252	1919.5
188.328	1926.77
188.404	1926.91
188.48	1920.83
188.556	1913.98
188.632	1916.31
188.707	1917.55
188.783	1915.64
188.859	1912.65
188.935	1900.81
189.011	1909.22
189.086	1903.52
189.162	1898
189.238	1896.15
189.314	1890.54
189.39	1886.64
189.465	1880.89
189.541	1897.06
189.617	1884.6
189.693	1876.85
189.768	1882.23
189.844	1903.58
189.92	1892.08
189.996	1901.21
190.071	1911.05
190.147	1913.29
190.223	1920.28
190.298	1916.42
190.374	1904.59
190.45	1913.71
190.526	1921.84
190.601	1916.9
190.677	1917.75
190.753	1941.68
190.828	1942.73
190.904	1960.46
190.98	1972.45
191.055	1980.25
191.131	1975.77
191.207	1994.46
191.282	2003.58
191.358	1992.7
191.433	1978.47
191.509	1992.16
191.585	1987.12
191.66	1989.02
191.736	1994.06
191.811	1984.22
191.887	1994.78
191.963	2018.13
192.038	2021.88
192.114	2023.6
192.189	2029.06
192.265	2026.12
192.34	2006.66
192.416	2007.85
192.491	1999.43
192.567	2003.9
192.642	2007.37
192.718	2003.09
192.793	1991.54
192.869	1987.35
192.944	1989.16
193.02	1998.43
193.095	2003
193.171	2010.23
193.246	2008.66
193.322	2008.28
193.397	2009.66
193.473	1998.29
193.548	1981.45
193.624	1987.68
193.699	1984.35
193.775	1997.82
193.85	1998.81
193.925	2005.24
194.001	2003.52
194.076	2000.81
194.152	1988.83
194.227	1982.46
194.302	1974.33
194.378	1978.84
194.453	1977.85
194.529	1991.02
194.604	1975.56
194.679	1969.95
194.755	1949.42
194.83	1961.88
194.905	1959.27
194.981	1968.54
195.056	1965.26
195.131	1968.25
195.207	1964.92
195.282	1957.41
195.357	1938.72
195.433	1953.89
195.508	1943.66
195.583	1951.7
195.659	1966.73
195.734	1973.91
195.809	1974.38
195.884	1982.89
195.96	1980.66
196.035	1996.35
196.11	1992.26
196.185	2003.96
196.261	2005.91
196.336	2037.29
196.411	2023.68
196.486	2026.54
196.561	2019.88
196.637	2030.1
196.712	2047.23
196.787	2052.27
196.862	2067.72
196.937	2074.76
197.013	2082.61
197.088	2091.46
197.163	2109.35
197.238	2121.82
197.313	2124.01
197.388	2137.61
197.464	2165.44
197.539	2178.57
197.614	2168.44
197.689	2178.96
197.764	2193.8
197.839	2214.16
197.914	2208.64
197.989	2232.34
198.065	2248.18
198.14	2297.7
198.215	2317.55
198.29	2328.02
198.365	2342.25
198.44	2352.15
198.515	2377.32
198.59	2388.37
198.665	2412.93
198.74	2421.55
198.815	2421.69
198.89	2442.07
198.965	2465.26
199.04	2460.83
199.115	2473.77
199.19	2517.43
199.265	2523.9
199.34	2530.9
199.415	2562.44
199.49	2584.1
199.565	2589.48
199.64	2612.92
199.715	2609.25
199.79	2617.96
199.865	2622.39
199.94	2620.3
200.015	2647.73
200.09	2656.02
200.165	2662.22
200.24	2670.31
200.315	2708.17
200.39	2722.27
200.464	2724.46
200.539	2731.18
200.614	2750.57
200.689	2774.25
200.764	2779.16
200.839	2793.78
200.914	2802.16
200.989	2790.39
201.063	2800.63
201.138	2784.92
201.213	2783.63
201.288	2766.24
201.363	2769.34
201.438	2771.06
201.512	2785.82
201.587	2768.57
201.662	2773.15
201.737	2783.29
201.812	2789.54
201.886	2760.16
201.961	2770.65
202.036	2762.89
202.111	2757.65
202.186	2726.65
202.26	2709.4
202.335	2694.91
202.41	2689.76
202.485	2676.47
202.559	2660.23
202.634	2639.8
202.709	2650.36
202.784	2630.6
202.858	2629.41
202.933	2612.26
203.008	2608.74
203.082	2590.59
203.157	2592.88
203.232	2552.41
203.306	2532.6
203.381	2502.21
203.456	2479.11
203.53	2459.14
203.605	2440.16
203.68	2415.77
203.754	2412.97
203.829	2398.83
203.904	2375.78
203.978	2363.83
204.053	2365.17
204.127	2351.94
204.202	2347.22
204.277	2330.52
204.351	2323.66
204.426	2316.76
204.5	2309.24
204.575	2275.03
204.65	2282.41
204.724	2274.03
204.799	2281.45
204.873	2277.02
204.948	2274.97
205.022	2264.27
205.097	2254.32
205.171	2270.45
205.246	2281.49
205.32	2280.68
205.395	2280.97
205.469	2271.22
205.544	2274.5
205.618	2257.42
205.693	2268.98
205.767	2257.75
205.842	2275.12
205.916	2272.41
205.991	2262.99
206.065	2264.8
206.14	2278.26
206.214	2275.49
206.289	2268.16
206.363	2280.78
206.438	2286.06
206.512	2294.34
206.586	2312.66
206.661	2319.61
206.735	2297.63
206.81	2297.97
206.884	2311.62
206.958	2300.16
207.033	2312.81
207.107	2321.19
207.181	2351.04
207.256	2346.09
207.33	2362.37
207.405	2375.42
207.479	2392.74
207.553	2403.21
207.628	2391.94
207.702	2406.07
207.776	2398.98
207.851	2402.74
207.925	2416.55
207.999	2411.94
208.073	2406.84
208.148	2409.94
208.222	2402.46
208.296	2432.68
208.371	2448.12
208.445	2455.59
208.519	2483.77
208.593	2498.53
208.668	2499.86
208.742	2500.96
208.816	2500.86
208.89	2516.72
208.965	2519.3
209.039	2529.68
209.113	2541.83
209.187	2564.52
209.261	2559.29
209.336	2582.15
209.41	2604.77
209.484	2609.54
209.558	2637.4
209.632	2658.45
209.707	2669.55
209.781	2693.08
209.855	2713.86
209.929	2736.94
210.003	2752.62
210.077	2759.48
210.151	2811.89
210.226	2849.75
210.3	2888
210.374	2923.83
210.448	2940.61
210.522	2959.26
210.596	2978.23
210.67	3004.5
210.744	3065.07
210.818	3116.07
210.892	3153.28
210.966	3167.72
211.041	3200.44
211.115	3217.52
211.189	3265.23
211.263	3313.79
211.337	3349.81
211.411	3391.29
211.485	3420.09
211.559	3468.29
211.633	3509.89
211.707	3522.55
211.781	3572.72
211.855	3585.62
211.929	3625.24
212.003	3660.33
212.077	3723.73
212.151	3791.48
212.225	3860.15
212.299	3911.32
212.373	3964.46
212.447	4030.69
212.52	4127.26
212.594	4205.36
212.668	4296.46
212.742	4357.63
212.816	4430.88
212.89	4504.12
212.964	4591.49
213.038	4681.74
213.112	4780.66
213.186	4887.03
213.26	4962.32
213.333	5015.82
213.407	5120.88
213.481	5228.59
213.555	5346.22
213.629	5450.65
213.703	5547.54
213.777	5659.57
213.85	5751.27
213.924	5898.17
213.998	6010.65
214.072	6123.68
214.146	6233.35
214.219	6349
214.293	6471.87
214.367	6600.26
214.441	6738.36
214.515	6853.5
214.588	6958.13
214.662	7063.78
214.736	7182.18
214.81	7322.41
214.883	7470.78
214.957	7596.61
215.031	7718.42
215.105	7831
215.178	7948.16
215.252	8083.94
215.326	8204.36
215.4	8329.27
215.473	8418.83
215.547	8547.08
215.621	8675.21
215.694	8815.04
215.768	8935.86
215.842	9071.37
215.915	9202.82
215.989	9327.09
216.063	9457.59
216.136	9607.74
216.21	9743.11
216.284	9890.69
216.357	10034.03
216.431	10159.65
216.504	10301.76
216.578	10463.44
216.652	10614.36
216.725	10753.22
216.799	10893.69
216.873	11024.94
216.946	11164.2
217.02	11303.17
217.093	11426.25
217.167	11537.53
217.24	11662.41
217.314	11788.73
217.387	11906.47
217.461	12024.47
217.535	12153.69
217.608	12269.61
217.682	12383.61
217.755	12525.04
217.829	12628.68
217.902	12752.03
217.976	12874.66
218.049	12984.61
218.123	13084.02
218.196	13201.15
218.27	13314.2
218.343	13413.55
218.417	13529
218.49	13640.98
218.563	13767.57
218.637	13883.94
218.71	14015.88
218.784	14131.04
218.857	14250.93
218.931	14361.46
219.004	14461.58
219.077	14581.76
219.151	14693.88
219.224	14795.59
219.298	14883.71
219.371	14992.98
219.444	15066.98
219.518	15165.02
219.591	15266.97
219.665	15390.94
219.738	15487.49
219.811	15567.6
219.885	15672.44
219.958	15772.55
220.031	15856.13
220.105	15946.7
220.178	16033.02
220.251	16114.62
220.325	16199.21
220.398	16284.37
220.471	16374.26
220.544	16468.15
220.618	16527.09
220.691	16603.29
220.764	16680.26
220.838	16765.76
220.911	16846.88
220.984	16943.36
221.057	17023.85
221.131	17093.2
221.204	17126.55
221.277	17205.35
221.35	17304.2
221.424	17364.68
221.497	17421.88
221.57	17494.41
221.643	17560.49
221.716	17633.54
221.79	17693.16
221.863	17745.01
221.936	17802.7
222.009	17847.81
222.082	17903.76
222.155	17966.36
222.229	18028.23
222.302	18085.25
222.375	18123.22
222.448	18170.11
222.521	18210.25
222.594	18246.73
222.667	18285.09
222.74	18343.16
222.814	18389.04
222.887	18433.76
222.96	18497.42
223.033	18554.24
223.106	18594.28
223.179	18629.8
223.252	18665.41
223.325	18700.11
223.398	18741.74
223.471	18778.27
223.544	18822.94
223.617	18856.39
223.69	18885.88
223.763	18911.47
223.837	18952.72
223.91	18994.79
223.983	19010.11
224.056	19043.36
224.129	19087.02
224.202	19126.68
224.275	19156.85
224.348	19169.52
224.42	19176.94
224.493	19182
224.566	19192.94
224.639	19222.72
224.712	19241.18
224.785	19258.38
224.858	19271.78
224.931	19281.23
225.004	19285.03
225.077	19304.94
225.15	19305.32
225.223	19335.34
225.296	19369.7
225.369	19368.21
225.442	19375.05
225.514	19402.57
225.587	19414.91
225.66	19430.04
225.733	19451.58
225.806	19465.31
225.879	19480.93
225.952	19484.2
226.025	19504.2
226.097	19540.78
226.17	19556.68
226.243	19551.33
226.316	19561.69
226.389	19575.09
226.461	19597.74
226.534	19614.99
226.607	19620.05
226.68	19657.11
226.753	19658.12
226.825	19647.86
226.898	19679.08
226.971	19694.36
227.044	19713.4
227.117	19732.38
227.189	19755.13
227.262	19766.31
227.335	19782.74
227.407	19790.98
227.48	19802.4
227.553	19811.61
227.626	19802.69
227.698	19794.89
227.771	19812.28
227.844	19810.26
227.916	19818.35
227.989	19817.82
228.062	19829.97
228.134	19859.36
228.207	19856.76
228.28	19851.32
228.352	19858.69
228.425	19854.74
228.498	19855.94
228.57	19836.28
228.643	19845.97
228.716	19838.31
228.788	19826.98
228.861	19819.08
228.934	19829.29
229.006	19828.81
229.079	19818.4
229.151	19815.41
229.224	19802.5
229.296	19805.78
229.369	19826.64
229.442	19846.93
229.514	19830.6
229.587	19831.03
229.659	19802.31
229.732	19800.57
229.804	19810.6
229.877	19834.02
229.949	19839.66
230.022	19859.22
230.094	19856.47
230.167	19849.39
230.239	19837.54
230.312	19832.09
230.384	19849.44
230.457	19845.2
230.529	19851.22
230.602	19848.19
230.674	19848.52
230.747	19863.37
230.819	19867.22
230.892	19842.84
230.964	19832.57
231.037	19840.81
231.109	19836.23
231.181	19841.87
231.254	19819.99
231.326	19807.7
231.399	19790.16
231.471	19772.04
231.544	19743.13
231.616	19750.55
231.688	19734.89
231.761	19712.91
231.833	19712.67
231.905	19678.36
231.978	19669.2
232.05	19649.25
232.122	19645.11
232.195	19625.35
232.267	19627.18
232.339	19608.39
232.412	19604.58
232.484	19585.59
232.556	19568.2
232.629	19576.25
232.701	19578.8
232.773	19582.94
232.846	19563.67
232.918	19549.79
232.99	19542.9
233.062	19539.77
233.135	19526.37
233.207	19523.04
233.279	19521.41
233.351	19510.76
233.424	19497.5
233.496	19468.64
233.568	19475.38
233.64	19440.35
233.713	19426.57
233.785	19410.76
233.857	19398.28
233.929	19375.49
234.001	19371.39
234.074	19362.33
234.146	19320.79
234.218	19291.3
234.29	19263.59
234.362	19243.06
234.434	19211.93
234.507	19177.47
234.579	19139.21
234.651	19115.12
234.723	19097
234.795	19080.81
234.867	19050.11
234.939	19044.18
235.012	19025.1
235.084	18998.79
235.156	18986.59
235.228	18957.49
235.3	18926.89
235.372	18905.68
235.444	18892.24
235.516	18849.69
235.588	18836.15
235.66	18819.42
235.732	18788.49
235.804	18811.33
235.876	18799.04
235.948	18793.11
236.02	18775.23
236.092	18748.49
236.164	18723.72
236.236	18689.26
236.308	18661.7
236.38	18645.75
236.452	18611.39
236.524	18600.5
236.596	18597.41
236.668	18592.02
236.74	18563.54
236.812	18539.3
236.884	18522.38
236.956	18500.36
237.028	18475.54
237.1	18445.81
237.172	18439.74
237.244	18429.86
237.316	18378.73
237.388	18343.84
237.46	18305.82
237.532	18290.2
237.604	18267.65
237.675	18257.34
237.747	18237.29
237.819	18207.02
237.891	18180.81
237.963	18143.32
238.035	18104.38
238.107	18048.96
238.178	18025.92
238.25	18003.47
238.322	18005.88
238.394	17960.19
238.466	17923.66
238.538	17905.16
238.609	17877.54
238.681	17831.52
238.753	17798.46
238.825	17773.84
238.897	17753.93
238.968	17739.09
239.04	17712.78
239.112	17720.92
239.184	17686.75
239.255	17656.2
239.327	17633.26
239.399	17601.55
239.471	17587.38
239.542	17564.44
239.614	17548.87
239.686	17497.16
239.758	17484.01
239.829	17434.75
239.901	17426.56
239.973	17407.86
240.044	17376.34
240.116	17338.08
240.188	17302.13
240.259	17274.37
240.331	17236.01
240.403	17209.64
240.474	17174.32
240.546	17125.93
240.618	17068.82
240.689	17032.87
240.761	17014.03
240.833	17005.54
240.904	16982.99
240.976	16955.9
241.048	16925.3
241.119	16900.96
241.191	16878.5
241.262	16862.55
241.334	16830.31
241.405	16790.59
241.477	16746.93
241.549	16713.19
241.62	16693.82
241.692	16679.07
241.763	16659.45
241.835	16635.79
241.906	16612.46
241.978	16571.59
242.049	16558.15
242.121	16543.4
242.192	16533.47
242.264	16485.9
242.335	16436.16
242.407	16416.06
242.478	16385.02
242.55	16363.82
242.621	16325.98
242.693	16294.27
242.764	16261.06
242.836	16233.3
242.907	16206.84
242.979	16190.31
243.05	16174.54
243.122	16148.47
243.193	16118.15
243.264	16074.29
243.336	16043.06
243.407	16020.41
243.479	16015.97
243.55	15994.81
243.622	15961.17
243.693	15925.26
243.764	15918.37
243.836	15884.73
243.907	15850.65
243.978	15811.37
244.05	15789.34
244.121	15746.63
244.192	15725.91
244.264	15675.73
244.335	15651.34
244.407	15609.79
244.478	15585.55
244.549	15552.24
244.62	15511.36
244.692	15476.23
244.763	15454.15
244.834	15420.65
244.906	15384.98
244.977	15351.24
245.048	15335.14
245.119	15302.94
245.191	15265.1
245.262	15203.21
245.333	15182.24
245.405	15151.49
245.476	15140.89
245.547	15124.3
245.618	15110.57
245.689	15085.74
245.761	15064.77
245.832	15032.04
245.903	15017
245.974	14991.94
246.045	14970.73
246.117	14963.4
246.188	14927.73
246.259	14886.81
246.33	14853.93
246.401	14825.2
246.473	14787.17
246.544	14747.74
246.615	14727.06
246.686	14695.92
246.757	14696.69
246.828	14654.65
246.899	14642.94
246.97	14589.39
247.042	14547.69
247.113	14529.23
247.184	14522.96
247.255	14502.81
247.326	14480.68
247.397	14456.44
247.468	14428.77
247.539	14389
247.61	14347.45
247.681	14332.79
247.752	14320.74
247.823	14290.66
247.894	14268.2
247.965	14235.85
248.037	14213
248.108	14183.59
248.179	14166
248.25	14131.15
248.321	14121.22
248.392	14087.95
248.463	14094.8
248.534	14068.91
248.605	14045.73
248.675	14018.15
248.746	13990.53
248.817	13967.92
248.888	13944.69
248.959	13902.36
249.03	13890.65
249.101	13875.17
249.172	13841.96
249.243	13801.46
249.314	13796.4
249.385	13775.63
249.456	13753.02
249.527	13727.37
249.598	13700.71
249.669	13677.38
249.739	13673.09
249.81	13660.03
249.881	13620.06
249.952	13596.59
250.023	13572.1
250.094	13537.44
250.165	13498.58
250.235	13468.69
250.306	13453.03
250.377	13421.98
250.448	13411.52
250.519	13375.7
250.59	13364.13
250.66	13337.67
250.731	13337.33
250.802	13317.18
250.873	13295.49
250.944	13277.75
251.014	13248.29
251.085	13252.3
251.156	13231.33
251.227	13215.18
251.297	13199.46
251.368	13187.36
251.439	13171.21
251.51	13160.75
251.58	13131.39
251.651	13109.99
251.722	13113.32
251.792	13070.8
251.863	13044.91
251.934	13044.86
252.005	13049.54
252.075	13024.42
252.146	13015.6
252.217	13005.53
252.287	12983.3
252.358	12959.54
252.429	12954.72
252.499	12925.02
252.57	12906.08
252.641	12898.56
252.711	12875.52
252.782	12839.84
252.852	12845.53
252.923	12823.79
252.994	12800.31
253.064	12796.17
253.135	12765.66
253.205	12733.55
253.276	12736.64
253.347	12738.32
253.417	12699.81
253.488	12669.87
253.558	12648.81
253.629	12633.33
253.699	12606.39
253.77	12596.6
253.841	12579.82
253.911	12563.15
253.982	12552.59
254.052	12538.42
254.123	12520.72
254.193	12496.91
254.264	12516.87
254.334	12482.55
254.405	12451.55
254.475	12420.85
254.546	12393.9
254.616	12388.79
254.687	12372.74
254.757	12350.37
254.827	12327.76
254.898	12318.75
254.968	12290.94
255.039	12266.45
255.109	12247.56
255.18	12219.98
255.25	12174.91
255.321	12158.29
255.391	12129.36
255.461	12128.74
255.532	12087.57
255.602	12061.78
255.673	12026.84
255.743	11995.99
255.813	11952.85
255.884	11947.64
255.954	11946.82
256.024	11951.02
256.095	11939.45
256.165	11904.98
256.235	11902.04
256.306	11872.93
256.376	11855.82
256.446	11860.5
256.517	11848.73
256.587	11849.8
256.657	11840.69
256.728	11832.15
256.798	11817.55
256.868	11792.2
256.938	11767.09
257.009	11756.72
257.079	11743.52
257.149	11753.59
257.219	11721.34
257.29	11714.64
257.36	11674.11
257.43	11658.54
257.5	11616.08
257.571	11588.17
257.641	11580.61
257.711	11543.45
257.781	11536.22
257.852	11528.41
257.922	11483.58
257.992	11465.41
258.062	11443.63
258.132	11437.41
258.202	11413.84
258.273	11399.34
258.343	11402.61
258.413	11376.06
258.483	11357.02
258.553	11326.95
258.623	11297.55
258.693	11275.77
258.764	11283.09
258.834	11286.32
258.904	11265.79
258.974	11241.89
259.044	11225.07
259.114	11220.39
259.184	11207.04
259.254	11184.54
259.324	11141.36
259.394	11139.09
259.464	11135.14
259.535	11111.04
259.605	11080.78
259.675	11058.03
259.745	11042.08
259.815	11013.41
259.885	10994.13
259.955	11007
260.025	10986.38
260.095	10971.58
260.165	10966.86
260.235	10958.62
260.305	10935.1
260.375	10916.65
260.445	10927.92
260.515	10928.07
260.585	10921.71
260.655	10906.28
260.725	10901.51
260.795	10904.02
260.865	10903.54
260.934	10878.62
261.004	10868.31
261.074	10852.03
261.144	10854.29
261.214	10849.76
261.284	10835.4
261.354	10833.71
261.424	10800.03
261.494	10802.15
261.564	10786.01
261.634	10779.84
261.703	10744.13
261.773	10731.65
261.843	10717.29
261.913	10695.32
261.983	10664.48
262.053	10646.56
262.123	10629.84
262.192	10603.38
262.262	10591.58
