Data from 20250625_urea_1M_1_MAYP1162681_10-45-06-272.txt Node
Date: Thu Jun 26 10:45:06 BST 2025
User: adleo
Spectrometer: MAYP116268
Trigger mode: 0
Integration Time (sec): 1.000000E0
Scans to average: 1
Electric dark correction enabled: true
Nonlinearity correction enabled: true
Boxcar width: 10
XAxis mode: Wavelengths
Number of Pixels in Spectrum: 2068
>>>>>Begin Spectral Data<<<<<
179.565	1136.47
179.642	1189.27
179.718	1226.96
179.795	1263.83
179.871	1293.72
179.948	1310.15
180.024	1329.46
180.101	1352.94
180.177	1366.12
180.254	1386.57
180.33	1406.45
180.407	1456.05
180.483	1544.23
180.56	1627.32
180.636	1705.94
180.712	1689.92
180.789	1698.09
180.865	1708.88
180.942	1718.05
181.018	1730.97
181.095	1743
181.171	1749.79
181.248	1750.22
181.324	1766.14
181.4	1770.13
181.477	1779.78
181.553	1793.89
181.63	1813.43
181.706	1824.65
181.782	1832.63
181.859	1832.63
181.935	1837.95
182.011	1836.72
182.088	1852.16
182.164	1871.61
182.24	1884.35
182.317	1894.99
182.393	1890.95
182.469	1903.6
182.546	1915.01
182.622	1916.05
182.698	1914.25
182.775	1927.13
182.851	1940.06
182.927	1934.69
183.003	1932.36
183.08	1929.75
183.156	1936.16
183.232	1932.36
183.308	1924.04
183.385	1930.41
183.461	1946.81
183.537	1947.29
183.613	1957.27
183.69	1950.9
183.766	1941.96
183.842	1948.71
183.918	1954.23
183.995	1965.73
184.071	1968.68
184.147	1965.21
184.223	1955.7
184.299	1966.79
184.375	1950.67
184.452	1958.33
184.528	2009.51
184.604	2023.29
184.68	2034.71
184.756	2042.6
184.832	2047.64
184.908	2050.16
184.985	2050.35
185.061	2033.95
185.137	2043.93
185.213	2031.72
185.289	2031.48
185.365	2023.35
185.441	2020.73
185.517	2033.1
185.593	2032.48
185.669	2031.86
185.745	2037.95
185.822	2053.4
185.898	2044.74
185.974	2054.77
186.05	2045.4
186.126	2007.21
186.202	1997.32
186.278	1990.52
186.354	1982.29
186.43	1987
186.506	1985.43
186.582	1986.52
186.658	1995.17
186.734	1976.73
186.81	1981.81
186.886	1986.85
186.962	1999.83
187.038	1996.41
187.114	1987.51
187.19	1991.55
187.266	1982.9
187.341	1983.95
187.417	1976.82
187.493	1976.63
187.569	1981.76
187.645	1976.53
187.721	1967.54
187.797	1976.62
187.873	1979.29
187.949	1971.16
188.025	1965.35
188.101	1970.68
188.176	1974.2
188.252	1972.72
188.328	1980.42
188.404	1977.43
188.48	1973.29
188.556	1962.07
188.632	1961.21
188.707	1961.64
188.783	1960.22
188.859	1955.13
188.935	1948.04
189.011	1960.08
189.086	1953.85
189.162	1945.48
189.238	1946.38
189.314	1942.06
189.39	1935.21
189.465	1932.31
189.541	1950.81
189.617	1938.78
189.693	1931.84
189.768	1934.64
189.844	1952.81
189.92	1944.35
189.996	1955.2
190.071	1962.66
190.147	1966.65
190.223	1976.5
190.298	1970.93
190.374	1959.48
190.45	1969.93
190.526	1977.21
190.601	1968.27
190.677	1969.79
190.753	1999.34
190.828	1999.72
190.904	2014.27
190.98	2026.54
191.055	2034.62
191.131	2024.87
191.207	2041.8
191.282	2050.98
191.358	2042.04
191.433	2031.81
191.509	2043.5
191.585	2036.41
191.66	2040.27
191.736	2046.16
191.811	2036.84
191.887	2048.45
191.963	2071.47
192.038	2079.7
192.114	2078.41
192.189	2083.12
192.265	2080.79
192.34	2055.9
192.416	2055.19
192.491	2049.72
192.567	2057.09
192.642	2060.66
192.718	2060.33
192.793	2051.2
192.869	2048.77
192.944	2051.77
193.02	2054.86
193.095	2060.61
193.171	2067.75
193.246	2065.51
193.322	2063.09
193.397	2065.56
193.473	2056.76
193.548	2039.63
193.624	2042.96
193.699	2043.15
193.775	2058.05
193.85	2059.33
193.925	2066.51
194.001	2064.56
194.076	2056.24
194.152	2040.87
194.227	2032.65
194.302	2024.09
194.378	2026.85
194.453	2024.14
194.529	2034.55
194.604	2022.71
194.679	2016
194.755	1998.03
194.83	2011.64
194.905	2010.98
194.981	2018.87
195.056	2010.55
195.131	2016.97
195.207	2012.4
195.282	2003.18
195.357	1983.44
195.433	2001.51
195.508	1992.9
195.583	2005.22
195.659	2022.29
195.734	2029.33
195.809	2029.62
195.884	2038.84
195.96	2040.22
196.035	2054.2
196.11	2052.06
196.185	2062.28
196.261	2062.52
196.336	2093.05
196.411	2075.78
196.486	2078.59
196.561	2072.36
196.637	2082.87
196.712	2098.09
196.787	2103.47
196.862	2116.21
196.937	2124.49
197.013	2129.44
197.088	2137.29
197.163	2155.18
197.238	2169.23
197.313	2170.65
197.388	2184.35
197.464	2209.77
197.539	2219.57
197.614	2210.1
197.689	2221.33
197.764	2240.18
197.839	2263.02
197.914	2256.64
197.989	2280.86
198.065	2295.9
198.14	2345.47
198.215	2367.79
198.29	2378.5
198.365	2391.26
198.44	2401.11
198.515	2429.58
198.59	2440.19
198.665	2467.24
198.74	2472.28
198.815	2476.24
198.89	2500.33
198.965	2524.71
199.04	2524.24
199.115	2539.23
199.19	2583.32
199.265	2586.84
199.34	2595.08
199.415	2626.72
199.49	2649.24
199.565	2656.67
199.64	2681.97
199.715	2679.01
199.79	2685.44
199.865	2689.16
199.94	2686.73
200.015	2718.22
200.09	2723.17
200.165	2732.23
200.24	2738.99
200.315	2777.85
200.39	2791.39
200.464	2794.1
200.539	2797.25
200.614	2810.63
200.689	2831.03
200.764	2836.37
200.839	2851.99
200.914	2856.33
200.989	2844.55
201.063	2856.8
201.138	2841.47
201.213	2840.89
201.288	2819.55
201.363	2823.55
201.438	2824.98
201.512	2842.55
201.587	2824.83
201.662	2832.17
201.737	2842.6
201.812	2849.61
201.886	2819.09
201.961	2827.34
202.036	2817.57
202.111	2815.67
202.186	2786.81
202.26	2772.18
202.335	2752.92
202.41	2746.64
202.485	2731.16
202.559	2716.34
202.634	2689.66
202.709	2696.85
202.784	2677.36
202.858	2679.74
202.933	2665.07
203.008	2660.88
203.082	2643.92
203.157	2645.35
203.232	2600.59
203.306	2581.15
203.381	2551.76
203.456	2527.95
203.53	2504.16
203.605	2483.65
203.68	2461.55
203.754	2455.75
203.829	2441.84
203.904	2420.51
203.978	2411.56
204.053	2414.8
204.127	2400.09
204.202	2398.19
204.277	2384.38
204.351	2376
204.426	2369.29
204.5	2361.29
204.575	2326.03
204.65	2331.74
204.724	2323.74
204.799	2333.92
204.873	2328.73
204.948	2326.35
205.022	2316.36
205.097	2307.98
205.171	2323.11
205.246	2329.92
205.32	2330.97
205.395	2331.02
205.469	2324.21
205.544	2327.98
205.618	2311.03
205.693	2323.45
205.767	2312.84
205.842	2332.69
205.916	2327.75
205.991	2317.46
206.065	2319.8
206.14	2334.25
206.214	2327.68
206.289	2322.3
206.363	2332.35
206.438	2333.97
206.512	2340.87
206.586	2359.05
206.661	2369.71
206.735	2349.06
206.81	2351.87
206.884	2365.82
206.958	2350.92
207.033	2363.39
207.107	2369.53
207.181	2402.82
207.256	2395.25
207.33	2412.43
207.405	2421.72
207.479	2441.86
207.553	2447.76
207.628	2436.77
207.702	2449.86
207.776	2447.05
207.851	2448.81
207.925	2461.91
207.999	2457
208.073	2452.43
208.148	2456.19
208.222	2446
208.296	2475.65
208.371	2488.04
208.445	2498.9
208.519	2528.08
208.593	2543.03
208.668	2540.5
208.742	2541.22
208.816	2543.26
208.89	2556.22
208.965	2558.27
209.039	2565.13
209.113	2583.61
209.187	2605.27
209.261	2601.55
209.336	2622.03
209.41	2641.13
209.484	2644.52
209.558	2673.43
209.632	2690.53
209.707	2705.01
209.781	2729.65
209.855	2748.8
209.929	2771.07
210.003	2781.37
210.077	2785.51
210.151	2837.31
210.226	2879.84
210.3	2909.18
210.374	2939.05
210.448	2950.63
210.522	2969.61
210.596	2985.68
210.67	3007.28
210.744	3062.84
210.818	3108.46
210.892	3139.6
210.966	3150.47
211.041	3178.27
211.115	3185.66
211.189	3223.15
211.263	3257.45
211.337	3278.01
211.411	3309.65
211.485	3323.25
211.559	3360.18
211.633	3385.31
211.707	3379
211.781	3411.15
211.855	3408.39
211.929	3429.66
212.003	3443.69
212.077	3482.18
212.151	3529.21
212.225	3571.57
212.299	3594.51
212.373	3618.62
212.447	3657.47
212.52	3727.59
212.594	3775.75
212.668	3839.38
212.742	3875.65
212.816	3924.5
212.89	3973.72
212.964	4027.51
213.038	4086.14
213.112	4155.49
213.186	4228.57
213.26	4270.34
213.333	4286.32
213.407	4353.77
213.481	4424.92
213.555	4505.96
213.629	4565.88
213.703	4619.87
213.777	4687.56
213.85	4746.3
213.924	4856.59
213.998	4932.56
214.072	5004.38
214.146	5075.04
214.219	5151.95
214.293	5231.61
214.367	5312.89
214.441	5416.53
214.515	5491.46
214.588	5558.38
214.662	5611.7
214.736	5687.07
214.81	5787.06
214.883	5893.63
214.957	5979.33
215.031	6060.91
215.105	6132.79
215.178	6212.31
215.252	6305.84
215.326	6384.18
215.4	6459
215.473	6510.53
215.547	6590.44
215.621	6674.46
215.694	6773.9
215.768	6846.62
215.842	6933.76
215.915	7015.98
215.989	7078.31
216.063	7162.99
216.136	7264.54
216.21	7362.67
216.284	7469.83
216.357	7570.31
216.431	7659.89
216.504	7762.45
216.578	7880.95
216.652	7991.05
216.725	8092.5
216.799	8200.32
216.873	8300.52
216.946	8404.71
217.02	8495.3
217.093	8592.65
217.167	8670.62
217.24	8753.02
217.314	8845.13
217.387	8938.79
217.461	9036.08
217.535	9148.16
217.608	9237.41
217.682	9330.78
217.755	9436.76
217.829	9522.53
217.902	9617.06
217.976	9711.6
218.049	9788.12
218.123	9858.4
218.196	9955.07
218.27	10039.8
218.343	10114.33
218.417	10205.37
218.49	10293.29
218.563	10399.66
218.637	10490.77
218.71	10604.29
218.784	10702.2
218.857	10803.28
218.931	10894.45
219.004	10979.45
219.077	11070.78
219.151	11157.61
219.224	11238.57
219.298	11315.01
219.371	11410.82
219.444	11486.34
219.518	11570.3
219.591	11662.69
219.665	11783.38
219.738	11859.96
219.811	11937.9
219.885	12029.48
219.958	12120.49
220.031	12207.29
220.105	12292.18
220.178	12377.6
220.251	12440.94
220.325	12523.32
220.398	12603.14
220.471	12684.66
220.544	12773.54
220.618	12836.45
220.691	12917.1
220.764	12994.76
220.838	13077.62
220.911	13138.41
220.984	13231.01
221.057	13312.29
221.131	13391.88
221.204	13427.41
221.277	13521.89
221.35	13617.77
221.424	13679.57
221.497	13752.32
221.57	13819.23
221.643	13890.28
221.716	13959.75
221.79	14028.78
221.863	14089.86
221.936	14152.09
222.009	14207.38
222.082	14267.25
222.155	14331.51
222.229	14414.71
222.302	14474.78
222.375	14529.25
222.448	14603.53
222.521	14650.19
222.594	14703.17
222.667	14744.63
222.74	14819.25
222.814	14863.35
222.887	14905.15
222.96	14966.27
223.033	15025.85
223.106	15078.15
223.179	15134.06
223.252	15181.35
223.325	15228.88
223.398	15281.22
223.471	15338.68
223.544	15397.54
223.617	15451.33
223.69	15497.51
223.763	15527.29
223.837	15584.17
223.91	15644.71
223.983	15671.9
224.056	15708.77
224.129	15754.17
224.202	15814.76
224.275	15846.29
224.348	15879.3
224.42	15915.36
224.493	15936.9
224.566	15962.98
224.639	16010.26
224.712	16039.32
224.785	16079.04
224.858	16116.68
224.931	16147.43
225.004	16175.15
225.077	16214.24
225.15	16228.31
225.223	16266.92
225.296	16324.75
225.369	16339.89
225.442	16365.38
225.514	16395.84
225.587	16438.3
225.66	16472.72
225.733	16504.24
225.806	16537.11
225.879	16575.47
225.952	16607.57
226.025	16657.69
226.097	16705.21
226.17	16732.88
226.243	16743.48
226.316	16771.48
226.389	16805.7
226.461	16839.15
226.534	16866.28
226.607	16891.25
226.68	16937.03
226.753	16965.04
226.825	16971.73
226.898	17015.16
226.971	17027.16
227.044	17056.61
227.117	17074.44
227.189	17108.51
227.262	17150.15
227.335	17183.69
227.407	17206.25
227.48	17221.72
227.553	17244.42
227.626	17250.97
227.698	17268.03
227.771	17304.42
227.844	17316.47
227.916	17344.32
227.989	17350.54
228.062	17367.31
228.134	17405.29
228.207	17420.13
228.28	17431.98
228.352	17443.07
228.425	17458.68
228.498	17495.89
228.57	17512.47
228.643	17548.95
228.716	17557.09
228.788	17546.68
228.861	17556.75
228.934	17579.21
229.006	17600.37
229.079	17614.83
229.151	17622.83
229.224	17632.66
229.296	17647.65
229.369	17686.78
229.442	17707.5
229.514	17726.97
229.587	17755.74
229.659	17742.58
229.732	17756.08
229.804	17784.17
229.877	17824.56
229.949	17849.71
230.022	17887.16
230.094	17901.13
230.167	17912.55
230.239	17918.29
230.312	17941.85
230.384	17974.19
230.457	17993.32
230.529	18016.69
230.602	18030.77
230.674	18048.16
230.747	18071.83
230.819	18095.39
230.892	18083.34
230.964	18090.62
231.037	18105.37
231.109	18115.97
231.181	18138.96
231.254	18145.03
231.326	18143.24
231.399	18145.46
231.471	18146.96
231.544	18120.5
231.616	18134.76
231.688	18142.14
231.761	18142.62
231.833	18144.69
231.905	18127.05
231.978	18126.19
232.05	18120.26
232.122	18132.6
232.195	18133.75
232.267	18147.34
232.339	18143.78
232.412	18159.15
232.484	18153.12
232.556	18139.78
232.629	18153.46
232.701	18162.86
232.773	18166.52
232.846	18169.8
232.918	18161.8
232.99	18162.04
233.062	18168.74
233.135	18169.27
233.207	18161.41
233.279	18173.99
233.351	18175.58
233.424	18171.34
233.496	18153.51
233.568	18165.12
233.64	18141.9
233.713	18135.97
233.785	18121.17
233.857	18127.05
233.929	18101.46
234.001	18109.46
234.074	18125.17
234.146	18096.89
234.218	18082.43
234.29	18070.19
234.362	18056.45
234.434	18044.21
234.507	18024.17
234.579	18005.27
234.651	17994.67
234.723	17992.21
234.795	17982.24
234.867	17971.16
234.939	17977.85
235.012	17979.69
235.084	17971.49
235.156	17963.98
235.228	17949.42
235.3	17940.6
235.372	17922.53
235.444	17926.96
235.516	17898.05
235.588	17893.23
235.66	17890.15
235.732	17868.03
235.804	17909.61
235.876	17908.36
235.948	17909.9
236.02	17901.42
236.092	17884.6
236.164	17865.42
236.236	17844.17
236.308	17821.04
236.38	17814.48
236.452	17790.44
236.524	17765.76
236.596	17766.44
236.668	17767.59
236.74	17757.33
236.812	17745.71
236.884	17732.46
236.956	17711.4
237.028	17690.92
237.1	17657.33
237.172	17651.55
237.244	17653.62
237.316	17603.55
237.388	17574.39
237.46	17550.73
237.532	17545.53
237.604	17530.49
237.675	17530.73
237.747	17526.92
237.819	17510.49
237.891	17488.32
237.963	17457.86
238.035	17434.87
238.107	17383.79
238.178	17374.1
238.25	17353.53
238.322	17346.25
238.394	17311.89
238.466	17291.11
238.538	17272.9
238.609	17262.29
238.681	17220.51
238.753	17191.26
238.825	17161.86
238.897	17140.22
238.968	17131.98
239.04	17100.36
239.112	17102.15
239.184	17065.76
239.255	17029.81
239.327	17004.6
239.399	16976.51
239.471	16966.29
239.542	16965.76
239.614	16949.47
239.686	16896.98
239.758	16882.38
239.829	16859.73
239.901	16850.81
239.973	16833.66
240.044	16817.85
240.116	16794.67
240.188	16773.36
240.259	16756.83
240.331	16728.83
240.403	16716.11
240.474	16674.08
240.546	16643.62
240.618	16594.37
240.689	16570.6
240.761	16544.39
240.833	16541.83
240.904	16524.34
240.976	16495.42
241.048	16466.84
241.119	16460.23
241.191	16447.41
241.262	16437.97
241.334	16398.69
241.405	16367.22
241.477	16335.36
241.549	16313.91
241.62	16293.52
241.692	16270.92
241.763	16253.37
241.835	16228.89
241.906	16202.19
241.978	16167.34
242.049	16155.29
242.121	16141.22
242.192	16135.19
242.264	16099.52
242.335	16054.99
242.407	16028.77
242.478	16001.97
242.55	15978.64
242.621	15937.19
242.693	15911.74
242.764	15874.68
242.836	15852.41
242.907	15833.51
242.979	15816.26
243.05	15787.96
243.122	15758.95
243.193	15742.22
243.264	15694.55
243.336	15674.21
243.407	15656.33
243.479	15647.08
243.55	15622.64
243.622	15607.26
243.693	15570.29
243.764	15567.93
243.836	15534.33
243.907	15510.33
243.978	15484.11
244.05	15463.24
244.121	15423.62
244.192	15401.1
244.264	15373.73
244.335	15351.12
244.407	15313.28
244.478	15292.65
244.549	15259.01
244.62	15220.64
244.692	15185.21
244.763	15163.27
244.834	15126.83
244.906	15098.25
244.977	15080.85
245.048	15067.83
245.119	15030.96
245.191	15003.1
245.262	14947.71
245.333	14941.93
245.405	14914.55
245.476	14900.62
245.547	14881.29
245.618	14864.42
245.689	14843.01
245.761	14818.14
245.832	14784.59
245.903	14771.62
245.974	14743.04
246.045	14723.9
246.117	14717.88
246.188	14692.81
246.259	14661.04
246.33	14638.77
246.401	14604.16
246.473	14562.32
246.544	14527.76
246.615	14513.2
246.686	14484.61
246.757	14484.71
246.828	14447.5
246.899	14441.57
246.97	14390.76
247.042	14354.03
247.113	14337.78
247.184	14329.34
247.255	14293.05
247.326	14262.92
247.397	14229.85
247.468	14208.3
247.539	14181.98
247.61	14138.11
247.681	14114.3
247.752	14103.16
247.823	14068.41
247.894	14045.22
247.965	14016.05
248.037	13991.23
248.108	13948.18
248.179	13926.78
248.25	13893.61
248.321	13873.6
248.392	13833.69
248.463	13837.16
248.534	13818.6
248.605	13802.02
248.675	13775.31
248.746	13765.09
248.817	13753.04
248.888	13736.36
248.959	13695.77
249.03	13685.74
249.101	13671.52
249.172	13647.18
249.243	13605.91
249.314	13599.65
249.385	13587.5
249.456	13559.44
249.527	13529.84
249.598	13517.41
249.669	13487.28
249.739	13473.11
249.81	13456.67
249.881	13425.43
249.952	13401.18
250.023	13361.99
250.094	13326.32
250.165	13289.73
250.235	13266.54
250.306	13247.02
250.377	13214.24
250.448	13200.93
250.519	13153.88
250.59	13143.52
250.66	13114.83
250.731	13110.88
250.802	13080.22
250.873	13054.53
250.944	13048.12
251.014	13023.1
251.085	13022.81
251.156	13010.08
251.227	12996.97
251.297	12991.67
251.368	12981.59
251.439	12971.37
251.51	12966.26
251.58	12939.94
251.651	12912.32
251.722	12891.59
251.792	12857.03
251.863	12827.09
251.934	12813.31
252.005	12820.63
252.075	12797.06
252.146	12794.31
252.217	12781.15
252.287	12772.09
252.358	12748.71
252.429	12746.59
252.499	12721.28
252.57	12705.23
252.641	12681.75
252.711	12662.95
252.782	12623.09
252.852	12614.31
252.923	12589.2
252.994	12566.98
253.064	12557.34
253.135	12534.1
253.205	12512.8
253.276	12509.23
253.347	12513.57
253.417	12488.55
253.488	12462.18
253.558	12440.06
253.629	12415.91
253.699	12404.48
253.77	12391.47
253.841	12374.35
253.911	12350.97
253.982	12333.14
254.052	12322.34
254.123	12310.15
254.193	12287.39
254.264	12304.07
254.334	12283.73
254.405	12253.75
254.475	12231.58
254.546	12216.92
254.616	12212.29
254.687	12195.91
254.757	12184.38
254.827	12162.69
254.898	12151.51
254.968	12130.49
255.039	12109.05
255.109	12095.79
255.18	12059.69
255.25	12021.27
255.321	12014.86
255.391	11980.68
255.461	11988.2
255.532	11941.59
255.602	11929.11
255.673	11891.27
255.743	11866.45
255.813	11823.94
255.884	11819.12
255.954	11808.46
256.024	11808.32
256.095	11788.56
256.165	11761.13
256.235	11742.33
256.306	11720.89
256.376	11713.37
256.446	11704.06
256.517	11689.36
256.587	11679.48
256.657	11672.78
256.728	11659.58
256.798	11638.47
256.868	11623.72
256.938	11588.68
257.009	11579.28
257.079	11562.36
257.149	11571.62
257.219	11532.67
257.29	11520.29
257.36	11484.19
257.43	11474.5
257.5	11428.38
257.571	11408.23
257.641	11400.28
257.711	11379.89
257.781	11374.16
257.852	11358.59
257.922	11324.18
257.992	11304.13
258.062	11281.38
258.132	11271.21
258.202	11257.33
258.273	11237.76
258.343	11235.11
258.413	11210.49
258.483	11185.33
258.553	11159.69
258.623	11137.28
258.693	11123.69
258.764	11122.87
258.834	11124.22
258.904	11104.27
258.974	11087.45
259.044	11071.02
259.114	11060.56
259.184	11039.07
259.254	11016.9
259.324	10974.69
259.394	10969.72
259.464	10974.3
259.535	10959.6
259.605	10933.34
259.675	10906.16
259.745	10897.39
259.815	10868.24
259.885	10855.8
259.955	10873.06
260.025	10848.92
260.095	10825.11
260.165	10816
260.235	10816.54
260.305	10793.79
260.375	10771.96
260.445	10775.09
260.515	10767.14
260.585	10757.17
260.655	10743.05
260.725	10733.61
260.795	10730.47
260.865	10731.68
260.934	10705.42
261.004	10693.42
261.074	10677.42
261.144	10679.93
261.214	10670.29
261.284	10652.85
261.354	10649.62
261.424	10627.64
261.494	10635.3
261.564	10620.95
261.634	10610.15
261.703	10568.43
261.773	10551.61
261.843	10545.88
261.913	10527.33
261.983	10500.83
262.053	10497.46
262.123	10480.16
262.192	10452.41
262.262	10451.3
