Data from 20250625_urea_1M_1_MAYP1162681_09-55-05-521.txt Node
Date: Thu Jun 26 09:55:05 BST 2025
User: adleo
Spectrometer: MAYP116268
Trigger mode: 0
Integration Time (sec): 1.000000E0
Scans to average: 1
Electric dark correction enabled: true
Nonlinearity correction enabled: true
Boxcar width: 10
XAxis mode: Wavelengths
Number of Pixels in Spectrum: 2068
>>>>>Begin Spectral Data<<<<<
179.565	1119.96
179.642	1171.9
179.718	1209.41
179.795	1248.32
179.871	1278.99
179.948	1297.6
180.024	1317.65
180.101	1338.2
180.177	1351.85
180.254	1373.77
180.33	1395.64
180.407	1444.44
180.483	1532.99
180.56	1616.9
180.636	1696.03
180.712	1683.06
180.789	1690.99
180.865	1704.72
180.942	1714.13
181.018	1722.35
181.095	1735.51
181.171	1740.83
181.248	1743.64
181.324	1760.27
181.4	1765.64
181.477	1774.77
181.553	1784.98
181.63	1803.47
181.706	1820.77
181.782	1830.28
181.859	1830.28
181.935	1836.5
182.011	1834.41
182.088	1851.53
182.164	1871.64
182.24	1885.09
182.317	1895.07
182.393	1890.27
182.469	1903.77
182.546	1915.37
182.622	1918.41
182.698	1915.75
182.775	1927.73
182.851	1938.38
182.927	1929.49
183.003	1924.69
183.08	1917.75
183.156	1925.59
183.232	1924.16
183.308	1910.28
183.385	1915.32
183.461	1932.48
183.537	1930.92
183.613	1940.57
183.69	1930.06
183.766	1919.31
183.842	1925.68
183.918	1932.29
183.995	1944.13
184.071	1948.41
184.147	1944.89
184.223	1935.86
184.299	1946.75
184.375	1934.67
184.452	1942.95
184.528	1996.31
184.604	2007.34
184.68	2019.51
184.756	2026.83
184.832	2029.59
184.908	2035.15
184.985	2036.01
185.061	2018.37
185.137	2025.79
185.213	2012.81
185.289	2015.66
185.365	2006.96
185.441	2005.11
185.517	2015.33
185.593	2016.43
185.669	2013.67
185.745	2021.8
185.822	2036.82
185.898	2027.83
185.974	2037.77
186.05	2030.68
186.126	1992.58
186.202	1985.88
186.278	1984.88
186.354	1976.7
186.43	1983.5
186.506	1979.98
186.582	1980.89
186.658	1988.16
186.734	1969.72
186.81	1974.99
186.886	1975.85
186.962	1987.83
187.038	1984.74
187.114	1976.22
187.19	1982.69
187.266	1971.66
187.341	1976.23
187.417	1967.76
187.493	1967.62
187.569	1971.95
187.645	1964.48
187.721	1955.35
187.797	1962.01
187.873	1964.48
187.949	1959.87
188.025	1952.74
188.101	1960.1
188.176	1961.96
188.252	1955.54
188.328	1964
188.404	1961.96
188.48	1958.63
188.556	1952.68
188.632	1952.54
188.707	1953.64
188.783	1950.35
188.859	1946.17
188.935	1932.52
189.011	1940.51
189.086	1936.28
189.162	1927.96
189.238	1925.72
189.314	1922.3
189.39	1917.74
189.465	1910.51
189.541	1926.2
189.617	1912.18
189.693	1906.24
189.768	1908.95
189.844	1933.39
189.92	1925.22
189.996	1936.53
190.071	1949.71
190.147	1949.94
190.223	1958.27
190.298	1952.94
190.374	1942.15
190.45	1954.31
190.526	1961.4
190.601	1958.4
190.677	1958.5
190.753	1984.9
190.828	1988.66
190.904	2002.88
190.98	2017.43
191.055	2029.27
191.131	2020.85
191.207	2041.77
191.282	2047.15
191.358	2039.49
191.433	2027.83
191.509	2042.38
191.585	2036.58
191.66	2035.15
191.736	2043.52
191.811	2034.87
191.887	2049.14
191.963	2071.59
192.038	2076.44
192.114	2077.29
192.189	2080.48
192.265	2077.29
192.34	2056.74
192.416	2057.36
192.491	2052.98
192.567	2057.55
192.642	2057.59
192.718	2056.69
192.793	2045.7
192.869	2043.99
192.944	2044.14
193.02	2053.27
193.095	2057.55
193.171	2066.25
193.246	2066.82
193.322	2060.02
193.397	2062.35
193.473	2049.41
193.548	2029.53
193.624	2036.33
193.699	2036.57
193.775	2052.03
193.85	2054.55
193.925	2062.45
194.001	2060.97
194.076	2052.27
194.152	2038.9
194.227	2036.24
194.302	2028.54
194.378	2033.39
194.453	2030.25
194.529	2044.09
194.604	2027.54
194.679	2021.83
194.755	2002.96
194.83	2012.42
194.905	2014.47
194.981	2018.65
195.056	2012.14
195.131	2019.46
195.207	2018.08
195.282	2007.67
195.357	1988.83
195.433	2002.34
195.508	1990.73
195.583	1997.82
195.659	2010.52
195.734	2017.37
195.809	2014.99
195.884	2021.98
195.96	2018.41
196.035	2034.63
196.11	2030.72
196.185	2041.95
196.261	2043.42
196.336	2073.24
196.411	2060.3
196.486	2062.97
196.561	2057.12
196.637	2068.48
196.712	2084.13
196.787	2083.18
196.862	2098.4
196.937	2108.86
197.013	2115.19
197.088	2124.65
197.163	2144.88
197.238	2163.82
197.313	2162.97
197.388	2177.91
197.464	2208.27
197.539	2220.07
197.614	2213.6
197.689	2224.97
197.764	2239.67
197.839	2256.23
197.914	2251.9
197.989	2271.08
198.065	2284.87
198.14	2333.44
198.215	2356.09
198.29	2365
198.365	2378.09
198.44	2388.03
198.515	2412.69
198.59	2426.69
198.665	2452.35
198.74	2461.73
198.815	2463.06
198.89	2486.72
198.965	2516.11
199.04	2512.88
199.115	2527.54
199.19	2569.06
199.265	2572.53
199.34	2579.63
199.415	2612.69
199.49	2633.26
199.565	2646.36
199.64	2666.41
199.715	2664.93
199.79	2671.6
199.865	2680.94
199.94	2678.56
200.015	2709.72
200.09	2715.43
200.165	2720.53
200.24	2729.54
200.315	2768.5
200.39	2782.7
200.464	2786.6
200.539	2784.65
200.614	2796.32
200.689	2819.53
200.764	2826.92
200.839	2844.78
200.914	2852.59
200.989	2845.39
201.063	2856.83
201.138	2839.07
201.213	2843.79
201.288	2823.16
201.363	2826.83
201.438	2826.35
201.512	2845.54
201.587	2827.53
201.662	2832.87
201.737	2845.92
201.812	2853.03
201.886	2819.78
201.961	2829.17
202.036	2819.98
202.111	2812.4
202.186	2786.93
202.26	2770.63
202.335	2750.56
202.41	2747.66
202.485	2733.03
202.559	2713.78
202.634	2686.77
202.709	2695.77
202.784	2673.76
202.858	2675.62
202.933	2656.52
203.008	2649.09
203.082	2629.04
203.157	2631.04
203.232	2590.38
203.306	2569.79
203.381	2536.92
203.456	2517.82
203.53	2496.9
203.605	2475.77
203.68	2456.91
203.754	2449.58
203.829	2432.68
203.904	2413.3
203.978	2398.77
204.053	2398.49
204.127	2385.11
204.202	2384.59
204.277	2369.17
204.351	2364.07
204.426	2355.98
204.5	2350.36
204.575	2317.24
204.65	2325.91
204.724	2314.38
204.799	2323.61
204.873	2319.42
204.948	2318.76
205.022	2306.81
205.097	2298.57
205.171	2316.04
205.246	2320.7
205.32	2322.75
205.395	2324.22
205.469	2315
205.544	2320.47
205.618	2310.24
205.693	2321.71
205.767	2308.91
205.842	2328.76
205.916	2324.14
205.991	2318.62
206.065	2323.86
206.14	2336.51
206.214	2330.6
206.289	2325.89
206.363	2334.51
206.438	2338.41
206.512	2346.88
206.586	2360.69
206.661	2370.59
206.735	2347.8
206.81	2353.18
206.884	2368.55
206.958	2355.18
207.033	2368.03
207.107	2373.08
207.181	2403.56
207.256	2399.42
207.33	2418.36
207.405	2429.55
207.479	2445.74
207.553	2451.45
207.628	2439.74
207.702	2452.97
207.776	2451.31
207.851	2456.45
207.925	2471.93
207.999	2470.41
208.073	2467.22
208.148	2470.74
208.222	2455.93
208.296	2486.72
208.371	2500.78
208.445	2511.35
208.519	2539.96
208.593	2553.1
208.668	2551.48
208.742	2548.52
208.816	2550.62
208.89	2565.43
208.965	2565.96
209.039	2577.39
209.113	2596.11
209.187	2616.39
209.261	2616.34
209.336	2635.1
209.41	2651.11
209.484	2651.25
209.558	2672.69
209.632	2686.98
209.707	2699.13
209.781	2725.14
209.855	2746.68
209.929	2767.57
210.003	2777.72
210.077	2782
210.151	2830.75
210.226	2866.02
210.3	2899.7
210.374	2927.67
210.448	2940.3
210.522	2960.28
210.596	2980.93
210.67	3000.38
210.744	3054.18
210.818	3096.55
210.892	3128.7
210.966	3140
211.041	3169.8
211.115	3183.3
211.189	3219.54
211.263	3255.07
211.337	3277.49
211.411	3311
211.485	3324.22
211.559	3360.96
211.633	3388.95
211.707	3388.38
211.781	3427.93
211.855	3425.64
211.929	3450.97
212.003	3467.86
212.077	3508.84
212.151	3553.02
212.225	3595.85
212.299	3623.09
212.373	3652.03
212.447	3692.64
212.52	3766.98
212.594	3821.31
212.668	3880.41
212.742	3925.76
212.816	3974.27
212.89	4027.31
212.964	4079.78
213.038	4146.3
213.112	4218.15
213.186	4291.81
213.26	4339
213.333	4357.36
213.407	4429.66
213.481	4504.36
213.555	4585.47
213.629	4650.39
213.703	4713.63
213.777	4790.53
213.85	4854.84
213.924	4969.95
213.998	5051.63
214.072	5130.47
214.146	5200.71
214.219	5284.04
214.293	5362.96
214.367	5453.21
214.441	5552.88
214.515	5630.89
214.588	5702.25
214.662	5762.29
214.736	5842.47
214.81	5946.38
214.883	6055.7
214.957	6142.52
215.031	6225.8
215.105	6303.18
215.178	6382.19
215.252	6471.29
215.326	6548.63
215.4	6630.97
215.473	6681.98
215.547	6766.87
215.621	6857.36
215.694	6964.55
215.768	7045.13
215.842	7134.25
215.915	7221.87
215.989	7300.22
216.063	7386.75
216.136	7488.23
216.21	7585.57
216.284	7695.44
216.357	7793.01
216.431	7889.87
216.504	7997.36
216.578	8126.33
216.652	8242.77
216.725	8350.88
216.799	8462.61
216.873	8563.94
216.946	8674.81
217.02	8772.58
217.093	8871.5
217.167	8949.72
217.24	9036.96
217.314	9133.38
217.387	9231.97
217.461	9323.25
217.535	9432.65
217.608	9537.15
217.682	9634.38
217.755	9750.93
217.829	9846.44
217.902	9947.01
217.976	10042.09
218.049	10135.25
218.123	10209.25
218.196	10300.69
218.27	10389.86
218.343	10469.8
218.417	10570.88
218.49	10656.11
218.563	10766.59
218.637	10867.45
218.71	10976.88
218.784	11077.07
218.857	11178.8
218.931	11274.84
219.004	11375.47
219.077	11471.18
219.151	11555.86
219.224	11641.46
219.298	11725.57
219.371	11820.47
219.444	11890.79
219.518	11980.25
219.591	12065.18
219.665	12183.13
219.738	12275.34
219.811	12350.05
219.885	12439.51
219.958	12524.79
220.031	12604.99
220.105	12686.94
220.178	12759.93
220.251	12832.04
220.325	12915.97
220.398	12999.02
220.471	13083.48
220.544	13163.65
220.618	13238.56
220.691	13321.23
220.764	13396.34
220.838	13477.9
220.911	13543.37
220.984	13635.39
221.057	13717.2
221.131	13791.58
221.204	13827.4
221.277	13915.71
221.35	14025.47
221.424	14087.28
221.497	14161.17
221.57	14233.92
221.643	14307.62
221.716	14379.4
221.79	14440.86
221.863	14497.5
221.936	14554.82
222.009	14612.81
222.082	14683.04
222.155	14731.25
222.229	14806.06
222.302	14878.51
222.375	14933.51
222.448	15003.6
222.521	15065.88
222.594	15115.29
222.667	15166.72
222.74	15230.11
222.814	15271.37
222.887	15307.81
222.96	15379.43
223.033	15440.79
223.106	15503.26
223.179	15557.68
223.252	15610.37
223.325	15662.71
223.398	15716.55
223.471	15776.66
223.544	15823.8
223.617	15867.61
223.69	15920.87
223.763	15955.38
223.837	15997.94
223.91	16036.6
223.983	16059.88
224.056	16091.3
224.129	16136.52
224.202	16180.91
224.275	16228.53
224.348	16264.34
224.42	16295.33
224.493	16318.75
224.566	16342.51
224.639	16376.83
224.712	16406.33
224.785	16440.93
224.858	16475.73
224.931	16507.64
225.004	16524.07
225.077	16562.19
225.15	16576.12
225.223	16607.93
225.296	16651.6
225.369	16661.67
225.442	16688.08
225.514	16719.22
225.587	16755.99
225.66	16798.31
225.733	16833.3
225.806	16856.77
225.879	16877.39
225.952	16900.53
226.025	16930.6
226.097	16975.95
226.17	17004.29
226.243	17015.95
226.316	17043.95
226.389	17068.77
226.461	17094.89
226.534	17122.37
226.607	17142.03
226.68	17192.2
226.753	17215.23
226.825	17223.72
226.898	17270.56
226.971	17299.33
227.044	17331.09
227.117	17350.61
227.189	17375.09
227.262	17410.13
227.335	17435.38
227.407	17467.09
227.48	17490.18
227.553	17516.49
227.626	17534.18
227.698	17559.43
227.771	17586.22
227.844	17597.26
227.916	17625.31
227.989	17636.59
228.062	17658.8
228.134	17693.98
228.207	17708.44
228.28	17724.44
228.352	17748.01
228.425	17750.9
228.498	17774.9
228.57	17780.82
228.643	17807.81
228.716	17815.62
228.788	17818.46
228.861	17826.51
228.934	17842.41
229.006	17850.08
229.079	17870.56
229.151	17870.56
229.224	17864.15
229.296	17881.59
229.369	17914.94
229.442	17937.59
229.514	17941.11
229.587	17965.54
229.659	17964.91
229.732	17971.85
229.804	17994.99
229.877	18024.53
229.949	18054.07
230.022	18083.22
230.094	18099.94
230.167	18115.17
230.239	18119.37
230.312	18132.57
230.384	18176.81
230.457	18196.09
230.529	18218.64
230.602	18223.36
230.674	18242.16
230.747	18267.41
230.819	18293.33
230.892	18272.08
230.964	18279.21
231.037	18295.45
231.109	18295.74
231.181	18311.6
231.254	18305.09
231.326	18304.51
231.399	18306.01
231.471	18303.79
231.544	18279.07
231.616	18294.15
231.688	18293.29
231.761	18289.05
231.833	18286.78
231.905	18259.7
231.978	18259.89
232.05	18256.13
232.122	18258.64
232.195	18252.52
232.267	18269.82
232.339	18256.42
232.412	18274.73
232.484	18274.25
232.556	18269.96
232.629	18297.77
232.701	18306.3
232.773	18312.32
232.846	18303.84
232.918	18301.24
232.99	18307.7
233.062	18320.13
233.135	18325.91
233.207	18319.16
233.279	18328.32
233.351	18328.71
233.424	18320.56
233.496	18304.27
233.568	18325.38
233.64	18306.63
233.713	18309.77
233.785	18294.92
233.857	18292.8
233.929	18273
234.001	18274.97
234.074	18281.67
234.146	18255.46
234.218	18241.53
234.29	18238.45
234.362	18217.14
234.434	18198.35
234.507	18178.45
234.579	18158.35
234.651	18131.9
234.723	18128.19
234.795	18122.45
234.867	18113.78
234.939	18110.4
235.012	18106.93
235.084	18096.72
235.156	18102.07
235.228	18080.91
235.3	18060.53
235.372	18051.37
235.444	18052.28
235.516	18017.59
235.588	18010.46
235.66	17986.12
235.732	17956.96
235.804	18000.62
235.876	18011.71
235.948	18011.61
236.02	17995.13
236.092	17983.03
236.164	17970.6
236.236	17950.5
236.308	17929.11
236.38	17917.4
236.452	17897.73
236.524	17884.05
236.596	17877.16
236.668	17857.69
236.74	17840.34
236.812	17827.38
236.884	17815.76
236.956	17797.98
237.028	17781.45
237.1	17755.52
237.172	17761.69
237.244	17762.65
237.316	17692.92
237.388	17662.51
237.46	17637.36
237.532	17635
237.604	17602.37
237.675	17599.19
237.747	17590.56
237.819	17567.38
237.891	17546.18
237.963	17517.36
238.035	17492.1
238.107	17429.45
238.178	17426.66
238.25	17394.99
238.322	17391.24
238.394	17355.67
238.466	17329.11
238.538	17316.92
238.609	17299.96
238.681	17262.08
238.753	17237.16
238.825	17220.3
238.897	17201.26
238.968	17195.43
239.04	17163.33
239.112	17169.16
239.184	17134.75
239.255	17109.35
239.327	17088.1
239.399	17063.38
239.471	17061.11
239.542	17039.86
239.614	17040.05
239.686	16990.8
239.758	16984.43
239.829	16951.76
239.901	16944.14
239.973	16928.96
240.044	16905.73
240.116	16880.48
240.188	16850.16
240.259	16827.46
240.331	16797.82
240.403	16786.4
240.474	16742.35
240.546	16711.26
240.618	16659.94
240.689	16628.32
240.761	16604.27
240.833	16597.57
240.904	16572.41
240.976	16540.26
241.048	16518.24
241.119	16502.77
241.191	16481.61
241.262	16470.52
241.334	16445.41
241.405	16413.07
241.477	16384.83
241.549	16351.62
241.62	16323.91
241.692	16309.02
241.763	16291.81
241.835	16274.6
241.906	16246.75
241.978	16206.4
242.049	16190.35
242.121	16185.1
242.192	16180.62
242.264	16136.42
242.335	16092.8
242.407	16071.5
242.478	16046.87
242.55	16022.77
242.621	15983.63
242.693	15958.52
242.764	15922.03
242.836	15892.63
242.907	15861.4
242.979	15840.82
243.05	15825.54
243.122	15809.34
243.193	15779.6
243.264	15733.67
243.336	15703.49
243.407	15680.99
243.479	15677.95
243.55	15653.27
243.622	15630.42
243.693	15598.85
243.764	15593.98
243.836	15564.73
243.907	15541.83
243.978	15519.13
244.05	15501.82
244.121	15464.95
244.192	15451.89
244.264	15414.96
244.335	15387.3
244.407	15348.44
244.478	15322.75
244.549	15294.02
244.62	15253.82
244.692	15230.45
244.763	15216.71
244.834	15180.17
244.906	15148.65
244.977	15128.16
245.048	15117.07
245.119	15081.64
245.191	15043.03
245.262	14996.81
245.333	14980.37
245.405	14952.8
245.476	14927.92
245.547	14909.95
245.618	14898.04
245.689	14868.97
245.761	14850.22
245.832	14825.49
245.903	14811.8
245.974	14789.29
246.045	14755.98
246.117	14744.89
246.188	14700.16
246.259	14660.83
246.33	14636.63
246.401	14608.76
246.473	14558.73
246.544	14523.78
246.615	14506.86
246.686	14481.94
246.757	14472.44
246.828	14431.95
246.899	14419.37
246.97	14375.31
247.042	14333.9
247.113	14309.27
247.184	14303.24
247.255	14281.65
247.326	14255.52
247.397	14230.64
247.468	14197.77
247.539	14181.81
247.61	14151.25
247.681	14142.67
247.752	14128.06
247.823	14091.57
247.894	14073.54
247.965	14047.61
248.037	14014.25
248.108	13976.79
248.179	13956.25
248.25	13927.72
248.321	13922.9
248.392	13887.03
248.463	13885.44
248.534	13859.46
248.605	13841.43
248.675	13812.84
248.746	13784.45
248.817	13764.68
248.888	13750.17
248.959	13713.78
249.03	13696.04
249.101	13662.87
249.172	13634.57
249.243	13593.94
249.314	13594.13
249.385	13574.56
249.456	13558.17
249.527	13533.87
249.598	13514.39
249.669	13487.78
249.739	13465.75
249.81	13443.82
249.881	13407.57
249.952	13384.09
250.023	13365.19
250.094	13328.7
250.165	13297.99
250.235	13272.54
250.306	13257.55
250.377	13220.19
250.448	13207.75
250.519	13159.16
250.59	13155.54
250.66	13131.25
250.731	13126.09
250.802	13096.35
250.873	13072.58
250.944	13050.07
251.014	13028.57
251.085	13034.45
251.156	13021.92
251.227	13014.25
251.297	13002.44
251.368	12998.73
251.439	12991.4
251.51	12980.22
251.58	12950.91
251.651	12919.09
251.722	12920.88
251.792	12879.13
251.863	12855.8
251.934	12846.59
252.005	12858.84
252.075	12836.32
252.146	12828.85
252.217	12828.37
252.287	12819.89
252.358	12800.99
252.429	12801.57
252.499	12780.65
252.57	12754.28
252.641	12736.3
252.711	12712.53
252.782	12676.67
252.852	12672.52
252.923	12640.22
252.994	12617.04
253.064	12608.07
253.135	12582.81
253.205	12549.74
253.276	12548.39
253.347	12552.59
253.417	12523.86
253.488	12499.56
253.558	12477.29
253.629	12454.83
253.699	12429.67
253.77	12415.64
253.841	12390.67
253.911	12372.55
253.982	12357.51
254.052	12350.85
254.123	12332.92
254.193	12317.3
254.264	12335.72
254.334	12306.36
254.405	12279.51
254.475	12257.63
254.546	12239.46
254.616	12235.55
254.687	12220.85
254.757	12209.18
254.827	12176.36
254.898	12163.68
254.968	12144.79
255.039	12123.53
255.109	12117.26
255.18	12086.7
255.25	12043.32
255.321	12034.36
255.391	12001.44
255.461	11996.52
255.532	11955.31
255.602	11940.75
255.673	11902.91
255.743	11873.12
255.813	11828.64
255.884	11820.59
255.954	11805.84
256.024	11799.43
256.095	11778.75
256.165	11747.95
256.235	11734.79
256.306	11719.17
256.376	11712.91
256.446	11701
256.517	11686.78
256.587	11678.59
256.657	11665.09
256.728	11656.66
256.798	11634.97
256.868	11617.72
256.938	11586
257.009	11569.86
257.079	11551.3
257.149	11557.57
257.219	11524.36
257.29	11517.56
257.36	11482.24
257.43	11473.03
257.5	11440.21
257.571	11426.47
257.641	11420.35
257.711	11389.84
257.781	11379.58
257.852	11364.4
257.922	11330.18
257.992	11311.09
258.062	11284.63
258.132	11283.33
258.202	11264.01
258.273	11248.87
258.343	11245.16
258.413	11230.08
258.483	11213.16
258.553	11192.34
258.623	11166.99
258.693	11148.78
258.764	11145.31
258.834	11151.52
258.904	11135.18
258.974	11110.8
259.044	11091.62
259.114	11081.31
259.184	11062.8
259.254	11045.7
259.324	11008.78
259.394	10999.19
259.464	10999.14
259.535	10980.2
259.605	10949.07
259.675	10926.09
259.745	10915.49
259.815	10885.03
259.885	10863.06
259.955	10877.37
260.025	10852.8
260.095	10837.33
260.165	10828.17
260.235	10830.34
260.305	10797.24
260.375	10770.93
260.445	10780.9
260.515	10773.67
260.585	10764.13
260.655	10757.58
260.725	10746.4
260.795	10741.82
260.865	10739.8
260.934	10718.93
261.004	10713.97
261.074	10704.24
261.144	10710.26
261.214	10704.86
261.284	10692
261.354	10689.01
261.424	10660
261.494	10662.17
261.564	10649.06
261.634	10641.54
261.703	10601.31
261.773	10591.24
261.843	10581.8
261.913	10559.73
261.983	10534.53
262.053	10522.53
262.123	10507.31
262.192	10487.26
262.262	10482.74
262.332	10452.48
