Data from 20250625_urea_1M_1_MAYP1162681_00-25-06-249.txt Node
Date: Thu Jun 26 00:25:06 BST 2025
User: adleo
Spectrometer: MAYP116268
Trigger mode: 0
Integration Time (sec): 1.000000E0
Scans to average: 1
Electric dark correction enabled: true
Nonlinearity correction enabled: true
Boxcar width: 10
XAxis mode: Wavelengths
Number of Pixels in Spectrum: 2068
>>>>>Begin Spectral Data<<<<<
179.565	1135.94
179.642	1188.27
179.718	1227.33
179.795	1264.23
179.871	1291.23
179.948	1306.24
180.024	1325.3
180.101	1348.45
180.177	1361.23
180.254	1381.81
180.33	1401.05
180.407	1451.9
180.483	1542.49
180.56	1626.63
180.636	1709.15
180.712	1696.26
180.789	1704.96
180.865	1717.36
180.942	1724.82
181.018	1735.65
181.095	1748.96
181.171	1755.95
181.248	1756.56
181.324	1769.54
181.4	1774.91
181.477	1789.03
181.553	1800.24
181.63	1820.87
181.706	1835.13
181.782	1846.15
181.859	1846.29
181.935	1853.28
182.011	1848.29
182.088	1865.26
182.164	1882.09
182.24	1891.03
182.317	1900.91
182.393	1897.54
182.469	1911.42
182.546	1925.11
182.622	1926.54
182.698	1923.11
182.775	1933.72
182.851	1948.12
182.927	1942.56
183.003	1937.05
183.08	1930.72
183.156	1942.66
183.232	1940.9
183.308	1930.49
183.385	1934
183.461	1949.22
183.537	1946.84
183.613	1957.49
183.69	1948.74
183.766	1941.84
183.842	1949.36
183.918	1954.49
183.995	1964.81
184.071	1968.23
184.147	1961.62
184.223	1952.55
184.299	1965.81
184.375	1954.88
184.452	1960.92
184.528	2015.86
184.604	2028.84
184.68	2039.87
184.756	2044.01
184.832	2047.86
184.908	2053.18
184.985	2054.23
185.061	2038.54
185.137	2048.38
185.213	2039.78
185.289	2037.02
185.365	2029.27
185.441	2028.6
185.517	2040.97
185.593	2041.88
185.669	2038.74
185.745	2049.05
185.822	2065.93
185.898	2054.47
185.974	2062.84
186.05	2055.03
186.126	2014.74
186.202	2006.8
186.278	2004.9
186.354	1997.53
186.43	2002.62
186.506	1999.34
186.582	1997.77
186.658	2006.61
186.734	1989.54
186.81	1990.83
186.886	1995.49
186.962	2008.9
187.038	2003.85
187.114	1996.53
187.19	2002.66
187.266	1992.77
187.341	1996.15
187.417	1989.4
187.493	1994.2
187.569	1994.34
187.645	1988.21
187.721	1979.51
187.797	1988.3
187.873	1989.11
187.949	1983.41
188.025	1977.13
188.101	1978.74
188.176	1982.69
188.252	1979.55
188.328	1986.21
188.404	1983.4
188.48	1979.55
188.556	1968.42
188.632	1967.8
188.707	1966.76
188.783	1961.43
188.859	1956.82
188.935	1941.08
189.011	1950.26
189.086	1942.41
189.162	1939.23
189.238	1937.23
189.314	1932.67
189.39	1926.96
189.465	1922.3
189.541	1935.9
189.617	1922.82
189.693	1920.73
189.768	1927.3
189.844	1948.61
189.92	1940.95
189.996	1952.94
190.071	1962.54
190.147	1962.73
190.223	1973
190.298	1967.96
190.374	1956.74
190.45	1966.44
190.526	1975.95
190.601	1966.58
190.677	1966.3
190.753	1991.85
190.828	1995.27
190.904	2010.77
190.98	2024.76
191.055	2036.41
191.131	2030.32
191.207	2048.2
191.282	2056.28
191.358	2046.82
191.433	2035.3
191.509	2048.09
191.585	2043.43
191.66	2045.86
191.736	2054.51
191.811	2045.28
191.887	2058.75
191.963	2080.53
192.038	2085.81
192.114	2086.04
192.189	2092.27
192.265	2091.23
192.34	2072.76
192.416	2072.1
192.491	2067.15
192.567	2072.19
192.642	2073.53
192.718	2072.43
192.793	2062.49
192.869	2058.78
192.944	2061.49
193.02	2067.77
193.095	2072.43
193.171	2078.57
193.246	2078.71
193.322	2074.67
193.397	2076.05
193.473	2062.39
193.548	2046.79
193.624	2053.12
193.699	2055.35
193.775	2069.1
193.85	2068.77
193.925	2069.72
194.001	2068.58
194.076	2061.54
194.152	2047.37
194.227	2041.7
194.302	2033.2
194.378	2035.29
194.453	2029.63
194.529	2039.43
194.604	2025.26
194.679	2018.36
194.755	1999.3
194.83	2009.05
194.905	2010.38
194.981	2016.8
195.056	2011.05
195.131	2016.23
195.207	2013.33
195.282	2002.16
195.357	1986.6
195.433	2004.19
195.508	2001.25
195.583	2011.04
195.659	2026.22
195.734	2032.4
195.809	2029.5
195.884	2037.2
195.96	2037.96
196.035	2055.98
196.11	2055.46
196.185	2066.64
196.261	2069.35
196.336	2100.73
196.411	2083.23
196.486	2087.89
196.561	2083.99
196.637	2092.22
196.712	2107.87
196.787	2110.49
196.862	2125.37
196.937	2130.6
197.013	2134.08
197.088	2139.07
197.163	2158.39
197.238	2174.34
197.313	2175.15
197.388	2189.23
197.464	2219.45
197.539	2231.15
197.614	2223.07
197.689	2232.11
197.764	2249.1
197.839	2270.99
197.914	2262.75
197.989	2290.69
198.065	2304.58
198.14	2350.3
198.215	2375.19
198.29	2386.9
198.365	2401.75
198.44	2412.7
198.515	2442.17
198.59	2458.4
198.665	2482.68
198.74	2490.59
198.815	2489.54
198.89	2512.58
198.965	2539.54
199.04	2536.49
199.115	2549.77
199.19	2594.11
199.265	2598.1
199.34	2605.3
199.415	2633.74
199.49	2658.6
199.565	2663.65
199.64	2686.13
199.715	2684.75
199.79	2691.18
199.865	2697.04
199.94	2694.09
200.015	2725.34
200.09	2728.63
200.165	2732.54
200.24	2740.49
200.315	2779.46
200.39	2797.66
200.464	2803.09
200.539	2803.76
200.614	2821
200.689	2843.83
200.764	2849.55
200.839	2863.56
200.914	2870.42
200.989	2861.64
201.063	2871.84
201.138	2857.51
201.213	2856.99
201.288	2837.54
201.363	2844.12
201.438	2845.46
201.512	2862.65
201.587	2845.68
201.662	2854.21
201.737	2869.08
201.812	2878.14
201.886	2844.47
201.961	2850.19
202.036	2838.38
202.111	2834.66
202.186	2800.99
202.26	2787.41
202.335	2764.96
202.41	2761.86
202.485	2746.33
202.559	2728.09
202.634	2702.88
202.709	2709.41
202.784	2689.78
202.858	2690.54
202.933	2670.82
203.008	2662.77
203.082	2644.19
203.157	2643.05
203.232	2598.86
203.306	2574.66
203.381	2542.88
203.456	2518.97
203.53	2498.19
203.605	2478.44
203.68	2458.39
203.754	2457.63
203.829	2441.1
203.904	2421.48
203.978	2410.1
204.053	2412.15
204.127	2401.58
204.202	2399.77
204.277	2385.78
204.351	2379.07
204.426	2370.4
204.5	2365.21
204.575	2333.04
204.65	2340.09
204.724	2331.61
204.799	2342.75
204.873	2339.79
204.948	2336.08
205.022	2326.95
205.097	2317.85
205.171	2333.46
205.246	2338.03
205.32	2333.61
205.395	2331.99
205.469	2322.43
205.544	2325.28
205.618	2307.82
205.693	2316.67
205.767	2306.25
205.842	2324.76
205.916	2321.1
205.991	2313.82
206.065	2317.2
206.14	2331.85
206.214	2328.85
206.289	2322.37
206.363	2330.27
206.438	2335.18
206.512	2345.65
206.586	2364.97
206.661	2374.12
206.735	2354.99
206.81	2358.18
206.884	2373.31
206.958	2362.37
207.033	2379.92
207.107	2388.3
207.181	2424.45
207.256	2421.45
207.33	2441.01
207.405	2454.55
207.479	2471.59
207.553	2481.01
207.628	2464.5
207.702	2475.55
207.776	2468.79
207.851	2473.93
207.925	2490.07
207.999	2488.65
208.073	2484.17
208.148	2485.26
208.222	2473.31
208.296	2503.39
208.371	2518.07
208.445	2530.73
208.519	2559.25
208.593	2573.49
208.668	2568.73
208.742	2568.82
208.816	2571.58
208.89	2584.92
208.965	2585.54
209.039	2594.6
209.113	2610.17
209.187	2635.54
209.261	2634.97
209.336	2658.83
209.41	2680.41
209.484	2686.75
209.558	2714.11
209.632	2731.73
209.707	2749.36
209.781	2778.8
209.855	2799.34
209.929	2822.9
210.003	2838.01
210.077	2844.97
210.151	2899.98
210.226	2948.95
210.3	2986.5
210.374	3025.4
210.448	3042.04
210.522	3065.31
210.596	3098.51
210.67	3131.89
210.744	3199.98
210.818	3258.59
210.892	3305.88
210.966	3329.06
211.041	3370.86
211.115	3392.29
211.189	3452.95
211.263	3503.59
211.337	3544.55
211.411	3597.65
211.485	3639.35
211.559	3697.84
211.633	3751.16
211.707	3776.59
211.781	3838.94
211.855	3862.5
211.929	3912.75
212.003	3964.15
212.077	4045.96
212.151	4130.86
212.225	4214.27
212.299	4277.78
212.373	4343.89
212.447	4421.04
212.52	4542.41
212.594	4641.7
212.668	4754.7
212.742	4838.4
212.816	4936.38
212.89	5044.04
212.964	5155.55
213.038	5271.01
213.112	5402.41
213.186	5534.68
213.26	5633.93
213.333	5717.23
213.407	5852.33
213.481	5989.71
213.555	6135.26
213.629	6261.74
213.703	6375.42
213.777	6514.73
213.85	6647.66
213.924	6834.43
213.998	6989.09
214.072	7131.8
214.146	7273.19
214.219	7426.1
214.293	7583.13
214.367	7748.87
214.441	7919.54
214.515	8071
214.588	8217.34
214.662	8349.74
214.736	8507.65
214.81	8689.64
214.883	8867.48
214.957	9034.43
215.031	9195.14
215.105	9349.94
215.178	9507.3
215.252	9683.58
215.326	9839.76
215.4	9997.92
215.473	10123.95
215.547	10278.83
215.621	10443.08
215.694	10619.32
215.768	10779.72
215.842	10941.52
215.915	11101.41
215.989	11244.34
216.063	11407.57
216.136	11579.48
216.21	11746.95
216.284	11924.41
216.357	12092.86
216.431	12260.84
216.504	12437.93
216.578	12630.68
216.652	12805.85
216.725	12974.32
216.799	13139.27
216.873	13295.31
216.946	13465.42
217.02	13626.91
217.093	13789.12
217.167	13917.39
217.24	14058.1
217.314	14200.45
217.387	14341.02
217.461	14480.23
217.535	14647.21
217.608	14788.21
217.682	14931.56
217.755	15091.02
217.829	15220.1
217.902	15353.53
217.976	15489.22
218.049	15616.27
218.123	15734.46
218.196	15877.47
218.27	16008.28
218.343	16133.74
218.417	16275.97
218.49	16397.72
218.563	16532.86
218.637	16654.41
218.71	16794.18
218.784	16925.75
218.857	17062.15
218.931	17188.42
219.004	17308.04
219.077	17421.39
219.151	17530.88
219.224	17631.27
219.298	17734.55
219.371	17847.89
219.444	17941.2
219.518	18046.78
219.591	18145.91
219.665	18272.56
219.738	18367.88
219.811	18445.95
219.885	18536.55
219.958	18625.36
220.031	18714.66
220.105	18815.91
220.178	18902.99
220.251	18984.72
220.325	19072.52
220.398	19151.26
220.471	19243.26
220.544	19332.12
220.618	19400.26
220.691	19490.95
220.764	19574.95
220.838	19655.76
220.911	19725.74
220.984	19818.99
221.057	19893.2
221.131	19954.26
221.204	19985.48
221.277	20063.41
221.35	20157.91
221.424	20222.49
221.497	20286.88
221.57	20342.73
221.643	20395.84
221.716	20457.86
221.79	20504.51
221.863	20548.18
221.936	20594.88
222.009	20632.85
222.082	20680.9
222.155	20725.48
222.229	20775.65
222.302	20824.76
222.375	20862.11
222.448	20901.83
222.521	20929.97
222.594	20964.96
222.667	21002.22
222.74	21049.01
222.814	21083.23
222.887	21118.27
222.96	21162.86
223.033	21200.98
223.106	21234.96
223.179	21261.28
223.252	21293.81
223.325	21329.96
223.398	21353.38
223.471	21373.91
223.544	21405.58
223.617	21432.23
223.69	21457.06
223.763	21466.45
223.837	21479.13
223.91	21503.23
223.983	21506.75
224.056	21521.74
224.129	21538.42
224.202	21559.43
224.275	21563.24
224.348	21549.5
224.42	21544.44
224.493	21538.27
224.566	21536.05
224.639	21557.69
224.712	21545.31
224.785	21538.27
224.858	21537.06
224.931	21546.13
225.004	21548.78
225.077	21553.45
225.15	21533.45
225.223	21535.72
225.296	21565.46
225.369	21564.35
225.442	21560.06
225.514	21572.35
225.587	21587.15
225.66	21603.58
225.733	21605.41
225.806	21626.86
225.879	21627.44
225.952	21615.78
226.025	21635.11
226.097	21648.89
226.17	21637.52
226.243	21638.58
226.316	21640.51
226.389	21653.28
226.461	21656.32
226.534	21659.35
226.607	21658.48
226.68	21677.43
226.753	21676.42
226.825	21642.19
226.898	21650.05
226.971	21638.43
227.044	21641.52
227.117	21626.43
227.189	21607.92
227.262	21604.26
227.335	21585.99
227.407	21585.36
227.48	21590.71
227.553	21578.76
227.626	21569.74
227.698	21567.48
227.771	21568.68
227.844	21554.71
227.916	21548.15
227.989	21518.03
228.062	21509.25
228.134	21507.47
228.207	21494.02
228.28	21474.16
228.352	21469.87
228.425	21459.32
228.498	21465.05
228.57	21435.99
228.643	21445.53
228.716	21437.34
228.788	21423.99
228.861	21406.93
228.934	21403.65
229.006	21383.89
229.079	21366.01
229.151	21350.15
229.224	21319.16
229.296	21297.42
229.369	21308.99
229.442	21302.24
229.514	21280.55
229.587	21275.3
229.659	21252.31
229.732	21237.85
229.804	21237.03
229.877	21252.6
229.949	21245.8
230.022	21247.44
230.094	21235.78
230.167	21216.02
230.239	21192.88
230.312	21178.86
230.384	21191.53
230.457	21187.58
230.529	21182.13
230.602	21172.3
230.674	21155.14
230.747	21155.63
230.819	21155.19
230.892	21109.45
230.964	21100.3
231.037	21101.36
231.109	21087.62
231.181	21069.79
231.254	21045.4
231.326	21025.26
231.399	20985.88
231.471	20959.18
231.544	20919.37
231.616	20923.08
231.688	20906.98
231.761	20875.9
231.833	20858.01
231.905	20811.46
231.978	20788.18
232.05	20768.9
232.122	20745.53
232.195	20721.14
232.267	20714.06
232.339	20691.84
232.412	20681.19
232.484	20649.62
232.556	20619.4
232.629	20619.26
232.701	20605.96
232.773	20583.55
232.846	20559.69
232.918	20539.21
232.99	20526.49
233.062	20506.73
233.135	20488.12
233.207	20457.04
233.279	20448.94
233.351	20430.2
233.424	20400.03
233.496	20365.23
233.568	20361.09
233.64	20313.33
233.713	20281.86
233.785	20248.17
233.857	20218.87
233.929	20192.9
234.001	20182.15
234.074	20173.67
234.146	20123.36
234.218	20096.9
234.29	20068.66
234.362	20037.77
234.434	19994.35
234.507	19949.58
234.579	19903.41
234.651	19856.33
234.723	19835.03
234.795	19813.73
234.867	19786.26
234.939	19780.72
235.012	19755.42
235.084	19729.93
235.156	19728.05
235.228	19697.88
235.3	19658.36
235.372	19634.61
235.444	19609.35
235.516	19544.68
235.588	19515.14
235.66	19486.13
235.732	19452.98
235.804	19490.23
235.876	19482.66
235.948	19477.17
236.02	19453.07
236.092	19438.76
236.164	19413.12
236.236	19373.32
236.308	19332.89
236.38	19303.35
236.452	19259.78
236.524	19235.54
236.596	19217.76
236.668	19187.84
236.74	19160.27
236.812	19147.65
236.884	19123.21
236.956	19099.84
237.028	19075.22
237.1	19036.81
237.172	19021.44
237.244	19009.82
237.316	18935.22
237.388	18893.25
237.46	18852.63
237.532	18839.09
237.604	18794.99
237.675	18778.41
237.747	18758.71
237.819	18725.74
237.891	18700.15
237.963	18668.45
238.035	18623.97
238.107	18549.95
238.178	18541.51
238.25	18514.19
238.322	18494.96
238.394	18454.24
238.466	18420.46
238.538	18393.04
238.609	18368.9
238.681	18314.49
238.753	18269.91
238.825	18242.73
238.897	18203.31
238.968	18191.36
239.04	18141.82
239.112	18132.86
239.184	18092.04
239.255	18053.97
239.327	18031.32
239.399	18000.24
239.471	17980.19
239.542	17962.21
239.614	17954.7
239.686	17882.65
239.758	17862.31
239.829	17825.59
239.901	17807.28
239.973	17772.73
240.044	17754.9
240.116	17725.69
240.188	17701.35
240.259	17666.61
240.331	17634.71
240.403	17620.83
240.474	17573.26
240.546	17541.36
240.618	17503.33
240.689	17469.41
240.761	17449.36
240.833	17427.72
240.904	17396.06
240.976	17359.96
241.048	17332.25
241.119	17307.67
241.191	17296.06
241.262	17282.61
241.334	17241.89
241.405	17205.89
241.477	17159.91
241.549	17121.35
241.62	17090.85
241.692	17064.19
241.763	17047.23
241.835	17013.54
241.906	16982.22
241.978	16942.22
242.049	16923.85
242.121	16898.6
242.192	16882.45
242.264	16834.21
242.335	16795.12
242.407	16762.74
242.478	16729.29
242.55	16702.25
242.621	16664.18
242.693	16628.75
242.764	16586.82
242.836	16556.89
242.907	16532.89
242.979	16524.94
243.05	16500.5
243.122	16473.46
243.193	16437.85
243.264	16393.36
243.336	16358.03
243.407	16334.42
243.479	16326.42
243.55	16303.47
243.622	16275.04
243.693	16239.66
243.764	16228.19
243.836	16190.31
243.907	16161
243.978	16134.39
244.05	16106.87
244.121	16066.15
244.192	16040.17
244.264	15996.98
244.335	15971.68
244.407	15920.34
244.478	15889.35
244.549	15855.71
244.62	15823.8
244.692	15796.62
244.763	15777.91
244.834	15746.87
244.906	15708.26
244.977	15677.32
245.048	15660.26
245.119	15627.87
245.191	15589.55
245.262	15535.03
245.333	15524.67
245.405	15501.82
245.476	15478.4
245.547	15457.43
245.618	15431.01
245.689	15412.17
245.761	15395.63
245.832	15360.54
245.903	15347.67
245.974	15327.86
246.045	15297.06
246.117	15280.05
246.188	15242.5
246.259	15204.95
246.33	15178.96
246.401	15151.68
246.473	15106.18
246.544	15065.64
246.615	15050.89
246.686	15031.9
246.757	15027.18
246.828	14985.91
246.899	14972.22
246.97	14923.97
247.042	14875
247.113	14859.62
247.184	14849.3
247.255	14811.9
247.326	14788.42
247.397	14764.66
247.468	14732.51
247.539	14712.65
247.61	14675.24
247.681	14665.69
247.752	14644.39
247.823	14606.16
247.894	14579.7
247.965	14545.28
248.037	14516.79
248.108	14469.98
248.179	14447.57
248.25	14410.74
248.321	14388.08
248.392	14341.85
248.463	14346.72
248.534	14331.3
248.605	14311.29
248.675	14277.36
248.746	14260.39
248.817	14239.42
248.888	14215.84
248.959	14175.83
249.03	14158.58
249.101	14135.1
249.172	14099.14
249.243	14057.44
249.314	14055.13
249.385	14033.72
249.456	14020.56
249.527	13996.46
249.598	13985.56
249.669	13949.07
249.739	13939.82
249.81	13920
249.881	13894.31
249.952	13866.25
250.023	13838.58
250.094	13794.23
250.165	13762.75
250.235	13729.97
250.306	13713.44
250.377	13673.43
250.448	13657.86
250.519	13606.95
250.59	13595.82
250.66	13573.3
250.731	13571.9
250.802	13543.7
250.873	13523.12
250.944	13501.38
251.014	13469.03
251.085	13468.21
251.156	13457.03
251.227	13448.45
251.297	13443.96
251.368	13433.5
251.439	13422.71
251.51	13423.48
251.58	13402.27
251.651	13373.39
251.722	13373.25
251.792	13339.26
251.863	13318.96
251.934	13314.34
252.005	13334.78
252.075	13318.15
252.146	13297.22
252.217	13281.46
252.287	13265.5
252.358	13242.99
252.429	13240.44
252.499	13220.05
252.57	13191.46
252.641	13177.33
252.711	13145.61
252.782	13110.86
252.852	13109.41
252.923	13083.86
252.994	13054.22
253.064	13043.66
253.135	13021
253.205	12992.32
253.276	12989.19
253.347	12985.57
253.417	12956.94
253.488	12925.65
253.558	12904.97
253.629	12890.46
253.699	12876.05
253.77	12873.73
253.841	12854.74
253.911	12839.36
253.982	12821.19
254.052	12812.51
254.123	12791.64
254.193	12777.27
254.264	12788.65
254.334	12754.57
254.405	12718.27
254.475	12687.42
254.546	12664.52
254.616	12657.29
254.687	12638.49
254.757	12620.22
254.827	12599.54
254.898	12585.03
254.968	12569.17
255.039	12533.02
255.109	12518.65
255.18	12492.05
255.25	12440.66
255.321	12425.52
255.391	12389.56
255.461	12390.53
255.532	12347.87
255.602	12329.31
255.673	12291.03
255.743	12270.4
255.813	12228.56
255.884	12228.9
255.954	12222.59
256.024	12226.59
256.095	12206.05
256.165	12174.48
256.235	12162.91
256.306	12145.12
256.376	12132.49
256.446	12115.14
256.517	12109.45
256.587	12110.37
256.657	12092.73
256.728	12080.82
256.798	12066.46
256.868	12047.71
256.938	12019.46
257.009	12009.19
257.079	11997.1
257.149	12001.96
257.219	11959.31
257.29	11946.1
257.36	11901.71
257.43	11884.65
257.5	11846.66
257.571	11824.92
257.641	11823.24
257.711	11789.79
257.781	11770.7
257.852	11760.34
257.922	11729.3
257.992	11708.43
258.062	11683.55
258.132	11679.51
258.202	11665.19
258.273	11651.69
258.343	11653.67
258.413	11630.83
258.483	11615.4
258.553	11583.06
258.623	11554.72
258.693	11534.77
258.764	11540.5
258.834	11549.42
258.904	11541.71
258.974	11512.6
259.044	11494.48
259.114	11479.54
259.184	11461.8
259.254	11449.75
259.324	11401.65
259.394	11386.76
259.464	11384.45
259.535	11364.83
259.605	11341.6
259.675	11312.54
259.745	11299
259.815	11268.73
259.885	11246.95
259.955	11259.33
260.025	11241.89
260.095	11226.95
260.165	11227.14
260.235	11226.71
260.305	11205.55
260.375	11180.35
260.445	11187
260.515	11186.42
260.585	11177.74
260.655	11166.56
260.725	11157.16
260.795	11161.74
260.865	11162.42
260.934	11140.68
261.004	11128.63
261.074	11108.73
261.144	11110.08
261.214	11106.9
261.284	11085.94
261.354	11080.83
261.424	11046.95
261.494	11051.04
261.564	11034.32
261.634	11016.93
261.703	10972.69
261.773	10960.4
261.843	10946.62
261.913	10925.85
261.983	10888.02
262.053	10872.55
262.123	10850.48
262.192	10820.27
