Data from 20250625_urea_1M_1_MAYP1162681_05-45-05-719.txt Node
Date: Thu Jun 26 05:45:05 BST 2025
User: adleo
Spectrometer: MAYP116268
Trigger mode: 0
Integration Time (sec): 1.000000E0
Scans to average: 1
Electric dark correction enabled: true
Nonlinearity correction enabled: true
Boxcar width: 10
XAxis mode: Wavelengths
Number of Pixels in Spectrum: 2068
>>>>>Begin Spectral Data<<<<<
179.565	1098.67
179.642	1144.38
179.718	1182.82
179.795	1220.98
179.871	1247.6
179.948	1263.53
180.024	1283.69
180.101	1304.94
180.177	1316.44
180.254	1334.33
180.33	1356.21
180.407	1401.77
180.483	1487.48
180.56	1567.96
180.636	1644.91
180.712	1632.89
180.789	1642.63
180.865	1654.07
180.942	1660.39
181.018	1668.89
181.095	1680.21
181.171	1684.67
181.248	1689.04
181.324	1703.06
181.4	1709.24
181.477	1720.07
181.553	1732.14
181.63	1748.87
181.706	1763.93
181.782	1773.86
181.859	1778.8
181.935	1781.09
182.011	1778.28
182.088	1793.82
182.164	1811.32
182.24	1821.68
182.317	1829.52
182.393	1825.48
182.469	1837.98
182.546	1852.19
182.622	1856.13
182.698	1853.56
182.775	1865.5
182.851	1877.62
182.927	1869.77
183.003	1865.59
183.08	1861.31
183.156	1865.92
183.232	1865.64
183.308	1855.23
183.385	1859.36
183.461	1872.01
183.537	1874.43
183.613	1886.89
183.69	1878.09
183.766	1866.78
183.842	1875.57
183.918	1881.18
183.995	1896.15
184.071	1901.67
184.147	1895.11
184.223	1886.56
184.299	1894.93
184.375	1881.52
184.452	1885.18
184.528	1938.2
184.604	1944.72
184.68	1955.03
184.756	1966.82
184.832	1969.2
184.908	1972.29
184.985	1977.47
185.061	1963.54
185.137	1972.53
185.213	1961.78
185.289	1966.44
185.365	1961.36
185.441	1957.93
185.517	1971.73
185.593	1967.45
185.669	1960.13
185.745	1968.68
185.822	1982.8
185.898	1975.33
185.974	1986.31
186.05	1981.79
186.126	1944.51
186.202	1938.95
186.278	1936.76
186.354	1925.68
186.43	1933.29
186.506	1932.39
186.582	1928.59
186.658	1932.53
186.734	1912.76
186.81	1915.32
186.886	1915.8
186.962	1929.44
187.038	1926.21
187.114	1915.41
187.19	1921.45
187.266	1914.23
187.341	1919.6
187.417	1913.61
187.493	1913.33
187.569	1915.56
187.645	1911.33
187.721	1902.53
187.797	1911.28
187.873	1913.89
187.949	1908.38
188.025	1900.72
188.101	1901.67
188.176	1905.48
188.252	1903
188.328	1910.84
188.404	1910.32
188.48	1904.9
188.556	1896.68
188.632	1897.2
188.707	1899.77
188.783	1897.49
188.859	1894.4
188.935	1880.23
189.011	1889.26
189.086	1885.27
189.162	1878.52
189.238	1877
189.314	1872.86
189.39	1868.82
189.465	1862.4
189.541	1879.37
189.617	1864.5
189.693	1860.17
189.768	1864.59
189.844	1887.23
189.92	1880.82
189.996	1886.57
190.071	1898.12
190.147	1896.69
190.223	1905.59
190.298	1898.41
190.374	1884
190.45	1895.12
190.526	1905.35
190.601	1898.59
190.677	1897.5
190.753	1920.28
190.828	1921.05
190.904	1934.03
190.98	1943.68
191.055	1953.76
191.131	1944.91
191.207	1964.21
191.282	1973.86
191.358	1963.97
191.433	1952.46
191.509	1963.54
191.585	1960.97
191.66	1960.59
191.736	1967.72
191.811	1957.97
191.887	1974.76
191.963	1997.82
192.038	2002.43
192.114	2002.29
192.189	2010.42
192.265	2006.81
192.34	1990.11
192.416	1990.4
192.491	1988.21
192.567	1993.96
192.642	1997.72
192.718	1997.77
192.793	1987.74
192.869	1983.93
192.944	1985.93
193.02	1991.73
193.095	1994.77
193.171	2002.72
193.246	2003.19
193.322	2003.1
193.397	2006
193.473	1988.35
193.548	1973.56
193.624	1982.55
193.699	1980.13
193.775	1990.92
193.85	1995.53
193.925	2001.57
194.001	1998.72
194.076	1988.78
194.152	1976.51
194.227	1967.29
194.302	1959.87
194.378	1964.15
194.453	1963.06
194.529	1976.8
194.604	1962.96
194.679	1959.73
194.755	1941.38
194.83	1950.85
194.905	1947.47
194.981	1956.46
195.056	1952.18
195.131	1956.89
195.207	1950.85
195.282	1940.53
195.357	1922.41
195.433	1935.01
195.508	1924.69
195.583	1933.01
195.659	1948.61
195.734	1955.22
195.809	1954.51
195.884	1961.54
195.96	1960.26
196.035	1975.19
196.11	1969.29
196.185	1981.08
196.261	1981.46
196.336	2009.75
196.411	1999.72
196.486	2005.76
196.561	1998.62
196.637	2006.61
196.712	2020.07
196.787	2023.45
196.862	2040.04
196.937	2050.12
197.013	2055.45
197.088	2063.53
197.163	2082.23
197.238	2097.36
197.313	2098.93
197.388	2114.16
197.464	2143.37
197.539	2156.5
197.614	2149.03
197.689	2161.92
197.764	2177.2
197.839	2194.89
197.914	2190.18
197.989	2208.69
198.065	2223.15
198.14	2269.38
198.215	2292.79
198.29	2305.74
198.365	2317.02
198.44	2326.49
198.515	2352.29
198.59	2367.47
198.665	2392.88
198.74	2400.74
198.815	2401.6
198.89	2423.92
198.965	2450.92
199.04	2445.83
199.115	2459.96
199.19	2500.38
199.265	2501.72
199.34	2509.62
199.415	2541.58
199.49	2561.58
199.565	2570.77
199.64	2591.91
199.715	2589.38
199.79	2597.15
199.865	2603.58
199.94	2603.82
200.015	2636.21
200.09	2641.64
200.165	2647.93
200.24	2655.02
200.315	2692.21
200.39	2708.5
200.464	2711.88
200.539	2713.03
200.614	2726.74
200.689	2745.42
200.764	2751.38
200.839	2767.71
200.914	2774.43
200.989	2764.18
201.063	2776.52
201.138	2761.76
201.213	2761.28
201.288	2742.32
201.363	2747.09
201.438	2748.09
201.512	2763.95
201.587	2744.46
201.662	2748.22
201.737	2757.42
201.812	2764.52
201.886	2734.48
201.961	2740.48
202.036	2728.44
202.111	2724.48
202.186	2699.1
202.26	2683.67
202.335	2661.51
202.41	2657.75
202.485	2640.75
202.559	2625.08
202.634	2600.74
202.709	2607.4
202.784	2589.97
202.858	2590.64
202.933	2573.59
203.008	2566.3
203.082	2546.49
203.157	2546.92
203.232	2506.5
203.306	2490.21
203.381	2460.3
203.456	2438.21
203.53	2417.48
203.605	2400.83
203.68	2382.21
203.754	2377.78
203.829	2363.93
203.904	2347.41
203.978	2333.7
204.053	2335.99
204.127	2323.57
204.202	2319.85
204.277	2305.34
204.351	2297.15
204.426	2291.3
204.5	2286.25
204.575	2253.14
204.65	2262.71
204.724	2254.52
204.799	2262.79
204.873	2257.37
204.948	2254.89
205.022	2245.76
205.097	2236.43
205.171	2250.08
205.246	2255.65
205.32	2253.99
205.395	2253.56
205.469	2246.99
205.544	2253.99
205.618	2239.24
205.693	2246.62
205.767	2234.25
205.842	2253.33
205.916	2247.53
205.991	2237.58
206.065	2241.06
206.14	2256.84
206.214	2251.32
206.289	2244.32
206.363	2253.84
206.438	2257.74
206.512	2265.5
206.586	2282.96
206.661	2294.58
206.735	2274.32
206.81	2272.41
206.884	2287.21
206.958	2275.94
207.033	2287.49
207.107	2293.73
207.181	2322.44
207.256	2320.2
207.33	2342.38
207.405	2356.52
207.479	2376.94
207.553	2383.89
207.628	2367.86
207.702	2378.95
207.776	2375.71
207.851	2381.75
207.925	2396.9
207.999	2393.85
208.073	2390.38
208.148	2392.47
208.222	2378.57
208.296	2408.35
208.371	2428.55
208.445	2439.17
208.519	2466.49
208.593	2481.06
208.668	2478.82
208.742	2481.2
208.816	2482.96
208.89	2492.96
208.965	2489.82
209.039	2500.39
209.113	2518.11
209.187	2540.85
209.261	2540.19
209.336	2559.47
209.41	2579.91
209.484	2585.15
209.558	2609.49
209.632	2629.01
209.707	2644.64
209.781	2670.54
209.855	2688.94
209.929	2704.67
210.003	2717.3
210.077	2722.06
210.151	2772.99
210.226	2810.27
210.3	2845.71
210.374	2878.82
210.448	2894.59
210.522	2918.29
210.596	2939.98
210.67	2962.96
210.744	3024.24
210.818	3071.19
210.892	3110.11
210.966	3123.79
211.041	3154.98
211.115	3170.48
211.189	3213.55
211.263	3250.85
211.337	3286.44
211.411	3330.4
211.485	3357.99
211.559	3400.07
211.633	3440.14
211.707	3445.91
211.781	3493.49
211.855	3499.7
211.929	3534.4
212.003	3563.07
212.077	3619.59
212.151	3678.4
212.225	3738.31
212.299	3782.01
212.373	3826.06
212.447	3880.98
212.52	3964.38
212.594	4031.93
212.668	4111.99
212.742	4169.75
212.816	4239.77
212.89	4311.32
212.964	4386.79
213.038	4468.52
213.112	4563.15
213.186	4657.89
213.26	4727.45
213.333	4773.98
213.407	4871.28
213.481	4971.47
213.555	5081.61
213.629	5165.28
213.703	5251.83
213.777	5353.49
213.85	5436.52
213.924	5577.21
213.998	5683.44
214.072	5792.15
214.146	5893.79
214.219	6010.97
214.293	6124.76
214.367	6242.82
214.441	6367.05
214.515	6480.66
214.588	6585.38
214.662	6673.74
214.736	6776.79
214.81	6910.18
214.883	7042.76
214.957	7161.41
215.031	7274.98
215.105	7380.49
215.178	7500.28
215.252	7621.95
215.326	7729.65
215.4	7842.34
215.473	7927.2
215.547	8039.95
215.621	8159.85
215.694	8292.74
215.768	8401.25
215.842	8518.22
215.915	8638.54
215.989	8744.29
216.063	8863.97
216.136	8995.87
216.21	9132.39
216.284	9272.44
216.357	9400.37
216.431	9521.23
216.504	9652.11
216.578	9803.44
216.652	9941.89
216.725	10063.94
216.799	10202.68
216.873	10329.52
216.946	10464.06
217.02	10583.05
217.093	10702.83
217.167	10806.47
217.24	10915.28
217.314	11023.99
217.387	11133.03
217.461	11240.35
217.535	11368.73
217.608	11470.9
217.682	11579.88
217.755	11696.75
217.829	11802.6
217.902	11919.34
217.976	12040.12
218.049	12142.98
218.123	12236.54
218.196	12356.76
218.27	12461.84
218.343	12546.58
218.417	12659.48
218.49	12767.79
218.563	12884.88
218.637	12996.57
218.71	13118.19
218.784	13232.2
218.857	13348.95
218.931	13458.57
219.004	13560.53
219.077	13669.18
219.151	13775.43
219.224	13873.58
219.298	13972.88
219.371	14082.93
219.444	14159.73
219.518	14251.27
219.591	14362.09
219.665	14477.78
219.738	14559.1
219.811	14639.56
219.885	14747.83
219.958	14843.22
220.031	14923.62
220.105	15017.96
220.178	15103.86
220.251	15178.96
220.325	15260.37
220.398	15346.41
220.471	15432.93
220.544	15520.76
220.618	15589.88
220.691	15668.78
220.764	15739.54
220.838	15820.37
220.911	15890.26
220.984	15984.87
221.057	16069.37
221.131	16129.47
221.204	16173.14
221.277	16260.76
221.35	16359.62
221.424	16413.6
221.497	16470.66
221.57	16538.28
221.643	16601.57
221.716	16674
221.79	16740.08
221.863	16799.26
221.936	16848.47
222.009	16904.67
222.082	16967.75
222.155	17021.06
222.229	17092.14
222.302	17153.64
222.375	17204.63
222.448	17256.58
222.521	17309.59
222.594	17352.78
222.667	17394.8
222.74	17451.96
222.814	17495.77
222.887	17543.38
222.96	17605.4
223.033	17661.74
223.106	17706.27
223.179	17758.85
223.252	17800.1
223.325	17841.2
223.398	17889.88
223.471	17938.36
223.544	17983.03
223.617	18024.77
223.69	18064.33
223.763	18098.55
223.837	18143.61
223.91	18183.22
223.983	18211.8
224.056	18239.41
224.129	18272.85
224.202	18312.27
224.275	18346.87
224.348	18363.93
224.42	18381.76
224.493	18386.73
224.566	18417.62
224.639	18453.33
224.712	18469.57
224.785	18482.96
224.858	18500.75
224.931	18512.79
225.004	18530.24
225.077	18552.69
225.15	18550.04
225.223	18572.89
225.296	18602.72
225.369	18604.5
225.442	18611.73
225.514	18633.17
225.587	18650.09
225.66	18677.75
225.733	18702.37
225.806	18713.31
225.879	18739
225.952	18751.14
226.025	18793.4
226.097	18819.86
226.17	18835.38
226.243	18836.48
226.316	18862.7
226.389	18885.97
226.461	18909.97
226.534	18939.18
226.607	18958.6
226.68	18999.37
226.753	19018.69
226.825	19021
226.898	19057.48
226.971	19079.75
227.044	19097.14
227.117	19113.91
227.189	19127.74
227.262	19153.48
227.335	19173.14
227.407	19174.39
227.48	19181.76
227.553	19185.76
227.626	19182.29
227.698	19195.21
227.771	19223.88
227.844	19226.19
227.916	19229.47
227.989	19230.43
228.062	19229.37
228.134	19259.11
228.207	19265.04
228.28	19263.4
228.352	19265.61
228.425	19272.94
228.498	19280.74
228.57	19273.81
228.643	19292.5
228.716	19302.09
228.788	19295.83
228.861	19296.74
228.934	19322.86
229.006	19333.18
229.079	19333.8
229.151	19335.97
229.224	19322.33
229.296	19318.33
229.369	19342.09
229.442	19367.49
229.514	19353.13
229.587	19365.08
229.659	19343.83
229.732	19339.25
229.804	19354.62
229.877	19376.4
229.949	19385.41
230.022	19402.18
230.094	19417.7
230.167	19417.75
230.239	19398.81
230.312	19390.52
230.384	19412.16
230.457	19416.74
230.529	19423.72
230.602	19427.53
230.674	19431.97
230.747	19439.34
230.819	19444.16
230.892	19418.33
230.964	19415.29
231.037	19434.09
231.109	19423.58
231.181	19429.56
231.254	19422.62
231.326	19415.1
231.399	19405.75
231.471	19390.62
231.544	19370.67
231.616	19374.86
231.688	19368.31
231.761	19363.29
231.833	19360.45
231.905	19327.97
231.978	19317.51
232.05	19306.57
232.122	19302.96
232.195	19288.41
232.267	19299.54
232.339	19294.33
232.412	19298.43
232.484	19273.76
232.556	19253.23
232.629	19261.95
232.701	19259.45
232.773	19264.07
232.846	19252.31
232.918	19244.07
232.99	19239.74
233.062	19233.95
233.135	19213.28
233.207	19187.5
233.279	19184.32
233.351	19181.14
233.424	19162.1
233.496	19138.1
233.568	19138.3
233.64	19100.71
233.713	19086.68
233.785	19069
233.857	19049.92
233.929	19025.19
234.001	19030.25
234.074	19025.97
234.146	18992.04
234.218	18965.49
234.29	18936.24
234.362	18915.56
234.434	18884.1
234.507	18851.95
234.579	18817.55
234.651	18801.35
234.723	18790.99
234.795	18782.13
234.867	18764.39
234.939	18762.42
235.012	18741.65
235.084	18730.23
235.156	18728.49
235.228	18706.56
235.3	18680.06
235.372	18666.08
235.444	18656.4
235.516	18617.27
235.588	18600.98
235.66	18581.56
235.732	18565.13
235.804	18598.76
235.876	18590.81
235.948	18586.14
236.02	18567.34
236.092	18551.68
236.164	18532.45
236.236	18512.26
236.308	18485.28
236.38	18463.93
236.452	18434.19
236.524	18416.36
236.596	18408.65
236.668	18398.73
236.74	18382
236.812	18361.72
236.884	18348.51
236.956	18324.08
237.028	18301.29
237.1	18273.67
237.172	18281.48
237.244	18266.39
237.316	18202.16
237.388	18164.09
237.46	18125.25
237.532	18112.33
237.604	18081.49
237.675	18070.98
237.747	18050.26
237.819	18017.88
237.891	18002.12
237.963	17981.01
238.035	17951.95
238.107	17890.41
238.178	17880.82
238.25	17858.75
238.322	17855.81
238.394	17815.38
238.466	17777.01
238.538	17753.11
238.609	17730.17
238.681	17678.27
238.753	17653.45
238.825	17638.08
238.897	17619.91
238.968	17623.52
239.04	17587.19
239.112	17590.56
239.184	17546.32
239.255	17519.57
239.327	17501.74
239.399	17460.01
239.471	17443.53
239.542	17425.45
239.614	17416.59
239.686	17365.6
239.758	17339.53
239.829	17302.56
239.901	17286.47
239.973	17266.08
240.044	17237.31
240.116	17213.07
240.188	17180.53
240.259	17140.68
240.331	17102.17
240.403	17072.63
240.474	17021.5
240.546	16997.69
240.618	16949.44
240.689	16931.37
240.761	16918.17
240.833	16905.3
240.904	16885.06
240.976	16846.93
241.048	16824.72
241.119	16800.81
241.191	16778.26
241.262	16769.82
241.334	16739.17
241.405	16708.04
241.477	16680.52
241.549	16661.53
241.62	16630.87
241.692	16614.39
241.763	16607.93
241.835	16582.68
241.906	16562.77
241.978	16518.72
242.049	16493.66
242.121	16481.61
242.192	16456.35
242.264	16396.97
242.335	16347.48
242.407	16321.69
242.478	16295.86
242.55	16266.41
242.621	16226.74
242.693	16184.57
242.764	16141.91
242.836	16112.75
242.907	16086.92
242.979	16073.86
243.05	16039.25
243.122	16017.13
243.193	15982.95
243.264	15929.41
243.336	15898.99
243.407	15876
243.479	15872.39
243.55	15852.63
243.622	15820.72
243.693	15790.79
243.764	15788.81
243.836	15753.04
243.907	15721.04
243.978	15693.23
244.05	15667.15
244.121	15631.96
244.192	15621.36
244.264	15578.85
244.335	15548.62
244.407	15514.4
244.478	15477.53
244.549	15449.48
244.62	15412.55
244.692	15393.51
244.763	15386.38
244.834	15357.02
244.906	15322.75
244.977	15296
245.048	15281.06
245.119	15249.39
245.191	15213.96
245.262	15159.59
245.333	15148.74
245.405	15127.1
245.476	15106.57
245.547	15091.04
245.618	15069.21
245.689	15043.76
245.761	15021.54
245.832	14990.59
245.903	14968.8
245.974	14952.03
246.045	14932.46
246.117	14927.39
246.188	14880.97
246.259	14836.19
246.33	14806.45
246.401	14778.3
246.473	14733.9
246.544	14699.34
246.615	14683.63
246.686	14648.34
246.757	14644.44
246.828	14613.63
246.899	14597.15
246.97	14553.81
247.042	14508.93
247.113	14488.73
247.184	14478.42
247.255	14444.34
247.326	14421.39
247.397	14392.66
247.468	14365.09
247.539	14328.98
247.61	14281.02
247.681	14264.15
247.752	14247.23
247.823	14214.54
247.894	14190.49
247.965	14164.79
248.037	14135.1
248.108	14092.77
248.179	14072.09
248.25	14046.69
248.321	14028.08
248.392	13989.03
248.463	13986.62
248.534	13964.21
248.605	13945.94
248.675	13914.94
248.746	13903.81
248.817	13888
248.888	13864.18
248.959	13823.06
249.03	13803.63
249.101	13786.81
249.172	13764.25
249.243	13723.03
249.314	13718.45
249.385	13697.34
249.456	13674.63
249.527	13647.35
249.598	13625.61
249.669	13602.52
249.739	13574.27
249.81	13549.3
249.881	13520.37
249.952	13494.1
250.023	13472.89
250.094	13436.15
250.165	13399.81
250.235	13378.02
250.306	13355.99
250.377	13328.56
250.448	13310.53
250.519	13278.81
250.59	13272.35
250.66	13249.74
250.731	13248.63
250.802	13217.1
250.873	13196.47
250.944	13184.76
251.014	13150.63
251.085	13151.93
251.156	13141.71
251.227	13142.29
251.297	13133.03
251.368	13119.68
251.439	13108.59
251.51	13095.58
251.58	13071.67
251.651	13047.9
251.722	13038.69
251.792	13001.33
251.863	12974.19
251.934	12968.75
252.005	12979.74
252.075	12945.66
252.146	12925.6
252.217	12915.67
252.287	12905.02
252.358	12889.25
252.429	12879.9
252.499	12858.84
252.57	12844.13
252.641	12821.91
252.711	12798.58
252.782	12765.51
252.852	12767.82
252.923	12739.48
252.994	12718.7
253.064	12705.21
253.135	12679.27
253.205	12647.99
253.276	12647.31
253.347	12652.9
253.417	12625.52
253.488	12589.66
253.558	12577.75
253.629	12560.4
253.699	12533.26
253.77	12526.65
253.841	12501.88
253.911	12484.19
253.982	12469.68
254.052	12459.51
254.123	12440.95
254.193	12419.16
254.264	12436.46
254.334	12407.59
254.405	12387.01
254.475	12359.39
254.546	12340.44
254.616	12337.45
254.687	12322.75
254.757	12306.51
254.827	12279.61
254.898	12259.41
254.968	12241.72
255.039	12209.33
255.109	12199.02
255.18	12174.96
255.25	12126.66
255.321	12111.58
255.391	12078.51
255.461	12085.55
255.532	12037.78
255.602	12017.97
255.673	11976.9
255.743	11945.81
255.813	11903.01
255.884	11888.89
255.954	11881.75
256.024	11884.45
256.095	11863.63
256.165	11832.88
256.235	11814.56
256.306	11783.71
256.376	11791.04
256.446	11788.05
256.517	11779.38
256.587	11772.58
256.657	11756.38
256.728	11746.6
256.798	11728.38
256.868	11710.89
256.938	11679.99
257.009	11674.74
257.079	11662.25
257.149	11678.45
257.219	11644.8
257.29	11635.55
257.36	11602.34
257.43	11592.51
257.5	11550.58
257.571	11527.83
257.641	11519.4
257.711	11494.24
257.781	11490.09
257.852	11463.44
257.922	11427.72
257.992	11408.49
258.062	11384.49
258.132	11377.89
258.202	11357.02
258.273	11344.49
258.343	11342.85
258.413	11317.65
258.483	11292.59
258.553	11269.89
258.623	11236.39
258.693	11217.06
258.764	11217.06
258.834	11221.21
258.904	11199.04
258.974	11172.68
259.044	11159.52
259.114	11150.08
259.184	11136.39
259.254	11114.17
259.324	11079.81
259.394	11069.36
259.464	11074.18
259.535	11060.44
259.605	11029.41
259.675	11006.32
259.745	10993.55
259.815	10965.6
259.885	10943.29
259.955	10960.11
260.025	10938.04
260.095	10920.5
260.165	10912.94
260.235	10905.85
260.305	10880.36
260.375	10858.05
260.445	10867.35
260.515	10866.82
260.585	10863.98
260.655	10848.94
260.725	10840.65
260.795	10833.96
260.865	10831.06
260.934	10799.02
261.004	10786.92
261.074	10771.79
261.144	10775.84
261.214	10767.07
261.284	10752.37
261.354	10749.87
261.424	10718.93
261.494	10719.94
261.564	10701.78
261.634	10693.25
261.703	10658.75
261.773	10642.56
261.843	10639.09
261.913	10621.16
261.983	10586.42
262.053	10574.09
262.123	10555.15
262.192	10524.99
