Data from 20250625_urea_1M_1_MAYP1162681_02-15-05-749.txt Node
Date: Thu Jun 26 02:15:05 BST 2025
User: adleo
Spectrometer: MAYP116268
Trigger mode: 0
Integration Time (sec): 1.000000E0
Scans to average: 1
Electric dark correction enabled: true
Nonlinearity correction enabled: true
Boxcar width: 10
XAxis mode: Wavelengths
Number of Pixels in Spectrum: 2068
>>>>>Begin Spectral Data<<<<<
179.565	1126.42
179.642	1177.22
179.718	1215.98
179.795	1249.41
179.871	1277.33
179.948	1292.96
180.024	1311.98
180.101	1331.54
180.177	1343.06
180.254	1363.41
180.33	1383.05
180.407	1431.18
180.483	1522.4
180.56	1606.97
180.636	1687.96
180.712	1672.84
180.789	1678.12
180.865	1692.56
180.942	1701.25
181.018	1709.42
181.095	1722.25
181.171	1725.2
181.248	1726.25
181.324	1741.65
181.4	1749.63
181.477	1762.94
181.553	1774.24
181.63	1794.59
181.706	1812.79
181.782	1824.05
181.859	1824.76
181.935	1830.32
182.011	1825.81
182.088	1839.69
182.164	1857.81
182.24	1866.93
182.317	1875.91
182.393	1874.87
182.469	1886.89
182.546	1898.35
182.622	1903.58
182.698	1899.82
182.775	1913.47
182.851	1924.83
182.927	1916.36
183.003	1912.8
183.08	1905.1
183.156	1914.13
183.232	1909.33
183.308	1895.78
183.385	1899.15
183.461	1913.32
183.537	1914.41
183.613	1928.54
183.69	1917.98
183.766	1905.57
183.842	1914.46
183.918	1921.64
183.995	1934
184.071	1939.09
184.147	1934.33
184.223	1921.36
184.299	1932.87
184.375	1921.69
184.452	1927.64
184.528	1982.19
184.604	1990.89
184.68	2002.02
184.756	2011.15
184.832	2017.14
184.908	2022.18
184.985	2023.27
185.061	2010.39
185.137	2019.99
185.213	2007.58
185.289	2010.91
185.365	2005.97
185.441	2002.92
185.517	2014.58
185.593	2012.67
185.669	2008.87
185.745	2020.57
185.822	2040.67
185.898	2033.83
185.974	2040.29
186.05	2034.11
186.126	1996.91
186.202	1990.78
186.278	1986.07
186.354	1976.75
186.43	1978.98
186.506	1977.8
186.582	1976.09
186.658	1982.88
186.734	1965.62
186.81	1969
186.886	1971.47
186.962	1981.69
187.038	1977.7
187.114	1970.66
187.19	1974.99
187.266	1965.57
187.341	1962.34
187.417	1951.93
187.493	1949.55
187.569	1952.78
187.645	1948.31
187.721	1934.38
187.797	1940.51
187.873	1946.12
187.949	1938.09
188.025	1934.33
188.101	1936.04
188.176	1942.08
188.252	1939.04
188.328	1944.45
188.404	1942.46
188.48	1935.9
188.556	1928.77
188.632	1928.39
188.707	1928.24
188.783	1930.15
188.859	1925.35
188.935	1914.55
189.011	1925.01
189.086	1921.02
189.162	1916.17
189.238	1913.98
189.314	1912.94
189.39	1910.04
189.465	1903.52
189.541	1920.21
189.617	1908.09
189.693	1904.48
189.768	1909.42
189.844	1927.54
189.92	1917.33
189.996	1927.26
190.071	1936.91
190.147	1937.15
190.223	1945.71
190.298	1935.96
190.374	1921.22
190.45	1934.39
190.526	1944.99
190.601	1936.05
190.677	1936.96
190.753	1959.55
190.828	1965.16
190.904	1979.81
190.98	1990.99
191.055	1998.02
191.131	1990.75
191.207	2007.91
191.282	2014.38
191.358	2004.82
191.433	1996.11
191.509	2011.13
191.585	2004.86
191.66	2007.95
191.736	2017.03
191.811	2008.56
191.887	2025.35
191.963	2047.51
192.038	2050.51
192.114	2050.99
192.189	2059.59
192.265	2056.41
192.34	2037.9
192.416	2033.72
192.491	2028.96
192.567	2034.38
192.642	2039.14
192.718	2039.38
192.793	2028.06
192.869	2026.87
192.944	2029.72
193.02	2036.48
193.095	2040
193.171	2047.65
193.246	2047.94
193.322	2043.99
193.397	2046.7
193.473	2035.33
193.548	2019.16
193.624	2026.2
193.699	2023.58
193.775	2033.29
193.85	2035
193.925	2042.56
194.001	2042.37
194.076	2035.1
194.152	2024.2
194.227	2014.36
194.302	2005.94
194.378	2009.37
194.453	2006.37
194.529	2014.08
194.604	2001.71
194.679	1992.53
194.755	1974.04
194.83	1984.94
194.905	1981.47
194.981	1987.55
195.056	1980.99
195.131	1986.51
195.207	1981.75
195.282	1972.72
195.357	1958.64
195.433	1971.29
195.508	1960.92
195.583	1969.19
195.659	1981.13
195.734	1986.93
195.809	1989.78
195.884	1996.53
195.96	1997.49
196.035	2014.32
196.11	2015.32
196.185	2024.12
196.261	2029.63
196.336	2057.45
196.411	2042.46
196.486	2047.55
196.561	2042.46
196.637	2052.02
196.712	2064.2
196.787	2066.63
196.862	2080.42
196.937	2086.5
197.013	2094.69
197.088	2104.48
197.163	2123.9
197.238	2142.37
197.313	2142.51
197.388	2155.31
197.464	2184.67
197.539	2196.27
197.614	2185.76
197.689	2194.66
197.764	2206.08
197.839	2226.54
197.914	2222.97
197.989	2246.14
198.065	2260.32
198.14	2305.79
198.215	2329.54
198.29	2341.87
198.365	2358.48
198.44	2369.28
198.515	2397.17
198.59	2407.36
198.665	2431.21
198.74	2441.12
198.815	2441.36
198.89	2463.82
198.965	2491.3
199.04	2486.06
199.115	2501.58
199.19	2544.67
199.265	2550.1
199.34	2563.76
199.415	2594.11
199.49	2615.44
199.565	2622.35
199.64	2647.16
199.715	2644.21
199.79	2652.64
199.865	2659.07
199.94	2657.45
200.015	2689.08
200.09	2694.09
200.165	2702.09
200.24	2709.85
200.315	2746.57
200.39	2764.92
200.464	2768.3
200.539	2768.92
200.614	2786.4
200.689	2810.7
200.764	2817.67
200.839	2830.48
200.914	2835
200.989	2823.9
201.063	2838.1
201.138	2822.58
201.213	2823.43
201.288	2805.38
201.363	2807
201.438	2806.47
201.512	2820.81
201.587	2803.03
201.662	2810.71
201.737	2822.14
201.812	2829.96
201.886	2800.25
201.961	2804.87
202.036	2796.68
202.111	2791.87
202.186	2764.77
202.26	2745.32
202.335	2723.07
202.41	2721.64
202.485	2707.97
202.559	2690.92
202.634	2663.71
202.709	2673.04
202.784	2651.42
202.858	2654.75
202.933	2639.03
203.008	2635.56
203.082	2617.84
203.157	2615.46
203.232	2574.79
203.306	2552.5
203.381	2522.96
203.456	2499.53
203.53	2476.56
203.605	2458.05
203.68	2439.19
203.754	2431.67
203.829	2416.38
203.904	2397.68
203.978	2383.49
204.053	2387.87
204.127	2378.92
204.202	2377.06
204.277	2363.31
204.351	2357.74
204.426	2349.21
204.5	2339.12
204.575	2304.63
204.65	2311.1
204.724	2304.15
204.799	2308.29
204.873	2304.48
204.948	2300.77
205.022	2289.39
205.097	2282.49
205.171	2294.48
205.246	2304.29
205.32	2307
205.395	2307.1
205.469	2298.82
205.544	2306.63
205.618	2289.44
205.693	2296.68
205.767	2286.45
205.842	2304.82
205.916	2298.78
205.991	2290.4
206.065	2295.59
206.14	2311.24
206.214	2308.57
206.289	2301.81
206.363	2316.14
206.438	2320.61
206.512	2330.13
206.586	2348.45
206.661	2358.07
206.735	2338.09
206.81	2334.28
206.884	2344.94
206.958	2332.62
207.033	2347.32
207.107	2350.89
207.181	2379.56
207.256	2377.08
207.33	2392.74
207.405	2403.79
207.479	2424.36
207.553	2431.97
207.628	2419.89
207.702	2432.36
207.776	2428.79
207.851	2434.21
207.925	2445.4
207.999	2443.74
208.073	2441.12
208.148	2443.07
208.222	2433.31
208.296	2463.43
208.371	2480.49
208.445	2492.3
208.519	2520.53
208.593	2533.81
208.668	2533.57
208.742	2535.57
208.816	2539.57
208.89	2557.24
208.965	2558.63
209.039	2565.53
209.113	2581.73
209.187	2607.43
209.261	2604.95
209.336	2622.72
209.41	2643.2
209.484	2649.3
209.558	2675.31
209.632	2688.07
209.707	2704.51
209.781	2730.28
209.855	2751.4
209.929	2776.34
210.003	2791.06
210.077	2798.88
210.151	2854.83
210.226	2893.02
210.3	2933.48
210.374	2969.7
210.448	2989.82
210.522	3013.38
210.596	3041.13
210.67	3070.79
210.744	3134.35
210.818	3186.79
210.892	3228.53
210.966	3249.8
211.041	3291.74
211.115	3317.11
211.189	3374.47
211.263	3424.1
211.337	3466.77
211.411	3516.47
211.485	3550.47
211.559	3604.75
211.633	3653.76
211.707	3669
211.781	3729.75
211.855	3747.91
211.929	3792.47
212.003	3831.24
212.077	3904.1
212.151	3980.16
212.225	4052.86
212.299	4107.98
212.373	4171.81
212.447	4246.01
212.52	4354.45
212.594	4436.13
212.668	4529.89
212.742	4605.18
212.816	4690.15
212.89	4779.38
212.964	4877.86
213.038	4979.37
213.112	5093.93
213.186	5209.94
213.26	5301.08
213.333	5370.81
213.407	5488.92
213.481	5608.88
213.555	5740.87
213.629	5853.62
213.703	5963.3
213.777	6093.54
213.85	6207.1
213.924	6368.31
213.998	6506.84
214.072	6640.39
214.146	6769.3
214.219	6913.65
214.293	7060.75
214.367	7210.54
214.441	7363.36
214.515	7502.2
214.588	7636.24
214.662	7752.02
214.736	7887.85
214.81	8056.28
214.883	8223.87
214.957	8376.16
215.031	8522.97
215.105	8659.16
215.178	8798.1
215.252	8952.79
215.326	9088.93
215.4	9231.46
215.473	9352.62
215.547	9494.53
215.621	9641.49
215.694	9808.37
215.768	9944.05
215.842	10086.63
215.915	10232.89
215.989	10367.92
216.063	10521.38
216.136	10679.46
216.21	10846.31
216.284	11016.4
216.357	11164.44
216.431	11316.43
216.504	11468.48
216.578	11648.58
216.652	11809.49
216.725	11962.46
216.799	12117.67
216.873	12265.93
216.946	12416.94
217.02	12552.52
217.093	12697.57
217.167	12817.35
217.24	12943.12
217.314	13076.93
217.387	13214.46
217.461	13343.07
217.535	13489.67
217.608	13612.3
217.682	13738.02
217.755	13875.41
217.829	13992.16
217.902	14120.96
217.976	14246.06
218.049	14371.2
218.123	14468.52
218.196	14598.05
218.27	14714.75
218.343	14821.23
218.417	14947.14
218.49	15070.63
218.563	15206.66
218.637	15328.03
218.71	15466.66
218.784	15585.62
218.857	15714.17
218.931	15823.2
219.004	15937.77
219.077	16056.53
219.151	16165.51
219.224	16274.1
219.298	16374.54
219.371	16493.25
219.444	16586.9
219.518	16686.91
219.591	16788.8
219.665	16915.11
219.738	17004.61
219.811	17094.64
219.885	17199.61
219.958	17293.83
220.031	17382.22
220.105	17471.81
220.178	17563.04
220.251	17635.28
220.325	17731.03
220.398	17826.93
220.471	17913.2
220.544	18002.11
220.618	18065.15
220.691	18148.18
220.764	18227.89
220.838	18305.71
220.911	18377.9
220.984	18472.02
221.057	18546.09
221.131	18613.65
221.204	18655.82
221.277	18751.28
221.35	18849.54
221.424	18912.43
221.497	18970.6
221.57	19032.18
221.643	19102.11
221.716	19156.9
221.79	19205.18
221.863	19251.83
221.936	19293.56
222.009	19344.69
222.082	19398.18
222.155	19451.24
222.229	19513.6
222.302	19563.28
222.375	19603.38
222.448	19644.87
222.521	19678.94
222.594	19724.24
222.667	19752.67
222.74	19810.07
222.814	19831.75
222.887	19866.16
222.96	19905.49
223.033	19958.5
223.106	19992.86
223.179	20025.82
223.252	20058.25
223.325	20090.2
223.398	20130.35
223.471	20160.66
223.544	20192.42
223.617	20222.15
223.69	20250.39
223.763	20261.23
223.837	20293.72
223.91	20337.96
223.983	20357.04
224.056	20373.43
224.129	20408.99
224.202	20452.22
224.275	20463.11
224.348	20483.35
224.42	20479.69
224.493	20486.63
224.566	20495.98
224.639	20520.85
224.712	20524.12
224.785	20540.27
224.858	20565.91
224.931	20567.74
225.004	20561.57
225.077	20579.26
225.15	20564.32
225.223	20580.27
225.296	20618.44
225.369	20608.85
225.442	20596.8
225.514	20596.8
225.587	20617.81
225.66	20621.43
225.733	20625.72
225.806	20628.99
225.879	20636.75
225.952	20639.64
226.025	20667.79
226.097	20694.49
226.17	20707.17
226.243	20703.36
226.316	20703.02
226.389	20703.02
226.461	20718.68
226.534	20740.66
226.607	20743.41
226.68	20764.13
226.753	20765.77
226.825	20743.07
226.898	20761.14
226.971	20764.18
227.044	20782.83
227.117	20783.74
227.189	20778.44
227.262	20790.83
227.335	20803.7
227.407	20801.24
227.48	20809.14
227.553	20801.29
227.626	20777.91
227.698	20762.49
227.771	20764.75
227.844	20749.43
227.916	20755.21
227.989	20734.2
228.062	20733.62
228.134	20743.16
228.207	20742.1
228.28	20730.06
228.352	20717.28
228.425	20713.04
228.498	20716.32
228.57	20695.69
228.643	20697.33
228.716	20693.04
228.788	20678.25
228.861	20664.32
228.934	20662.2
229.006	20653.86
229.079	20638
229.151	20627.5
229.224	20614.63
229.296	20612.12
229.369	20646.82
229.442	20654.87
229.514	20645.86
229.587	20646.39
229.659	20616.22
229.732	20612.22
229.804	20608.46
229.877	20627.07
229.949	20629.76
230.022	20640.17
230.094	20635.36
230.167	20628.37
230.239	20605.96
230.312	20590.78
230.384	20604.66
230.457	20599.98
230.529	20594.83
230.602	20597.19
230.674	20602.54
230.747	20604.95
230.819	20619.31
230.892	20575.21
230.964	20567.45
231.037	20565.09
231.109	20546.34
231.181	20550.82
231.254	20525.09
231.326	20518.2
231.399	20500.08
231.471	20472.9
231.544	20435.11
231.616	20430.77
231.688	20410
231.761	20388.75
231.833	20378.39
231.905	20336.75
231.978	20324.94
232.05	20296.03
232.122	20273.19
232.195	20248.37
232.267	20237.76
232.339	20198.49
232.412	20192.27
232.484	20162.29
232.556	20130.05
232.629	20124.75
232.701	20111.79
232.773	20098.49
232.846	20074.1
232.918	20062.2
232.99	20055.84
233.062	20056.03
233.135	20042.68
233.207	20012.81
233.279	20011.5
233.351	19999.55
233.424	19986.64
233.496	19952.42
233.568	19964.47
233.64	19931.89
233.713	19913.72
233.785	19896.38
233.857	19882.26
233.929	19836.86
234.001	19832.91
234.074	19830.6
234.146	19796.57
234.218	19770.6
234.29	19750.31
234.362	19721.35
234.434	19674.94
234.507	19634.03
234.579	19588.2
234.651	19550.61
234.723	19540.59
234.795	19519.58
234.867	19489.12
234.939	19476.25
235.012	19452.98
235.084	19428.83
235.156	19405.41
235.228	19367.44
235.3	19331.59
235.372	19302.77
235.444	19300.36
235.516	19248.12
235.588	19227.4
235.66	19205.42
235.732	19167.11
235.804	19192.08
235.876	19179.98
235.948	19175.31
236.02	19148.85
236.092	19123.45
236.164	19106.88
236.236	19081.82
236.308	19059.27
236.38	19031.65
236.452	18992.52
236.524	18967.17
236.596	18949.87
236.668	18936.96
236.74	18919.85
236.812	18899.85
236.884	18887.23
236.956	18856.15
237.028	18824.24
237.1	18782.99
237.172	18776.78
237.244	18773.79
237.316	18705.65
237.388	18671.39
237.46	18628.98
237.532	18612.16
237.604	18577.8
237.675	18561.27
237.747	18543.87
237.819	18500.84
237.891	18474.53
237.963	18440.51
238.035	18409.38
238.107	18343.69
238.178	18327.79
238.25	18296.47
238.322	18291.16
238.394	18236.76
238.466	18207.6
238.538	18180.76
238.609	18156.47
238.681	18100.57
238.753	18062.5
238.825	18044.86
238.897	18015.71
238.968	17996.86
239.04	17960.53
239.112	17965.78
239.184	17927.28
239.255	17878.8
239.327	17853.21
239.399	17827.81
239.471	17808.2
239.542	17785.88
239.614	17770.41
239.686	17720.53
239.758	17700.15
239.829	17650.85
239.901	17638.71
239.973	17607.67
240.044	17588.01
240.116	17565.98
240.188	17539.86
240.259	17520.01
240.331	17478.18
240.403	17464.63
240.474	17433.45
240.546	17393.69
240.618	17329.12
240.689	17292.39
240.761	17272.25
240.833	17262.95
240.904	17225.64
240.976	17194.66
241.048	17166.8
241.119	17141.98
241.191	17116.73
241.262	17093.88
241.334	17067.09
241.405	17037.88
241.477	17007.23
241.549	16974.41
241.62	16945.49
241.692	16915.61
241.763	16884.53
241.835	16857.68
241.906	16823.27
241.978	16775.61
242.049	16762.01
242.121	16757.68
242.192	16738.98
242.264	16692.32
242.335	16644.56
242.407	16626.15
242.478	16592.89
242.55	16567.78
242.621	16538
242.693	16506.24
242.764	16478.43
242.836	16444.79
242.907	16414.23
242.979	16394.33
243.05	16368.97
243.122	16341.94
243.193	16320.58
243.264	16271.95
243.336	16235.37
243.407	16213.25
243.479	16206.89
243.55	16182.35
243.622	16148.37
243.693	16115.84
243.764	16110.2
243.836	16077.81
243.907	16045.81
243.978	16009.27
244.05	15986.86
244.121	15949.89
244.192	15927.48
244.264	15875.52
244.335	15842.89
244.407	15801.29
244.478	15775.6
244.549	15744.99
244.62	15703.69
244.692	15664.16
244.763	15646.47
244.834	15616.92
244.906	15577.64
244.977	15548.82
245.048	15530.6
245.119	15496.86
245.191	15459.5
245.262	15405.47
245.333	15394.43
245.405	15361.22
245.476	15337.55
245.547	15300.77
245.618	15274.07
245.689	15245.44
245.761	15227.27
245.832	15203.12
245.903	15192.08
245.974	15164.46
246.045	15132.55
246.117	15121.17
246.188	15080.87
246.259	15033.01
246.33	15001.39
246.401	14969.72
246.473	14927.97
246.544	14897.94
246.615	14879.77
246.686	14854.56
246.757	14845.79
246.828	14802.35
246.899	14791.99
246.97	14762.68
247.042	14740.27
247.113	14722.48
247.184	14716.5
247.255	14685.12
247.326	14655.38
247.397	14615.75
247.468	14593.2
247.539	14574.11
247.61	14533.42
247.681	14518.28
247.752	14507.87
247.823	14471.33
247.894	14445.69
247.965	14411.56
248.037	14382.35
248.108	14341.18
248.179	14311.1
248.25	14278.08
248.321	14261.78
248.392	14226.83
248.463	14220.37
248.534	14199.94
248.605	14179.3
248.675	14151.49
248.746	14125.7
248.817	14106.9
248.888	14086.99
248.959	14042.79
249.03	14015.84
249.101	13989.32
249.172	13964.74
249.243	13923.86
249.314	13920.73
249.385	13901.01
249.456	13884.67
249.527	13851.12
249.598	13833.76
249.669	13813.08
249.739	13795.29
249.81	13776.59
249.881	13743.91
249.952	13711.75
250.023	13671.69
250.094	13630.52
250.165	13596.01
250.235	13578.75
250.306	13562.5
250.377	13533.44
250.448	13516.66
250.519	13478.72
250.59	13474
250.66	13449.41
250.731	13444.83
250.802	13423.33
250.873	13401.06
250.944	13389.44
251.014	13365.58
251.085	13374.55
251.156	13359.31
251.227	13345.43
251.297	13332.32
251.368	13317.86
251.439	13311.49
251.51	13306.96
251.58	13286.76
251.651	13261.36
251.722	13248.63
251.792	13206.07
251.863	13180.71
251.934	13167.6
252.005	13178.83
252.075	13159.88
252.146	13152.07
252.217	13142.77
252.287	13127.63
252.358	13109.27
252.429	13104.93
252.499	13081.74
252.57	13051.95
252.641	13038.11
252.711	13019.27
252.782	12980.07
252.852	12975.78
252.923	12946.19
252.994	12925.46
253.064	12917.55
253.135	12884.63
253.205	12858.11
253.276	12861.39
253.347	12860.23
253.417	12839.46
253.488	12815.45
253.558	12793.13
253.629	12769.17
253.699	12755.63
253.77	12746.71
253.841	12722.46
253.911	12697.69
253.982	12683.42
254.052	12670.55
254.123	12654.83
254.193	12632.17
254.264	12649.96
254.334	12621.42
254.405	12594.86
254.475	12565.36
254.546	12540.92
254.616	12538.9
254.687	12519.09
254.757	12496.91
254.827	12480.48
254.898	12463.31
254.968	12441.28
255.039	12412.75
255.109	12401.37
255.18	12369.46
255.25	12326.08
255.321	12316
255.391	12287.23
255.461	12285.78
255.532	12248.66
255.602	12221.72
255.673	12193.71
255.743	12166.48
255.813	12124.93
255.884	12124.35
255.954	12113.07
256.024	12113.17
256.095	12094.56
256.165	12070.41
256.235	12055.61
256.306	12026.98
256.376	12019.7
256.446	12008.18
256.517	11993.09
256.587	11985
256.657	11969.86
256.728	11950.73
256.798	11936.8
256.868	11916.7
256.938	11886.28
257.009	11872.21
257.079	11864.54
257.149	11874.18
257.219	11834.37
257.29	11825.94
257.36	11782.36
257.43	11773.83
257.5	11732
257.571	11710.35
257.641	11699.56
257.711	11675.8
257.781	11669.24
257.852	11655.21
257.922	11620.99
257.992	11610.73
258.062	11592.99
258.132	11579.21
258.202	11564.41
258.273	11549.95
258.343	11554.05
258.413	11535.64
258.483	11512.5
258.553	11486.72
258.623	11452.93
258.693	11437.94
258.764	11435.77
258.834	11438.76
258.904	11426.37
258.974	11407.63
259.044	11387.14
259.114	11373.02
259.184	11358.03
259.254	11333.6
259.324	11295.86
259.394	11279.72
259.464	11270.71
259.535	11245.69
259.605	11231.91
259.675	11210.18
259.745	11189.11
259.815	11154.9
259.885	11135.09
259.955	11150.22
260.025	11132.05
260.095	11113.16
260.165	11106.85
260.235	11104.54
260.305	11076.1
260.375	11054.61
260.445	11057.94
260.515	11058.71
260.585	11056.06
260.655	11039
260.725	11037.84
260.795	11026.95
260.865	11033.7
260.934	11013.26
261.004	11007.82
261.074	10992.54
261.144	10993.6
261.214	10985.7
261.284	10971.63
261.354	10966.04
261.424	10940.49
261.494	10936.83
261.564	10923.48
261.634	10914.47
261.703	10880.64
261.773	10877.8
261.843	10856.69
261.913	10836.75
261.983	10803.93
262.053	10787.98
262.123	10774.01
262.192	10740.57
262.262	10739.75
