Data from 20250625_urea_1M_1_MAYP1162681_03-25-05-400.txt Node
Date: Thu Jun 26 03:25:05 BST 2025
User: adleo
Spectrometer: MAYP116268
Trigger mode: 0
Integration Time (sec): 1.000000E0
Scans to average: 1
Electric dark correction enabled: true
Nonlinearity correction enabled: true
Boxcar width: 10
XAxis mode: Wavelengths
Number of Pixels in Spectrum: 2068
>>>>>Begin Spectral Data<<<<<
179.565	1109.97
179.642	1158.43
179.718	1199.12
179.795	1236.56
179.871	1262.23
179.948	1283.19
180.024	1303.21
180.101	1322.79
180.177	1335.78
180.254	1356.61
180.33	1378.11
180.407	1422.63
180.483	1510.47
180.56	1592.95
180.636	1671.37
180.712	1658.4
180.789	1666.76
180.865	1682.53
180.942	1689.04
181.018	1700.82
181.095	1712.13
181.171	1716.41
181.248	1718.35
181.324	1733.33
181.4	1737.32
181.477	1750.53
181.553	1758.23
181.63	1776.33
181.706	1792.73
181.782	1801.52
181.859	1800.95
181.935	1805.94
182.011	1806.32
182.088	1819.77
182.164	1839.41
182.24	1850.01
182.317	1860.22
182.393	1856.8
182.469	1867.92
182.546	1880.62
182.622	1884.37
182.698	1881.99
182.775	1894.88
182.851	1907.47
182.927	1898.87
183.003	1897.39
183.08	1891.79
183.156	1899.82
183.232	1895.63
183.308	1884.51
183.385	1890.17
183.461	1905.09
183.537	1905.19
183.613	1916.12
183.69	1909.66
183.766	1898.01
183.842	1906.57
183.918	1911.37
183.995	1922.49
184.071	1925.91
184.147	1919.97
184.223	1909.94
184.299	1921.64
184.375	1910.9
184.452	1916.56
184.528	1971.21
184.604	1978.76
184.68	1989.7
184.756	1997.92
184.832	2003.53
184.908	2007.76
184.985	2008.48
185.061	1996.73
185.137	2004.58
185.213	1992.17
185.289	1994.07
185.365	1986.99
185.441	1984.95
185.517	1998.55
185.593	1997.79
185.669	1993.32
185.745	2003.73
185.822	2020.27
185.898	2011.67
185.974	2019.13
186.05	2011.71
186.126	1971.09
186.202	1964.62
186.278	1960.2
186.354	1952.26
186.43	1960.82
186.506	1959.73
186.582	1958.16
186.658	1961.68
186.734	1944.99
186.81	1947.65
186.886	1949.56
186.962	1963.58
187.038	1960.54
187.114	1949.79
187.19	1956.25
187.266	1946.79
187.341	1948.08
187.417	1939.57
187.493	1941.99
187.569	1947.89
187.645	1944.8
187.721	1933.82
187.797	1941.56
187.873	1945.27
187.949	1937.71
188.025	1927.01
188.101	1930.58
188.176	1936.24
188.252	1933.81
188.328	1940.56
188.404	1940.7
188.48	1934.67
188.556	1925.58
188.632	1926.25
188.707	1926.91
188.783	1922.25
188.859	1917.22
188.935	1905.95
189.011	1914.6
189.086	1904.52
189.162	1894.25
189.238	1889.4
189.314	1888.6
189.39	1883.41
189.465	1876.57
189.541	1893.07
189.617	1881.14
189.693	1872.49
189.768	1875.05
189.844	1895.55
189.92	1885.62
189.996	1894.56
190.071	1908.01
190.147	1909.87
190.223	1916.33
190.298	1910.2
190.374	1898.46
190.45	1913.62
190.526	1923.27
190.601	1917.23
190.677	1919.37
190.753	1944.82
190.828	1951.81
190.904	1965.6
190.98	1980.2
191.055	1990.75
191.131	1982.43
191.207	2001.64
191.282	2012.86
191.358	2003.35
191.433	1990.08
191.509	2001.86
191.585	1997.49
191.66	1997.73
191.736	2004.15
191.811	1996.2
191.887	2013.33
191.963	2036.91
192.038	2038.53
192.114	2038.34
192.189	2042.95
192.265	2039.2
192.34	2020.17
192.416	2019.64
192.491	2015.89
192.567	2018.69
192.642	2022.88
192.718	2023.97
192.793	2014.6
192.869	2010.75
192.944	2014.37
193.02	2024.26
193.095	2028.87
193.171	2034.96
193.246	2035.05
193.322	2032.87
193.397	2034.15
193.473	2017.79
193.548	2000.43
193.624	2009.18
193.699	2005.85
193.775	2021.59
193.85	2025.11
193.925	2031.44
194.001	2026.54
194.076	2018.98
194.152	2008.94
194.227	2000.67
194.302	1991.59
194.378	1993.06
194.453	1992.02
194.529	2001.67
194.604	1987.5
194.679	1984.07
194.755	1966.53
194.83	1974.67
194.905	1970.44
194.981	1978.71
195.056	1974.38
195.131	1980.99
195.207	1977.9
195.282	1969.58
195.357	1948.84
195.433	1963.92
195.508	1955.17
195.583	1966.24
195.659	1980.42
195.734	1988.74
195.809	1988.84
195.884	1996.77
195.96	1994.35
196.035	2011.14
196.11	2008.24
196.185	2021.55
196.261	2023.22
196.336	2052.13
196.411	2039.9
196.486	2044.04
196.561	2037.76
196.637	2046.41
196.712	2059.83
196.787	2062.97
196.862	2077.38
196.937	2085.37
197.013	2090.31
197.088	2098.54
197.163	2113.91
197.238	2131.19
197.313	2130.1
197.388	2145.22
197.464	2172.63
197.539	2186.57
197.614	2175.44
197.689	2187.81
197.764	2201.56
197.839	2218.16
197.914	2213.36
197.989	2235.39
198.065	2251.04
198.14	2300.32
198.215	2323.26
198.29	2334.4
198.365	2347.06
198.44	2356.67
198.515	2382.75
198.59	2395.94
198.665	2419.98
198.74	2432.6
198.815	2432.41
198.89	2453.83
198.965	2481.26
199.04	2476.74
199.115	2492.54
199.19	2532.96
199.265	2537.05
199.34	2547.67
199.415	2583.26
199.49	2605.26
199.565	2612.97
199.64	2635.59
199.715	2630.87
199.79	2635.97
199.865	2642.54
199.94	2639.88
200.015	2673.51
200.09	2683.94
200.165	2690.8
200.24	2701.62
200.315	2740.15
200.39	2752.96
200.464	2756.01
200.539	2752.82
200.614	2772.78
200.689	2792.31
200.764	2800.47
200.839	2814.47
200.914	2816.47
200.989	2808.36
201.063	2820.8
201.138	2804.28
201.213	2803.04
201.288	2785.89
201.363	2793.56
201.438	2795.65
201.512	2811.13
201.587	2793.45
201.662	2796.69
201.737	2808.65
201.812	2812.08
201.886	2775.7
201.961	2785.71
202.036	2776.33
202.111	2776.23
202.186	2741.95
202.26	2726.27
202.335	2704.16
202.41	2701.11
202.485	2687.21
202.559	2665.01
202.634	2639.52
202.709	2650.04
202.784	2633.51
202.858	2631.8
202.933	2614.79
203.008	2605.55
203.082	2586.69
203.157	2587.08
203.232	2544.8
203.306	2526.27
203.381	2497.73
203.456	2479.73
203.53	2455.76
203.605	2435.78
203.68	2412.87
203.754	2411.35
203.829	2395.87
203.904	2380.54
203.978	2368.4
204.053	2370.88
204.127	2359.65
204.202	2359.17
204.277	2340.94
204.351	2331.95
204.426	2325.38
204.5	2315.9
204.575	2287.64
204.65	2298.21
204.724	2290.3
204.799	2299.15
204.873	2291.82
204.948	2286.3
205.022	2275.26
205.097	2269.26
205.171	2288.15
205.246	2296.63
205.32	2294.72
205.395	2296.34
205.469	2286.83
205.544	2291.68
205.618	2273.41
205.693	2283.93
205.767	2268.13
205.842	2290.26
205.916	2287.17
205.991	2277.94
206.065	2283.55
206.14	2294.4
206.214	2289.25
206.289	2280.54
206.363	2289.82
206.438	2294.49
206.512	2303.1
206.586	2317.8
206.661	2326.81
206.735	2299.97
206.81	2300.93
206.884	2316.34
206.958	2304.68
207.033	2317.2
207.107	2323.91
207.181	2357.33
207.256	2351.72
207.33	2371.85
207.405	2385
207.479	2399.08
207.553	2406.6
207.628	2391.47
207.702	2407.8
207.776	2404.32
207.851	2407.7
207.925	2423.23
207.999	2419.13
208.073	2418.09
208.148	2423.8
208.222	2412.56
208.296	2443.87
208.371	2461.5
208.445	2470.78
208.519	2500.39
208.593	2515.11
208.668	2511.01
208.742	2511.49
208.816	2513.72
208.89	2523.96
208.965	2522.1
209.039	2533.11
209.113	2549.77
209.187	2572
209.261	2568.33
209.336	2588.33
209.41	2611.29
209.484	2614.2
209.558	2639.25
209.632	2655.26
209.707	2668.4
209.781	2694.41
209.855	2715.57
209.929	2735.31
210.003	2749.85
210.077	2755.52
210.151	2807.69
210.226	2851.94
210.3	2888.86
210.374	2923.35
210.448	2944.61
210.522	2968.41
210.596	2993.92
210.67	3019.71
210.744	3083.86
210.818	3133.49
210.892	3174.42
210.966	3189.25
211.041	3227.51
211.115	3253.17
211.189	3307.42
211.263	3354.08
211.337	3392.54
211.411	3440.13
211.485	3470.5
211.559	3519.99
211.633	3564.37
211.707	3579.7
211.781	3637.73
211.855	3653.25
211.929	3701.05
212.003	3739.86
212.077	3805.19
212.151	3877.65
212.225	3951.82
212.299	4004.15
212.373	4056.97
212.447	4121.1
212.52	4225.78
212.594	4305.28
212.668	4395.29
212.742	4460.22
212.816	4540.23
212.89	4622.3
212.964	4714.48
213.038	4810.54
213.112	4919.45
213.186	5029.58
213.26	5109.1
213.333	5158.15
213.407	5272.87
213.481	5383.45
213.555	5505.86
213.629	5613.67
213.703	5713.71
213.777	5833.61
213.85	5939.15
213.924	6097.9
213.998	6222.78
214.072	6345.18
214.146	6460.59
214.219	6594.14
214.293	6725.46
214.367	6862.3
214.441	7008.25
214.515	7135.5
214.588	7255.69
214.662	7363.73
214.736	7489.32
214.81	7642.19
214.883	7805.17
214.957	7941.87
215.031	8073.76
215.105	8199.8
215.178	8330.04
215.252	8475.05
215.326	8598.92
215.4	8731.34
215.473	8831.52
215.547	8965.53
215.621	9098.33
215.694	9258.76
215.768	9377.4
215.842	9511.54
215.915	9653.67
215.989	9778.46
216.063	9916.46
216.136	10063.57
216.21	10210.43
216.284	10367.58
216.357	10517.26
216.431	10658.14
216.504	10811.94
216.578	10984.88
216.652	11141.96
216.725	11283.88
216.799	11441.76
216.873	11585.66
216.946	11732.32
217.02	11870.1
217.093	12009.01
217.167	12131.25
217.24	12241.96
217.314	12374.99
217.387	12504.27
217.461	12625.07
217.535	12762.83
217.608	12876.64
217.682	13007.37
217.755	13151.5
217.829	13271.78
217.902	13396.72
217.976	13522.4
218.049	13632.64
218.123	13740.86
218.196	13858.39
218.27	13972.54
218.343	14064.66
218.417	14182.04
218.49	14287.71
218.563	14411.79
218.637	14524.25
218.71	14657.68
218.784	14786.81
218.857	14908.77
218.931	15024.65
219.004	15138.51
219.077	15255.01
219.151	15372.72
219.224	15471.1
219.298	15562.88
219.371	15677.45
219.444	15762.33
219.518	15859.79
219.591	15955.27
219.665	16067.48
219.738	16162.53
219.811	16250.35
219.885	16340.67
219.958	16433.21
220.031	16519.48
220.105	16616.45
220.178	16713.18
220.251	16785.23
220.325	16866.39
220.398	16957.82
220.471	17039.51
220.544	17119.8
220.618	17188.24
220.691	17259.08
220.764	17333.49
220.838	17411.37
220.911	17470.99
220.984	17562.46
221.057	17641.11
221.131	17719.37
221.204	17758.89
221.277	17841.73
221.35	17936.43
221.424	18007.75
221.497	18065.92
221.57	18134.64
221.643	18202.35
221.716	18265.96
221.79	18323.98
221.863	18382.19
221.936	18426
222.009	18484.02
222.082	18540.16
222.155	18588.35
222.229	18663.34
222.302	18723.57
222.375	18775.57
222.448	18830.32
222.521	18872.58
222.594	18911.42
222.667	18936.24
222.74	18992.14
222.814	19034.06
222.887	19071.31
222.96	19125.29
223.033	19178.58
223.106	19212.85
223.179	19257.57
223.252	19289.56
223.325	19324.55
223.398	19357.99
223.471	19402.28
223.544	19431.29
223.617	19470.85
223.69	19508.11
223.763	19529.41
223.837	19564.34
223.91	19599.72
223.983	19617.5
224.056	19634.07
224.129	19661.98
224.202	19707.08
224.275	19722.21
224.348	19733.92
224.42	19739.85
224.493	19750.16
224.566	19759.8
224.639	19793.54
224.712	19795.46
224.785	19810.16
224.858	19830.69
224.931	19848.96
225.004	19856.42
225.077	19879.27
225.15	19861.87
225.223	19875.03
225.296	19902.06
225.369	19895.94
225.442	19901.58
225.514	19914.11
225.587	19943.27
225.66	19958.16
225.733	19970.97
225.806	19990.54
225.879	20003.7
225.952	20003.94
226.025	20020.42
226.097	20050.15
226.17	20065.33
226.243	20061.62
226.316	20066.78
226.389	20066.49
226.461	20075.5
226.534	20088.85
226.607	20096.66
226.68	20134.97
226.753	20147.79
226.825	20132.37
226.898	20152.42
226.971	20161.76
227.044	20172.27
227.117	20171.02
227.189	20187.21
227.262	20201.96
227.335	20218.39
227.407	20217.62
227.48	20240.9
227.553	20243.45
227.626	20239.31
227.698	20237.76
227.771	20246.44
227.844	20251.06
227.916	20265.04
227.989	20259.02
228.062	20247.11
228.134	20268.32
228.207	20263.11
228.28	20256.27
228.352	20260.36
228.425	20262.82
228.498	20269.47
228.57	20262.2
228.643	20266.77
228.716	20266.68
228.788	20254.44
228.861	20235.98
228.934	20241.86
229.006	20234.77
229.079	20223.98
229.151	20214.58
229.224	20199.06
229.296	20205.72
229.369	20228.22
229.442	20233.91
229.514	20227.55
229.587	20237.72
229.659	20218.44
229.732	20216.13
229.804	20220.94
229.877	20245.38
229.949	20248.61
230.022	20257.43
230.094	20253.76
230.167	20251.4
230.239	20234.78
230.312	20228.7
230.384	20249.52
230.457	20247.88
230.529	20240.41
230.602	20246.97
230.674	20236.22
230.747	20236.42
230.819	20238.44
230.892	20194.25
230.964	20191.26
231.037	20175.07
231.109	20164.8
231.181	20163.69
231.254	20147.45
231.326	20125.14
231.399	20103.45
231.471	20077.86
231.544	20028.32
231.616	20029.34
231.688	20018.49
231.761	19997.14
231.833	19983.79
231.905	19945.34
231.978	19937.58
232.05	19923.31
232.122	19908.23
232.195	19898.16
232.267	19903.6
232.339	19880.95
232.412	19889.53
232.484	19855.41
232.556	19833.73
232.629	19834.21
232.701	19819.66
232.773	19801.68
232.846	19798.02
232.918	19777.92
232.99	19773.87
233.062	19782.98
233.135	19762.16
233.207	19738.21
233.279	19731.85
233.351	19720.14
233.424	19697.01
233.496	19670.8
233.568	19667.37
233.64	19632.1
233.713	19612.1
233.785	19586.17
233.857	19568.63
233.929	19525.94
234.001	19533.5
234.074	19539.14
234.146	19508.39
234.218	19483.38
234.29	19462.57
234.362	19432.93
234.434	19396.21
234.507	19362.72
234.579	19322.33
234.651	19294.43
234.723	19276.79
234.795	19252.41
234.867	19226.68
234.939	19220.65
235.012	19199.59
235.084	19184.56
235.156	19176.27
235.228	19146.73
235.3	19116.03
235.372	19093.72
235.444	19082.93
235.516	19036.37
235.588	19017.77
235.66	18998.4
235.732	18970.16
235.804	19006.3
235.876	18987.32
235.948	18977.58
236.02	18955.66
236.092	18926.12
236.164	18895.52
236.236	18864.1
236.308	18836.92
236.38	18817.88
236.452	18783.57
236.524	18757.4
236.596	18743.96
236.668	18721.65
236.74	18704.25
236.812	18681.89
236.884	18664.49
236.956	18643.68
237.028	18612.83
237.1	18575.49
237.172	18554.91
237.244	18548.07
237.316	18478.87
237.388	18448.07
237.46	18411.83
237.532	18397.04
237.604	18375.35
237.675	18362.58
237.747	18351.31
237.819	18329.43
237.891	18302.88
237.963	18273
238.035	18238.49
238.107	18171.94
238.178	18159.46
238.25	18129.63
238.322	18125.92
238.394	18077.15
238.466	18031.8
238.538	18008.77
238.609	17985.01
238.681	17942.94
238.753	17900.48
238.825	17871.86
238.897	17840
238.968	17836.53
239.04	17798.8
239.112	17792.05
239.184	17762.12
239.255	17727.52
239.327	17690.9
239.399	17657.55
239.471	17634.8
239.542	17608.87
239.614	17605.74
239.686	17550.99
239.758	17532.15
239.829	17488.88
239.901	17485.07
239.973	17476.68
240.044	17452.59
240.116	17423.14
240.188	17393.98
240.259	17362.56
240.331	17328.92
240.403	17307.77
240.474	17254.03
240.546	17218.32
240.618	17171.04
240.689	17140.49
240.761	17108.53
240.833	17103.47
240.904	17079.04
240.976	17047.33
241.048	17028.24
241.119	17005.25
241.191	16985.4
241.262	16973.11
241.334	16937.93
241.405	16892.33
241.477	16854.5
241.549	16827.61
241.62	16812.14
241.692	16787.56
241.763	16770.93
241.835	16745.53
241.906	16717.63
241.978	16678.39
242.049	16662.2
242.121	16650.68
242.192	16640.8
242.264	16598.44
242.335	16543.88
242.407	16516.89
242.478	16481.46
242.55	16458.09
242.621	16413.75
242.693	16381.6
242.764	16341.98
242.836	16314.94
242.907	16290.94
242.979	16265.78
243.05	16236.91
243.122	16199.27
243.193	16165.19
243.264	16118.2
243.336	16088.32
243.407	16067.64
243.479	16065.95
243.55	16043.78
243.622	16012.41
243.693	15979.1
243.764	15971.58
243.836	15930.08
243.907	15894.8
243.978	15873.3
244.05	15844.57
244.121	15805.05
244.192	15787.02
244.264	15741.47
244.335	15714.05
244.407	15672.11
244.478	15648.3
244.549	15618.23
244.62	15575.52
244.692	15557.88
244.763	15537.25
244.834	15500.81
244.906	15468.03
244.977	15440.36
245.048	15428.22
245.119	15397.13
245.191	15354.37
245.262	15307.43
245.333	15308.53
245.405	15289.83
245.476	15263.61
245.547	15233.53
245.618	15208.08
245.689	15174.48
245.761	15158.72
245.832	15127.15
245.903	15116.5
245.974	15087.86
246.045	15056.05
246.117	15050.02
246.188	15008.52
246.259	14970.25
246.33	14947.35
246.401	14910.28
246.473	14869.16
246.544	14831.95
246.615	14815.85
246.686	14781.72
246.757	14767.02
246.828	14727.01
246.899	14709.8
246.97	14665.45
247.042	14633.83
247.113	14627.76
247.184	14629.64
247.255	14595.99
247.326	14572.18
247.397	14541.76
247.468	14519.73
247.539	14496.25
247.61	14456.92
247.681	14444.19
247.752	14436.48
247.823	14405.87
247.894	14395.51
247.965	14354.92
248.037	14326.28
248.108	14277.55
248.179	14257.44
248.25	14234.55
248.321	14216.37
248.392	14191.11
248.463	14199.41
248.534	14172.6
248.605	14146.96
248.675	14113.5
248.746	14094.51
248.817	14076.29
248.888	14057.39
248.959	14010.2
249.03	13988.75
249.101	13972.21
249.172	13935.67
249.243	13886.98
249.314	13873.29
249.385	13846.39
249.456	13833.38
249.527	13798.52
249.598	13782.04
249.669	13758.08
249.739	13733.2
249.81	13714.93
249.881	13663.21
249.952	13634.43
250.023	13607.63
250.094	13571.28
250.165	13535.36
250.235	13507.55
250.306	13487.88
250.377	13452.11
250.448	13441.31
250.519	13408.44
250.59	13394.94
250.66	13376.23
250.731	13368.81
250.802	13343.5
250.873	13330.68
250.944	13315.64
251.014	13286.96
251.085	13291.44
251.156	13284.16
251.227	13278.37
251.297	13267.62
251.368	13261.98
251.439	13249.69
251.51	13248.58
251.58	13220.19
251.651	13193.63
251.722	13190.74
251.792	13147.3
251.863	13127.83
251.934	13117.51
252.005	13127.63
252.075	13110.57
252.146	13098.66
252.217	13088.15
252.287	13078.27
252.358	13049.59
252.429	13044.82
252.499	13021.1
252.57	13000.13
252.641	12977.13
252.711	12951.58
252.782	12911.86
252.852	12914.76
252.923	12884.92
252.994	12857.63
253.064	12847.85
253.135	12824.37
253.205	12796.02
253.276	12798.77
253.347	12793.52
253.417	12766.72
253.488	12736.44
253.558	12705.35
253.629	12683.03
253.699	12661.39
253.77	12648.52
253.841	12623.26
253.911	12606.48
253.982	12596.26
254.052	12582.72
254.123	12572.83
254.193	12553.79
254.264	12571
254.334	12535.76
254.405	12514.07
254.475	12489.54
254.546	12467.85
254.616	12461
254.687	12441.91
254.757	12427.59
254.827	12394.86
254.898	12377.85
254.968	12354.76
255.039	12331.28
255.109	12320.29
255.18	12297.93
255.25	12250.21
255.321	12239.55
255.391	12206.01
255.461	12203.35
255.532	12154.33
255.602	12126.66
255.673	12094.61
255.743	12066.84
255.813	12025.39
255.884	12012.67
255.954	12004.62
256.024	12007.07
256.095	11988.27
256.165	11960.37
256.235	11941.81
256.306	11929.9
256.376	11929.18
256.446	11917.71
256.517	11907.01
256.587	11902.33
256.657	11888.06
256.728	11878.81
256.798	11865.12
256.868	11840.16
256.938	11814.46
257.009	11813.64
257.079	11801.06
257.149	11804.39
257.219	11768.63
257.29	11763.71
257.36	11734.26
257.43	11727.46
257.5	11686.64
257.571	11663.89
257.641	11651.07
257.711	11627.65
257.781	11613.43
257.852	11601.33
257.922	11563.93
257.992	11546.91
258.062	11519.73
258.132	11514.72
258.202	11490.62
258.273	11477.94
258.343	11480.45
258.413	11455.53
258.483	11437.27
258.553	11408.64
258.623	11384.44
258.693	11369.55
258.764	11366.42
258.834	11359.09
258.904	11332.97
258.974	11307.82
259.044	11288.83
259.114	11275.86
259.184	11256.97
259.254	11242.03
259.324	11199.62
259.394	11191.19
259.464	11189.11
259.535	11174.13
259.605	11145.31
259.675	11128.15
259.745	11113.12
259.815	11088.25
259.885	11070.75
259.955	11080.15
260.025	11062.27
260.095	11041.79
260.165	11034.56
260.235	11033.26
260.305	11010.47
260.375	10987.15
260.445	10992.4
260.515	10994.42
260.585	10991.43
260.655	10982.04
260.725	10974.23
260.795	10976.25
260.865	10980.16
260.934	10950.91
261.004	10938.47
261.074	10922.86
261.144	10929.08
261.214	10918.76
261.284	10899.49
261.354	10891.64
261.424	10861.32
261.494	10862.43
261.564	10847.88
261.634	10835.4
261.703	10793.28
261.773	10784.66
261.843	10782.39
261.913	10763.12
261.983	10727.61
262.053	10715.22
262.123	10693.01
262.192	10664.48
