Data from 20250625_urea_1M_1_MAYP1162681_21-45-06-035.txt Node
Date: Wed Jun 25 21:45:06 BST 2025
User: adleo
Spectrometer: MAYP116268
Trigger mode: 0
Integration Time (sec): 1.000000E0
Scans to average: 1
Electric dark correction enabled: true
Nonlinearity correction enabled: true
Boxcar width: 10
XAxis mode: Wavelengths
Number of Pixels in Spectrum: 2068
>>>>>Begin Spectral Data<<<<<
179.565	1164.92
179.642	1220.87
179.718	1261.45
179.795	1302.29
179.871	1332.44
179.948	1349.27
180.024	1369.93
180.101	1392.74
180.177	1406
180.254	1426.26
180.33	1449.83
180.407	1502.05
180.483	1594.36
180.56	1680.16
180.636	1760.91
180.712	1750.08
180.789	1755.78
180.865	1768.27
180.942	1777.64
181.018	1790.75
181.095	1802.49
181.171	1809.53
181.248	1811.38
181.324	1826.83
181.4	1832.49
181.477	1845.66
181.553	1858.77
181.63	1878.41
181.706	1892.62
181.782	1903.98
181.859	1904.98
181.935	1908.59
182.011	1905.45
182.088	1922.85
182.164	1940.59
182.24	1955.71
182.317	1965.07
182.393	1961.98
182.469	1975.1
182.546	1987.13
182.622	1990.18
182.698	1988.7
182.775	2000.4
182.851	2014.48
182.927	2008.68
183.003	2004.97
183.08	1997.6
183.156	2008.2
183.232	2006.82
183.308	1996.65
183.385	1998.88
183.461	2019.05
183.537	2018.43
183.613	2027.32
183.69	2018.57
183.766	2010.53
183.842	2016.24
183.918	2020.04
183.995	2032.02
184.071	2035.97
184.147	2031.6
184.223	2020.23
184.299	2030.32
184.375	2019
184.452	2024.19
184.528	2077.71
184.604	2085.65
184.68	2096.54
184.756	2101.87
184.832	2102.87
184.908	2108.57
184.985	2109.9
185.061	2089.36
185.137	2098.87
185.213	2089.12
185.289	2088.12
185.365	2079.76
185.441	2079.14
185.517	2094.22
185.593	2093.36
185.669	2091.13
185.745	2101.16
185.822	2115.85
185.898	2109.62
185.974	2117.66
186.05	2109.33
186.126	2071.17
186.202	2066.13
186.278	2064.52
186.354	2055.57
186.43	2065.37
186.506	2062
186.582	2061.9
186.658	2072.84
186.734	2054.01
186.81	2059.62
186.886	2062.9
186.962	2075.69
187.038	2071.7
187.114	2063.65
187.19	2068.22
187.266	2059.71
187.341	2059.56
187.417	2052.91
187.493	2053.91
187.569	2060.09
187.645	2051.86
187.721	2038.31
187.797	2044.87
187.873	2049.43
187.949	2043.92
188.025	2034.36
188.101	2039.11
188.176	2044.39
188.252	2037.16
188.328	2046.24
188.404	2044.81
188.48	2039.01
188.556	2030.74
188.632	2030.83
188.707	2032.83
188.783	2031.6
188.859	2026.27
188.935	2016.42
189.011	2025.7
189.086	2020.04
189.162	2010.86
189.238	2008.91
189.314	2008.81
189.39	2005.01
189.465	1996.69
189.541	2013.95
189.617	2001.02
189.693	1995.31
189.768	1998.45
189.844	2023.29
189.92	2016.06
189.996	2023.24
190.071	2033.8
190.147	2033.37
190.223	2041.6
190.298	2032.37
190.374	2020.91
190.45	2032.47
190.526	2039.5
190.601	2033.89
190.677	2034.08
190.753	2059.21
190.828	2063.58
190.904	2077.62
190.98	2091.03
191.055	2102.35
191.131	2092.6
191.207	2109.77
191.282	2118.85
191.358	2107.82
191.433	2095.68
191.509	2107.9
191.585	2104.95
191.66	2109.28
191.736	2119.55
191.811	2111.85
191.887	2128.07
191.963	2151.05
192.038	2154.85
192.114	2156.52
192.189	2162.41
192.265	2161.27
192.34	2139.33
192.416	2141.57
192.491	2138.76
192.567	2143.71
192.642	2146.95
192.718	2144.95
192.793	2135.53
192.869	2132.53
192.944	2138.67
193.02	2144.19
193.095	2149.99
193.171	2153.65
193.246	2151.42
193.322	2146.95
193.397	2146.99
193.473	2133.62
193.548	2116.21
193.624	2121.3
193.699	2120.35
193.775	2132.53
193.85	2133.72
193.925	2143.38
194.001	2138.91
194.076	2129.63
194.152	2116.07
194.227	2106.65
194.302	2099.8
194.378	2104.04
194.453	2100.42
194.529	2109.94
194.604	2096.57
194.679	2085.11
194.755	2069.46
194.83	2080.84
194.905	2078.93
194.981	2087.26
195.056	2080.32
195.131	2086.21
195.207	2083.64
195.282	2071.66
195.357	2053.01
195.433	2067.85
195.508	2054.48
195.583	2064.76
195.659	2079.79
195.734	2087.54
195.809	2089.54
195.884	2099.05
195.96	2099.86
196.035	2116.89
196.11	2114.46
196.185	2125.4
196.261	2126.88
196.336	2156.47
196.411	2141.86
196.486	2147.8
196.561	2140.67
196.637	2146.56
196.712	2160.32
196.787	2162.51
196.862	2178.54
196.937	2187
197.013	2194.33
197.088	2205.32
197.163	2225.5
197.238	2241.98
197.313	2243.83
197.388	2255.49
197.464	2283.53
197.539	2294.81
197.614	2285.96
197.689	2298.47
197.764	2315.61
197.839	2340.5
197.914	2334.64
197.989	2358.44
198.065	2371.72
198.14	2422.01
198.215	2451.77
198.29	2464.81
198.365	2480.14
198.44	2488.43
198.515	2518.76
198.59	2529.9
198.665	2555.95
198.74	2562.57
198.815	2560.99
198.89	2582.76
198.965	2614.35
199.04	2610.49
199.115	2625.44
199.19	2665.77
199.265	2665.73
199.34	2673.16
199.415	2703.95
199.49	2725.14
199.565	2735.52
199.64	2761.3
199.715	2757.72
199.79	2762.58
199.865	2769.16
199.94	2765.97
200.015	2797.13
200.09	2804.23
200.165	2813
200.24	2821.24
200.315	2863.46
200.39	2881.09
200.464	2883.14
200.539	2879.23
200.614	2895.96
200.689	2919.12
200.764	2928.18
200.839	2948.43
200.914	2953.29
200.989	2945.42
201.063	2961.91
201.138	2941.86
201.213	2943.01
201.288	2924.18
201.363	2928.95
201.438	2927.42
201.512	2943.57
201.587	2929.56
201.662	2933.66
201.737	2945.43
201.812	2947.2
201.886	2911.61
201.961	2920.81
202.036	2911.24
202.111	2908.95
202.186	2879.7
202.26	2861.73
202.335	2838.75
202.41	2832.6
202.485	2816.6
202.559	2795.11
202.634	2766.75
202.709	2775.18
202.784	2752.64
202.858	2754.4
202.933	2737.35
203.008	2731.44
203.082	2712.05
203.157	2709.29
203.232	2666.56
203.306	2644.02
203.381	2616.34
203.456	2593.53
203.53	2568.36
203.605	2547.93
203.68	2524.97
203.754	2521.02
203.829	2508.21
203.904	2490.07
203.978	2480.35
204.053	2485.02
204.127	2475.54
204.202	2472.4
204.277	2459.07
204.351	2453.31
204.426	2442.88
204.5	2431.79
204.575	2401.28
204.65	2410.61
204.724	2401.66
204.799	2408.79
204.873	2405.41
204.948	2404.7
205.022	2394.99
205.097	2388.03
205.171	2405.26
205.246	2415.6
205.32	2413.93
205.395	2413.17
205.469	2404.85
205.544	2409.61
205.618	2391.76
205.693	2398.94
205.767	2389.9
205.842	2409.47
205.916	2404.28
205.991	2399.19
206.065	2407.66
206.14	2419.65
206.214	2413.32
206.289	2407.84
206.363	2420.41
206.438	2422.79
206.512	2432.17
206.586	2449.97
206.661	2458.4
206.735	2435.99
206.81	2434.99
206.884	2449.31
206.958	2434.7
207.033	2450.03
207.107	2456.79
207.181	2490.89
207.256	2487.23
207.33	2506.7
207.405	2519.9
207.479	2539.71
207.553	2545.71
207.628	2531.62
207.702	2545.24
207.776	2542.43
207.851	2548
207.925	2564.15
207.999	2564.48
208.073	2562.44
208.148	2565.77
208.222	2553.72
208.296	2584.8
208.371	2605.34
208.445	2615.73
208.519	2645.3
208.593	2656.68
208.668	2655.01
208.742	2656.78
208.816	2660.06
208.89	2675.79
208.965	2673.55
209.039	2685.08
209.113	2703.04
209.187	2724.61
209.261	2723.08
209.336	2747.38
209.41	2770.92
209.484	2775.16
209.558	2799.14
209.632	2816.96
209.707	2835.11
209.781	2865.71
209.855	2888.88
209.929	2910.49
210.003	2927.7
210.077	2940.43
210.151	3003.37
210.226	3048.3
210.3	3087.87
210.374	3133.3
210.448	3152.81
210.522	3185.97
210.596	3213.41
210.67	3247.51
210.744	3318.24
210.818	3377.96
210.892	3430.13
210.966	3457.48
211.041	3507.7
211.115	3539.53
211.189	3603.75
211.263	3662.87
211.337	3713.96
211.411	3776.88
211.485	3819.75
211.559	3884.95
211.633	3942.55
211.707	3968.94
211.781	4040.7
211.855	4074.93
211.929	4129.85
212.003	4186.24
212.077	4270.59
212.151	4366.81
212.225	4455.94
212.299	4537.59
212.373	4621.25
212.447	4713.63
212.52	4839.75
212.594	4944.56
212.668	5069.81
212.742	5169.14
212.816	5279.22
212.89	5400.76
212.964	5521.37
213.038	5657.14
213.112	5803.98
213.186	5951.69
213.26	6070.86
213.333	6172.22
213.407	6325.33
213.481	6478.4
213.555	6641.28
213.629	6787.35
213.703	6928.06
213.777	7094.94
213.85	7235.18
213.924	7436.22
213.998	7606.57
214.072	7779.67
214.146	7939.28
214.219	8109.7
214.293	8279.01
214.367	8460.58
214.441	8650.96
214.515	8828.85
214.588	8991.93
214.662	9146.13
214.736	9322.76
214.81	9519.4
214.883	9715.79
214.957	9898.3
215.031	10085.63
215.105	10257.47
215.178	10442.99
215.252	10637.67
215.326	10807.41
215.4	10990.83
215.473	11133.19
215.547	11302.92
215.621	11483.7
215.694	11681.72
215.768	11852.72
215.842	12037.12
215.915	12216.37
215.989	12375.58
216.063	12555.38
216.136	12747.27
216.21	12928.94
216.284	13121.03
216.357	13309.07
216.431	13486.37
216.504	13680.39
216.578	13884.01
216.652	14081.55
216.725	14260.05
216.799	14436.81
216.873	14618.63
216.946	14801.18
217.02	14973.8
217.093	15144.15
217.167	15283.02
217.24	15441.41
217.314	15608.14
217.387	15759.39
217.461	15908.62
217.535	16075.73
217.608	16217.86
217.682	16370.94
217.755	16536.21
217.829	16676.65
217.902	16828.57
217.976	16974.31
218.049	17107.47
218.123	17227.86
218.196	17367.67
218.27	17496.01
218.343	17623.96
218.417	17757.65
218.49	17879.86
218.563	18022.22
218.637	18162.6
218.71	18316.48
218.784	18452.23
218.857	18582.35
218.931	18714.92
219.004	18845.57
219.077	18978.76
219.151	19102.23
219.224	19216.25
219.298	19333.54
219.371	19447.71
219.444	19536.38
219.518	19644.9
219.591	19751.59
219.665	19885.76
219.738	19979.88
219.811	20072.69
219.885	20179.39
219.958	20280.55
220.031	20372.06
220.105	20465.36
220.178	20546.91
220.251	20620.84
220.325	20703.01
220.398	20781.28
220.471	20870.73
220.544	20956.76
220.618	21014.64
220.691	21089.25
220.764	21159.61
220.838	21221.93
220.911	21284.3
220.984	21379.59
221.057	21452.85
221.131	21517.34
221.204	21537.78
221.277	21619.23
221.35	21703.78
221.424	21755.26
221.497	21809.54
221.57	21875.62
221.643	21934.72
221.716	21991.12
221.79	22035.17
221.863	22080.63
221.936	22135.3
222.009	22165.86
222.082	22216.38
222.155	22257.84
222.229	22314.19
222.302	22343.84
222.375	22379.7
222.448	22426.56
222.521	22454.86
222.594	22491.45
222.667	22519.51
222.74	22571.04
222.814	22592.69
222.887	22620.65
222.96	22646.93
223.033	22682.27
223.106	22704.64
223.179	22732.17
223.252	22746.63
223.325	22776.23
223.398	22794.17
223.471	22814.85
223.544	22847.97
223.617	22857.71
223.69	22875.07
223.763	22870.35
223.837	22903.9
223.91	22927.38
223.983	22927.62
224.056	22924.2
224.129	22933.55
224.202	22936.59
224.275	22941.94
224.348	22938.18
224.42	22928.11
224.493	22917.4
224.566	22903.95
224.639	22906.6
224.712	22908.29
224.785	22911.38
224.858	22912.53
224.931	22906.07
225.004	22885.44
225.077	22868.85
225.15	22829.56
225.223	22823.58
225.296	22840.89
225.369	22805.79
225.442	22795.23
225.514	22784.29
225.587	22780.57
225.66	22774.45
225.733	22783.13
225.806	22774.88
225.879	22766.54
225.952	22742.49
226.025	22758.11
226.097	22770.35
226.17	22761.68
226.243	22724.6
226.316	22703.1
226.389	22687.09
226.461	22679.76
226.534	22686.27
226.607	22684.29
226.68	22708.64
226.753	22703.24
226.825	22666.69
226.898	22680
226.971	22659.12
227.044	22647.89
227.117	22636.61
227.189	22628.66
227.262	22613.9
227.335	22605.46
227.407	22586.81
227.48	22587.92
227.553	22571.67
227.626	22533.92
227.698	22520.32
227.771	22515.6
227.844	22502.39
227.916	22480.5
227.989	22451.1
228.062	22415.08
228.134	22419.91
228.207	22391.99
228.28	22371.65
228.352	22364.99
228.425	22341.47
228.498	22333.27
228.57	22312.3
228.643	22307.24
228.716	22278.51
228.788	22246.4
228.861	22215.41
228.934	22206.34
229.006	22174.72
229.079	22144.45
229.151	22129.79
229.224	22085.93
229.296	22066.11
229.369	22101.65
229.442	22099.33
229.514	22080.44
229.587	22081.64
229.659	22039.89
229.732	22018.93
229.804	22000.17
229.877	21994.49
229.949	21980.36
230.022	21980.65
230.094	21963.35
230.167	21942.67
230.239	21914.52
230.312	21905.36
230.384	21912.16
230.457	21901.55
230.529	21892.54
230.602	21881.64
230.674	21862.12
230.747	21859.13
230.819	21846.21
230.892	21762.87
230.964	21736.45
231.037	21724.35
231.109	21696.59
231.181	21678.76
231.254	21652.29
231.326	21626.51
231.399	21594.45
231.471	21569.53
231.544	21512.66
231.616	21504.51
231.688	21484.99
231.761	21458.43
231.833	21430.96
231.905	21372.06
231.978	21341.55
232.05	21318.65
232.122	21281.15
232.195	21248.14
232.267	21230.59
232.339	21191.75
232.412	21186.35
232.484	21155.21
232.556	21121.33
232.629	21110.97
232.701	21092.41
232.773	21067.5
232.846	21039.69
232.918	21010.77
232.99	20985.13
233.062	20970.77
233.135	20934.91
233.207	20893.94
233.279	20876.88
233.351	20848.45
233.424	20832.4
233.496	20787.63
233.568	20776.78
233.64	20744.44
233.713	20719.48
233.785	20690.75
233.857	20676.06
233.929	20635.96
234.001	20626.17
234.074	20609.89
234.146	20567.23
234.218	20527.86
234.29	20492.92
234.362	20460.2
234.434	20424.44
234.507	20381.16
234.579	20340.15
234.651	20312.82
234.723	20281.26
234.795	20244.15
234.867	20227.24
234.939	20202.66
235.012	20195.33
235.084	20160.68
235.156	20138.56
235.228	20103.67
235.3	20067.29
235.372	20034.56
235.444	20010.66
235.516	19954.76
235.588	19921.22
235.66	19889.6
235.732	19851.68
235.804	19876.79
235.876	19845.03
235.948	19832.84
236.02	19799.3
236.092	19762.43
236.164	19718.39
236.236	19691.88
236.308	19663.26
236.38	19618.87
236.452	19575.4
236.524	19534.2
236.596	19516.08
236.668	19490.3
236.74	19461.87
236.812	19435.7
236.884	19403.12
236.956	19373.92
237.028	19341.49
237.1	19301.3
237.172	19283.18
237.244	19270.75
237.316	19204.58
237.388	19176.2
237.46	19127.86
237.532	19119.33
237.604	19086.61
237.675	19083.96
237.747	19060.54
237.819	19022.47
237.891	18991.49
237.963	18957.85
238.035	18925.61
238.107	18858.48
238.178	18844.75
238.25	18803.35
238.322	18790.34
238.394	18749.38
238.466	18713
238.538	18684.18
238.609	18654.21
238.681	18602.45
238.753	18556.96
238.825	18521.83
238.897	18487.71
238.968	18484.43
239.04	18436.24
239.112	18433.25
239.184	18388.15
239.255	18353.35
239.327	18327.28
239.399	18291.19
239.471	18265.02
239.542	18239.29
239.614	18227.19
239.686	18164.64
239.758	18155.97
239.829	18109.75
239.901	18083.3
239.973	18048.16
240.044	18022.72
240.116	17997.42
240.188	17972.89
240.259	17944.46
240.331	17917.42
240.403	17896.07
240.474	17832.85
240.546	17796.56
240.618	17739.79
240.689	17699.98
240.761	17671.84
240.833	17658.49
240.904	17618.92
240.976	17588.27
241.048	17557.48
241.119	17534.54
241.191	17514.25
241.262	17495.07
241.334	17462.1
241.405	17435.89
241.477	17400.66
241.549	17377.67
241.62	17347.36
241.692	17314.39
241.763	17290.92
241.835	17249.67
241.906	17218.97
241.978	17179.69
242.049	17160.65
242.121	17140.17
242.192	17134.15
242.264	17079.35
242.335	17025.33
242.407	17007.97
242.478	16970.82
242.55	16937.22
242.621	16885.03
242.693	16847.25
242.764	16805.75
242.836	16779.77
242.907	16755
242.979	16728.06
243.05	16692.25
243.122	16666.56
243.193	16634.08
243.264	16582.51
243.336	16554.31
243.407	16537.54
243.479	16530.7
243.55	16506.41
243.622	16479.8
243.693	16438.98
243.764	16434.59
243.836	16407.36
243.907	16383.31
243.978	16354.54
244.05	16329.76
244.121	16293.47
244.192	16271.06
244.264	16223.44
244.335	16188.26
244.407	16142.66
244.478	16121.26
244.549	16087.91
244.62	16041.54
244.692	16010.89
244.763	15996.96
244.834	15961.24
244.906	15919.5
244.977	15890.2
245.048	15870.92
245.119	15841.37
245.191	15800.01
245.262	15742.61
245.333	15724.53
245.405	15692.24
245.476	15662.02
245.547	15636.52
245.618	15619.99
245.689	15589.48
245.761	15568.85
245.832	15537.61
245.903	15516.6
245.974	15491.53
246.045	15455.72
246.117	15450.37
246.188	15417.2
246.259	15375.12
246.33	15349.82
246.401	15306.24
246.473	15264.69
246.544	15229.27
246.615	15205.5
246.686	15171.04
246.757	15156.53
246.828	15120.09
246.899	15109.63
246.97	15078.73
247.042	15044.74
247.113	15013.99
247.184	15006.33
247.255	14979.14
247.326	14957.55
247.397	14924.82
247.468	14897.34
247.539	14876.9
247.61	14830.14
247.681	14813.27
247.752	14799.24
247.823	14762.61
247.894	14746.51
247.965	14713.49
248.037	14687.6
248.108	14655.6
248.179	14637.9
248.25	14620.16
248.321	14600.69
248.392	14562.61
248.463	14555.67
248.534	14527.66
248.605	14510.4
248.675	14488.76
248.746	14462.2
248.817	14443.59
248.888	14433.18
248.959	14387.58
249.03	14365.4
249.101	14344.82
249.172	14311.6
249.243	14268.75
249.314	14258.1
249.385	14240.16
249.456	14225.7
249.527	14191.77
249.598	14162.84
249.669	14140.43
249.739	14116.66
249.81	14098.1
249.881	14058.14
249.952	14035.67
250.023	14011.47
250.094	13976.91
250.165	13935.65
250.235	13911.83
250.306	13885.56
250.377	13847.38
250.448	13839.48
250.519	13800.24
250.59	13795.51
250.66	13771.07
250.731	13770.06
250.802	13752.17
250.873	13732.55
250.944	13709.56
251.014	13681.12
251.085	13684.83
251.156	13677.07
251.227	13666.08
251.297	13651.95
251.368	13646.99
251.439	13631.95
251.51	13623.27
251.58	13599.94
251.651	13575.5
251.722	13573.52
251.792	13537.65
251.863	13521.6
251.934	13507.04
252.005	13519.67
252.075	13496.73
252.146	13491.95
252.217	13479.32
252.287	13469.92
252.358	13444.66
252.429	13448.76
252.499	13423.16
252.57	13407.98
252.641	13384.41
252.711	13363.87
252.782	13327.18
252.852	13326.08
252.923	13306.94
252.994	13290.4
253.064	13276.71
253.135	13250.54
253.205	13215.97
253.276	13214.43
253.347	13207.44
253.417	13182.23
253.488	13149.45
253.558	13124.28
253.629	13099.07
253.699	13081.77
253.77	13062.29
253.841	13048.41
253.911	13027.53
253.982	13025.03
254.052	13010.56
254.123	12988.34
254.193	12964.86
254.264	12989.21
254.334	12957.01
254.405	12920.8
254.475	12886.77
254.546	12871.2
254.616	12864.89
254.687	12853.85
254.757	12839.34
254.827	12821.02
254.898	12809.88
254.968	12796.82
255.039	12772.81
255.109	12764.57
255.18	12737.38
255.25	12696.94
255.321	12677.03
255.391	12647.53
255.461	12641.31
255.532	12594.79
255.602	12578.84
255.673	12544.27
255.743	12510.82
255.813	12469.6
255.884	12468.98
255.954	12458.47
256.024	12457.84
256.095	12440.63
256.165	12404.14
256.235	12382.55
256.306	12354.73
256.376	12347.5
256.446	12335.26
256.517	12322.73
256.587	12311.5
256.657	12293.85
256.728	12279.15
256.798	12266.96
256.868	12238.71
256.938	12210.75
257.009	12201.74
257.079	12189.93
257.149	12205.88
257.219	12167.71
257.29	12159.9
257.36	12125.1
257.43	12113.62
257.5	12069.42
257.571	12051.44
257.641	12045.8
257.711	12017.56
257.781	12001.75
257.852	11983.91
257.922	11949.35
257.992	11934.22
258.062	11909.3
258.132	11900.77
258.202	11886.55
258.273	11865.15
258.343	11869.68
258.413	11837.82
258.483	11826.01
258.553	11796.08
258.623	11758.96
258.693	11742.62
258.764	11739.83
258.834	11742.09
258.904	11729.9
258.974	11711.2
259.044	11689.6
259.114	11680.3
259.184	11669.7
259.254	11650.18
259.324	11614.66
259.394	11600.97
259.464	11594.7
259.535	11579.28
259.605	11557.4
259.675	11536.09
259.745	11532.05
259.815	11501.68
259.885	11486.79
259.955	11491.17
260.025	11465.58
260.095	11453.44
260.165	11445.44
260.235	11444.33
260.305	11413.58
260.375	11387.51
260.445	11393.43
260.515	11383.7
260.585	11373.05
260.655	11352.37
260.725	11347.75
260.795	11341.34
260.865	11345.43
260.934	11317.96
261.004	11307.41
261.074	11293.96
261.144	11292.95
261.214	11275.07
261.284	11255.89
261.354	11255.93
261.424	11231.02
261.494	11239.93
261.564	11224.17
261.634	11219.11
261.703	11180.8
261.773	11174.1
261.843	11164.03
261.913	11144.36
261.983	11116.46
262.053	11110.39
262.123	11096.8
262.192	11073.72
