Data from 20250625_urea_1M_1_MAYP1162681_04-15-06-144.txt Node
Date: Thu Jun 26 04:15:06 BST 2025
User: adleo
Spectrometer: MAYP116268
Trigger mode: 0
Integration Time (sec): 1.000000E0
Scans to average: 1
Electric dark correction enabled: true
Nonlinearity correction enabled: true
Boxcar width: 10
XAxis mode: Wavelengths
Number of Pixels in Spectrum: 2068
>>>>>Begin Spectral Data<<<<<
179.565	1096.96
179.642	1151.77
179.718	1189.56
179.795	1227.58
179.871	1258.47
179.948	1273.47
180.024	1292.62
180.101	1313.64
180.177	1324.83
180.254	1346.68
180.33	1367.06
180.407	1415.38
180.483	1502.75
180.56	1585.18
180.636	1662.94
180.712	1651.92
180.789	1662.7
180.865	1671.87
180.942	1680.94
181.018	1687.83
181.095	1702.89
181.171	1707.5
181.248	1704.75
181.324	1720.29
181.4	1725.71
181.477	1735.73
181.553	1747.04
181.63	1766.19
181.706	1780.16
181.782	1792.09
181.859	1791.09
181.935	1796.65
182.011	1791.38
182.088	1805.21
182.164	1822.51
182.24	1833.87
182.317	1843.18
182.393	1841.04
182.469	1852.45
182.546	1862.76
182.622	1869.04
182.698	1865.09
182.775	1877.74
182.851	1892.52
182.927	1884.06
183.003	1881.87
183.08	1876.22
183.156	1884.53
183.232	1883.39
183.308	1873.12
183.385	1877.31
183.461	1893.04
183.537	1892.38
183.613	1905.5
183.69	1897.46
183.766	1888.81
183.842	1895.18
183.918	1898.79
183.995	1910.68
184.071	1915.24
184.147	1911.91
184.223	1898.8
184.299	1909.54
184.375	1895.19
184.452	1899.04
184.528	1953.97
184.604	1959.67
184.68	1971.56
184.756	1978.84
184.832	1980.88
184.908	1986.96
184.985	1992.15
185.061	1976.36
185.137	1986.59
185.213	1973.32
185.289	1974.42
185.365	1967.09
185.441	1969.09
185.517	1981.98
185.593	1979.37
185.669	1976.32
185.745	1983.12
185.822	1999.23
185.898	1989.39
185.974	2001.22
186.05	1996.37
186.126	1956.9
186.202	1950.24
186.278	1944.92
186.354	1938.07
186.43	1943.01
186.506	1939.02
186.582	1933.36
186.658	1940.07
186.734	1922.1
186.81	1926.66
186.886	1930.6
186.962	1941.4
187.038	1937.12
187.114	1930.27
187.19	1936.69
187.266	1929.56
187.341	1931.46
187.417	1924.71
187.493	1928.75
187.569	1931.08
187.645	1926.85
187.721	1915.72
187.797	1927.32
187.873	1929.46
187.949	1921.09
188.025	1916.29
188.101	1922.28
188.176	1928.08
188.252	1923.8
188.328	1929.5
188.404	1927.94
188.48	1923.7
188.556	1914.24
188.632	1911.96
188.707	1912.58
188.783	1910.44
188.859	1906.16
188.935	1895.61
189.011	1904.64
189.086	1896.46
189.162	1889.9
189.238	1886.53
189.314	1885.2
189.39	1875.07
189.465	1870.89
189.541	1887.91
189.617	1874.74
189.693	1868.8
189.768	1871.75
189.844	1893.29
189.92	1885.64
189.996	1897.52
190.071	1905.61
190.147	1908.13
190.223	1918.35
190.298	1911.22
190.374	1896.29
190.45	1907.32
190.526	1917.21
190.601	1911.22
190.677	1914.12
190.753	1939.33
190.828	1943.46
190.904	1956.11
190.98	1970.9
191.055	1979.84
191.131	1971.8
191.207	1989.63
191.282	1997.85
191.358	1986.82
191.433	1978.07
191.509	1989.52
191.585	1981.87
191.66	1984.48
191.736	1992.04
191.811	1982.77
191.887	1994.52
191.963	2019.96
192.038	2023.28
192.114	2022.05
192.189	2028.04
192.265	2023.48
192.34	2004.21
192.416	2003.26
192.491	2001.54
192.567	2005.97
192.642	2008.06
192.718	2007.11
192.793	1994.32
192.869	1990.42
192.944	1995.46
193.02	2001.55
193.095	2004.88
193.171	2012.53
193.246	2012.82
193.322	2011.01
193.397	2010.87
193.473	2001.93
193.548	1986.94
193.624	1995.08
193.699	1993.56
193.775	2006.16
193.85	2008.01
193.925	2012.91
194.001	2010.49
194.076	2002.17
194.152	1989.8
194.227	1981.95
194.302	1974.92
194.378	1982
194.453	1980.2
194.529	1990.28
194.604	1974.02
194.679	1971.16
194.755	1952.48
194.83	1962.85
194.905	1959.86
194.981	1967.61
195.056	1960.14
195.131	1964.19
195.207	1960
195.282	1951.06
195.357	1934.03
195.433	1948.58
195.508	1939.36
195.583	1948.53
195.659	1963.18
195.734	1974.31
195.809	1974.83
195.884	1982.92
195.96	1983.82
196.035	1996.28
196.11	1992.99
196.185	2006.4
196.261	2006.74
196.336	2036.79
196.411	2023.42
196.486	2027.99
196.561	2021.38
196.637	2029.84
196.712	2045.3
196.787	2049.49
196.862	2062.66
196.937	2070.79
197.013	2076.69
197.088	2087.01
197.163	2104.33
197.238	2120.32
197.313	2117.51
197.388	2132.4
197.464	2160.95
197.539	2170.99
197.614	2163.86
197.689	2172.99
197.764	2186.6
197.839	2205.68
197.914	2200.77
197.989	2222.47
198.065	2236.27
198.14	2285.11
198.215	2308.43
198.29	2321
198.365	2334.28
198.44	2348.84
198.515	2377.11
198.59	2391.44
198.665	2413.67
198.74	2422.91
198.815	2421.81
198.89	2442.95
198.965	2470.28
199.04	2464.57
199.115	2479.37
199.19	2521.12
199.265	2526.26
199.34	2534.93
199.415	2570.76
199.49	2590.23
199.565	2601.32
199.64	2623.66
199.715	2621.85
199.79	2628.47
199.865	2632.23
199.94	2629.66
200.015	2657.86
200.09	2661.77
200.165	2667.72
200.24	2676.2
200.315	2713.91
200.39	2727.83
200.464	2732.92
200.539	2730.73
200.614	2748.69
200.689	2769.08
200.764	2777.33
200.839	2792.23
200.914	2795.23
200.989	2782.69
201.063	2796.04
201.138	2776.75
201.213	2777.09
201.288	2757.84
201.363	2761.46
201.438	2759.36
201.512	2774.7
201.587	2759.07
201.662	2762.31
201.737	2773.36
201.812	2783.32
201.886	2751.99
201.961	2760.57
202.036	2750.43
202.111	2749.76
202.186	2721.34
202.26	2703.18
202.335	2681.4
202.41	2676.97
202.485	2663.55
202.559	2644.44
202.634	2615.87
202.709	2624.86
202.784	2607.33
202.858	2606.33
202.933	2591.81
203.008	2587.76
203.082	2568.05
203.157	2564.71
203.232	2525.82
203.306	2506.1
203.381	2474.04
203.456	2452.99
203.53	2431.17
203.605	2414.23
203.68	2392.18
203.754	2387.23
203.829	2376.42
203.904	2358.19
203.978	2348.86
204.053	2352.24
204.127	2340.96
204.202	2342.24
204.277	2329.01
204.351	2323.68
204.426	2316.54
204.5	2309.92
204.575	2278.09
204.65	2287.9
204.724	2280.61
204.799	2288.27
204.873	2286.84
204.948	2283.7
205.022	2273
205.097	2265.38
205.171	2279.99
205.246	2287.7
205.32	2287.18
205.395	2284.85
205.469	2279.71
205.544	2285.14
205.618	2270.19
205.693	2280.14
205.767	2268.05
205.842	2284.24
205.916	2277.81
205.991	2270.15
206.065	2274.72
206.14	2290.75
206.214	2285.32
206.289	2280.32
206.363	2291.74
206.438	2291.55
206.512	2299.41
206.586	2316.77
206.661	2326.25
206.735	2301.99
206.81	2305.18
206.884	2316.69
206.958	2305.65
207.033	2318.26
207.107	2320.74
207.181	2351.97
207.256	2348.07
207.33	2366.68
207.405	2380.35
207.479	2399.53
207.553	2405.57
207.628	2391.11
207.702	2403.29
207.776	2400.01
207.851	2403.58
207.925	2420.01
207.999	2415.73
208.073	2410.68
208.148	2412.16
208.222	2402.78
208.296	2435.71
208.371	2452.81
208.445	2463.81
208.519	2492.37
208.593	2502.37
208.668	2503.32
208.742	2505.85
208.816	2509.61
208.89	2523.8
208.965	2524.42
209.039	2533.71
209.113	2552.66
209.187	2574.65
209.261	2571.46
209.336	2592.65
209.41	2612.85
209.484	2616.85
209.558	2642.76
209.632	2661.05
209.707	2676.81
209.781	2701.39
209.855	2719.83
209.929	2737.14
210.003	2752.49
210.077	2760.82
210.151	2816.29
210.226	2856.34
210.3	2890.11
210.374	2924.66
210.448	2942.01
210.522	2962.75
210.596	2985.69
210.67	3012.01
210.744	3072.05
210.818	3120.82
210.892	3159.31
210.966	3175.09
211.041	3207.43
211.115	3230.14
211.189	3278.84
211.263	3326.84
211.337	3364.2
211.411	3410.5
211.485	3438.19
211.559	3483.62
211.633	3522.36
211.707	3532.73
211.781	3583.81
211.855	3596.85
211.929	3634.85
212.003	3670.32
212.077	3732.48
212.151	3800.2
212.225	3866.82
212.299	3916.98
212.373	3969.41
212.447	4033.97
212.52	4128.09
212.594	4207.25
212.668	4290.88
212.742	4354.68
212.816	4427.22
212.89	4504.2
212.964	4584.63
213.038	4681.72
213.112	4786.63
213.186	4894.05
213.26	4973.03
213.333	5028.98
213.407	5137.58
213.481	5241.93
213.555	5359.24
213.629	5456.94
213.703	5552.07
213.777	5659.97
213.85	5760.41
213.924	5912.6
213.998	6032.71
214.072	6154.54
214.146	6265.99
214.219	6391.62
214.293	6524.49
214.367	6654.77
214.441	6796.74
214.515	6921.59
214.588	7032.29
214.662	7131.45
214.736	7248.65
214.81	7390.04
214.883	7540.98
214.957	7674.9
215.031	7804.64
215.105	7924.68
215.178	8052.85
215.252	8188.49
215.326	8308.04
215.4	8432.78
215.473	8525.57
215.547	8650.42
215.621	8771.86
215.694	8913.39
215.768	9027.81
215.842	9154.47
215.915	9285.64
215.989	9398.12
216.063	9528.82
216.136	9669.55
216.21	9811.8
216.284	9964.63
216.357	10111.16
216.431	10243.44
216.504	10377.37
216.578	10542.38
216.652	10686.86
216.725	10828.23
216.799	10969.85
216.873	11106.21
216.946	11245.91
217.02	11380.26
217.093	11504.41
217.167	11622.05
217.24	11736.28
217.314	11864.09
217.387	11987.04
217.461	12103.11
217.535	12236.28
217.608	12356.74
217.682	12482.45
217.755	12618.57
217.829	12725.2
217.902	12851.11
217.976	12974.85
218.049	13087.61
218.123	13185.95
218.196	13307.33
218.27	13410.54
218.343	13516.73
218.417	13634.02
218.49	13743.78
218.563	13874.8
218.637	13995.85
218.71	14125.57
218.784	14243.91
218.857	14366.26
218.931	14474.77
219.004	14584.48
219.077	14698.68
219.151	14806.65
219.224	14898.97
219.298	14992.62
219.371	15105.37
219.444	15185.24
219.518	15282.66
219.591	15393.52
219.665	15506.55
219.738	15597.75
219.811	15684.56
219.885	15780.96
219.958	15877.12
220.031	15970
220.105	16050.25
220.178	16132.34
220.251	16206.71
220.325	16292.98
220.398	16373.61
220.471	16450.78
220.544	16535.51
220.618	16601.06
220.691	16673.5
220.764	16756.34
220.838	16831.14
220.911	16900.21
220.984	16985.37
221.057	17053.37
221.131	17122.24
221.204	17166.24
221.277	17255.98
221.35	17352.94
221.424	17412.41
221.497	17477.91
221.57	17541.09
221.643	17609.47
221.716	17678.43
221.79	17733.81
221.863	17801.08
221.936	17870.48
222.009	17933.03
222.082	17994.14
222.155	18055
222.229	18124.45
222.302	18169.17
222.375	18221.5
222.448	18275.77
222.521	18322.95
222.594	18368.34
222.667	18395.71
222.74	18454.84
222.814	18491.85
222.887	18534.45
222.96	18580.81
223.033	18637.63
223.106	18680.57
223.179	18727.12
223.252	18762.25
223.325	18802.82
223.398	18838.34
223.471	18877.76
223.544	18914.29
223.617	18950.43
223.69	18977.85
223.763	18996.88
223.837	19040.49
223.91	19083.48
223.983	19100.35
224.056	19125.45
224.129	19158.27
224.202	19203.14
224.275	19224.19
224.348	19234.6
224.42	19243.66
224.493	19262.22
224.566	19276.96
224.639	19308.24
224.712	19321.15
224.785	19344.48
224.858	19369.05
224.931	19375.27
225.004	19376.43
225.077	19398.26
225.15	19390.16
225.223	19418.93
225.296	19462.59
225.369	19471.84
225.442	19472.76
225.514	19491.65
225.587	19509.77
225.66	19528.71
225.733	19548.66
225.806	19565.86
225.879	19581.19
225.952	19593.62
226.025	19615.93
226.097	19644.03
226.17	19653.13
226.243	19642.58
226.316	19645.62
226.389	19659.54
226.461	19680.94
226.534	19690.1
226.607	19699.78
226.68	19737.42
226.753	19750.19
226.825	19730.09
226.898	19747.2
226.971	19757.56
227.044	19773.46
227.117	19783.49
227.189	19800.31
227.262	19810.96
227.335	19824.64
227.407	19829.8
227.48	19837.8
227.553	19849.08
227.626	19840.16
227.698	19827.73
227.771	19841.08
227.844	19837.75
227.916	19843.73
227.989	19837.56
228.062	19847.34
228.134	19869.7
228.207	19857.85
228.28	19848.11
228.352	19848.98
228.425	19850.47
228.498	19861.65
228.57	19849.94
228.643	19869.36
228.716	19862.33
228.788	19857.56
228.861	19850.38
228.934	19867.87
229.006	19863.82
229.079	19854.96
229.151	19845.85
229.224	19842.91
229.296	19857.03
229.369	19893.99
229.442	19896.35
229.514	19890.81
229.587	19894.33
229.659	19873.12
229.732	19878.18
229.804	19890.52
229.877	19926.52
229.949	19937.84
230.022	19958.18
230.094	19963.39
230.167	19955.05
230.239	19943.87
230.312	19937.51
230.384	19957.55
230.457	19953.7
230.529	19963.48
230.602	19966.52
230.674	19972.64
230.747	19983.82
230.819	19988.88
230.892	19959.1
230.964	19951.63
231.037	19950.52
231.109	19940.06
231.181	19940.35
231.254	19927.05
231.326	19910.38
231.399	19886.95
231.471	19870.67
231.544	19825.66
231.616	19827.25
231.688	19818.76
231.761	19805.85
231.833	19795.05
231.905	19755.63
231.978	19748.21
232.05	19726.53
232.122	19711.2
232.195	19691.83
232.267	19690.14
232.339	19670.67
232.412	19663.64
232.484	19657.81
232.556	19632.03
232.629	19646.82
232.701	19640.89
232.773	19632.99
232.846	19616.61
232.918	19603.74
232.99	19594.15
233.062	19598.73
233.135	19591.5
233.207	19572.03
233.279	19571.07
233.351	19557.76
233.424	19547.5
233.496	19517
233.568	19524.95
233.64	19489
233.713	19471.89
233.785	19449.48
233.857	19428.91
233.929	19390.64
234.001	19384.18
234.074	19389.44
234.146	19349.54
234.218	19325.2
234.29	19295.66
234.362	19276.48
234.434	19245.88
234.507	19206.41
234.579	19163.57
234.651	19130.61
234.723	19107.48
234.795	19086.56
234.867	19067
234.939	19049.31
235.012	19034.09
235.084	19002.52
235.156	18992.5
235.228	18962.72
235.3	18939.06
235.372	18921.03
235.444	18915.15
235.516	18873.66
235.588	18853.95
235.66	18836.51
235.732	18810.49
235.804	18849.95
235.876	18838.82
235.948	18831.79
236.02	18816.7
236.092	18798.63
236.164	18781.62
236.236	18759.55
236.308	18725.77
236.38	18700.23
236.452	18677.67
236.524	18661.63
236.596	18661.1
236.668	18653.92
236.74	18638.88
236.812	18621.1
236.884	18603.37
236.956	18581.54
237.028	18547.51
237.1	18506.84
237.172	18489.97
237.244	18486.07
237.316	18421.79
237.388	18389.02
237.46	18348.92
237.532	18334.03
237.604	18312.78
237.675	18302.61
237.747	18282.03
237.819	18257.55
237.891	18234.04
237.963	18198.76
238.035	18153.07
238.107	18084.79
238.178	18065.61
238.25	18035.92
238.322	18023.54
238.394	17981.66
238.466	17948.02
238.538	17928.55
238.609	17916.65
238.681	17882.43
238.753	17843.88
238.825	17815.35
238.897	17785.04
238.968	17774.34
239.04	17734.15
239.112	17726.1
239.184	17676.85
239.255	17647.4
239.327	17619.55
239.399	17591.26
239.471	17568.46
239.542	17552.18
239.614	17542.68
239.686	17488.95
239.758	17468.61
239.829	17428.27
239.901	17403.74
239.973	17382.63
240.044	17359.31
240.116	17322.1
240.188	17282.68
240.259	17254.49
240.331	17218.54
240.403	17195.79
240.474	17145.76
240.546	17113.33
240.618	17078.39
240.689	17055.93
240.761	17024.32
240.833	17022.34
240.904	16989.57
240.976	16972.07
241.048	16949.61
241.119	16932.12
241.191	16913.66
241.262	16903.59
241.334	16868.5
241.405	16846.09
241.477	16806.72
241.549	16777.7
241.62	16743.34
241.692	16724.45
241.763	16698.66
241.835	16677.99
241.906	16642.95
241.978	16611.28
242.049	16594.89
242.121	16568.15
242.192	16547.08
242.264	16507.13
242.335	16449.2
242.407	16430.25
242.478	16393.43
242.55	16364.51
242.621	16319.69
242.693	16291.64
242.764	16254.48
242.836	16229.37
242.907	16205.66
242.979	16183.29
243.05	16156.83
243.122	16142.23
243.193	16110.75
243.264	16065.69
243.336	16031.47
243.407	16017.3
243.479	16003.42
243.55	15982.79
243.622	15954.4
243.693	15922.64
243.764	15913.14
243.836	15882.24
243.907	15846.19
243.978	15818.96
244.05	15794.47
244.121	15756.25
244.192	15733.84
244.264	15683.51
244.335	15658.21
244.407	15615.6
244.478	15596.56
244.549	15569.76
244.62	15527.49
244.692	15497.07
244.763	15478.9
244.834	15446.56
244.906	15408.77
244.977	15395.37
245.048	15372.91
245.119	15339.17
245.191	15303.93
245.262	15250.86
245.333	15239.24
245.405	15216.3
245.476	15191.43
245.547	15163.23
245.618	15142.31
245.689	15112.23
245.761	15096.37
245.832	15070.63
245.903	15051.3
245.974	15022.62
246.045	14995.43
246.117	14990.28
246.188	14951.71
246.259	14912.62
246.33	14881.24
246.401	14855.26
246.473	14807.97
246.544	14780.69
246.615	14766.85
246.686	14728.24
246.757	14724.09
246.828	14688.42
246.899	14674.54
246.97	14626.53
247.042	14591.58
247.113	14581.84
247.184	14572.97
247.255	14539.52
247.326	14514.11
247.397	14482.35
247.468	14456.22
247.539	14423.34
247.61	14381.36
247.681	14373.4
247.752	14360.82
247.823	14332.38
247.894	14312.33
247.965	14275.79
248.037	14246.43
248.108	14201.5
248.179	14178.6
248.25	14146.45
248.321	14124.32
248.392	14085.76
248.463	14088.65
248.534	14066.67
248.605	14034.76
248.675	14003.23
248.746	13989.64
248.817	13963.65
248.888	13947.26
248.959	13912.46
249.03	13894.09
249.101	13871.92
249.172	13834.61
249.243	13796.19
249.314	13783.6
249.385	13762.39
249.456	13750.92
249.527	13721.08
249.598	13702.23
249.669	13684.25
249.739	13664.68
249.81	13642.94
249.881	13607.75
249.952	13584.61
250.023	13562.43
250.094	13532.35
250.165	13512.97
250.235	13482.31
250.306	13466.74
250.377	13430.64
250.448	13417.14
250.519	13373.51
250.59	13369.32
250.66	13347.43
250.731	13336.87
250.802	13311.81
250.873	13289.39
250.944	13263.55
251.014	13238.24
251.085	13239.74
251.156	13226.96
251.227	13221.32
251.297	13215.25
251.368	13208.98
251.439	13196.16
251.51	13184.44
251.58	13162.32
251.651	13130.45
251.722	13121
251.792	13076.9
251.863	13054.29
251.934	13037.95
252.005	13047.3
252.075	13027.97
252.146	13014.42
252.217	13006.85
252.287	12998.42
252.358	12973.06
252.429	12973.74
252.499	12952.24
252.57	12927.41
252.641	12911.07
252.711	12883.11
252.782	12851.15
252.852	12846.62
252.923	12822.8
252.994	12805.06
253.064	12794.07
253.135	12765.68
253.205	12733.81
253.276	12740.52
253.347	12736.32
253.417	12708.84
253.488	12684.16
253.558	12658.95
253.629	12643.53
253.699	12622.8
253.77	12612.87
253.841	12592.82
253.911	12573.97
253.982	12558.11
254.052	12554.44
254.123	12537.23
254.193	12518.19
254.264	12537.48
254.334	12517.23
254.405	12487.2
254.475	12453.94
254.546	12428.58
254.616	12416.24
254.687	12407.42
254.757	12386.89
254.827	12366.21
254.898	12349.92
254.968	12338.11
255.039	12308.41
255.109	12295.06
255.18	12266.96
255.25	12227.67
255.321	12215.14
255.391	12181.74
255.461	12174.55
255.532	12122.93
255.602	12099.5
255.673	12060.84
255.743	12026.14
255.813	11978.03
255.884	11970.37
255.954	11957.93
256.024	11957.02
256.095	11936.58
256.165	11902.6
256.235	11889.54
256.306	11863.12
256.376	11863.75
256.446	11848.61
256.517	11836.56
256.587	11831.79
256.657	11816.37
256.728	11800.27
256.798	11782.48
256.868	11769.61
256.938	11747.83
257.009	11741.95
257.079	11730.38
257.149	11747.92
257.219	11708.02
257.29	11696.98
257.36	11661.94
257.43	11653.65
257.5	11621.4
257.571	11605.69
257.641	11601.69
257.711	11572.92
257.781	11567.76
257.852	11552.43
257.922	11518.6
257.992	11503.13
258.062	11474.02
258.132	11472.71
258.202	11449.92
258.273	11437.44
258.343	11432.71
258.413	11404.57
258.483	11386.3
258.553	11364.08
258.623	11328.22
258.693	11314.34
258.764	11315.89
258.834	11314.3
258.904	11303.31
258.974	11279.93
259.044	11259.21
259.114	11242.87
259.184	11227.5
259.254	11202.78
259.324	11161.48
259.394	11146.15
259.464	11140.66
259.535	11125.81
259.605	11099.93
259.675	11082.54
259.745	11067.74
259.815	11034.73
259.885	11012.28
259.955	11029.53
260.025	11000.04
260.095	10988.09
260.165	10983.99
260.235	10982.21
260.305	10955.9
260.375	10928.57
260.445	10934.98
260.515	10941.2
260.585	10940.86
260.655	10918.41
260.725	10913.73
260.795	10914.69
260.865	10923.61
260.934	10899.8
261.004	10888.05
261.074	10873.69
261.144	10874.41
261.214	10869.4
261.284	10855.57
261.354	10854.89
261.424	10814.8
261.494	10815.91
261.564	10799.71
261.634	10788.29
261.703	10756.01
261.773	10749.07
261.843	10738.47
261.913	10718.81
261.983	10681.27
262.053	10668.41
262.123	10661.57
262.192	10631.74
