Data from 20250626_standard_h2o_MAYP1162681_15-28-23-931.txt Node
Date: Thu Jun 26 15:28:23 BST 2025
User: adleo
Spectrometer: MAYP116268
Trigger mode: 0
Integration Time (sec): 1.000000E0
Scans to average: 1
Electric dark correction enabled: true
Nonlinearity correction enabled: true
Boxcar width: 10
XAxis mode: Wavelengths
Number of Pixels in Spectrum: 2068
>>>>>Begin Spectral Data<<<<<
179.565	1166.5
179.642	1216.54
179.718	1260.18
179.795	1298.44
179.871	1327.21
179.948	1344.22
180.024	1362.45
180.101	1381.92
180.177	1395.57
180.254	1415.78
180.33	1438.21
180.407	1487.34
180.483	1577.51
180.56	1663.6
180.636	1744.11
180.712	1733.85
180.789	1739.07
180.865	1748.62
180.942	1756.84
181.018	1765.49
181.095	1778.9
181.171	1780.23
181.248	1784.41
181.324	1798.53
181.4	1802.05
181.477	1813.46
181.553	1824
181.63	1842.83
181.706	1858.89
181.782	1868.35
181.859	1869.35
181.935	1872.34
182.011	1869.97
182.088	1887.94
182.164	1907.53
182.24	1919.75
182.317	1930.16
182.393	1931.34
182.469	1946.18
182.546	1958.97
182.622	1963.72
182.698	1958.92
182.775	1972.8
182.851	1984.64
182.927	1976.84
183.003	1975.98
183.08	1970.33
183.156	1980.5
183.232	1981.55
183.308	1969.47
183.385	1976.27
183.461	1994.53
183.537	1997.53
183.613	2009.41
183.69	2000.05
183.766	1991.1
183.842	1999.57
183.918	2005.51
183.995	2016.64
184.071	2018.3
184.147	2012.79
184.223	2002.05
184.299	2012.56
184.375	2001.67
184.452	2007.81
184.528	2062.28
184.604	2072.07
184.68	2084.72
184.756	2094.38
184.832	2098.09
184.908	2105.41
184.985	2105.84
185.061	2090.66
185.137	2097.51
185.213	2085.34
185.289	2089.9
185.365	2083.2
185.441	2082.72
185.517	2093.95
185.593	2094.33
185.669	2097.43
185.745	2110.55
185.822	2128.95
185.898	2125.58
185.974	2136.99
186.05	2131.56
186.126	2095.07
186.202	2093.98
186.278	2096.17
186.354	2091.74
186.43	2102.35
186.506	2107.35
186.582	2112.15
186.658	2127.03
186.734	2119.42
186.81	2135.97
186.886	2149.91
186.962	2173.65
187.038	2181.84
187.114	2182.26
187.19	2200.59
187.266	2200.78
187.341	2215.11
187.417	2222.34
187.493	2236.9
187.569	2256.17
187.645	2270.54
187.721	2279.3
187.797	2306.48
187.873	2328.14
187.949	2344.42
188.025	2361.32
188.101	2393.12
188.176	2427.54
188.252	2455.07
188.328	2496.44
188.404	2531.87
188.48	2560.26
188.556	2590.32
188.632	2631.25
188.707	2677.62
188.783	2716.18
188.859	2754
188.935	2785.65
189.011	2833.72
189.086	2869.46
189.162	2906.21
189.238	2943.72
189.314	2982.66
189.39	3015.89
189.465	3051.84
189.541	3108.68
189.617	3138.06
189.693	3171.58
189.768	3217.86
189.844	3277.57
189.92	3312.97
189.996	3362.71
190.071	3424.58
190.147	3476.1
190.223	3540.45
190.298	3591.91
190.374	3641.78
190.45	3723.71
190.526	3800.7
190.601	3876.13
190.677	3950.58
190.753	4054.6
190.828	4139.45
190.904	4231.64
190.98	4327.96
191.055	4421.99
191.131	4498.44
191.207	4600.32
191.282	4688.18
191.358	4754.87
191.433	4820.3
191.509	4906.18
191.585	4971.9
191.66	5039.41
191.736	5109.51
191.811	5159.46
191.887	5234.82
191.963	5316.02
192.038	5382.01
192.114	5440.3
192.189	5498.87
192.265	5562.99
192.34	5610.25
192.416	5682.85
192.491	5758.13
192.567	5840.04
192.642	5921.91
192.718	6005.6
192.793	6086.14
192.869	6174.97
192.944	6273.16
193.02	6379.89
193.095	6478.68
193.171	6590.02
193.246	6690.25
193.322	6789.41
193.397	6892.4
193.473	6979.45
193.548	7058.8
193.624	7154.27
193.699	7247.62
193.775	7345.74
193.85	7429.33
193.925	7512.91
194.001	7585.48
194.076	7649.61
194.152	7705.33
194.227	7773.57
194.302	7830.16
194.378	7892.87
194.453	7954.95
194.529	8031.77
194.604	8083.49
194.679	8153.73
194.755	8205.64
194.83	8297.85
194.905	8372.2
194.981	8454.92
195.056	8524.02
195.131	8613.83
195.207	8699.47
195.282	8776.57
195.357	8854.51
195.433	8958.72
195.508	9038.59
195.583	9136.22
195.659	9243.83
195.734	9339.74
195.809	9421.6
195.884	9522.28
195.96	9607.51
196.035	9714.13
196.11	9794.6
196.185	9893.43
196.261	9970.79
196.336	10077.19
196.411	10125.12
196.486	10197.71
196.561	10260.38
196.637	10341.51
196.712	10422.93
196.787	10487.64
196.862	10566.31
196.937	10637
197.013	10708.26
197.088	10789.65
197.163	10877.74
197.238	10958.8
197.313	11027.85
197.388	11105.34
197.464	11195.22
197.539	11277.97
197.614	11331.46
197.689	11410.31
197.764	11494.99
197.839	11583.48
197.914	11648.83
197.989	11748.03
198.065	11830.64
198.14	11955.33
198.215	12051.83
198.29	12131.99
198.365	12222.94
198.44	12304.89
198.515	12407.03
198.59	12499.72
198.665	12584.85
198.74	12657.83
198.815	12725.85
198.89	12817.24
198.965	12910.71
199.04	12975.6
199.115	13062.66
199.19	13177.39
199.265	13258.76
199.34	13328.27
199.415	13429.89
199.49	13516.13
199.565	13591.14
199.64	13688.66
199.715	13749.93
199.79	13823.06
199.865	13904.62
199.94	13971.24
200.015	14072.28
200.09	14147.15
200.165	14209.96
200.24	14294.9
200.315	14405.19
200.39	14484.77
200.464	14557.03
200.539	14629.05
200.614	14716.25
200.689	14802.3
200.764	14872.72
200.839	14949.8
200.914	15023.31
200.989	15085.73
201.063	15165.22
201.138	15215.59
201.213	15283.99
201.288	15338.61
201.363	15414.52
201.438	15480.51
201.512	15559.9
201.587	15612.1
201.662	15682.62
201.737	15768.61
201.812	15837.29
201.886	15872.23
201.961	15957.59
202.036	16021.27
202.111	16093.42
202.186	16130.05
202.26	16180.03
202.335	16229.39
202.41	16292.43
202.485	16346.94
202.559	16390.17
202.634	16437.99
202.709	16513.99
202.784	16567.01
202.858	16633.28
202.933	16693.72
203.008	16758.88
203.082	16801.92
203.157	16870.5
203.232	16896.77
203.306	16942.94
203.381	16984
203.456	17028.67
203.53	17068.38
203.605	17118.65
203.68	17161.74
203.754	17230.65
203.829	17292.92
203.904	17349.45
203.978	17408.2
204.053	17476.05
204.127	17537.55
204.202	17601.06
204.277	17650.12
204.351	17712.58
204.426	17779.71
204.5	17828.1
204.575	17857.68
204.65	17941.97
204.724	17996.57
204.799	18072.09
204.873	18137.68
204.948	18205.14
205.022	18263.07
205.097	18329.91
205.171	18412.51
205.246	18487.88
205.32	18546.81
205.395	18607.82
205.469	18661.79
205.544	18733.16
205.618	18784.97
205.693	18862.75
205.767	18930.65
205.842	19018.88
205.916	19076.85
205.991	19131.21
206.065	19198.87
206.14	19288.02
206.214	19349.9
206.289	19409.37
206.363	19486.71
206.438	19559.24
206.512	19625.4
206.586	19712
206.661	19786.46
206.735	19830.99
206.81	19901.97
206.884	19990.55
206.958	20053.15
207.033	20134.06
207.107	20204.08
207.181	20305.19
207.256	20363.46
207.33	20445.29
207.405	20520.09
207.479	20601.63
207.553	20668.43
207.628	20717.97
207.702	20789.78
207.776	20848.38
207.851	20926.61
207.925	21007.91
207.999	21071.97
208.073	21140.65
208.148	21211.83
208.222	21259.74
208.296	21355.85
208.371	21437.99
208.445	21508.79
208.519	21590.92
208.593	21667.42
208.668	21730.66
208.742	21796.8
208.816	21857.14
208.89	21931.19
208.965	22000.41
209.039	22079.52
209.113	22163.11
209.187	22254.21
209.261	22306.51
209.336	22397.53
209.41	22481.66
209.484	22544.87
209.558	22622.82
209.632	22705.94
209.707	22780.05
209.781	22877.58
209.855	22959.12
209.929	23038.83
210.003	23117.33
210.077	23181.6
210.151	23295.32
210.226	23385.88
210.3	23478.14
210.374	23574.77
210.448	23639.11
210.522	23712.51
210.596	23782.97
210.67	23850.39
210.744	23961.03
210.818	24065.49
210.892	24144.5
210.966	24205.08
211.041	24279.56
211.115	24334.01
211.189	24411.43
211.263	24479.45
211.337	24537.87
211.411	24606.85
211.485	24652.93
211.559	24725.39
211.633	24788.58
211.707	24812.08
211.781	24889.96
211.855	24916.6
211.929	24956.4
212.003	24999.82
212.077	25066.75
212.151	25132.18
212.225	25203.79
212.299	25246.6
212.373	25297.32
212.447	25341.38
212.52	25415.27
212.594	25480.57
212.668	25550.88
212.742	25601.46
212.816	25650.69
212.89	25687.27
212.964	25727.87
213.038	25792.79
213.112	25848.06
213.186	25914.77
213.26	25938.85
213.333	25951.64
213.407	26002.18
213.481	26072.36
213.555	26127.87
213.629	26168.09
213.703	26210.67
213.777	26254.94
213.85	26284.78
213.924	26366.58
213.998	26424.86
214.072	26473.11
214.146	26497.59
214.219	26541.96
214.293	26571.8
214.367	26609.9
214.441	26675.08
214.515	26712.02
214.588	26733.9
214.662	26737.86
214.736	26768.77
214.81	26831.63
214.883	26876.54
214.957	26897.88
215.031	26911.11
215.105	26922.56
215.178	26941.92
215.252	26963.8
215.326	26975.73
215.4	26990.22
215.473	26961.82
215.547	26958.87
215.621	26960.32
215.694	26999.64
215.768	27005.82
215.842	27020.84
215.915	27041.51
215.989	27030.11
216.063	27045.81
216.136	27061.8
216.21	27089.66
216.284	27119.81
216.357	27129.56
216.431	27131.83
216.504	27171.83
216.578	27210.42
216.652	27241.28
216.725	27260.7
216.799	27283.99
216.873	27299.3
216.946	27329.05
217.02	27349.53
217.093	27364.22
217.167	27361.47
217.24	27355.72
217.314	27361.75
217.387	27366.1
217.461	27374.02
217.535	27407.45
217.608	27408.9
217.682	27415.62
217.755	27434.84
217.829	27425.9
217.902	27443.54
217.976	27467.89
218.049	27454.02
218.123	27448.95
218.196	27467.21
218.27	27475.13
218.343	27474.36
218.417	27488.85
218.49	27479.58
218.563	27490.49
218.637	27494.12
218.71	27512.48
218.784	27529.53
218.857	27545.04
218.931	27555.62
219.004	27559.19
219.077	27562.33
219.151	27564.55
219.224	27570.25
219.298	27570.64
219.371	27583.3
219.444	27570.64
219.518	27559.53
219.591	27568.95
219.665	27594.94
219.738	27589.58
219.811	27569.53
219.885	27567.65
219.958	27572.58
220.031	27559.15
220.105	27554.56
220.178	27565.86
220.251	27559.83
220.325	27558.86
220.398	27553.5
220.471	27559.25
220.544	27569.44
220.618	27549.92
220.691	27547.94
220.764	27541.61
220.838	27544.61
220.911	27525.28
220.984	27529.63
221.057	27529.2
221.131	27514.17
221.204	27469.43
221.277	27478.9
221.35	27500.69
221.424	27483.15
221.497	27474.89
221.57	27480.79
221.643	27474.7
221.716	27468.08
221.79	27450.4
221.863	27437.36
221.936	27425.04
222.009	27399.44
222.082	27376.68
222.155	27366.01
222.229	27362
222.302	27341.23
222.375	27304.47
222.448	27299.73
222.521	27278.77
222.594	27256.6
222.667	27229.55
222.74	27223.56
222.814	27191.29
222.887	27167.24
222.96	27160.09
223.033	27140.96
223.106	27110.39
223.179	27092.51
223.252	27056.05
223.325	27024.12
223.398	26991.76
223.471	26966.17
223.544	26935.26
223.617	26911.21
223.69	26876.63
223.763	26840.17
223.837	26816.75
223.91	26795.45
223.983	26749.86
224.056	26705.39
224.129	26669.71
224.202	26648.9
224.275	26607.95
224.348	26576.22
224.42	26524.31
224.493	26468.59
224.566	26411.56
224.639	26388
224.712	26350.34
224.785	26313.55
224.858	26286.61
224.931	26249.62
225.004	26200.33
225.077	26170.84
225.15	26102.82
225.223	26077.76
225.296	26058.4
225.369	25996.67
225.442	25952.06
225.514	25909.2
225.587	25885.74
225.66	25851.37
225.733	25822.94
225.806	25792.43
225.879	25747.78
225.952	25706.22
226.025	25685.66
226.097	25671.81
226.17	25625.43
226.243	25562.83
226.316	25526.44
226.389	25485.27
226.461	25448.78
226.534	25422.53
226.607	25376.4
226.68	25373.74
226.753	25320.42
226.825	25258.93
226.898	25243.11
226.971	25209.42
227.044	25183.8
227.117	25144.18
227.189	25121.65
227.262	25083
227.335	25045.74
227.407	24993.01
227.48	24961.94
227.553	24915.03
227.626	24860.56
227.698	24815.54
227.771	24780.47
227.844	24726.1
227.916	24698.02
227.989	24642.11
228.062	24593.24
228.134	24580.79
228.207	24531.97
228.28	24495.93
228.352	24459.9
228.425	24419.28
228.498	24381.36
228.57	24331.34
228.643	24305.43
228.716	24258.3
228.788	24210.01
228.861	24162.98
228.934	24138.91
229.006	24089.62
229.079	24058.41
229.151	24013.31
229.224	23974.73
229.296	23943.53
229.369	23931.23
229.442	23903.39
229.514	23860.71
229.587	23839.64
229.659	23778.15
229.732	23744.43
229.804	23704.98
229.877	23687
229.949	23661.24
230.022	23643.88
230.094	23609.78
230.167	23567.58
230.239	23515.6
230.312	23485.36
230.384	23477.6
230.457	23442.68
230.529	23411.82
230.602	23362.98
230.674	23334.53
230.747	23306.95
230.819	23283.41
230.892	23223.38
230.964	23184.56
231.037	23154.96
231.109	23113.01
231.181	23090.92
231.254	23043.14
231.326	23013.34
231.399	22975.11
231.471	22931.71
231.544	22868.83
231.616	22838.85
231.688	22798.39
231.761	22750.57
231.833	22691.95
231.905	22634.62
231.978	22599.37
232.05	22562.4
232.122	22533.85
232.195	22490.56
232.267	22472.53
232.339	22423.6
232.412	22401.42
232.484	22349.21
232.556	22300.14
232.629	22282.06
232.701	22243.88
232.773	22211.77
232.846	22170.51
232.918	22130.64
232.99	22098.73
233.062	22071.92
233.135	22036.35
233.207	21990.6
233.279	21972.14
233.351	21955.56
233.424	21906.1
233.496	21852.02
233.568	21827.2
233.64	21768.2
233.713	21726.65
233.785	21677.58
233.857	21649.62
233.929	21596.12
234.001	21580.84
234.074	21572.93
234.146	21510.27
234.218	21467.23
234.29	21418.26
234.362	21374.98
234.434	21311.16
234.507	21257.18
234.579	21203.2
234.651	21148.83
234.723	21119.24
234.795	21082.37
234.867	21034.27
234.939	21005.01
235.012	20971.9
235.084	20930.89
235.156	20914.41
235.228	20873.68
235.3	20837.24
235.372	20792.9
235.444	20776.33
235.516	20720.47
235.588	20674.97
235.66	20643.16
235.732	20603.16
235.804	20626.1
235.876	20594.83
235.948	20587.16
236.02	20553.33
236.092	20508.13
236.164	20480.71
236.236	20435.16
236.308	20390.97
236.38	20363.31
236.452	20317.04
236.524	20282.44
236.596	20270.35
236.668	20235.31
236.74	20201.62
236.812	20161.48
236.884	20132.47
236.956	20089.43
237.028	20037.44
237.1	19987.03
237.172	19960.57
237.244	19945.15
237.316	19862.69
237.388	19823.75
237.46	19772.29
237.532	19751.47
237.604	19716.19
237.675	19693.69
237.747	19663.09
237.819	19612.63
237.891	19569.45
237.963	19526.23
238.035	19480.45
238.107	19405.12
238.178	19379.78
238.25	19338.81
238.322	19321.23
238.394	19266.39
238.466	19225.23
238.538	19198.82
238.609	19168.27
238.681	19111.31
238.753	19059.31
238.825	19027.32
238.897	18987.03
238.968	18966.36
239.04	18918.21
239.112	18911.52
239.184	18860.19
239.255	18825.26
239.327	18803.81
239.399	18769.55
239.471	18747.72
239.542	18727.24
239.614	18699.38
239.686	18633.65
239.758	18607.15
239.829	18558.48
239.901	18532.26
239.973	18490.77
240.044	18457.61
240.116	18418.87
240.188	18374.92
240.259	18330.78
240.331	18289.04
240.403	18251.79
240.474	18196.13
240.546	18141.97
240.618	18078.45
240.689	18037.87
240.761	18003.8
240.833	17985.35
240.904	17944.62
240.976	17904.82
241.048	17862.41
241.119	17832.92
241.191	17805.16
241.262	17782.75
241.334	17745.69
241.405	17712.97
241.477	17677.74
241.549	17635.14
241.62	17604.44
241.692	17590.42
241.763	17567.19
241.835	17535.38
241.906	17516.1
241.978	17471.57
242.049	17456.78
242.121	17446.37
242.192	17419.96
242.264	17371.72
242.335	17313.36
242.407	17292.34
242.478	17257.55
242.55	17226.99
242.621	17188.92
242.693	17148.53
242.764	17104
242.836	17065.54
242.907	17038.46
242.979	17009.25
243.05	16982.99
243.122	16960.34
243.193	16927.03
243.264	16879.95
243.336	16849.97
243.407	16824.72
243.479	16817.87
243.55	16784.47
243.622	16748.28
243.693	16723.7
243.764	16706.83
243.836	16678.2
243.907	16642.88
243.978	16608.75
244.05	16585.96
244.121	16549.33
244.192	16534.96
244.264	16500.94
244.335	16474.72
244.407	16421.84
244.478	16397.31
244.549	16371.24
244.62	16325.45
244.692	16286.41
244.763	16268.77
244.834	16228.04
244.906	16191.12
244.977	16156.37
245.048	16150.45
245.119	16110.54
245.191	16068.56
245.262	16014.86
245.333	15995.92
245.405	15977.6
245.476	15952.35
245.547	15927.48
245.618	15898.41
245.689	15864.38
245.761	15833.34
245.832	15795.17
245.903	15784.37
245.974	15754.63
246.045	15720.36
246.117	15712.65
246.188	15676.45
246.259	15631.67
246.33	15606.8
246.401	15572.96
246.473	15530.16
246.544	15487.8
246.615	15471.02
246.686	15437.86
246.757	15428.89
246.828	15384.11
246.899	15355.77
246.97	15315.14
247.042	15275.66
247.113	15259.95
247.184	15252.86
247.255	15227.79
247.326	15202.54
247.397	15164.12
247.468	15132.98
247.539	15107.91
247.61	15060.39
247.681	15039.95
247.752	15030.12
247.823	14991.07
247.894	14964.7
247.965	14936.31
248.037	14897.7
248.108	14853.98
248.179	14828
248.25	14794.64
248.321	14779.46
248.392	14741.91
248.463	14739.98
248.534	14714.24
248.605	14697.27
248.675	14666.03
248.746	14641.98
248.817	14625.49
248.888	14612.14
248.959	14577.29
249.03	14558.97
249.101	14534.53
249.172	14506.96
249.243	14457.21
249.314	14449.06
249.385	14428.91
249.456	14413.39
249.527	14383.12
249.598	14365.96
249.669	14343.15
249.739	14320.26
249.81	14302.47
249.881	14259.9
249.952	14227.27
250.023	14193.52
250.094	14140.74
250.165	14102.51
250.235	14079.81
250.306	14058.26
250.377	14023.6
250.448	14010.58
250.519	13967.82
250.59	13962.28
250.66	13938.23
250.731	13933.74
250.802	13908.43
250.873	13891.8
250.944	13858.16
251.014	13839.93
251.085	13848.08
251.156	13835.55
251.227	13830.2
251.297	13824.89
251.368	13824.07
251.439	13817.18
251.51	13810.24
251.58	13790.67
251.651	13769.65
251.722	13757.31
251.792	13712.38
251.863	13685.48
251.934	13671.31
252.005	13674.39
252.075	13651.59
252.146	13635.1
252.217	13628.21
252.287	13615.87
252.358	13593.89
252.429	13599.96
252.499	13569.3
252.57	13543.22
252.641	13524.57
252.711	13502.15
252.782	13458.43
252.852	13456.31
252.923	13423.62
252.994	13407.57
253.064	13404.34
253.135	13376.19
253.205	13347.74
253.276	13348.03
253.347	13347.6
253.417	13319.45
253.488	13290.14
253.558	13268.44
253.629	13247.86
253.699	13224.87
253.77	13217.83
253.841	13187.65
253.911	13167.16
253.982	13155.4
254.052	13139.06
254.123	13118.23
254.193	13101.02
254.264	13120.64
254.334	13093.79
254.405	13076
254.475	13042.65
254.546	13014.59
254.616	13013
254.687	12998.87
254.757	12983.45
254.827	12956.26
254.898	12941.9
254.968	12928.11
255.039	12902.03
255.109	12895.28
255.18	12867.61
255.25	12816.71
255.321	12806.92
255.391	12773.46
255.461	12770.52
255.532	12718.22
255.602	12693.06
255.673	12651.51
255.743	12618.1
255.813	12572.35
255.884	12563.87
255.954	12560.01
256.024	12559
256.095	12535.09
256.165	12507.32
256.235	12493.88
256.306	12468.62
256.376	12460.81
256.446	12447.79
256.517	12433.67
256.587	12428.27
256.657	12418.19
256.728	12401.47
256.798	12383.1
256.868	12363.97
256.938	12338.56
257.009	12340.78
257.079	12337.41
257.149	12342.9
257.219	12303.18
257.29	12296.87
257.36	12258.69
257.43	12244.9
257.5	12211.84
257.571	12193.18
257.641	12184.46
257.711	12155.54
257.781	12140.69
257.852	12128.25
257.922	12088.92
257.992	12067.71
258.062	12046.45
258.132	12032.09
258.202	12021.63
258.273	11998.98
258.343	11994.11
258.413	11969.77
258.483	11953.42
258.553	11928.79
258.623	11905.99
258.693	11892.84
258.764	11887.92
258.834	11882.86
258.904	11868.88
258.974	11838.95
259.044	11821.12
259.114	11806.51
259.184	11795.23
259.254	11785.59
259.324	11742.5
259.394	11744.72
259.464	11743.9
259.535	11715.8
259.605	11692.23
259.675	11661.1
259.745	11651.12
259.815	11626.15
259.885	11601.23
259.955	11609.72
260.025	11577.28
260.095	11563.3
260.165	11552.22
260.235	11548.8
260.305	11527.64
260.375	11495.92
260.445	11501.9
260.515	11494.14
260.585	11485.22
260.655	11461.66
260.725	11449.85
260.795	11447.49
260.865	11438.52
260.934	11418.09
261.004	11411.48
261.074	11393.12
261.144	11393.46
261.214	11389.36
