Data from 20250625_urea_1M_1_MAYP1162681_03-05-05-507.txt Node
Date: Thu Jun 26 03:05:05 BST 2025
User: adleo
Spectrometer: MAYP116268
Trigger mode: 0
Integration Time (sec): 1.000000E0
Scans to average: 1
Electric dark correction enabled: true
Nonlinearity correction enabled: true
Boxcar width: 10
XAxis mode: Wavelengths
Number of Pixels in Spectrum: 2068
>>>>>Begin Spectral Data<<<<<
179.565	1099.79
179.642	1149.7
179.718	1190.17
179.795	1228.2
179.871	1254.72
179.948	1274.55
180.024	1294.98
180.101	1317.36
180.177	1329.6
180.254	1349.61
180.33	1369.08
180.407	1414.03
180.483	1502.63
180.56	1585.77
180.636	1663.11
180.712	1649.42
180.789	1658.3
180.865	1670.61
180.942	1683
181.018	1695.5
181.095	1707.71
181.171	1713.6
181.248	1715.32
181.324	1728.72
181.4	1735.66
181.477	1747.96
181.553	1756.61
181.63	1775.38
181.706	1788.31
181.782	1799.57
181.859	1799.48
181.935	1806.65
182.011	1804.37
182.088	1817.87
182.164	1836.46
182.24	1848.96
182.317	1858.75
182.393	1856.9
182.469	1871.58
182.546	1880.66
182.622	1884.18
182.698	1881.52
182.775	1894.59
182.851	1907.95
182.927	1902.01
183.003	1898.06
183.08	1892.26
183.156	1903.39
183.232	1902.34
183.308	1893.54
183.385	1898.87
183.461	1913.32
183.537	1913.18
183.613	1927.68
183.69	1918.79
183.766	1909.37
183.842	1915.55
183.918	1920.97
183.995	1932.28
184.071	1933.33
184.147	1929.72
184.223	1918.45
184.299	1929.34
184.375	1914.99
184.452	1921.84
184.528	1974.87
184.604	1985.61
184.68	1998.54
184.756	2001.96
184.832	2005.06
184.908	2009.81
184.985	2008.33
185.061	1994.64
185.137	2002.73
185.213	1989.8
185.289	1992.84
185.365	1985.61
185.441	1986.71
185.517	1998.31
185.593	1997.12
185.669	1993.03
185.745	2003.4
185.822	2019.75
185.898	2012.38
185.974	2027.26
186.05	2021.17
186.126	1982.6
186.202	1973.23
186.278	1969.14
186.354	1959.44
186.43	1963.44
186.506	1961.96
186.582	1962.72
186.658	1972.33
186.734	1954.26
186.81	1956.73
186.886	1958.73
186.962	1969.81
187.038	1964.72
187.114	1956.2
187.19	1963.34
187.266	1957.87
187.341	1957.06
187.417	1948.08
187.493	1947.36
187.569	1947.6
187.645	1940.95
187.721	1928.39
187.797	1935.76
187.873	1937.9
187.949	1933.91
188.025	1929.44
188.101	1932.43
188.176	1933.62
188.252	1927.53
188.328	1936.18
188.404	1936.66
188.48	1932.19
188.556	1922.78
188.632	1922.25
188.707	1925.01
188.783	1921.16
188.859	1917.98
188.935	1910.18
189.011	1919.31
189.086	1916.26
189.162	1909.42
189.238	1907.28
189.314	1904.28
189.39	1898.77
189.465	1892.82
189.541	1909.61
189.617	1895.35
189.693	1889.55
189.768	1895.68
189.844	1919.75
189.92	1911.29
189.996	1920.13
190.071	1929.97
190.147	1932.92
190.223	1941.86
190.298	1933.02
190.374	1920.04
190.45	1931.3
190.526	1936.87
190.601	1930.73
190.677	1926.5
190.753	1950.57
190.828	1951.76
190.904	1968.26
190.98	1983.39
191.055	1993.7
191.131	1983.76
191.207	2004.54
191.282	2010.96
191.358	2002.21
191.433	1988.75
191.509	1999.39
191.585	1993.35
191.66	1995.49
191.736	2002.72
191.811	1992.78
191.887	2007.96
191.963	2030.35
192.038	2033.06
192.114	2035.87
192.189	2041.1
192.265	2042.19
192.34	2018.79
192.416	2018.64
192.491	2015.22
192.567	2016.17
192.642	2018.55
192.718	2020.4
192.793	2008.32
192.869	2007.89
192.944	2010.37
193.02	2017.22
193.095	2021.83
193.171	2030.91
193.246	2033.53
193.322	2029.49
193.397	2031.53
193.473	2017.78
193.548	2002.09
193.624	2004.23
193.699	2000.23
193.775	2015.22
193.85	2018.78
193.925	2028.1
194.001	2026.39
194.076	2018.78
194.152	2008.61
194.227	2003.37
194.302	1995.01
194.378	1999.15
194.453	1994.72
194.529	2007.23
194.604	1993.2
194.679	1989.02
194.755	1969.38
194.83	1978.19
194.905	1975.95
194.981	1984.46
195.056	1978.24
195.131	1982.75
195.207	1984.32
195.282	1976.57
195.357	1956.69
195.433	1969.1
195.508	1961.73
195.583	1971.48
195.659	1985.22
195.734	1994.17
195.809	1990.22
195.884	1998.39
195.96	1994.69
196.035	2008.33
196.11	2004.81
196.185	2013.18
196.261	2014.13
196.336	2042.62
196.411	2027.92
196.486	2032.67
196.561	2025.11
196.637	2036.52
196.712	2053.74
196.787	2053.93
196.862	2068.72
196.937	2077.56
197.013	2082.04
197.088	2088.79
197.163	2109.39
197.238	2123.2
197.313	2122.96
197.388	2137.33
197.464	2166.59
197.539	2182.05
197.614	2177.29
197.689	2188.28
197.764	2205.65
197.839	2224.82
197.914	2220.68
197.989	2244.52
198.065	2259.61
198.14	2307.03
198.215	2331.25
198.29	2340.96
198.365	2354.15
198.44	2362.14
198.515	2391.46
198.59	2404.6
198.665	2428.4
198.74	2436.73
198.815	2436.35
198.89	2454.96
198.965	2484.73
199.04	2478.11
199.115	2490.68
199.19	2531.96
199.265	2535.24
199.34	2544.05
199.415	2576.21
199.49	2600.06
199.565	2608.73
199.64	2631.97
199.715	2629.26
199.79	2635.59
199.865	2640.88
199.94	2640.4
200.015	2675.56
200.09	2681.04
200.165	2687.71
200.24	2695.76
200.315	2732.71
200.39	2752.25
200.464	2760.39
200.539	2760.77
200.614	2779.16
200.689	2801.46
200.764	2808.9
200.839	2824.28
200.914	2829.66
200.989	2817.51
201.063	2828.42
201.138	2810.9
201.213	2811.76
201.288	2794.65
201.363	2798.56
201.438	2798.13
201.512	2814.13
201.587	2793.26
201.662	2796.17
201.737	2807.55
201.812	2813.42
201.886	2781.13
201.961	2791.95
202.036	2777.95
202.111	2773.66
202.186	2744.43
202.26	2729.08
202.335	2709.06
202.41	2704.92
202.485	2689.35
202.559	2672.91
202.634	2647.57
202.709	2657.66
202.784	2636.75
202.858	2635.7
202.933	2617.27
203.008	2612.03
203.082	2594.79
203.157	2597.12
203.232	2555.23
203.306	2535.6
203.381	2507.83
203.456	2484.88
203.53	2459.57
203.605	2442.63
203.68	2422.63
203.754	2417.54
203.829	2400.92
203.904	2380.83
203.978	2371.31
204.053	2377.35
204.127	2366.36
204.202	2366.22
204.277	2350.13
204.351	2344.75
204.426	2338.37
204.5	2331.28
204.575	2299.16
204.65	2307.4
204.724	2299.06
204.799	2308.62
204.873	2306.15
204.948	2300.68
205.022	2292.64
205.097	2284.06
205.171	2298.58
205.246	2309.77
205.32	2307.34
205.395	2310.2
205.469	2301.06
205.544	2301.21
205.618	2280.17
205.693	2290.17
205.767	2277.36
205.842	2294.36
205.916	2288.7
205.991	2279.99
206.065	2283.79
206.14	2296.87
206.214	2293.87
206.289	2286.4
206.363	2297.39
206.438	2300.1
206.512	2309.24
206.586	2323.52
206.661	2329.47
206.735	2309.63
206.81	2307.34
206.884	2324.95
206.958	2310.34
207.033	2325.04
207.107	2334.57
207.181	2366.65
207.256	2363.75
207.33	2380.22
207.405	2390.93
207.479	2408.98
207.553	2417.78
207.628	2405.84
207.702	2415.64
207.776	2407.69
207.851	2410.59
207.925	2426.79
207.999	2424.5
208.073	2425.31
208.148	2429.41
208.222	2422.36
208.296	2450.48
208.371	2466.83
208.445	2477.78
208.519	2505.96
208.593	2521.86
208.668	2517.24
208.742	2519.24
208.816	2521.1
208.89	2536.77
208.965	2537.1
209.039	2545.73
209.113	2563.63
209.187	2583.72
209.261	2587.62
209.336	2612.24
209.41	2632.39
209.484	2635.49
209.558	2659.45
209.632	2674.88
209.707	2689.12
209.781	2714.23
209.855	2736.58
209.929	2758.9
210.003	2774.1
210.077	2783.39
210.151	2832.95
210.226	2877.44
210.3	2912.93
210.374	2947.95
210.448	2964.97
210.522	2990.72
210.596	3016.08
210.67	3041.88
210.744	3107.51
210.818	3154.47
210.892	3190.77
210.966	3211.85
211.041	3249.49
211.115	3272.53
211.189	3325.68
211.263	3375.02
211.337	3415.53
211.411	3462.55
211.485	3491.26
211.559	3538.65
211.633	3584.32
211.707	3600.04
211.781	3652.95
211.855	3675.78
211.929	3716.99
212.003	3756
212.077	3824.49
212.151	3895.46
212.225	3967.54
212.299	4019.44
212.373	4079.71
212.447	4151.84
212.52	4252.6
212.594	4330.53
212.668	4428.79
212.742	4496.92
212.816	4579.96
212.89	4664.48
212.964	4758.1
213.038	4858.58
213.112	4972.06
213.186	5085.03
213.26	5174.34
213.333	5237.63
213.407	5348.1
213.481	5464.13
213.555	5591.93
213.629	5695.09
213.703	5798.69
213.777	5921.9
213.85	6031.06
213.924	6192.23
213.998	6321.9
214.072	6453.73
214.146	6581.88
214.219	6704.54
214.293	6835.68
214.367	6976.49
214.441	7125.09
214.515	7257.07
214.588	7378
214.662	7486.01
214.736	7608.2
214.81	7757.49
214.883	7915.51
214.957	8050.14
215.031	8187.29
215.105	8305.79
215.178	8440.54
215.252	8586.91
215.326	8711.71
215.4	8842.07
215.473	8951.61
215.547	9087.38
215.621	9225.73
215.694	9374.72
215.768	9504.72
215.842	9646.78
215.915	9781.79
215.989	9902.64
216.063	10047.35
216.136	10194.99
216.21	10346.15
216.284	10512.17
216.357	10664.61
216.431	10805.06
216.504	10968.02
216.578	11138.8
216.652	11296.36
216.725	11442.33
216.799	11596.17
216.873	11737.47
216.946	11885.81
217.02	12018.26
217.093	12153.85
217.167	12261.43
217.24	12388.83
217.314	12525.05
217.387	12658.86
217.461	12790.45
217.535	12942.29
217.608	13060.64
217.682	13184.09
217.755	13326.58
217.829	13443.48
217.902	13570.07
217.976	13699.31
218.049	13810.52
218.123	13919.76
218.196	14049.52
218.27	14167
218.343	14271.94
218.417	14397.42
218.49	14512.05
218.563	14640.13
218.637	14756.45
218.71	14896.38
218.784	15016.74
218.857	15137.25
218.931	15249.37
219.004	15361.39
219.077	15466.13
219.151	15573.29
219.224	15681.98
219.298	15783.78
219.371	15902.49
219.444	15986.99
219.518	16085.07
219.591	16185.08
219.665	16309.14
219.738	16404.96
219.811	16486.51
219.885	16585.17
219.958	16684.41
220.031	16771.4
220.105	16861.43
220.178	16944.23
220.251	17019.7
220.325	17105.78
220.398	17189.68
220.471	17276.58
220.544	17360.63
220.618	17441.06
220.691	17527.23
220.764	17608.92
220.838	17678.36
220.911	17734.99
220.984	17834.84
221.057	17910.45
221.131	17995.75
221.204	18035.51
221.277	18121.67
221.35	18216.32
221.424	18277.09
221.497	18337.57
221.57	18407.88
221.643	18476.55
221.716	18547.68
221.79	18595.53
221.863	18653.27
221.936	18702.66
222.009	18750.46
222.082	18804.87
222.155	18845.93
222.229	18909.06
222.302	18962.89
222.375	19013.63
222.448	19071.84
222.521	19115.17
222.594	19158.44
222.667	19180.99
222.74	19233.52
222.814	19268.99
222.887	19311.01
222.96	19361.17
223.033	19407.1
223.106	19443
223.179	19478.71
223.252	19497.94
223.325	19550.03
223.398	19582.42
223.471	19627.14
223.544	19672.39
223.617	19713.25
223.69	19756.57
223.763	19765.59
223.837	19796.09
223.91	19829.01
223.983	19840.38
224.056	19848.76
224.129	19876.38
224.202	19911.56
224.275	19922.3
224.348	19931.7
224.42	19942.98
224.493	19943.36
224.566	19956.52
224.639	19987.75
224.712	19998.49
224.785	20030.68
224.858	20034.73
224.931	20041.72
225.004	20041.91
225.077	20052.08
225.15	20027.07
225.223	20040.66
225.296	20093.09
225.369	20093.38
225.442	20095.45
225.514	20116.85
225.587	20139.07
225.66	20157.72
225.733	20173.38
225.806	20196.61
225.879	20207.93
225.952	20210.83
226.025	20253.96
226.097	20285.67
226.17	20289.19
226.243	20289.91
226.316	20293.23
226.389	20317.23
226.461	20335.64
226.534	20347.45
226.607	20356.7
226.68	20395.5
226.753	20396.27
226.825	20366.34
226.898	20378
226.971	20386.05
227.044	20396.41
227.117	20397.71
227.189	20399.79
227.262	20412.65
227.335	20418.24
227.407	20420.56
227.48	20429.52
227.553	20416.03
227.626	20403.01
227.698	20402.97
227.771	20408.07
227.844	20403.45
227.916	20394.58
227.989	20375.88
228.062	20373.66
228.134	20389.76
228.207	20383.54
228.28	20380.94
228.352	20386
228.425	20394.73
228.498	20401.95
228.57	20384.32
228.643	20394.63
228.716	20384.03
228.788	20363.69
228.861	20349.23
228.934	20362.1
229.006	20353.42
229.079	20346
229.151	20330.39
229.224	20309.23
229.296	20303.35
229.369	20322.44
229.442	20333.04
229.514	20334.34
229.587	20350.15
229.659	20315.93
229.732	20311.45
229.804	20316.03
229.877	20329.09
229.949	20322.97
230.022	20329.47
230.094	20330.73
230.167	20330.39
230.239	20322.73
230.312	20317.23
230.384	20325.52
230.457	20314.97
230.529	20311.02
230.602	20311.59
230.674	20324.03
230.747	20335.11
230.819	20343.21
230.892	20304.17
230.964	20295.79
231.037	20285.47
231.109	20270.49
231.181	20279.26
231.254	20260.03
231.326	20243.02
231.399	20222.2
231.471	20204.42
231.544	20178.82
231.616	20165.38
231.688	20147.6
231.761	20132.85
231.833	20125.04
231.905	20095.94
231.978	20083.65
232.05	20070.54
232.122	20054.39
232.195	20022.49
232.267	20018.25
232.339	20000.42
232.412	20010.15
232.484	19996.85
232.556	19982.35
232.629	19982.11
232.701	19967.31
232.773	19961.53
232.846	19943.17
232.918	19928.42
232.99	19912.28
233.062	19911.36
233.135	19908.52
233.207	19875.46
233.279	19867.94
233.351	19852.47
233.424	19840.09
233.496	19812.96
233.568	19817.63
233.64	19776.19
233.713	19753.35
233.785	19730.94
233.857	19706.02
233.929	19664.72
234.001	19644.97
234.074	19633.11
234.146	19591.86
234.218	19569.98
234.29	19537.98
234.362	19510.23
234.434	19467.87
234.507	19438.33
234.579	19385.56
234.651	19356.98
234.723	19341.75
234.795	19321.03
234.867	19301.66
234.939	19284.94
235.012	19262.63
235.084	19240.02
235.156	19236.94
235.228	19211.74
235.3	19182.63
235.372	19163.07
235.444	19154.58
235.516	19109.91
235.588	19083.17
235.66	19063.12
235.732	19029.39
235.804	19058.49
235.876	19040.37
235.948	19036.04
236.02	19017.44
236.092	18997.97
236.164	18970.74
236.236	18940.09
236.308	18909.68
236.38	18871.86
236.452	18838.41
236.524	18813.5
236.596	18792.58
236.668	18772.2
236.74	18740.97
236.812	18723.29
236.884	18709.55
236.956	18694.42
237.028	18660.74
237.1	18630.04
237.172	18621.61
237.244	18614.04
237.316	18549.99
237.388	18522.33
237.46	18489.42
237.532	18475.54
237.604	18441.66
237.675	18427.88
237.747	18414.1
237.819	18381.18
237.891	18364.27
237.963	18328.66
238.035	18297.04
238.107	18239.55
238.178	18225
238.25	18206.88
238.322	18195.41
238.394	18150.3
238.466	18100.57
238.538	18085.92
238.609	18064.62
238.681	18012.29
238.753	17977.78
238.825	17954.65
238.897	17927.37
238.968	17921.49
239.04	17875.57
239.112	17873.83
239.184	17830.12
239.255	17791.23
239.327	17770.36
239.399	17739.71
239.471	17724.1
239.542	17702.22
239.614	17685.79
239.686	17626.61
239.758	17611.67
239.829	17570.85
239.901	17555.81
239.973	17530.27
240.044	17504.92
240.116	17476.1
240.188	17448.1
240.259	17416.39
240.331	17376.34
240.403	17352.78
240.474	17300.15
240.546	17269.89
240.618	17223.33
240.689	17190.32
240.761	17170.27
240.833	17147.81
240.904	17117.16
240.976	17084.73
241.048	17054.75
241.119	17035.23
241.191	17021.74
241.262	17000.63
241.334	16961.01
241.405	16922.79
241.477	16894.55
241.549	16863.66
241.62	16837.92
241.692	16826.84
241.763	16807.13
241.835	16783.56
241.906	16752.23
241.978	16711.46
242.049	16701.53
242.121	16687.65
242.192	16669.38
242.264	16624.75
242.335	16583.93
242.407	16563.21
242.478	16525.23
242.55	16502.53
242.621	16458.67
242.693	16424.83
242.764	16389.41
242.836	16366.52
242.907	16344.3
242.979	16321.26
243.05	16290.36
243.122	16264.63
243.193	16219.71
243.264	16173.63
243.336	16140.18
243.407	16120.76
243.479	16110.01
243.55	16078.15
243.622	16041.57
243.693	16014.62
243.764	16009.42
243.836	15970.33
243.907	15937.07
243.978	15918.13
244.05	15894.85
244.121	15857.78
244.192	15839.85
244.264	15794.3
244.335	15766.83
244.407	15713.47
244.478	15679.25
244.549	15664.45
244.62	15626.61
244.692	15599.96
244.763	15577.5
244.834	15550.99
244.906	15514.06
244.977	15488.52
245.048	15474.93
245.119	15445.86
245.191	15411.64
245.262	15357.22
245.333	15350.18
245.405	15324.34
245.476	15301.35
245.547	15273.73
245.618	15253.82
245.689	15217.43
245.761	15199.65
245.832	15167.83
245.903	15163.98
245.974	15149.13
246.045	15110.71
246.117	15101.5
246.188	15062.22
246.259	15025.54
246.33	14995.22
246.401	14960.46
246.473	14918.67
246.544	14882.95
246.615	14859.52
246.686	14833.16
246.757	14823.42
246.828	14788.95
246.899	14773.14
246.97	14725.13
247.042	14694.52
247.113	14674.9
247.184	14670.27
247.255	14633.54
247.326	14610.64
247.397	14581.14
247.468	14555.64
247.539	14527.73
247.61	14479.58
247.681	14471.04
247.752	14461.5
247.823	14425.35
247.894	14407.51
247.965	14368.22
248.037	14334.14
248.108	14295.48
248.179	14268.97
248.25	14234.64
248.321	14210.35
248.392	14168.75
248.463	14174.1
248.534	14136.98
248.605	14116.01
248.675	14084.82
248.746	14064.62
248.817	14046.45
248.888	14018.1
248.959	13975.97
249.03	13958.86
249.101	13943.05
249.172	13911.95
249.243	13865.82
249.314	13857.67
249.385	13838.34
249.456	13823.69
249.527	13799.92
249.598	13784.11
249.669	13748.77
249.739	13731.37
249.81	13715.8
249.881	13687.02
249.952	13653.9
250.023	13641.9
250.094	13607.63
250.165	13576.77
250.235	13556.24
250.306	13535.56
250.377	13509.62
250.448	13494.87
250.519	13454.57
250.59	13441.84
250.66	13415.19
250.731	13407.86
250.802	13384.53
250.873	13371.46
250.944	13359.6
251.014	13332.27
251.085	13334.63
251.156	13328.94
251.227	13324.41
251.297	13314.82
251.368	13311.25
251.439	13300.84
251.51	13284.69
251.58	13258.61
251.651	13233.74
251.722	13226.7
251.792	13181.24
251.863	13156.08
251.934	13146.72
252.005	13158.44
252.075	13140.17
252.146	13134.24
252.217	13122.43
252.287	13105.12
252.358	13076.05
252.429	13070.8
252.499	13050.89
252.57	13032.52
252.641	13017.96
252.711	12995.07
252.782	12956.65
252.852	12949.8
252.923	12920.83
252.994	12900.68
253.064	12887.76
253.135	12851.99
253.205	12815.4
253.276	12815.11
253.347	12809.47
253.417	12778.67
253.488	12749.46
253.558	12719.14
253.629	12690.5
253.699	12674.45
253.77	12669.82
253.841	12647.22
253.911	12627.02
253.982	12611.01
254.052	12595.2
254.123	12574.57
254.193	12548.35
254.264	12568.16
254.334	12537.64
254.405	12510.94
254.475	12482.26
254.546	12466.4
254.616	12473.97
254.687	12464.47
254.757	12449.87
254.827	12428.32
254.898	12413.52
254.968	12390.24
255.039	12366.04
255.109	12358.62
255.18	12337.21
255.25	12287.42
255.321	12270.12
255.391	12240.57
255.461	12241.05
255.532	12194.97
255.602	12173.9
255.673	12138.28
255.743	12107.82
255.813	12060.77
255.884	12056.05
255.954	12044.19
256.024	12037.83
256.095	12010.64
256.165	11976.61
256.235	11965.43
256.306	11943.98
256.376	11940.41
256.446	11934.87
256.517	11930.96
256.587	11922.72
256.657	11905.32
256.728	11896.55
256.798	11885.56
256.868	11865.75
256.938	11834.76
257.009	11829.12
257.079	11818.03
257.149	11833.65
257.219	11797.11
257.29	11786.8
257.36	11750.94
257.43	11747.18
257.5	11713.92
257.571	11696.62
257.641	11697.73
257.711	11666.64
257.781	11652.32
257.852	11638.59
257.922	11596.13
257.992	11568.12
258.062	11546
258.132	11531.73
258.202	11513.61
258.273	11498.04
258.343	11496.79
258.413	11471.05
258.483	11452.11
258.553	11422.33
258.623	11392.64
258.693	11374.08
258.764	11378.03
258.834	11376.83
258.904	11355.57
258.974	11334.71
259.044	11314.85
259.114	11297.45
259.184	11278.13
259.254	11256.83
259.324	11216.05
259.394	11211.72
259.464	11215.62
259.535	11198.13
259.605	11183.14
259.675	11156.58
259.745	11144.68
259.815	11115.72
259.885	11096.97
259.955	11111.53
260.025	11089.55
260.095	11070.95
260.165	11064.64
260.235	11058.66
260.305	11034.13
260.375	11004.45
260.445	11002.18
260.515	11001.8
260.585	10997.99
260.655	10990.91
260.725	10990.57
260.795	10987.15
260.865	10988.98
260.934	10962.04
261.004	10953.61
261.074	10928.84
261.144	10928.26
261.214	10918.14
261.284	10895.3
261.354	10892.12
261.424	10863.83
261.494	10865.85
261.564	10850.72
261.634	10844.31
261.703	10814.97
261.773	10802.78
261.843	10798.78
261.913	10783.36
261.983	10749.48
262.053	10734.93
262.123	10721.87
