Data from 20250625_urea_1M_1_MAYP1162681_12-25-05-763.txt Node
Date: Thu Jun 26 12:25:05 BST 2025
User: adleo
Spectrometer: MAYP116268
Trigger mode: 0
Integration Time (sec): 1.000000E0
Scans to average: 1
Electric dark correction enabled: true
Nonlinearity correction enabled: true
Boxcar width: 10
XAxis mode: Wavelengths
Number of Pixels in Spectrum: 2068
>>>>>Begin Spectral Data<<<<<
179.565	1133.82
179.642	1185.87
179.718	1226.92
179.795	1264.31
179.871	1291.8
179.948	1307.24
180.024	1328.5
180.101	1348.23
180.177	1360.1
180.254	1379.32
180.33	1402.41
180.407	1448.59
180.483	1539.57
180.56	1623.86
180.636	1704.8
180.712	1689.68
180.789	1695.91
180.865	1709.59
180.942	1720.85
181.018	1731.92
181.095	1742.81
181.171	1751.26
181.248	1753.4
181.324	1767.47
181.4	1773.32
181.477	1788.81
181.553	1800.83
181.63	1819.85
181.706	1835.44
181.782	1847.65
181.859	1849.83
181.935	1854.3
182.011	1855.25
182.088	1870.37
182.164	1888.92
182.24	1898.47
182.317	1908.45
182.393	1905.74
182.469	1917.15
182.546	1928.32
182.622	1932.31
182.698	1931.41
182.775	1941.01
182.851	1953.95
182.927	1946.48
183.003	1943.63
183.08	1935.5
183.156	1946.1
183.232	1944.2
183.308	1933.46
183.385	1936.45
183.461	1954.38
183.537	1956.56
183.613	1965.5
183.69	1955.42
183.766	1943.82
183.842	1951.52
183.918	1958.79
183.995	1972.2
184.071	1977.1
184.147	1972.2
184.223	1960.51
184.299	1971.73
184.375	1960.51
184.452	1964.79
184.528	2018.3
184.604	2029.19
184.68	2039.27
184.756	2046.64
184.832	2048.21
184.908	2053.44
184.985	2056.39
185.061	2038.08
185.137	2043.55
185.213	2035.09
185.289	2036.61
185.365	2030.38
185.441	2028.53
185.517	2040.52
185.593	2037.62
185.669	2033.62
185.745	2042.42
185.822	2059.82
185.898	2052.44
185.974	2059.29
186.05	2052.53
186.126	2016.76
186.202	2006.88
186.278	2002.98
186.354	1992.85
186.43	2000.89
186.506	1999.7
186.582	1999.41
186.658	2006.49
186.734	1987.67
186.81	1987.62
186.886	1992.04
186.962	2003.59
187.038	2000.79
187.114	1993.7
187.19	1999.88
187.266	1992.32
187.341	1991.7
187.417	1983.48
187.493	1981.1
187.569	1986.57
187.645	1983.19
187.721	1970.83
187.797	1981.1
187.873	1984.9
187.949	1978.58
188.025	1972.3
188.101	1976.91
188.176	1978.48
188.252	1976.82
188.328	1987.99
188.404	1989.65
188.48	1983.56
188.556	1974.43
188.632	1975.15
188.707	1972.63
188.783	1973.77
188.859	1967.78
188.935	1959.41
189.011	1965.5
189.086	1961.41
189.162	1955.56
189.238	1953.28
189.314	1949.09
189.39	1942.77
189.465	1938.54
189.541	1955.56
189.617	1941.2
189.693	1934.55
189.768	1938.97
189.844	1959.57
189.92	1945.83
189.996	1954.34
190.071	1964.28
190.147	1967.13
190.223	1976.5
190.298	1972.22
190.374	1960.38
190.45	1974.45
190.526	1984.48
190.601	1981.58
190.677	1982.39
190.753	2009.42
190.828	2012.84
190.904	2027.63
190.98	2041.9
191.055	2049.56
191.131	2040.71
191.207	2059.45
191.282	2070.76
191.358	2062.44
191.433	2051.78
191.509	2066.52
191.585	2062.28
191.66	2063.9
191.736	2071.32
191.811	2061.52
191.887	2073.84
191.963	2093.15
192.038	2097.53
192.114	2096.2
192.189	2097.86
192.265	2094.34
192.34	2068.41
192.416	2066.65
192.491	2062.13
192.567	2065.18
192.642	2068.41
192.718	2068.79
192.793	2057.9
192.869	2052.24
192.944	2054.71
193.02	2059.99
193.095	2063.42
193.171	2070.08
193.246	2068.03
193.322	2065.7
193.397	2066.03
193.473	2056.57
193.548	2037.64
193.624	2044.06
193.699	2040.49
193.775	2057.86
193.85	2059.95
193.925	2069.32
194.001	2065.8
194.076	2059.38
194.152	2047.25
194.227	2039.78
194.302	2032.7
194.378	2034.98
194.453	2033.6
194.529	2045.35
194.604	2030.46
194.679	2026.52
194.755	2008.54
194.83	2024.67
194.905	2023.44
194.981	2030.67
195.056	2021.92
195.131	2031.9
195.207	2027.38
195.282	2019.78
195.357	2001.08
195.433	2015.2
195.508	2004.88
195.583	2016.68
195.659	2030.09
195.734	2036.56
195.809	2037.46
195.884	2045.21
195.96	2045.21
196.035	2058.67
196.11	2054.06
196.185	2068.51
196.261	2070.37
196.336	2101.52
196.411	2084.3
196.486	2089.43
196.561	2084.2
196.637	2094.38
196.712	2107.37
196.787	2112.98
196.862	2129.15
196.937	2137.81
197.013	2145.76
197.088	2155.89
197.163	2174.88
197.238	2189.16
197.313	2191.87
197.388	2203.86
197.464	2232.13
197.539	2243.74
197.614	2235.51
197.689	2249.4
197.764	2260.44
197.839	2278.43
197.914	2273.38
197.989	2296.03
198.065	2309.26
198.14	2356.93
198.215	2376.68
198.29	2387.2
198.365	2399.1
198.44	2409.48
198.515	2437.19
198.59	2446.28
198.665	2470.51
198.74	2477.61
198.815	2481.08
198.89	2500.6
198.965	2528.8
199.04	2523.66
199.115	2540.89
199.19	2583.27
199.265	2584.03
199.34	2595.27
199.415	2629.1
199.49	2647.48
199.565	2654.19
199.64	2676.96
199.715	2676.39
199.79	2686.87
199.865	2693.11
199.94	2690.68
200.015	2721.27
200.09	2725.23
200.165	2733.8
200.24	2742
200.315	2776.95
200.39	2795.72
200.464	2802.82
200.539	2806.54
200.614	2821.17
200.689	2843.95
200.764	2849.95
200.839	2865.67
200.914	2869.1
200.989	2861.19
201.063	2875.72
201.138	2861.68
201.213	2864.39
201.288	2844.76
201.363	2850.14
201.438	2851.34
201.512	2865.82
201.587	2845.13
201.662	2850.18
201.737	2862.81
201.812	2870.3
201.886	2838.01
201.961	2844.93
202.036	2834.69
202.111	2829.01
202.186	2803.2
202.26	2780.9
202.335	2762.79
202.41	2755.59
202.485	2741.49
202.559	2720.15
202.634	2692.66
202.709	2701.09
202.784	2679.46
202.858	2682.22
202.933	2663.88
203.008	2657.5
203.082	2638.54
203.157	2641.3
203.232	2599.45
203.306	2578.25
203.381	2547.85
203.456	2529.38
203.53	2504.21
203.605	2485.03
203.68	2463.69
203.754	2458.5
203.829	2450.02
203.904	2428.93
203.978	2420.74
204.053	2427.22
204.127	2415.51
204.202	2415.46
204.277	2400.18
204.351	2394.42
204.426	2387.56
204.5	2379.42
204.575	2344.92
204.65	2358.88
204.724	2347.92
204.799	2359.2
204.873	2355.58
204.948	2350.87
205.022	2341.64
205.097	2334.68
205.171	2349.72
205.246	2359.58
205.32	2361.15
205.395	2358.24
205.469	2350.35
205.544	2354.97
205.618	2333.59
205.693	2346.54
205.767	2334.45
205.842	2354.69
205.916	2349.4
205.991	2337.6
206.065	2343.12
206.14	2361.05
206.214	2354.24
206.289	2351.15
206.363	2357.33
206.438	2360.62
206.512	2370.09
206.586	2387.03
206.661	2396.23
206.735	2373.05
206.81	2368.96
206.884	2382.62
206.958	2370.06
207.033	2384
207.107	2390.43
207.181	2423.42
207.256	2415.66
207.33	2434.85
207.405	2446.9
207.479	2461.28
207.553	2470.37
207.628	2455.05
207.702	2465.62
207.776	2460.28
207.851	2461.28
207.925	2478.86
207.999	2476.43
208.073	2472.57
208.148	2475.76
208.222	2463.71
208.296	2493.51
208.371	2510.85
208.445	2517.71
208.519	2546.27
208.593	2562.41
208.668	2561.22
208.742	2562.22
208.816	2567.08
208.89	2580.61
208.965	2577.89
209.039	2588.47
209.113	2602.47
209.187	2626.6
209.261	2625.89
209.336	2645.65
209.41	2665.71
209.484	2665.95
209.558	2691.25
209.632	2712.01
209.707	2727.17
209.781	2750.32
209.855	2769.95
209.929	2792.18
210.003	2802.99
210.077	2803.9
210.151	2851.03
210.226	2891.03
210.3	2924.14
210.374	2950.49
210.448	2959.78
210.522	2976.23
210.596	2994.54
210.67	3015.8
210.744	3065.69
210.818	3102.82
210.892	3130.43
210.966	3139.2
211.041	3168.91
211.115	3175.97
211.189	3211.89
211.263	3242.33
211.337	3262.4
211.411	3293.04
211.485	3305.59
211.559	3336.98
211.633	3364.3
211.707	3355.71
211.781	3379.69
211.855	3371.14
211.929	3393.23
212.003	3406.49
212.077	3445.79
212.151	3491.39
212.225	3533.27
212.299	3556.44
212.373	3582.17
212.447	3618.72
212.52	3684.77
212.594	3728.2
212.668	3780.98
212.742	3807.83
212.816	3845.34
212.89	3889.19
212.964	3933.41
213.038	3981.5
213.112	4043.94
213.186	4106.69
213.26	4143
213.333	4157.82
213.407	4218.13
213.481	4278.22
213.555	4348.53
213.629	4399.63
213.703	4443.18
213.777	4502
213.85	4547.79
213.924	4651.12
213.998	4718.2
214.072	4784.35
214.146	4845.88
214.219	4921.94
214.293	4991.42
214.367	5072.37
214.441	5160.57
214.515	5224.34
214.588	5279.78
214.662	5325.92
214.736	5388.4
214.81	5474.68
214.883	5573.3
214.957	5648.54
215.031	5719.1
215.105	5780.83
215.178	5857.05
215.252	5935.76
215.326	6002.87
215.4	6076.11
215.473	6115.48
215.547	6185.03
215.621	6256.38
215.694	6345.01
215.768	6403.72
215.842	6482.6
215.915	6552.62
215.989	6613.71
216.063	6694.79
216.136	6787.38
216.21	6885.46
216.284	6990.88
216.357	7081.73
216.431	7162.51
216.504	7256.7
216.578	7367.24
216.652	7471.95
216.725	7558.54
216.799	7661.73
216.873	7752.07
216.946	7855.88
217.02	7944.74
217.093	8032.42
217.167	8103.71
217.24	8180.35
217.314	8272.12
217.387	8351.25
217.461	8438.82
217.535	8540.69
217.608	8620.18
217.682	8705.03
217.755	8794.89
217.829	8875.19
217.902	8967.99
217.976	9054.31
218.049	9130.66
218.123	9206.44
218.196	9294.12
218.27	9381.13
218.343	9449.08
218.417	9536.49
218.49	9616.67
218.563	9711.31
218.637	9799.06
218.71	9902.09
218.784	9997.18
218.857	10086.82
218.931	10183.39
219.004	10266.74
219.077	10349.99
219.151	10441.57
219.224	10523.91
219.298	10607.16
219.371	10698.52
219.444	10765.69
219.518	10851.08
219.591	10940.22
219.665	11049.81
219.738	11137.13
219.811	11201.07
219.885	11288.93
219.958	11374.71
220.031	11442.91
220.105	11523.87
220.178	11606.97
220.251	11674.54
220.325	11749.39
220.398	11831.52
220.471	11909.41
220.544	11995.11
220.618	12062.5
220.691	12142.27
220.764	12215.73
220.838	12290.78
220.911	12353.88
220.984	12441.41
221.057	12517.05
221.131	12593.11
221.204	12629.51
221.277	12713.29
221.35	12823.72
221.424	12888.7
221.497	12955.81
221.57	13032.84
221.643	13107.65
221.716	13180.35
221.79	13243.6
221.863	13303.66
221.936	13361.51
222.009	13425.19
222.082	13492.63
222.155	13558.58
222.229	13624.47
222.302	13690.95
222.375	13755.02
222.448	13826.89
222.521	13889.8
222.594	13948.52
222.667	14000.39
222.74	14074.38
222.814	14125.77
222.887	14166.26
222.96	14229.6
223.033	14301.62
223.106	14361.35
223.179	14416.88
223.252	14466.1
223.325	14522.35
223.398	14578.61
223.471	14638.96
223.544	14689.53
223.617	14737.35
223.69	14791.82
223.763	14833.32
223.837	14893.34
223.91	14944.48
223.983	14972.73
224.056	15002.61
224.129	15049.81
224.202	15099.84
224.275	15131.9
224.348	15158.12
224.42	15198.56
224.493	15226.66
224.566	15255.2
224.639	15299.83
224.712	15333.33
224.785	15370.79
224.858	15411.03
224.931	15448.44
225.004	15476.15
225.077	15518.28
225.15	15529.13
225.223	15557.95
225.296	15615.5
225.369	15638.45
225.442	15661.29
225.514	15699.23
225.587	15745.36
225.66	15786.08
225.733	15827.39
225.806	15872.07
225.879	15912.8
225.952	15925.43
226.025	15979.85
226.097	16026.5
226.17	16051.95
226.243	16066.17
226.316	16102.7
226.389	16134.37
226.461	16169.75
226.534	16208.31
226.607	16237.66
226.68	16297.42
226.753	16332.37
226.825	16350.2
226.898	16387.46
226.971	16412.13
227.044	16438.45
227.117	16470.98
227.189	16504.48
227.262	16541.4
227.335	16567.47
227.407	16590.12
227.48	16622.03
227.553	16642.66
227.626	16661.6
227.698	16688.93
227.771	16725.51
227.844	16738.86
227.916	16767.39
227.989	16783.63
228.062	16804.16
228.134	16848.12
228.207	16864.16
228.28	16879.49
228.352	16889.27
228.425	16912.79
228.498	16948.89
228.57	16967.69
228.643	17000.56
228.716	17020.89
228.788	17026.34
228.861	17047.5
228.934	17069.04
229.006	17106.97
229.079	17123.26
229.151	17134.29
229.224	17134.58
229.296	17155.64
229.369	17198.97
229.442	17233.09
229.514	17239.16
229.587	17273.86
229.659	17271.89
229.732	17293.43
229.804	17328.42
229.877	17374.44
229.949	17401.53
230.022	17438.92
230.094	17456.37
230.167	17464.03
230.239	17464.9
230.312	17486.63
230.384	17517.33
230.457	17544.13
230.529	17553.19
230.602	17572.42
230.674	17591.69
230.747	17637.86
230.819	17658.1
230.892	17636.51
230.964	17650.58
231.037	17675.07
231.109	17679.69
231.181	17706.2
231.254	17710.54
231.326	17717.72
231.399	17716.37
231.471	17716.42
231.544	17700.9
231.616	17725.81
231.688	17738.39
231.761	17741.48
231.833	17746.92
231.905	17731.93
231.978	17739.79
232.05	17749.57
232.122	17761.38
232.195	17757.91
232.267	17760.99
232.339	17762.54
232.412	17788.46
232.484	17784.17
232.556	17774.1
232.629	17800.99
232.701	17791.59
232.773	17791.74
232.846	17787.88
232.918	17795.98
232.99	17804.99
233.062	17815.93
233.135	17815.83
233.207	17804.22
233.279	17815.74
233.351	17810.44
233.424	17811.26
233.496	17803.45
233.568	17811.55
233.64	17789.76
233.713	17796.75
233.785	17785.52
233.857	17789.57
233.929	17764.12
234.001	17775.84
234.074	17799.3
234.146	17768.9
234.218	17772.41
234.29	17769.57
234.362	17753.81
234.434	17732.56
234.507	17706.44
234.579	17683.02
234.651	17675.16
234.723	17685.76
234.795	17685.76
234.867	17687.98
234.939	17696.8
235.012	17690.39
235.084	17689.33
235.156	17697.62
235.228	17682.78
235.3	17674.2
235.372	17662.34
235.444	17680.13
235.516	17644.22
235.588	17630.73
235.66	17626.49
235.732	17609.43
235.804	17644.56
235.876	17647.89
235.948	17655.89
236.02	17648.37
236.092	17641.57
236.164	17624.71
236.236	17598.01
236.308	17580.51
236.38	17568.22
236.452	17544.47
236.524	17527.6
236.596	17523.69
236.668	17514.92
236.74	17501.04
236.812	17495.26
236.884	17491.02
236.956	17468.66
237.028	17452.37
237.1	17427.16
237.172	17424.85
237.244	17425.91
237.316	17380.85
237.388	17363.12
237.46	17332.23
237.532	17333.43
237.604	17314.54
237.675	17322.49
237.747	17319.89
237.819	17293.48
237.891	17276.71
237.963	17251.84
238.035	17230.01
238.107	17175.21
238.178	17167.6
238.25	17146.78
238.322	17147.45
238.394	17114.34
238.466	17090.39
238.538	17074.77
238.609	17058.39
238.681	17020.99
238.753	16990.63
238.825	16969.28
238.897	16955.73
238.968	16959.73
239.04	16932.65
239.112	16943.73
239.184	16904.12
239.255	16883.68
239.327	16871.35
239.399	16854.04
239.471	16843.97
239.542	16834.62
239.614	16833.32
239.686	16786.18
239.758	16774.67
239.829	16738.42
239.901	16726.33
239.973	16704.59
240.044	16699.14
240.116	16681.89
240.188	16658.22
240.259	16639.67
240.331	16618.56
240.403	16596.1
240.474	16551.81
240.546	16519.37
240.618	16474.5
240.689	16455.51
240.761	16432.91
240.833	16421.63
240.904	16388.37
240.976	16358.35
241.048	16335.45
241.119	16318.97
241.191	16301.91
241.262	16302.53
241.334	16281.71
241.405	16254.05
241.477	16231.64
241.549	16198.57
241.62	16178.47
241.692	16166.76
241.763	16149.84
241.835	16128.11
241.906	16109.94
241.978	16076.97
242.049	16065.01
242.121	16052.87
242.192	16038.55
242.264	16003.37
242.335	15964.62
242.407	15955.17
242.478	15933.72
242.55	15916.13
242.621	15885.67
242.693	15857.52
242.764	15819.49
242.836	15797.61
242.907	15782.71
242.979	15770.28
243.05	15755.43
243.122	15740.15
243.193	15708.58
243.264	15664.77
243.336	15627.94
243.407	15608.85
243.479	15605.53
243.55	15587.64
243.622	15552.65
243.693	15518.33
243.764	15505.7
243.836	15471.91
243.907	15438.03
243.978	15410.46
244.05	15388.04
244.121	15342.78
244.192	15330.54
244.264	15289.28
244.335	15265.42
244.407	15221.55
244.478	15191.57
244.549	15155.47
244.62	15112.18
244.692	15087.21
244.763	15072.9
244.834	15049.47
244.906	15011.97
244.977	14991.53
245.048	14981.79
245.119	14955.52
245.191	14927.13
245.262	14878.44
245.333	14874.97
245.405	14851.45
245.476	14834.24
245.547	14806.91
245.618	14794.42
245.689	14772.73
245.761	14753.98
245.832	14714.31
245.903	14705.54
245.974	14685.87
246.045	14657.04
246.117	14646.92
246.188	14608.64
246.259	14573.36
246.33	14550.12
246.401	14526.84
246.473	14486.4
246.544	14451.59
246.615	14438
246.686	14406.04
246.757	14395.87
246.828	14349.16
246.899	14343.32
246.97	14300.28
247.042	14267.35
247.113	14248.84
247.184	14242.53
247.255	14212.78
247.326	14195.43
247.397	14168.82
247.468	14147.95
247.539	14126.16
247.61	14086.39
247.681	14071.83
247.752	14064.5
247.823	14025.41
247.894	14005.74
247.965	13964.76
248.037	13935.41
248.108	13891.87
248.179	13873.12
248.25	13850.56
248.321	13845.36
248.392	13801.78
248.463	13798.4
248.534	13773.77
248.605	13758.92
248.675	13719.34
248.746	13697.94
248.817	13675.81
248.888	13646.89
248.959	13602.78
249.03	13588.75
249.101	13562.19
249.172	13539.53
249.243	13495.09
249.314	13493.83
249.385	13468.57
249.456	13464.04
249.527	13432.8
249.598	13416.8
249.669	13393.42
249.739	13373.37
249.81	13353.55
249.881	13323.86
249.952	13304.19
250.023	13286.79
250.094	13251.74
250.165	13224.79
250.235	13198.47
250.306	13176.88
250.377	13143.85
250.448	13131.61
250.519	13090.88
250.59	13093.24
250.66	13062.34
250.731	13050.62
250.802	13023.92
250.873	13001.74
250.944	12971.81
251.014	12948.96
251.085	12956.04
251.156	12940.71
251.227	12936.09
251.297	12918.68
251.368	12909.33
251.439	12892.65
251.51	12875.39
251.58	12845.12
251.651	12823.19
251.722	12820.58
251.792	12791.47
251.863	12775.75
251.934	12765.68
252.005	12776.81
252.075	12753.96
252.146	12753.34
252.217	12744.81
252.287	12738.59
252.358	12720.46
252.429	12722.87
252.499	12698.34
252.57	12681.18
252.641	12667.82
252.711	12642.9
252.782	12611.28
252.852	12604.82
252.923	12583.46
252.994	12570.35
253.064	12559.02
253.135	12531.45
253.205	12500.89
253.276	12497.27
253.347	12493.51
253.417	12469.41
253.488	12437.55
253.558	12415.42
253.629	12386.21
253.699	12370.64
253.77	12355.46
253.841	12332.18
253.911	12314.05
253.982	12301.33
254.052	12276.16
254.123	12257.36
254.193	12238.85
254.264	12256.16
254.334	12223.24
254.405	12187.57
254.475	12164.67
254.546	12146.11
254.616	12134.01
254.687	12121.91
254.757	12110.44
254.827	12088.85
254.898	12069.28
254.968	12053.18
255.039	12022.23
255.109	12009.85
255.18	11981.41
255.25	11943.86
255.321	11928.97
255.391	11896.38
255.461	11894.26
255.532	11857.19
255.602	11837.87
255.673	11803.84
255.743	11781.47
255.813	11746.77
255.884	11747.15
255.954	11724.11
256.024	11725.46
256.095	11710.91
256.165	11681.17
256.235	11660.49
256.306	11634.32
256.376	11630.99
256.446	11625.84
256.517	11614.37
256.587	11615.62
256.657	11600.15
256.728	11577.98
256.798	11562.51
256.868	11545.35
256.938	11517.15
257.009	11510.5
257.079	11500.14
257.149	11503.51
257.219	11461.68
257.29	11451.85
257.36	11418.26
257.43	11418.59
257.5	11382.4
257.571	11366.83
257.641	11358.78
257.711	11325.33
257.781	11320.03
257.852	11304.71
257.922	11261.38
257.992	11250.68
258.062	11225.62
258.132	11220.9
258.202	11208.56
258.273	11200.9
258.343	11203.11
258.413	11186.58
258.483	11166.49
258.553	11138.58
258.623	11114.05
258.693	11101.33
258.764	11098.63
258.834	11095.45
258.904	11079.26
258.974	11053
259.044	11031.31
259.114	11017.05
259.184	11012.28
259.254	10987.41
259.324	10947.85
259.394	10940.14
259.464	10936.96
259.535	10916.43
259.605	10892.77
259.675	10871.03
259.745	10856.05
259.815	10828.05
259.885	10804.15
259.955	10816.15
260.025	10794.32
260.095	10779.82
260.165	10764.16
260.235	10768.59
260.305	10742.57
260.375	10711.73
260.445	10720.02
260.515	10716.69
260.585	10715.39
260.655	10699.83
260.725	10696.65
260.795	10696.65
260.865	10703.59
260.934	10673.33
261.004	10667.69
261.074	10654.39
261.144	10653.71
261.214	10648.27
261.284	10627.5
261.354	10626.49
261.424	10606.83
261.494	10609.05
261.564	10584.42
261.634	10581.92
261.703	10545.4
261.773	10536.53
261.843	10529.98
261.913	10513.5
261.983	10490.76
262.053	10477.7
262.123	10463.3
262.192	10435.02
262.262	10428.41
262.332	10393.05
