Data from 20250625_referen-h2O_MAYP1162681_18-42-05-912.txt Node
Date: Wed Jun 25 18:42:05 BST 2025
User: adleo
Spectrometer: MAYP116268
Trigger mode: 0
Integration Time (sec): 1.000000E0
Scans to average: 1
Electric dark correction enabled: true
Nonlinearity correction enabled: true
Boxcar width: 10
XAxis mode: Wavelengths
Number of Pixels in Spectrum: 2068
>>>>>Begin Spectral Data<<<<<
179.565	1130.53
179.642	1183.36
179.718	1222.78
179.795	1261.33
179.871	1289.76
179.948	1306.22
180.024	1324.96
180.101	1346.62
180.177	1357.43
180.254	1378.34
180.33	1398.58
180.407	1447.38
180.483	1536.22
180.56	1622.69
180.636	1703.02
180.712	1692.08
180.789	1699.97
180.865	1712.75
180.942	1719.59
181.018	1728.29
181.095	1744.3
181.171	1746.54
181.248	1746.35
181.324	1763.32
181.4	1768.02
181.477	1780.29
181.553	1791.59
181.63	1811.7
181.706	1826.01
181.782	1837.98
181.859	1838.5
181.935	1843.82
182.011	1837.93
182.088	1856.33
182.164	1872.4
182.24	1886.42
182.317	1896.16
182.393	1894.6
182.469	1907.76
182.546	1921.84
182.622	1925.59
182.698	1919.84
182.775	1934.72
182.851	1948.41
182.927	1938.66
183.003	1936.1
183.08	1931.63
183.156	1941.61
183.232	1937.85
183.308	1928.15
183.385	1934.57
183.461	1950.55
183.537	1952.45
183.613	1968.28
183.69	1956.82
183.766	1945.6
183.842	1951.16
183.918	1958.01
183.995	1969.61
184.071	1973.37
184.147	1967.95
184.223	1960.63
184.299	1973.18
184.375	1962.58
184.452	1971.47
184.528	2026.65
184.604	2035.49
184.68	2048
184.756	2057.04
184.832	2062.93
184.908	2068.07
184.985	2068.45
185.061	2054.66
185.137	2063.36
185.213	2053.42
185.289	2058.7
185.365	2054.52
185.441	2053.9
185.517	2065.08
185.593	2062.7
185.669	2060.8
185.745	2072.07
185.822	2089.71
185.898	2083.71
185.974	2096.27
186.05	2091.79
186.126	2059.73
186.202	2057.12
186.278	2057.17
186.354	2052.41
186.43	2066.78
186.506	2070.68
186.582	2075.86
186.658	2091.84
186.734	2085.32
186.81	2098.73
186.886	2110.01
186.962	2134.69
187.038	2143.64
187.114	2149.4
187.19	2169.38
187.266	2173.19
187.341	2189.27
187.417	2196.08
187.493	2213.25
187.569	2232.67
187.645	2244.52
187.721	2250.66
187.797	2282.64
187.873	2308.78
187.949	2329.43
188.025	2346.43
188.101	2380.42
188.176	2415.65
188.252	2444.26
188.328	2484.3
188.404	2518.02
188.48	2554.26
188.556	2585.52
188.632	2626.58
188.707	2674.63
188.783	2720.1
188.859	2761.4
188.935	2799
189.011	2853.76
189.086	2891.89
189.162	2931.5
189.238	2977.59
189.314	3022.54
189.39	3063.41
189.465	3099.17
189.541	3163.14
189.617	3195.42
189.693	3233.34
189.768	3284.59
189.844	3352.99
189.92	3395.6
189.996	3459.24
190.071	3522.42
190.147	3580.2
190.223	3646.17
190.298	3695.77
190.374	3749.63
190.45	3834.49
190.526	3917.15
190.601	3994.79
190.677	4082.66
190.753	4191.16
190.828	4278.86
190.904	4375.97
190.98	4479.03
191.055	4579.97
191.131	4656.88
191.207	4763.91
191.282	4860.27
191.358	4932.44
191.433	4998.56
191.509	5084.7
191.585	5150.73
191.66	5220.85
191.736	5297.48
191.811	5358.75
191.887	5440.93
191.963	5529.98
192.038	5598.68
192.114	5663.31
192.189	5729.15
192.265	5795.38
192.34	5849.8
192.416	5918.25
192.491	5999.51
192.567	6086.27
192.642	6173.93
192.718	6267.21
192.793	6353.26
192.869	6447.69
192.944	6551.63
193.02	6662.96
193.095	6772.83
193.171	6888.44
193.246	6993.74
193.322	7095.72
193.397	7202.22
193.473	7300.35
193.548	7381.03
193.624	7481.43
193.699	7572.46
193.775	7674.13
193.85	7762.62
193.925	7850.27
194.001	7933.15
194.076	7992.92
194.152	8047.61
194.227	8110.19
194.302	8167.53
194.378	8237.91
194.453	8301.32
194.529	8386.58
194.604	8443.85
194.679	8514.21
194.755	8571
194.83	8668.04
194.905	8748.72
194.981	8844.56
195.056	8915.81
195.131	9010.41
195.207	9100.78
195.282	9185.86
195.357	9264.3
195.433	9374.62
195.508	9457.73
195.583	9564.2
195.659	9680.41
195.734	9779.38
195.809	9873.15
195.884	9974.19
195.96	10065.85
196.035	10172.59
196.11	10258.15
196.185	10353.39
196.261	10435.38
196.336	10548.55
196.411	10611.62
196.486	10693.67
196.561	10758.1
196.637	10836.73
196.712	10919.47
196.787	10992.91
196.862	11081.67
196.937	11163.26
197.013	11232.75
197.088	11313.57
197.163	11397.05
197.238	11479.85
197.313	11559.71
197.388	11646.95
197.464	11750.05
197.539	11834.1
197.614	11902.55
197.689	11979.62
197.764	12073.71
197.839	12177.44
197.914	12242.61
197.989	12339.54
198.065	12423.18
198.14	12546.48
198.215	12655.95
198.29	12750.29
198.365	12838.7
198.44	12920.45
198.515	13016.77
198.59	13111.97
198.665	13204.77
198.74	13289.9
198.815	13371.13
198.89	13465.75
198.965	13569.69
199.04	13635.25
199.115	13731.23
199.19	13843.83
199.265	13922.94
199.34	14001.03
199.415	14106.99
199.49	14195.78
199.565	14271.08
199.64	14369.18
199.715	14440.23
199.79	14512.4
199.865	14584.27
199.94	14657.78
200.015	14756.99
200.09	14834.45
200.165	14906.47
200.24	14987.01
200.315	15089.44
200.39	15177.65
200.464	15254.3
200.539	15325.01
200.614	15413.8
200.689	15496.99
200.764	15570.79
200.839	15655.04
200.914	15737.47
200.989	15794.05
201.063	15879.61
201.138	15935.86
201.213	16003.05
201.288	16052.74
201.363	16128.7
201.438	16196.71
201.512	16275.76
201.587	16330.27
201.662	16407.53
201.737	16489.32
201.812	16571.49
201.886	16620.36
201.961	16694.34
202.036	16756.71
202.111	16824.85
202.186	16867.36
202.26	16922.74
202.335	16980.48
202.41	17044.33
202.485	17090.79
202.559	17131.71
202.634	17174.6
202.709	17249.59
202.784	17300.82
202.858	17369.26
202.933	17425.55
203.008	17494.17
203.082	17542.13
203.157	17615.52
203.232	17644.58
203.306	17698.9
203.381	17736.39
203.456	17780
203.53	17825.06
203.605	17876.87
203.68	17921.73
203.754	17984.77
203.829	18039.66
203.904	18079.99
203.978	18137.29
204.053	18215.79
204.127	18271.07
204.202	18335.98
204.277	18385.81
204.351	18451.3
204.426	18522.28
204.5	18583.97
204.575	18624.83
204.65	18712.06
204.724	18768.87
204.799	18845.49
204.873	18910.41
204.948	18981.44
205.022	19045.68
205.097	19109.91
205.171	19181.72
205.246	19265.37
205.32	19334.33
205.395	19399.2
205.469	19467.63
205.544	19551.29
205.618	19605.07
205.693	19691.42
205.767	19744.14
205.842	19832.91
205.916	19903.27
205.991	19950.5
206.065	20033.87
206.14	20116.95
206.214	20185.96
206.289	20250.83
206.363	20330.11
206.438	20394.88
206.512	20470.21
206.586	20560.23
206.661	20639.75
206.735	20689.49
206.81	20760.24
206.884	20841.64
206.958	20905.36
207.033	20990.85
207.107	21064.79
207.181	21155.74
207.256	21225.19
207.33	21328.86
207.405	21423.72
207.479	21508.17
207.553	21587.99
207.628	21631.61
207.702	21714.71
207.776	21767.44
207.851	21843.17
207.925	21916.92
207.999	21996.6
208.073	22066.35
208.148	22135.33
208.222	22187.35
208.296	22297.11
208.371	22387.18
208.445	22472.89
208.519	22563.14
208.593	22641.82
208.668	22710.38
208.742	22787.09
208.816	22848.61
208.89	22924.02
208.965	22977.59
209.039	23052.33
209.113	23131.7
209.187	23218.24
209.261	23281.55
209.336	23381.32
209.41	23463.21
209.484	23554.3
209.558	23634.79
209.632	23708.1
209.707	23775.9
209.781	23865.41
209.855	23934.77
209.929	24005.97
210.003	24073.06
210.077	24152.17
210.151	24263.47
210.226	24358.21
210.3	24446.12
210.374	24542.2
210.448	24605.83
210.522	24682.39
210.596	24753.89
210.67	24835.14
210.744	24944.18
210.818	25036.43
210.892	25114.94
210.966	25175.78
211.041	25249.81
211.115	25305.54
211.189	25398.54
211.263	25491.96
211.337	25553.15
211.411	25631.44
211.485	25690.95
211.559	25767.25
211.633	25811.8
211.707	25845.98
211.781	25914.63
211.855	25954.21
211.929	25999.54
212.003	26047.17
212.077	26112.83
212.151	26173.46
212.225	26236.94
212.299	26284.6
212.373	26328.15
212.447	26367.65
212.52	26443.45
212.594	26499.22
212.668	26574.64
212.742	26610.04
212.816	26636.55
212.89	26698.26
212.964	26749.6
213.038	26799.58
213.112	26863.92
213.186	26941.42
213.26	26960.5
213.333	26954.46
213.407	27000.39
213.481	27050.08
213.555	27099.91
213.629	27141.79
213.703	27186.28
213.777	27240.91
213.85	27259.56
213.924	27336.23
213.998	27388.79
214.072	27433.38
214.146	27455.7
214.219	27483.72
214.293	27520.77
214.367	27581.98
214.441	27630.73
214.515	27669.87
214.588	27690.94
214.662	27695.09
214.736	27713.74
214.81	27770.31
214.883	27823.84
214.957	27849.15
215.031	27875.19
215.105	27889.83
215.178	27919.26
215.252	27946.95
215.326	27948.01
215.4	27972.22
215.473	27955.25
215.547	27958.88
215.621	27969.95
215.694	28007.5
215.768	28021.46
215.842	28035.76
215.915	28043.93
215.989	28044.27
216.063	28054.23
216.136	28072.83
216.21	28089.07
216.284	28106.03
216.357	28110.96
216.431	28129.86
216.504	28156.63
216.578	28210.67
216.652	28243.82
216.725	28253.68
216.799	28266.77
216.873	28281.27
216.946	28293.31
217.02	28305.92
217.093	28327.96
217.167	28323.03
217.24	28317.13
217.314	28313.7
217.387	28316.79
217.461	28322.54
217.535	28332.45
217.608	28333.8
217.682	28342.99
217.755	28353.91
217.829	28361.55
217.902	28371.5
217.976	28371.07
218.049	28354.44
218.123	28337.76
218.196	28357.19
218.27	28363.72
218.343	28350.48
218.417	28363.87
218.49	28371.31
218.563	28391.71
218.637	28407.85
218.71	28423.56
218.784	28437.39
218.857	28455.75
218.931	28461.74
219.004	28466.29
219.077	28485.29
219.151	28490.84
219.224	28490.51
219.298	28511
219.371	28535.17
219.444	28524.83
219.518	28527.1
219.591	28536.04
219.665	28560.89
219.738	28565.87
219.811	28548.09
219.885	28564.47
219.958	28570.32
220.031	28568.48
220.105	28559.98
220.178	28545.81
220.251	28538.8
220.325	28536.15
220.398	28538.95
220.471	28539.19
220.544	28530.01
220.618	28502.36
220.691	28491.96
220.764	28482.44
220.838	28465.04
220.911	28435.31
220.984	28451.79
221.057	28458.51
221.131	28456.91
221.204	28409.4
221.277	28405.48
221.35	28416.26
221.424	28395.19
221.497	28371.11
221.57	28349.46
221.643	28347.53
221.716	28340.33
221.79	28317.71
221.863	28299.58
221.936	28276.34
222.009	28250.82
222.082	28248.6
222.155	28226.8
222.229	28221.39
222.302	28200.76
222.375	28171.18
222.448	28153.88
222.521	28126.96
222.594	28090.96
222.667	28055
222.74	28045.29
222.814	28012.43
222.887	27979.66
222.96	27970.53
223.033	27948.69
223.106	27935.45
223.179	27901.04
223.252	27870.35
223.325	27849.43
223.398	27819.71
223.471	27799.9
223.544	27777.54
223.617	27748.98
223.69	27729.7
223.763	27682.59
223.837	27660.17
223.91	27634.37
223.983	27585.05
224.056	27532.25
224.129	27503.51
224.202	27482.06
224.275	27441.29
224.348	27392.69
224.42	27359.5
224.493	27306.46
224.566	27261.54
224.639	27242.31
224.712	27196.47
224.785	27151.94
224.858	27105.38
224.931	27060.6
225.004	27003.85
225.077	26969.27
225.15	26904.07
225.223	26869.24
225.296	26868.95
225.369	26812.26
225.442	26768.12
225.514	26741.51
225.587	26728.96
225.66	26697.13
225.733	26654.64
225.806	26617.6
225.879	26579.46
225.952	26536.24
226.025	26512.19
226.097	26498.09
226.17	26449.66
226.243	26396.65
226.316	26363.09
226.389	26332.15
226.461	26300.81
226.534	26267.69
226.607	26227
226.68	26208.51
226.753	26166.17
226.825	26080.95
226.898	26065.02
226.971	26029.64
227.044	25991.89
227.117	25947.09
227.189	25909.87
227.262	25879.84
227.335	25845.33
227.407	25801.8
227.48	25757.78
227.553	25713.95
227.626	25664.18
227.698	25613.16
227.771	25590.92
227.844	25547.48
227.916	25508.82
227.989	25448.74
228.062	25402.07
228.134	25388.32
228.207	25338.56
228.28	25294.02
228.352	25262.66
228.425	25219.9
228.498	25183.8
228.57	25134.49
228.643	25108.14
228.716	25060.9
228.788	25009.7
228.861	24951.95
228.934	24929.46
229.006	24896.27
229.079	24849.71
229.151	24807.2
229.224	24759.05
229.296	24720.98
229.369	24722.87
229.442	24700.53
229.514	24660.88
229.587	24651.61
229.659	24588.17
229.732	24549.77
229.804	24511.76
229.877	24505.53
229.949	24471.38
230.022	24450.87
230.094	24411.61
230.167	24376.44
230.239	24333.36
230.312	24309.29
230.384	24303.22
230.457	24266.94
230.529	24224.35
230.602	24193.82
230.674	24155.62
230.747	24124.75
230.819	24089.3
230.892	23993.79
230.964	23955.59
231.037	23933.21
231.109	23880.25
231.181	23855.8
231.254	23817.61
231.326	23778.59
231.399	23735.23
231.471	23686.71
231.544	23631.73
231.616	23604.39
231.688	23551.72
231.761	23501.19
231.833	23444.14
231.905	23383.18
231.978	23334.43
232.05	23294.12
232.122	23258.96
232.195	23210.02
232.267	23198.54
232.339	23164.98
232.412	23148.54
232.484	23099.74
232.556	23059.92
232.629	23047.57
232.701	23012.95
232.773	22972.88
232.846	22937.69
232.918	22896.46
232.99	22871.34
233.062	22841.88
233.135	22807.6
233.207	22764.45
233.279	22743.04
233.351	22718.65
233.424	22680.61
233.496	22646.57
233.568	22632.64
233.64	22585.73
233.713	22561.58
233.785	22513.51
233.857	22473.01
233.929	22418.44
234.001	22395.93
234.074	22369.32
234.146	22301.92
234.218	22259.11
234.29	22224.35
234.362	22173.89
234.434	22107.89
234.507	22049.95
234.579	21991.14
234.651	21945.73
234.723	21909.14
234.795	21864.65
234.867	21823.39
234.939	21797.36
235.012	21751.91
235.084	21711.08
235.156	21674.54
235.228	21624.99
235.3	21574.76
235.372	21544.64
235.444	21514.13
235.516	21449.06
235.588	21399.8
235.66	21366.3
235.732	21319.4
235.804	21321.86
235.876	21302.58
235.948	21295.16
236.02	21263.88
236.092	21232.89
236.164	21193.27
236.236	21156.01
236.308	21124.4
236.38	21091.86
236.452	21043.52
236.524	21014.65
236.596	20997.21
236.668	20964.14
236.74	20924.62
236.812	20892.19
236.884	20850.64
236.956	20821.68
237.028	20785.73
237.1	20743.61
237.172	20722.79
237.244	20706.11
237.316	20639.21
237.388	20594.87
237.46	20539.79
237.532	20511.69
237.604	20455.16
237.675	20439.07
237.747	20409.52
237.819	20366.05
237.891	20329.48
237.963	20286.01
238.035	20239.74
238.107	20162.01
238.178	20136.08
238.25	20099.41
238.322	20091.94
238.394	20042.35
238.466	19998.98
238.538	19964.81
238.609	19937.15
238.681	19880.91
238.753	19828.04
238.825	19796.57
238.897	19753.73
238.968	19736.24
239.04	19690.46
239.112	19692.43
239.184	19644.15
239.255	19613.3
239.327	19583.38
239.399	19543.91
239.471	19509.07
239.542	19480.54
239.614	19466.95
239.686	19411.58
239.758	19387.39
239.829	19335.34
239.901	19307.25
239.973	19278.19
240.044	19249.04
240.116	19209.57
240.188	19171.88
240.259	19142.25
240.331	19094.59
240.403	19064.81
240.474	19015.51
240.546	18979.61
240.618	18917.35
240.689	18876.67
240.761	18830.41
240.833	18804.44
240.904	18769.64
240.976	18743.04
241.048	18707.33
241.119	18671.34
241.191	18655.82
241.262	18632.45
241.334	18585.51
241.405	18556.5
241.477	18516.21
241.549	18479.59
241.62	18451.49
241.692	18433.47
241.763	18411.01
241.835	18382.2
241.906	18350.58
241.978	18301.24
242.049	18274.83
242.121	18259.75
242.192	18244.23
242.264	18197.58
242.335	18154.06
242.407	18133.2
242.478	18101.34
242.55	18078.21
242.621	18037.1
242.693	17986.12
242.764	17951.81
242.836	17918.51
242.907	17889.64
242.979	17866.36
243.05	17843.71
243.122	17823.47
243.193	17780.97
243.264	17722.8
243.336	17688.87
243.407	17664.01
243.479	17653.16
243.55	17622.03
243.622	17594.75
243.693	17553.26
243.764	17542.95
243.836	17498.08
243.907	17455.96
243.978	17421.69
244.05	17384.3
244.121	17342.46
244.192	17320.25
244.264	17273.84
244.335	17251.86
244.407	17204
244.478	17170.94
244.549	17131.09
244.62	17079.18
244.692	17045.5
244.763	17031.86
244.834	17000.67
244.906	16961.49
244.977	16935.37
245.048	16914.99
245.119	16876.38
245.191	16834.79
245.262	16788.57
245.333	16782.45
245.405	16752.04
245.476	16729.82
245.547	16703.41
245.618	16673.43
245.689	16643.74
245.761	16626.49
245.832	16591.45
245.903	16571.06
245.974	16544.84
246.045	16517.18
246.117	16506.91
246.188	16466.38
246.259	16416.83
246.33	16373.94
246.401	16342.8
246.473	16289.59
246.544	16265.93
246.615	16246.94
246.686	16215.22
246.757	16194.5
246.828	16149.38
246.899	16138.11
246.97	16099.21
247.042	16061.61
247.113	16044.17
247.184	16034.72
247.255	15995.97
247.326	15967.53
247.397	15931.72
247.468	15902.03
247.539	15874.94
247.61	15832.48
247.681	15821.25
247.752	15813.1
247.823	15782.93
247.894	15769.62
247.965	15744.17
248.037	15711.93
248.108	15671.97
248.179	15650.28
248.25	15625.79
248.321	15602.61
248.392	15560.77
248.463	15553.59
248.534	15529.39
248.605	15518.21
248.675	15488.37
248.746	15462.49
248.817	15443.93
248.888	15430
248.959	15395.15
249.03	15377.99
249.101	15352.69
249.172	15314.46
249.243	15262.16
249.314	15258.26
249.385	15227.31
249.456	15200.8
249.527	15167.35
249.598	15144.93
249.669	15116.11
249.739	15098.9
249.81	15083.91
249.881	15050.21
249.952	15019.56
250.023	14988.51
250.094	14940.99
250.165	14907.78
250.235	14887.48
250.306	14868.39
250.377	14835.66
250.448	14816.19
250.519	14774.69
250.59	14764.85
250.66	14746.24
250.731	14745.42
250.802	14714.72
250.873	14692.26
250.944	14682.9
251.014	14648.78
251.085	14645.98
251.156	14629.64
251.227	14614.69
251.297	14605.39
251.368	14595.36
251.439	14575.55
251.51	14572.95
251.58	14545.23
251.651	14520.94
251.722	14508.55
251.792	14466.85
251.863	14443.52
251.934	14437.49
252.005	14450.6
252.075	14426.94
252.146	14416.28
252.217	14408.28
252.287	14400.28
252.358	14377.72
252.429	14364.65
252.499	14344.99
252.57	14319.15
252.641	14311.58
252.711	14284.2
252.782	14242.41
252.852	14236.43
252.923	14222.79
252.994	14197.77
253.064	14188.51
253.135	14157.37
253.205	14130.38
253.276	14123.87
253.347	14123.39
253.417	14097.74
253.488	14050.02
253.558	14022.44
253.629	13996.02
253.699	13974.57
253.77	13965.75
253.841	13941.31
253.911	13921.64
253.982	13902.89
254.052	13891.22
254.123	13870.64
254.193	13853
254.264	13872.42
254.334	13847.94
254.405	13818.63
254.475	13796.11
254.546	13780.16
254.616	13775.05
254.687	13759.43
254.757	13748.97
254.827	13722.02
254.898	13702.26
254.968	13695.75
255.039	13673.96
255.109	13661.86
255.18	13634.52
255.25	13584.87
255.321	13573.74
255.391	13541.1
255.461	13546.07
255.532	13501.28
255.602	13476.6
255.673	13438.52
255.743	13411.81
255.813	13365.97
255.884	13351.31
255.954	13339.31
256.024	13335.21
256.095	13318.92
256.165	13284.3
256.235	13262.18
256.306	13235.37
256.376	13220.96
256.446	13203.75
256.517	13186.78
256.587	13180.56
256.657	13157.38
256.728	13144.41
256.798	13125.66
256.868	13108.3
256.938	13077.64
257.009	13071.67
257.079	13057.78
257.149	13061.93
257.219	13013.82
257.29	13002.73
257.36	12962.09
257.43	12951.39
257.5	12911.33
257.571	12888.15
257.641	12880.87
257.711	12855.61
257.781	12847.94
257.852	12834.97
257.922	12798.24
257.992	12781.76
258.062	12756.64
258.132	12751.14
258.202	12729.79
258.273	12718.37
258.343	12719.96
258.413	12692.14
258.483	12674.31
258.553	12646.68
258.623	12621.18
258.693	12613.9
258.764	12610.05
258.834	12618.72
258.904	12602.05
258.974	12574.38
259.044	12550.76
259.114	12536.54
259.184	12525.84
259.254	12500.53
259.324	12460.86
259.394	12446.35
259.464	12441.67
259.535	12422.24
259.605	12393.42
259.675	12371.68
259.745	12355.72
259.815	12325.69
259.885	12305.74
259.955	12310.99
260.025	12286.41
260.095	12270.98
260.165	12260.67
260.235	12256.38
260.305	12224.13
260.375	12191.69
260.445	12196.36
260.515	12195.4
260.585	12193.47
260.655	12174.62
260.725	12168.55
260.795	12161.71
260.865	12169.9
260.934	12151.73
261.004	12136.4
261.074	12127.14
261.144	12120.49
