Data from 20250625_urea_1M_1_MAYP1162681_21-25-06-156.txt Node
Date: Wed Jun 25 21:25:06 BST 2025
User: adleo
Spectrometer: MAYP116268
Trigger mode: 0
Integration Time (sec): 1.000000E0
Scans to average: 1
Electric dark correction enabled: true
Nonlinearity correction enabled: true
Boxcar width: 10
XAxis mode: Wavelengths
Number of Pixels in Spectrum: 2068
>>>>>Begin Spectral Data<<<<<
179.565	1168.96
179.642	1222.36
179.718	1262.49
179.795	1304.86
179.871	1333.27
179.948	1353.08
180.024	1371.37
180.101	1394.01
180.177	1408.96
180.254	1429.06
180.33	1451.61
180.407	1501.12
180.483	1593.48
180.56	1679.9
180.636	1761.36
180.712	1747.96
180.789	1756.47
180.865	1769.82
180.942	1779.75
181.018	1791.3
181.095	1808.03
181.171	1813.59
181.248	1814.78
181.324	1833.13
181.4	1835.37
181.477	1845.4
181.553	1856.94
181.63	1878.38
181.706	1894.83
181.782	1904
181.859	1904
181.935	1907.33
182.011	1905.81
182.088	1921.88
182.164	1941.38
182.24	1955.07
182.317	1963.72
182.393	1962.29
182.469	1974.13
182.546	1986.69
182.622	1988.21
182.698	1981.64
182.775	1995.01
182.851	2008.23
182.927	1999.62
183.003	1996.39
183.08	1995.05
183.156	2004.28
183.232	2001.43
183.308	1990.16
183.385	1996.81
183.461	2015.64
183.537	2017.26
183.613	2031.67
183.69	2022.92
183.766	2012.41
183.842	2017.97
183.918	2024.49
183.995	2036.09
184.071	2039.47
184.147	2034.42
184.223	2025.06
184.299	2038
184.375	2024.25
184.452	2031.39
184.528	2085.15
184.604	2097.13
184.68	2108.59
184.756	2115.83
184.832	2120.87
184.908	2126.05
184.985	2127.52
185.061	2111.35
185.137	2119.11
185.213	2106.03
185.289	2108.45
185.365	2101.65
185.441	2103.41
185.517	2118.5
185.593	2115.26
185.669	2113.31
185.745	2122.68
185.822	2138.94
185.898	2129.48
185.974	2139.08
186.05	2129.04
186.126	2090.08
186.202	2081.23
186.278	2077.57
186.354	2066.77
186.43	2070.72
186.506	2067.01
186.582	2063.78
186.658	2072.72
186.734	2057.83
186.81	2061.16
186.886	2063.54
186.962	2075.33
187.038	2069.77
187.114	2059.35
187.19	2065.58
187.266	2057.97
187.341	2058.68
187.417	2049.22
187.493	2049.65
187.569	2052.55
187.645	2049.79
187.721	2039.8
187.797	2049.55
187.873	2053.07
187.949	2045.89
188.025	2041.46
188.101	2046.5
188.176	2050.12
188.252	2043.22
188.328	2047.98
188.404	2045.98
188.48	2039.37
188.556	2030.53
188.632	2032.67
188.707	2033.09
188.783	2031.43
188.859	2027.77
188.935	2015.12
189.011	2025.53
189.086	2021.63
189.162	2015.88
189.238	2015.78
189.314	2010.79
189.39	2004.18
189.465	1996.81
189.541	2015.4
189.617	2002.94
189.693	1997.24
189.768	2001.57
189.844	2024.83
189.92	2015.32
189.996	2022.6
190.071	2036.15
190.147	2038.91
190.223	2046.19
190.298	2038.48
190.374	2024.88
190.45	2034.49
190.526	2044.81
190.601	2039.43
190.677	2040.05
190.753	2065.37
190.828	2066.27
190.904	2080.78
190.98	2094.91
191.055	2107.08
191.131	2098.62
191.207	2115.64
191.282	2124.63
191.358	2115.64
191.433	2103.74
191.509	2118.58
191.585	2117.72
191.66	2120.15
191.736	2128.57
191.811	2121.86
191.887	2136.8
191.963	2162.58
192.038	2167.62
192.114	2165.24
192.189	2170.76
192.265	2172
192.34	2150.77
192.416	2149.96
192.491	2146.06
192.567	2153.2
192.642	2153.1
192.718	2151.2
192.793	2140.07
192.869	2135.98
192.944	2137.84
193.02	2144.73
193.095	2148.02
193.171	2156.87
193.246	2153.96
193.322	2150.78
193.397	2150.68
193.473	2139.98
193.548	2120.61
193.624	2127.18
193.699	2127.22
193.775	2141.6
193.85	2137.46
193.925	2146.88
194.001	2147.07
194.076	2139.98
194.152	2125.33
194.227	2118
194.302	2111.87
194.378	2116.19
194.453	2111.3
194.529	2122.86
194.604	2108.16
194.679	2101.5
194.755	2081.14
194.83	2093.42
194.905	2089.43
194.981	2096.51
195.056	2088.14
195.131	2093.76
195.207	2089.43
195.282	2080.49
195.357	2061.55
195.433	2077.1
195.508	2064.49
195.583	2073.86
195.659	2090.9
195.734	2098.89
195.809	2100.51
195.884	2109.3
195.96	2108.21
196.035	2125.57
196.11	2125.05
196.185	2138.22
196.261	2141.32
196.336	2170.76
196.411	2153.58
196.486	2159.05
196.561	2152.11
196.637	2159.91
196.712	2177.66
196.787	2181.37
196.862	2196.21
196.937	2206.11
197.013	2212.72
197.088	2220.95
197.163	2241.23
197.238	2255.37
197.313	2254.56
197.388	2267.03
197.464	2295.64
197.539	2309.73
197.614	2300.88
197.689	2311.3
197.764	2325.25
197.839	2346.28
197.914	2338.95
197.989	2365.37
198.065	2379.55
198.14	2428.56
198.215	2455.55
198.29	2465.27
198.365	2479.5
198.44	2489.88
198.515	2516.02
198.59	2530.35
198.665	2556.59
198.74	2563.36
198.815	2565.12
198.89	2588.69
198.965	2616.32
199.04	2614.37
199.115	2626.46
199.19	2671.42
199.265	2674.99
199.34	2683.33
199.415	2713.78
199.49	2736.73
199.565	2745.21
199.64	2766.79
199.715	2766.03
199.79	2774.27
199.865	2779.71
199.94	2775.18
200.015	2808.06
200.09	2815.36
200.165	2822.65
200.24	2830.99
200.315	2871.82
200.39	2887.64
200.464	2892.36
200.539	2895.46
200.614	2910.28
200.689	2935.69
200.764	2940.27
200.839	2956.04
200.914	2961.52
200.989	2951.98
201.063	2965.52
201.138	2949.32
201.213	2953.99
201.288	2931.93
201.363	2935.5
201.438	2935.5
201.512	2954.22
201.587	2935.53
201.662	2938.49
201.737	2948.69
201.812	2956.46
201.886	2920.49
201.961	2929.7
202.036	2918.12
202.111	2914.26
202.186	2883.15
202.26	2865.23
202.335	2844.35
202.41	2839.44
202.485	2824.72
202.559	2807.56
202.634	2783.07
202.709	2789.74
202.784	2767.1
202.858	2770.2
202.933	2751.43
203.008	2745.9
203.082	2726.89
203.157	2730.37
203.232	2687.27
203.306	2669.5
203.381	2638.14
203.456	2616.8
203.53	2593.3
203.605	2574.78
203.68	2552.24
203.754	2548.24
203.829	2535.14
203.904	2516.38
203.978	2507.47
204.053	2512
204.127	2498.1
204.202	2493.15
204.277	2476.1
204.351	2470.58
204.426	2461.77
204.5	2451.68
204.575	2415.88
204.65	2425.31
204.724	2414.97
204.799	2424.06
204.873	2417.97
204.948	2413.82
205.022	2399.69
205.097	2392.02
205.171	2405.11
205.246	2413.4
205.32	2412.54
205.395	2410.83
205.469	2403.12
205.544	2408.5
205.618	2388.74
205.693	2403.93
205.767	2394.46
205.842	2415.5
205.916	2409.65
205.991	2400.65
206.065	2409.36
206.14	2425.11
206.214	2419.87
206.289	2411.92
206.363	2421.87
206.438	2422.01
206.512	2432.1
206.586	2454.43
206.661	2462.24
206.735	2439.87
206.81	2440.59
206.884	2458.53
206.958	2445.97
207.033	2461.96
207.107	2462.96
207.181	2494.91
207.256	2486.25
207.33	2507.01
207.405	2521.5
207.479	2539.83
207.553	2545.3
207.628	2533.12
207.702	2547.68
207.776	2543.4
207.851	2546.78
207.925	2563.83
207.999	2564.12
208.073	2561.83
208.148	2565.22
208.222	2553.93
208.296	2586.44
208.371	2602.79
208.445	2614.7
208.519	2642.36
208.593	2656.03
208.668	2658.75
208.742	2664.42
208.816	2667.04
208.89	2678.19
208.965	2677.95
209.039	2690.29
209.113	2709.54
209.187	2731.68
209.261	2728.92
209.336	2754.93
209.41	2781.62
209.484	2786.39
209.558	2813.55
209.632	2830.46
209.707	2847.72
209.781	2877.6
209.855	2901.2
209.929	2926.63
210.003	2941.74
210.077	2952.47
210.151	3009.11
210.226	3054.52
210.3	3092.37
210.374	3135.13
210.448	3160.08
210.522	3187.37
210.596	3215.76
210.67	3249.96
210.744	3321.41
210.818	3380.31
210.892	3428.96
210.966	3455.02
211.041	3507.72
211.115	3543.67
211.189	3608.07
211.263	3669.34
211.337	3717.09
211.411	3780.88
211.485	3828.01
211.559	3893.36
211.633	3955.49
211.707	3984.95
211.781	4058.05
211.855	4096.35
211.929	4160.78
212.003	4215.41
212.077	4306.6
212.151	4401.04
212.225	4494.24
212.299	4573.22
212.373	4654.86
212.447	4745.85
212.52	4872.74
212.594	4982.31
212.668	5104.12
212.742	5205.41
212.816	5313.97
212.89	5430.37
212.964	5553.19
213.038	5681.3
213.112	5820.51
213.186	5973.18
213.26	6100.76
213.333	6199.77
213.407	6353.47
213.481	6508.98
213.555	6677.88
213.629	6825.79
213.703	6971.89
213.777	7139.12
213.85	7281.62
213.924	7487.6
213.998	7660.26
214.072	7829.85
214.146	7986.78
214.219	8163.62
214.293	8344.05
214.367	8531.85
214.441	8728.03
214.515	8904.01
214.588	9073.63
214.662	9233.12
214.736	9408.09
214.81	9606.25
214.883	9809.48
214.957	9987.17
215.031	10168.94
215.105	10346.09
215.178	10532.53
215.252	10724.13
215.326	10893.25
215.4	11076.34
215.473	11225.35
215.547	11401.3
215.621	11593.36
215.694	11794.14
215.768	11966.2
215.842	12147.09
215.915	12319.5
215.989	12482.47
216.063	12664.63
216.136	12849.96
216.21	13036.94
216.284	13230.62
216.357	13415.24
216.431	13599
216.504	13796.01
216.578	14006.56
216.652	14195.28
216.725	14381.78
216.799	14568.57
216.873	14745.43
216.946	14926.87
217.02	15092.26
217.093	15259.71
217.167	15403.16
217.24	15558.99
217.314	15727.41
217.387	15882.85
217.461	16041.48
217.535	16221.07
217.608	16368.65
217.682	16521.77
217.755	16692.92
217.829	16834.28
217.902	16982.33
217.976	17122.58
218.049	17258.92
218.123	17382.2
218.196	17527.79
218.27	17654.39
218.343	17776.27
218.417	17918.15
218.49	18049.86
218.563	18193.37
218.637	18332.21
218.71	18474.23
218.784	18615.04
218.857	18740.39
218.931	18869.3
219.004	18992.18
219.077	19111.21
219.151	19237.96
219.224	19357.23
219.298	19460.07
219.371	19583.19
219.444	19677.12
219.518	19789.16
219.591	19897.88
219.665	20033.93
219.738	20136.82
219.811	20224.96
219.885	20335.56
219.958	20437.49
220.031	20529.49
220.105	20630.26
220.178	20722.46
220.251	20806.99
220.325	20883.87
220.398	20969.46
220.471	21057.08
220.544	21145.86
220.618	21214.63
220.691	21283.03
220.764	21360.62
220.838	21438.22
220.911	21500.69
220.984	21595.31
221.057	21664.28
221.131	21728.63
221.204	21747.57
221.277	21819.34
221.35	21899.94
221.424	21953.69
221.497	22001.55
221.57	22059.25
221.643	22112.86
221.716	22162.85
221.79	22205.84
221.863	22252.46
221.936	22296.23
222.009	22330.41
222.082	22375.97
222.155	22419.11
222.229	22472.19
222.302	22503.77
222.375	22535.83
222.448	22579.12
222.521	22596.48
222.594	22625.35
222.667	22643.67
222.74	22687.54
222.814	22714.45
222.887	22737.01
222.96	22767.58
223.033	22808.85
223.106	22831.27
223.179	22851.38
223.252	22872.59
223.325	22880.4
223.398	22893.37
223.471	22909.71
223.544	22932.09
223.617	22944.28
223.69	22963.67
223.763	22967.81
223.837	22993.22
223.91	23021.38
223.983	23014.54
224.056	23027.75
224.129	23033.48
224.202	23052.29
224.275	23053.78
224.348	23043.22
224.42	23033.97
224.493	23013.47
224.566	23006.05
224.639	23004.84
224.712	22994.43
224.785	22991.15
224.858	23006.43
224.931	23012.36
225.004	23002
225.077	23004.6
225.15	22986.76
225.223	22979.34
225.296	22994.09
225.369	22973.89
225.442	22959.52
225.514	22946.74
225.587	22936.95
225.66	22945.49
225.733	22944.72
225.806	22931.55
225.879	22923.41
225.952	22903.35
226.025	22906.39
226.097	22907.4
226.17	22902.14
226.243	22881.94
226.316	22871.43
226.389	22859.96
226.461	22856.44
226.534	22847.95
226.607	22829.68
226.68	22834.5
226.753	22821.1
226.825	22784.69
226.898	22773.89
226.971	22747.81
227.044	22744.87
227.117	22731.18
227.189	22719.27
227.262	22712.81
227.335	22707.65
227.407	22689.52
227.48	22695.31
227.553	22687.3
227.626	22661.65
227.698	22640.97
227.771	22634.22
227.844	22612.29
227.916	22588.52
227.989	22545.71
228.062	22526.81
228.134	22527.73
228.207	22507.14
228.28	22483.71
228.352	22468.52
228.425	22455.6
228.498	22440.47
228.57	22408.22
228.643	22411.35
228.716	22388.01
228.788	22357.5
228.861	22323.46
228.934	22321.73
229.006	22298.93
229.079	22277.28
229.151	22251.87
229.224	22222.9
229.296	22206.08
229.369	22226.38
229.442	22234.48
229.514	22213.27
229.587	22201.55
229.659	22163.9
229.732	22144.72
229.804	22132.91
229.877	22134.01
229.949	22125.77
230.022	22128.33
230.094	22111.41
230.167	22081.57
230.239	22045.41
230.312	22021.36
230.384	22030.95
230.457	22006.13
230.529	21978.36
230.602	21955.66
230.674	21942.31
230.747	21930.98
230.819	21918.78
230.892	21839.15
230.964	21800.15
231.037	21781.31
231.109	21755.47
231.181	21736.96
231.254	21703.17
231.326	21675.55
231.399	21645.76
231.471	21616.6
231.544	21565.55
231.616	21547.58
231.688	21526.08
231.761	21499.38
231.833	21464.53
231.905	21417.63
231.978	21397.05
232.05	21374.25
232.122	21346.97
232.195	21306.72
232.267	21293.52
232.339	21260.26
232.412	21247.01
232.484	21213.61
232.556	21166.42
232.629	21164.45
232.701	21149.84
232.773	21125.84
232.846	21095.43
232.918	21056.39
232.99	21023.66
233.062	21001.49
233.135	20987.71
233.207	20946.26
233.279	20931.13
233.351	20903.95
233.424	20861
233.496	20810.69
233.568	20795.7
233.64	20754.01
233.713	20733.05
233.785	20708.76
233.857	20684.76
233.929	20647.07
234.001	20636.27
234.074	20644.61
234.146	20594.73
234.218	20551.6
234.29	20505.04
234.362	20470.44
234.434	20430.68
234.507	20387.98
234.579	20350.92
234.651	20310.29
234.723	20284.56
234.795	20254.82
234.867	20236.22
234.939	20223.02
235.012	20202.3
235.084	20180.9
235.156	20156.9
235.228	20116.61
235.3	20067.99
235.372	20037.67
235.444	20021.53
235.516	19970.49
235.588	19936.81
235.66	19908.18
235.732	19869.68
235.804	19900.38
235.876	19882.02
235.948	19863.17
236.02	19832.91
236.092	19803.13
236.164	19772.14
236.236	19734.12
236.308	19689.74
236.38	19654.75
236.452	19617.02
236.524	19585.93
236.596	19565.74
236.668	19540.2
236.74	19520.54
236.812	19491.72
236.884	19463.68
236.956	19430.42
237.028	19386.14
237.1	19336.79
237.172	19312.36
237.244	19307.4
237.316	19238.24
237.388	19186.15
237.46	19150.92
237.532	19124.95
237.604	19079.6
237.675	19059.8
237.747	19036.91
237.819	19009.39
237.891	18979.41
237.963	18943.08
238.035	18904.43
238.107	18836.72
238.178	18815.86
238.25	18769.02
238.322	18759.91
238.394	18704.88
238.466	18668.88
238.538	18656.69
238.609	18641.65
238.681	18596.26
238.753	18547.97
238.825	18522.62
238.897	18497.42
238.968	18477.57
239.04	18447.59
239.112	18444.8
239.184	18392.85
239.255	18360.13
239.327	18327.79
239.399	18305.14
239.471	18285.24
239.542	18253.91
239.614	18230.11
239.686	18175.12
239.758	18163.75
239.829	18117.78
239.901	18110.55
239.973	18081.34
240.044	18048.72
240.116	18012.86
240.188	17976.48
240.259	17938.79
240.331	17897.06
240.403	17872.19
240.474	17823.33
240.546	17785.59
240.618	17734.56
240.689	17706.61
240.761	17678.08
240.833	17661.5
240.904	17620.39
240.976	17587.86
241.048	17568.63
241.119	17549.36
241.191	17526.37
241.262	17503.53
241.334	17471.43
241.405	17430.23
241.477	17395
241.549	17366.56
241.62	17335.96
241.692	17313.5
241.763	17293.41
241.835	17262.51
241.906	17232.87
241.978	17193.98
242.049	17171.04
242.121	17155.91
242.192	17136.25
242.264	17092.44
242.335	17043.42
242.407	17026.55
242.478	16983.76
242.55	16950.84
242.621	16904.82
242.693	16875.61
242.764	16831.85
242.836	16794.26
242.907	16769.53
242.979	16738.11
243.05	16700.95
243.122	16674.2
243.193	16642.06
243.264	16594.44
243.336	16564.17
243.407	16547.01
243.479	16538.05
243.55	16515.64
243.622	16480.94
243.693	16454.09
243.764	16438.19
243.836	16400.54
243.907	16360.97
243.978	16337.74
244.05	16308.58
244.121	16267.76
244.192	16242.5
244.264	16198.84
244.335	16182.3
244.407	16139.74
244.478	16122.01
244.549	16093.72
244.62	16060.27
244.692	16034.86
244.763	16024.41
244.834	15990.09
244.906	15951.48
244.977	15922.37
245.048	15905.5
245.119	15877.64
245.191	15842.31
245.262	15790.78
245.333	15776.71
245.405	15755.26
245.476	15728.65
245.547	15706.48
245.618	15690.43
245.689	15659.54
245.761	15646.62
245.832	15607.77
245.903	15588.82
245.974	15561.21
246.045	15533.01
246.117	15517.97
246.188	15478.83
246.259	15433.33
246.33	15398.24
246.401	15361.55
246.473	15329.45
246.544	15293.78
246.615	15273.2
246.686	15237.72
246.757	15230.93
246.828	15190.63
246.899	15167.35
246.97	15131
247.042	15097.6
247.113	15073.5
247.184	15076.29
247.255	15038.36
247.326	15009.48
247.397	14986.49
247.468	14955.59
247.539	14931.2
247.61	14886.71
247.681	14868.49
247.752	14863.04
247.823	14835.52
247.894	14820.38
247.965	14779.26
248.037	14747.35
248.108	14704.35
248.179	14678.52
248.25	14641.11
248.321	14628.82
248.392	14594.06
248.463	14586.83
248.534	14557.67
248.605	14545.04
248.675	14507.82
248.746	14491.72
248.817	14478.37
248.888	14448.44
248.959	14413.49
249.03	14392.66
249.101	14369.57
249.172	14337.85
249.243	14277.5
249.314	14267.23
249.385	14243.22
249.456	14228.28
249.527	14203.02
249.598	14184.17
249.669	14160.36
249.739	14143.97
249.81	14129.99
249.881	14096.1
249.952	14068.57
250.023	14051.46
250.094	14008.8
250.165	13971.68
250.235	13946.61
250.306	13924.44
250.377	13893.01
250.448	13876.71
250.519	13828.12
250.59	13823.59
250.66	13802.43
250.731	13804.5
250.802	13782.04
250.873	13761.45
250.944	13741.06
251.014	13715.85
251.085	13715.42
251.156	13695.27
251.227	13686.01
251.297	13675.69
251.368	13662.97
251.439	13659.5
251.51	13648.07
251.58	13619
251.651	13597.65
251.722	13586.8
251.792	13545.73
251.863	13522.69
251.934	13513.33
252.005	13531.41
252.075	13506.49
252.146	13494.73
252.217	13488.46
252.287	13472.31
252.358	13448.88
252.429	13450.67
252.499	13417.16
252.57	13399.42
252.641	13381.87
252.711	13359.55
252.782	13317.04
252.852	13317.23
252.923	13288.5
252.994	13267.87
253.064	13269.07
253.135	13246.08
253.205	13220.48
253.276	13221.64
253.347	13219.27
253.417	13194.88
253.488	13165.91
253.558	13138.29
253.629	13116.69
253.699	13096.73
253.77	13090.32
253.841	13062.6
253.911	13037.58
253.982	13020.13
254.052	13013.63
254.123	13008.37
254.193	12995.07
254.264	13006.35
254.334	12973.33
254.405	12939.15
254.475	12902.17
254.546	12872.62
254.616	12860.19
254.687	12853.05
254.757	12839.41
254.827	12818.44
254.898	12803.4
254.968	12778.91
255.039	12756.4
255.109	12747.05
255.18	12722.17
255.25	12680.57
255.321	12671.17
255.391	12639.07
255.461	12640.76
255.532	12589.51
255.602	12568.88
255.673	12528
255.743	12507.52
255.813	12465.92
255.884	12458.3
255.954	12450.35
256.024	12449.72
256.095	12431.64
256.165	12395.15
256.235	12377.12
256.306	12351.34
256.376	12341.41
256.446	12335.33
256.517	12319.52
256.587	12309.93
256.657	12292.09
256.728	12276.19
256.798	12258.5
256.868	12237.43
256.938	12214.87
257.009	12213.86
257.079	12199.5
257.149	12207.02
257.219	12167.1
257.29	12160.55
257.36	12123.19
257.43	12116.59
257.5	12079.47
257.571	12055.76
257.641	12043.32
257.711	12015.51
257.781	12013.2
257.852	12002.4
257.922	11967.6
257.992	11955.06
258.062	11936.41
258.132	11928.65
258.202	11913.13
258.273	11899.34
258.343	11902.38
258.413	11881.37
258.483	11857.02
258.553	11829.98
258.623	11802.08
258.693	11792.19
258.764	11794.32
258.834	11796.58
258.904	11775.42
258.974	11749.54
259.044	11732.33
259.114	11723.46
259.184	11711.8
259.254	11689.39
259.324	11644.13
259.394	11630.2
259.464	11625.96
259.535	11599.45
259.605	11574.34
259.675	11548.75
259.745	11542.53
259.815	11513.66
259.885	11482.86
259.955	11494.19
260.025	11470.33
260.095	11455.83
260.165	11441.08
260.235	11427.2
260.305	11403.92
260.375	11382.62
260.445	11395.48
260.515	11395.92
260.585	11386.57
260.655	11370.23
260.725	11361.46
260.795	11363.63
260.865	11368.3
260.934	11348.3
261.004	11337.17
261.074	11321.17
261.144	11316.83
261.214	11305.26
261.284	11287
261.354	11290.61
261.424	11270.99
261.494	11275.33
261.564	11256.78
261.634	11250.17
261.703	11215.86
261.773	11207.57
261.843	11197.98
261.913	11173.36
261.983	11137.89
262.053	11128.78
262.123	11106.66
262.192	11078.32
