Data from 20250625_urea_1M_1_MAYP1162681_22-15-05-872.txt Node
Date: Wed Jun 25 22:15:05 BST 2025
User: adleo
Spectrometer: MAYP116268
Trigger mode: 0
Integration Time (sec): 1.000000E0
Scans to average: 1
Electric dark correction enabled: true
Nonlinearity correction enabled: true
Boxcar width: 10
XAxis mode: Wavelengths
Number of Pixels in Spectrum: 2068
>>>>>Begin Spectral Data<<<<<
179.565	1161.01
179.642	1218.37
179.718	1256.17
179.795	1296.9
179.871	1326.35
179.948	1341.27
180.024	1364.06
180.101	1383.87
180.177	1394.3
180.254	1416.2
180.33	1436.98
180.407	1489.39
180.483	1580.79
180.56	1669.78
180.636	1749.63
180.712	1737.04
180.789	1745.45
180.865	1758.46
180.942	1766.02
181.018	1777.47
181.095	1792.35
181.171	1796.96
181.248	1798.53
181.324	1817.07
181.4	1820.64
181.477	1830.28
181.553	1842.69
181.63	1859.89
181.706	1879.15
181.782	1890.12
181.859	1891.79
181.935	1897.4
182.011	1891.65
182.088	1909.09
182.164	1926.45
182.24	1939.05
182.317	1951.84
182.393	1948.03
182.469	1961.58
182.546	1973.18
182.622	1977.46
182.698	1973.99
182.775	1988.68
182.851	1996.86
182.927	1989.49
183.003	1984.22
183.08	1983.17
183.156	1991.82
183.232	1989.35
183.308	1974.66
183.385	1979.36
183.461	1992.34
183.537	1993.25
183.613	2008.04
183.69	1996.86
183.766	1987.06
183.842	1995.1
183.918	1997.9
183.995	2010.36
184.071	2015.36
184.147	2010.98
184.223	2000.24
184.299	2010.65
184.375	1996.58
184.452	2006.57
184.528	2057.61
184.604	2069.73
184.68	2079.53
184.756	2087.57
184.832	2092.75
184.908	2098.32
184.985	2103.5
185.061	2090.14
185.137	2099.46
185.213	2085.9
185.289	2089.85
185.365	2079.82
185.441	2079.15
185.517	2091.09
185.593	2090.24
185.669	2086.72
185.745	2097.18
185.822	2113.11
185.898	2105.45
185.974	2115.48
186.05	2104.35
186.126	2068.01
186.202	2060.3
186.278	2055.36
186.354	2046.84
186.43	2050.84
186.506	2049.37
186.582	2043.9
186.658	2051.55
186.734	2029.44
186.81	2030.97
186.886	2032.01
186.962	2045.23
187.038	2038.34
187.114	2031.53
187.19	2039.86
187.266	2029.35
187.341	2029.63
187.417	2020.03
187.493	2021.31
187.569	2025.02
187.645	2021.55
187.721	2009.52
187.797	2018.07
187.873	2022.93
187.949	2015.56
188.025	2011.51
188.101	2016.27
188.176	2023.4
188.252	2016.79
188.328	2026.82
188.404	2025.63
188.48	2021.45
188.556	2011.22
188.632	2015.64
188.707	2015.41
188.783	2012.22
188.859	2005.99
188.935	1996.34
189.011	2006.23
189.086	1999.67
189.162	1991.34
189.238	1989.44
189.314	1989.11
189.39	1985.11
189.465	1978.22
189.541	1994.43
189.617	1979.69
189.693	1976.32
189.768	1979.17
189.844	2002.24
189.92	1995.68
189.996	2007.19
190.071	2018.37
190.147	2021.65
190.223	2030.02
190.298	2024.6
190.374	2011.18
190.45	2027.02
190.526	2030.58
190.601	2022.74
190.677	2022.83
190.753	2050.67
190.828	2054
190.904	2065.08
190.98	2078.45
191.055	2087.58
191.131	2080.78
191.207	2099.28
191.282	2106.36
191.358	2098.37
191.433	2089
191.509	2102.36
191.585	2097.65
191.66	2098.27
191.736	2106.35
191.811	2095.51
191.887	2108.12
191.963	2129.19
192.038	2131.57
192.114	2136.47
192.189	2143.31
192.265	2140.03
192.34	2116.24
192.416	2115.76
192.491	2112.48
192.567	2116.67
192.642	2122.28
192.718	2123.9
192.793	2112.77
192.869	2109.87
192.944	2112.29
193.02	2118.14
193.095	2119.19
193.171	2126.18
193.246	2126.9
193.322	2124.14
193.397	2128.7
193.473	2116.14
193.548	2099.3
193.624	2105.87
193.699	2108.39
193.775	2121.76
193.85	2124.23
193.925	2131.94
194.001	2130.94
194.076	2122.14
194.152	2109.1
194.227	2097.64
194.302	2086.75
194.378	2088.7
194.453	2084.28
194.529	2095.46
194.604	2078.14
194.679	2073.81
194.755	2054.6
194.83	2064.84
194.905	2060.46
194.981	2067.55
195.056	2059.08
195.131	2062.84
195.207	2060.51
195.282	2048.24
195.357	2029.45
195.433	2041.24
195.508	2030.44
195.583	2040.62
195.659	2057.13
195.734	2066.64
195.809	2068.88
195.884	2078.34
195.96	2078.44
196.035	2093.61
196.11	2093.8
196.185	2105.64
196.261	2105.88
196.336	2135.27
196.411	2119.1
196.486	2125.04
196.561	2117.38
196.637	2126.89
196.712	2145.45
196.787	2147.35
196.862	2161.96
196.937	2171.37
197.013	2179.46
197.088	2187.74
197.163	2204.02
197.238	2220.78
197.313	2217.45
197.388	2228.34
197.464	2256.52
197.539	2268.41
197.614	2261.9
197.689	2268.7
197.764	2285.46
197.839	2306.53
197.914	2302.54
197.989	2327.57
198.065	2340.51
198.14	2388.38
198.215	2413.41
198.29	2425.41
198.365	2443.03
198.44	2451.17
198.515	2481.79
198.59	2497.64
198.665	2525.59
198.74	2535.4
198.815	2536.12
198.89	2558.73
198.965	2586.07
199.04	2581.93
199.115	2600.5
199.19	2643.17
199.265	2651.36
199.34	2658.79
199.415	2691.58
199.49	2711.77
199.565	2717.96
199.64	2745.11
199.715	2742.11
199.79	2751.4
199.865	2754.16
199.94	2747.16
200.015	2779.9
200.09	2784.81
200.165	2789.43
200.24	2795.24
200.315	2837.79
200.39	2852.66
200.464	2859.52
200.539	2864.15
200.614	2879.39
200.689	2899.84
200.764	2903.8
200.839	2919.33
200.914	2924.38
200.989	2911.84
201.063	2926.9
201.138	2912.05
201.213	2913.67
201.288	2896.94
201.363	2900.75
201.438	2899.94
201.512	2917.38
201.587	2900.5
201.662	2904.84
201.737	2919.14
201.812	2926.1
201.886	2888.27
201.961	2896.09
202.036	2885.75
202.111	2884.7
202.186	2859.27
202.26	2844.82
202.335	2824.38
202.41	2817.8
202.485	2804.65
202.559	2787.6
202.634	2761.1
202.709	2769.86
202.784	2747.37
202.858	2748.71
202.933	2732.27
203.008	2728.27
203.082	2710.45
203.157	2710.31
203.232	2667.68
203.306	2642.62
203.381	2613.75
203.456	2594.31
203.53	2568.14
203.605	2545.72
203.68	2519.09
203.754	2512.86
203.829	2495.76
203.904	2477.28
203.978	2466.47
204.053	2468.23
204.127	2457.71
204.202	2455
204.277	2439.62
204.351	2433.96
204.426	2423.72
204.5	2414.19
204.575	2379.6
204.65	2386.03
204.724	2375.93
204.799	2382.59
204.873	2381.06
204.948	2377.3
205.022	2366.5
205.097	2362.69
205.171	2379.2
205.246	2390.35
205.32	2388.59
205.395	2388.78
205.469	2380.12
205.544	2383.79
205.618	2366.98
205.693	2380.17
205.767	2367.23
205.842	2384.27
205.916	2380.65
205.991	2372.46
206.065	2378.27
206.14	2394.68
206.214	2391.68
206.289	2387.06
206.363	2398.96
206.438	2404.06
206.512	2414.91
206.586	2433.43
206.661	2441.91
206.735	2418.88
206.81	2418.59
206.884	2432.3
206.958	2421.26
207.033	2436.34
207.107	2442.49
207.181	2475.68
207.256	2466.21
207.33	2487.53
207.405	2502.49
207.479	2520.35
207.553	2530.92
207.628	2517.4
207.702	2529.97
207.776	2526.16
207.851	2527.97
207.925	2543.02
207.999	2538.55
208.073	2532.69
208.148	2533.83
208.222	2524.35
208.296	2557.86
208.371	2571.64
208.445	2583.54
208.519	2610.92
208.593	2626.83
208.668	2624.97
208.742	2625.73
208.816	2632.45
208.89	2647.17
208.965	2648.03
209.039	2657.04
209.113	2671.99
209.187	2692.56
209.261	2691.42
209.336	2715.19
209.41	2740.25
209.484	2748.79
209.558	2777.05
209.632	2798.29
209.707	2815.64
209.781	2843.23
209.855	2866.97
209.929	2894.78
210.003	2914.18
210.077	2924.29
210.151	2981.31
210.226	3030.11
210.3	3077.17
210.374	3115.54
210.448	3140.3
210.522	3169.78
210.596	3199.31
210.67	3235.28
210.744	3311.5
210.818	3369.45
210.892	3418.81
210.966	3446.1
211.041	3489.15
211.115	3524
211.189	3585.73
211.263	3643.83
211.337	3697.08
211.411	3754.59
211.485	3797.99
211.559	3860.66
211.633	3925.94
211.707	3953.68
211.781	4017.77
211.855	4047.75
211.929	4107.87
212.003	4160.77
212.077	4251.77
212.151	4345.01
212.225	4436.69
212.299	4510.1
212.373	4591.55
212.447	4678.93
212.52	4804.42
212.594	4909.78
212.668	5026.98
212.742	5124.04
212.816	5232.04
212.89	5336.36
212.964	5457.42
213.038	5588.58
213.112	5734.45
213.186	5872.52
213.26	5989.52
213.333	6087.02
213.407	6237.09
213.481	6385.5
213.555	6548.23
213.629	6690.9
213.703	6828.66
213.777	6983.47
213.85	7125.47
213.924	7325.81
213.998	7490.22
214.072	7651.27
214.146	7809.55
214.219	7981.84
214.293	8157.72
214.367	8335.24
214.441	8532.74
214.515	8705.6
214.588	8868.24
214.662	9015.2
214.736	9184.36
214.81	9376.89
214.883	9576.57
214.957	9750.69
215.031	9933.38
215.105	10100.3
215.178	10268.61
215.252	10458.6
215.326	10634.65
215.4	10805.77
215.473	10943.93
215.547	11120.01
215.621	11299.09
215.694	11503.47
215.768	11672.49
215.842	11846.72
215.915	12023.03
215.989	12187.2
216.063	12364.91
216.136	12549.81
216.21	12739.1
216.284	12932.34
216.357	13117.25
216.431	13291.51
216.504	13487.89
216.578	13687.69
216.652	13876.99
216.725	14059.21
216.799	14240.69
216.873	14414.47
216.946	14591.72
217.02	14758.89
217.093	14923.7
217.167	15071.87
217.24	15219.42
217.314	15371.5
217.387	15528.73
217.461	15685.67
217.535	15848.49
217.608	15995.89
217.682	16147.76
217.755	16303.05
217.829	16445.38
217.902	16596.14
217.976	16751.19
218.049	16876.88
218.123	17004.5
218.196	17147.83
218.27	17282.87
218.343	17406.39
218.417	17541.91
218.49	17671.26
218.563	17823.16
218.637	17958.15
218.71	18103.3
218.784	18227.93
218.857	18368.93
218.931	18497.65
219.004	18623.53
219.077	18754.8
219.151	18871.08
219.224	18978.02
219.298	19086.54
219.371	19207.16
219.444	19307.45
219.518	19398.91
219.591	19511.53
219.665	19639.48
219.738	19737.11
219.811	19822.17
219.885	19924.19
219.958	20022.16
220.031	20110.26
220.105	20204.81
220.178	20289.34
220.251	20369.15
220.325	20467.46
220.398	20548.28
220.471	20633.83
220.544	20715.27
220.618	20773.93
220.691	20855.91
220.764	20939.19
220.838	21021.02
220.911	21078.04
220.984	21163.16
221.057	21240.61
221.131	21305.05
221.204	21336.91
221.277	21419.95
221.35	21516.74
221.424	21562.05
221.497	21615.79
221.57	21676.81
221.643	21726.6
221.716	21792.01
221.79	21835.68
221.863	21874.49
221.936	21909.14
222.009	21946.74
222.082	21989.45
222.155	22027.77
222.229	22081.95
222.302	22122.59
222.375	22155.71
222.448	22201.65
222.521	22226.52
222.594	22264.65
222.667	22287.79
222.74	22331.13
222.814	22353.26
222.887	22367.53
222.96	22412.8
223.033	22440.47
223.106	22466.89
223.179	22493.16
223.252	22503.04
223.325	22525.51
223.398	22558.05
223.471	22590.21
223.544	22616.53
223.617	22636.63
223.69	22657.36
223.763	22653.7
223.837	22668.16
223.91	22685.9
223.983	22677.37
224.056	22676.65
224.129	22682.1
224.202	22705.33
224.275	22716.86
224.348	22712.61
224.42	22699.98
224.493	22690.68
224.566	22697.67
224.639	22711.65
224.712	22700.17
224.785	22708.71
224.858	22715.89
224.931	22697.62
225.004	22682.53
225.077	22679.3
225.15	22646.03
225.223	22648.88
225.296	22670.14
225.369	22644.54
225.442	22628.63
225.514	22635.72
225.587	22638.18
225.66	22642.81
225.733	22641.36
225.806	22623.91
225.879	22619.86
225.952	22611.32
226.025	22620.68
226.097	22619.37
226.17	22606.21
226.243	22584.33
226.316	22571.31
226.389	22558.63
226.461	22555.25
226.534	22541.9
226.607	22521.36
226.68	22536.45
226.753	22518.81
226.825	22482.12
226.898	22484.09
226.971	22472.52
227.044	22458.21
227.117	22447.79
227.189	22439.98
227.262	22425.18
227.335	22407.01
227.407	22383.24
227.48	22374.56
227.553	22353.11
227.626	22326.11
227.698	22312.42
227.771	22309.58
227.844	22298.97
227.916	22280.32
227.989	22250.91
228.062	22241.46
228.134	22249.13
228.207	22225.7
228.28	22200.97
228.352	22183.04
228.425	22173.39
228.498	22167.95
228.57	22141.82
228.643	22134.35
228.716	22105.42
228.788	22083.78
228.861	22072.21
228.934	22072.55
229.006	22056.74
229.079	22033.16
229.151	22011.47
229.224	21976.33
229.296	21965.58
229.369	21983.42
229.442	21986.94
229.514	21964.91
229.587	21961.3
229.659	21919.41
229.732	21912.9
229.804	21907.31
229.877	21910.1
229.949	21899.06
230.022	21899.11
230.094	21892.94
230.167	21878.39
230.239	21848.07
230.312	21823.48
230.384	21828.21
230.457	21805.75
230.529	21786.08
230.602	21770.51
230.674	21761.79
230.747	21759.91
230.819	21751.86
230.892	21682.64
230.964	21655.79
231.037	21633.62
231.109	21605.71
231.181	21596.94
231.254	21565.08
231.326	21543.77
231.399	21519.96
231.471	21483.52
231.544	21423.66
231.616	21407.65
231.688	21393.05
231.761	21366.54
231.833	21349.19
231.905	21295.25
231.978	21282.05
232.05	21251.78
232.122	21230.62
232.195	21190.42
232.267	21171.53
232.339	21128.73
232.412	21117.6
232.484	21093.69
232.556	21062.75
232.629	21056.53
232.701	21035.66
232.773	21012.48
232.846	20982.26
232.918	20956.43
232.99	20948.53
233.062	20944.19
233.135	20922.93
233.207	20868.47
233.279	20851.17
233.351	20831.36
233.424	20798.93
233.496	20740.42
233.568	20738.59
233.64	20696.18
233.713	20669.62
233.785	20641.09
233.857	20624.47
233.929	20586.54
234.001	20571.31
234.074	20564.42
234.146	20515.4
234.218	20477.09
234.29	20446.39
234.362	20402.39
234.434	20365.77
234.507	20316.17
234.579	20261.67
234.651	20215.5
234.723	20201.28
234.795	20170.3
234.867	20124.08
234.939	20110.49
235.012	20098.2
235.084	20070.35
235.156	20051.36
235.228	20019.46
235.3	19979.94
235.372	19949.53
235.444	19922.83
235.516	19852.71
235.588	19821.1
235.66	19789.63
235.732	19754.45
235.804	19772.96
235.876	19764.33
235.948	19736.72
236.02	19701.64
236.092	19678.46
236.164	19649.16
236.236	19610.8
236.308	19574.95
236.38	19551.19
236.452	19507.87
236.524	19472.69
236.596	19446.71
236.668	19422.04
236.74	19391.68
236.812	19367.3
236.884	19342.86
236.956	19313.66
237.028	19292.02
237.1	19241.42
237.172	19217.76
237.244	19203.31
237.316	19138.59
237.388	19095.5
237.46	19057
237.532	19043.22
237.604	18998.21
237.675	18984.67
237.747	18962.74
237.819	18928.86
237.891	18901.68
237.963	18868.1
238.035	18837.01
238.107	18770.42
238.178	18749.4
238.25	18711.24
238.322	18697.26
238.394	18650.52
238.466	18613.8
238.538	18584.35
238.609	18564.26
238.681	18523.39
238.753	18482.09
238.825	18442
238.897	18413.42
238.968	18397.04
239.04	18354.2
239.112	18355.07
239.184	18308.13
239.255	18273.48
239.327	18251.75
239.399	18212.86
239.471	18188.18
239.542	18159.51
239.614	18148.33
239.686	18086.36
239.758	18074.45
239.829	18036.19
239.901	18014.94
239.973	17982.02
240.044	17961.83
240.116	17938.7
240.188	17908.14
240.259	17874.22
240.331	17845.06
240.403	17826.07
240.474	17785.74
240.546	17754.22
240.618	17704.68
240.689	17662.17
240.761	17624.54
240.833	17611.96
240.904	17581.6
240.976	17553.93
241.048	17517.45
241.119	17488.25
241.191	17465.36
241.262	17444.15
241.334	17402.47
241.405	17356.92
241.477	17321.74
241.549	17275.72
241.62	17254.99
241.692	17233.64
241.763	17225.89
241.835	17190.75
241.906	17149.98
241.978	17102.03
242.049	17079.52
242.121	17057.06
242.192	17051.28
242.264	17010.94
242.335	16952.67
242.407	16935.18
242.478	16891.46
242.55	16863.03
242.621	16828.76
242.693	16797.58
242.764	16763.03
242.836	16732.76
242.907	16715.02
242.979	16699.55
243.05	16680.37
243.122	16648.9
243.193	16617.96
243.264	16560.94
243.336	16532.94
243.407	16512.75
243.479	16500.65
243.55	16473.56
243.622	16449.95
243.693	16415.39
243.764	16412.64
243.836	16376.73
243.907	16340.2
243.978	16310.61
244.05	16290.17
244.121	16243.13
244.192	16223.61
244.264	16179.7
244.335	16149
244.407	16101.14
244.478	16066.72
244.549	16033.71
244.62	15987.48
244.692	15952.78
244.763	15925.45
244.834	15886.12
244.906	15851.47
244.977	15825.68
245.048	15812.71
245.119	15779.02
245.191	15736.94
245.262	15683.92
245.333	15674.33
245.405	15636.25
245.476	15619.82
245.547	15593.4
245.618	15575.62
245.689	15537.97
245.761	15515.51
245.832	15491.31
245.903	15478.88
245.974	15451.36
246.045	15421.52
246.117	15413.04
246.188	15369.46
246.259	15335.96
246.33	15309.64
246.401	15273.59
246.473	15227.6
246.544	15196.61
246.615	15171.01
246.686	15140.69
246.757	15118.71
246.828	15076.58
246.899	15069.83
246.97	15028.43
247.042	14991.7
247.113	14967.4
247.184	14968.66
247.255	14938.91
247.326	14913.37
247.397	14879.62
247.468	14863.43
247.539	14836.63
247.61	14791.89
247.681	14783.7
247.752	14778.78
247.823	14744.7
247.894	14727.25
247.965	14700.35
248.037	14659.77
248.108	14623.76
248.179	14603.7
248.25	14578.15
248.321	14564.66
248.392	14521.66
248.463	14516.11
248.534	14489.84
248.605	14473.79
248.675	14445.88
248.746	14423.85
248.817	14402.83
248.888	14380.32
248.959	14332.7
249.03	14317.7
249.101	14301.6
249.172	14272.34
249.243	14222.93
249.314	14217
249.385	14194.63
249.456	14176.07
249.527	14152.79
249.598	14131.19
249.669	14104.63
249.739	14086.89
249.81	14067.76
249.881	14033.53
249.952	14008.7
250.023	13989.18
250.094	13956.21
250.165	13920.2
250.235	13892.19
250.306	13868.66
250.377	13839.84
250.448	13823.83
250.519	13779.77
250.59	13771.43
250.66	13739.9
250.731	13733.54
250.802	13708.52
250.873	13685.82
250.944	13668.66
251.014	13634.96
251.085	13638.09
251.156	13626.91
251.227	13614.95
251.297	13609.17
251.368	13602.76
251.439	13595.14
251.51	13586.32
251.58	13554.55
251.651	13532.33
251.722	13526.83
251.792	13488.94
251.863	13467.39
251.934	13456.21
252.005	13467.78
252.075	13440.01
252.146	13422.71
252.217	13405.4
252.287	13404.63
252.358	13388.43
252.429	13382.31
252.499	13362.88
252.57	13341.28
252.641	13322.92
252.711	13306.05
252.782	13270.57
252.852	13265.7
252.923	13242.08
252.994	13218.7
253.064	13215.47
253.135	13180.76
253.205	13152.27
253.276	13148.17
253.347	13144.07
253.417	13115.44
253.488	13074.03
253.558	13049.59
253.629	13034.26
253.699	13023.12
253.77	13002.68
253.841	12978.19
253.911	12958.82
253.982	12947.97
254.052	12936.5
254.123	12924.3
254.193	12901.5
254.264	12912.25
254.334	12884.67
254.405	12850.45
254.475	12816.85
254.546	12797.18
254.616	12793.52
254.687	12774.67
254.757	12763.53
254.827	12733.98
254.898	12717.93
254.968	12705.35
255.039	12681.1
255.109	12677.01
255.18	12646.83
255.25	12602.92
255.321	12594.33
255.391	12560.59
255.461	12559.15
255.532	12512.72
255.602	12487.71
255.673	12442.73
255.743	12417.38
255.813	12367.92
255.884	12363.39
255.954	12358.38
256.024	12349.36
256.095	12327.38
256.165	12301.98
256.235	12290.46
256.306	12278.12
256.376	12276.96
256.446	12266.74
256.517	12256.42
256.587	12241.39
256.657	12225.43
256.728	12212.37
256.798	12182.82
256.868	12163.73
256.938	12131.72
257.009	12128.74
257.079	12114.56
257.149	12131.48
257.219	12085.93
257.29	12081.64
257.36	12041.92
257.43	12034.89
257.5	11993.53
257.571	11975.89
257.641	11965.14
257.711	11933.86
257.781	11926.14
257.852	11909.85
257.922	11875.68
257.992	11856.16
258.062	11838.03
258.132	11833.94
258.202	11815.43
258.273	11801.4
258.343	11804.44
258.413	11784.24
258.483	11756
258.553	11726.84
258.623	11696.57
258.693	11679.84
258.764	11689.1
258.834	11692.57
258.904	11676.23
258.974	11652.66
259.044	11630.35
259.114	11620.37
259.184	11603.74
259.254	11572.65
259.324	11532.89
259.394	11530.91
259.464	11533.08
259.535	11515.68
259.605	11496.21
259.675	11471.63
259.745	11466.09
259.815	11436.26
259.885	11414.04
259.955	11430.09
260.025	11408.16
260.095	11394.47
260.165	11393.51
260.235	11384.93
260.305	11356.93
260.375	11323.87
260.445	11337.84
260.515	11337.89
260.585	11335.24
260.655	11321.07
260.725	11318.56
260.795	11311.91
260.865	11310.32
260.934	11283.53
261.004	11273.07
261.074	11250.56
261.144	11253.65
261.214	11243.38
261.284	11226.18
261.354	11219.81
261.424	11187.38
261.494	11191.76
261.564	11167.38
261.634	11161.26
261.703	11120.58
261.773	11118.61
261.843	11114.51
261.913	11094.17
261.983	11059.48
262.053	11039.96
262.123	11018.56
262.192	10988.98
