Data from 24HourExp_27052025_FLMS018081_09-18-19-392.txt Node
Date: Wed May 28 09:18:19 BST 2025
User: adleo
Spectrometer: FLMS01808
Trigger mode: 0
Integration Time (sec): 4.000000E-1
Scans to average: 10
Electric dark correction enabled: true
Nonlinearity correction enabled: true
Boxcar width: 10
XAxis mode: Wavelengths
Number of Pixels in Spectrum: 2048
>>>>>Begin Spectral Data<<<<<
178.471	-123.04
178.857	-116.31
179.244	-111.49
179.631	-104.06
180.017	-95.85
180.404	-87.16
180.79	-76.29
181.176	-66.87
181.563	-58.47
181.949	-47.32
182.335	-37.64
182.722	-22.22
183.108	-3.9
183.494	22.2
183.88	75.73
184.266	130.21
184.653	187.09
185.039	239.43
185.425	295
185.811	348.85
186.197	400.06
186.582	452.93
186.968	504.61
187.354	557.43
187.74	607.47
188.126	658.47
188.511	708.24
188.897	755.44
189.283	803.01
189.668	848.61
190.054	891.73
190.439	938.46
190.825	981.99
191.21	1023.43
191.596	1057.82
191.981	1066.43
192.366	1070.05
192.752	1071.73
193.137	1078.02
193.522	1078.3
193.908	1080.82
194.293	1085.94
194.678	1087.48
195.063	1090.41
195.448	1093.16
195.833	1093.92
196.218	1093.1
196.603	1092.98
196.988	1092.17
197.373	1092.75
197.757	1093.85
198.142	1095.27
198.527	1091.18
198.912	1090.56
199.296	1089.28
199.681	1086.15
200.066	1083.44
200.45	1081.43
200.835	1080.89
201.219	1078.61
201.604	1078.11
201.988	1076.93
202.372	1077.58
202.757	1076.47
203.141	1077.46
203.525	1077.7
203.91	1079.63
204.294	1081.01
204.678	1080.26
205.062	1079.99
205.446	1078.55
205.83	1079.93
206.214	1078.34
206.598	1078.99
206.982	1080.11
207.366	1081.25
207.75	1082.81
208.134	1085.29
208.517	1088.93
208.901	1089.41
209.285	1091.06
209.669	1093.5
210.052	1093.97
210.436	1092.97
210.819	1095.19
211.203	1093.96
211.586	1093.44
211.97	1093.38
212.353	1093.39
212.737	1096.64
213.12	1100.88
213.503	1101.54
213.886	1102.76
214.27	1105.98
214.653	1109.79
215.036	1112.66
215.419	1112.67
215.802	1115.08
216.185	1115.92
216.568	1119.28
216.951	1122.84
217.334	1125.52
217.717	1128.16
218.1	1131.69
218.482	1135.78
218.865	1139.77
219.248	1144.98
219.631	1149.39
220.013	1154.96
220.396	1161.42
220.778	1167.29
221.161	1172.3
221.544	1179.61
221.926	1187.23
222.308	1193.79
222.691	1200.55
223.073	1207.85
223.455	1217.89
223.838	1227.71
224.22	1237.38
224.602	1245.98
224.984	1257
225.366	1268.85
225.749	1282.54
226.131	1295.87
226.513	1308.72
226.895	1323.84
227.276	1337.17
227.658	1352.33
228.04	1368.67
228.422	1386.33
228.804	1400.88
229.186	1415.91
229.567	1434.63
229.949	1451.72
230.331	1470.28
230.712	1489.49
231.094	1506.81
231.475	1525.88
231.857	1543.86
232.238	1562.54
232.62	1582.32
233.001	1602.21
233.382	1622.62
233.763	1640
234.145	1659.75
234.526	1679.9
234.907	1697.69
235.288	1716.84
235.669	1736.01
236.05	1753.91
236.431	1769.24
236.812	1790.08
237.193	1810.63
237.574	1829.41
237.955	1848.82
238.336	1867.74
238.717	1887.78
239.097	1911.16
239.478	1930.1
239.859	1952.03
240.239	1975.95
240.62	1999.34
241.001	2020.57
241.381	2042.69
241.762	2065.77
242.142	2088.24
242.522	2110.97
242.903	2135.42
243.283	2162.17
243.663	2188.68
244.044	2215.19
244.424	2245.66
244.804	2270.8
245.184	2300.27
245.564	2327.69
245.944	2356.05
246.324	2386.94
246.704	2415.99
247.084	2443.97
247.464	2476.51
247.844	2507.65
248.224	2538.41
248.604	2565.93
248.983	2595.75
249.363	2627.09
249.743	2657.99
250.122	2687.95
250.502	2717.45
250.882	2747.57
251.261	2777.07
251.641	2807.86
252.02	2841.42
252.399	2871.43
252.779	2907.94
253.158	2941.5
253.537	2979.34
253.917	3023.48
254.296	3061.39
254.675	3098.98
255.054	3139.5
255.433	3180.02
255.812	3217.34
256.191	3254.92
256.57	3296.81
256.949	3340.49
257.328	3385.2
257.707	3428.67
258.086	3475.79
258.465	3524.63
258.843	3576.27
259.222	3625.53
259.601	3678.55
259.979	3730.04
260.358	3783.61
260.736	3836.91
261.115	3891.58
261.493	3945.59
261.872	3994.32
262.25	4050.24
262.629	4108.29
263.007	4165.42
263.385	4225.45
263.763	4287.02
264.142	4350.1
264.52	4413.82
264.898	4478.38
265.276	4540.81
265.654	4610.09
266.032	4679.13
266.41	4747.12
266.788	4815.02
267.166	4889.18
267.544	4962.49
267.921	5039.22
268.299	5119.28
268.677	5197.29
269.055	5281.77
269.432	5365.47
269.81	5451.38
270.188	5536.84
270.565	5625.11
270.943	5714.76
271.32	5801.68
271.697	5895.01
272.075	5992.42
272.452	6090.16
272.829	6184.25
273.207	6284.61
273.584	6386.98
273.961	6490.47
274.338	6601.59
274.715	6719.63
275.092	6837.93
275.469	6957.44
275.846	7076.7
276.223	7196.38
276.6	7319.35
276.977	7442.14
277.354	7566.25
277.731	7693.63
278.108	7824.58
278.484	7954.84
278.861	8088
279.238	8229.85
279.614	8368.64
279.991	8513.18
280.367	8658.48
280.744	8808.95
281.12	8959.58
281.497	9109.52
281.873	9264.13
282.249	9414.19
282.625	9561.46
283.002	9711.03
283.378	9861.62
283.754	10013.51
284.13	10165.08
284.506	10324.94
284.882	10482.24
285.258	10638.68
285.634	10798.21
286.01	10961.45
286.386	11120.88
286.762	11286.98
287.138	11450.31
287.513	11615.53
287.889	11777.97
288.265	11940.05
288.641	12099.84
289.016	12259.64
289.392	12425.69
289.767	12586.03
290.143	12755.17
290.518	12915.39
290.894	13077.65
291.269	13235.91
291.644	13394.93
292.02	13549.59
292.395	13702.53
292.77	13858.23
293.145	14015.32
293.52	14168.12
293.895	14317.73
294.27	14471.44
294.646	14621.1
295.02	14768.33
295.395	14921.42
295.77	15074.66
296.145	15229.61
296.52	15384.07
296.895	15541.28
297.269	15688.73
297.644	15847.23
298.019	15999.7
298.393	16153.54
298.768	16306.85
299.143	16463.07
299.517	16620.66
299.891	16779.24
300.266	16939.64
300.64	17093.86
301.015	17257.32
301.389	17430.32
301.763	17601.54
302.137	17778.22
302.512	17963.2
302.886	18139.25
303.26	18321.2
303.634	18497.62
304.008	18670.88
304.382	18855.37
304.756	19040.93
305.13	19230.3
305.504	19407.19
305.877	19598.51
306.251	19804.08
306.625	20005.79
306.999	20213.18
307.372	20421.39
307.746	20643.89
308.119	20853.91
308.493	21071.56
308.866	21283.46
309.24	21495.26
309.613	21702.6
309.987	21906.96
310.36	22103.34
310.733	22309.57
311.107	22527.38
311.48	22746.74
311.853	22981.76
312.226	23204.7
312.599	23432.14
312.972	23658.93
313.345	23892.38
313.718	24119.27
314.091	24336.18
314.464	24563.64
314.837	24791.49
315.21	25005.71
315.582	25223.95
315.955	25430.99
316.328	25647.92
316.7	25863.82
317.073	26086.27
317.446	26310.91
317.818	26540.44
318.191	26766.74
318.563	27001.06
318.936	27207.56
319.308	27410.85
319.68	27611.62
320.053	27812.17
320.425	27995.34
320.797	28173.34
321.169	28333.39
321.541	28473.85
321.913	28611.59
322.285	28730.4
322.657	28847.71
323.029	28997.19
323.401	29136.94
323.773	29313.29
324.145	29483.81
324.517	29676.52
324.889	29844.25
325.26	30040.67
325.632	30254.34
326.004	30487.31
326.375	30734.46
326.747	31008.86
327.118	31308.74
327.49	31596.9
327.861	31905.25
328.233	32211.24
328.604	32520.96
328.975	32835.47
329.346	33149.05
329.718	33452.61
330.089	33760.76
330.46	34064.11
330.831	34335.24
331.202	34589.03
331.573	34828.77
331.944	35056.81
332.315	35279.64
332.686	35500.34
333.057	35706.84
333.428	35885.82
333.799	36057.05
334.169	36212.76
334.54	36350.8
334.911	36470.56
335.281	36598.13
335.652	36716.55
336.022	36858.83
336.393	37008.05
336.763	37178.27
337.134	37367.43
337.504	37572.13
337.874	37771.82
338.245	37974.78
338.615	38184.56
338.985	38410.9
339.355	38638.2
339.726	38868.48
340.096	39087.46
340.466	39338.61
340.836	39580.74
341.206	39824.94
341.576	40071.8
341.945	40315.01
342.315	40550.68
342.685	40795.82
343.055	41044.93
343.425	41287.93
343.794	41514.64
344.164	41742.01
344.533	41968.95
344.903	42196.66
345.273	42424.54
345.642	42650.75
346.011	42879.02
346.381	43119.34
346.75	43356.23
347.12	43594.17
347.489	43836.38
347.858	44080.2
348.227	44291.67
348.596	44506.71
348.965	44745.96
349.334	44967.6
349.704	45200.58
350.072	45441
350.441	45675.3
350.81	45914.85
351.179	46143.67
351.548	46374.26
351.917	46599.24
352.285	46801.94
352.654	47007.54
353.023	47217.41
353.391	47420.54
353.76	47633.27
354.129	47817.99
354.497	48048.81
354.865	48267.68
355.234	48499.81
355.602	48717.37
355.971	48965.89
356.339	49185.19
356.707	49403.84
357.075	49627.72
357.443	49854.57
357.811	50067.1
358.18	50273.88
358.548	50482.44
358.916	50695.71
359.284	50915.97
359.651	51128.59
360.019	51343.61
360.387	51546.48
360.755	51745.34
361.123	51974.18
361.49	52196.32
361.858	52415.68
362.226	52607.25
362.593	52805.23
362.961	52987.43
363.328	53189.62
363.696	53356.08
364.063	53575.92
364.43	53778.74
364.798	53992.8
365.165	54169.25
365.532	54356.06
365.899	54547.77
366.267	54711.15
366.634	54857.23
367.001	55020.66
367.368	55162.05
367.735	55339.22
368.102	55512.14
368.469	55704.23
368.835	55881.32
369.202	56044.89
369.569	56234.73
369.936	56423.77
370.303	56610.54
370.669	56808.62
371.036	56972.32
371.402	57176.84
371.769	57351.82
372.135	57501.99
372.502	57622.38
372.868	57766.27
373.235	57911.96
373.601	58046.72
373.967	58215.85
374.333	58406.24
374.7	58596.34
375.066	58797.11
375.432	58976.51
375.798	59156.82
376.164	59321.83
376.53	59462.79
376.896	59629.21
377.262	59801.95
377.628	59934.27
377.993	60085.25
378.359	60227.05
378.725	60385.71
379.091	60528.4
379.456	60658.81
379.822	60786.28
380.187	60939.69
380.553	61128.23
380.918	61322.1
381.284	61490.76
381.649	61667.73
382.015	61805.78
382.38	61921.25
382.745	62091.14
383.11	62242.86
383.476	62380.66
383.841	62509.33
384.206	62673.57
384.571	62790.5
384.936	62923.1
385.301	63096.38
385.666	63226.4
386.031	63376.83
386.396	63531.72
386.76	63682.78
387.125	63881.91
387.49	64091.71
387.855	64284.7
388.219	64449.17
388.584	64614.09
388.948	64818.33
389.313	64979.04
389.677	65178.87
390.042	65407.14
390.406	65557.45
390.771	65743.55
391.135	65939.09
391.499	66165.48
391.863	66388.87
392.227	66627.56
392.592	66817.74
392.956	67004.8
393.32	67197.86
393.684	67410.18
394.048	67585.41
394.412	67770.12
394.775	67908.6
395.139	68041.77
395.503	68198.37
395.867	68347.21
396.231	68496.99
396.594	68597.91
396.958	68739.29
397.321	68896.88
397.685	69019.82
398.048	69157.61
398.412	69293.13
398.775	69414.73
399.139	69546.47
399.502	69661.73
399.865	69810.86
400.228	70012.85
400.592	70157.74
400.955	70364.58
401.318	70501.36
401.681	70661.9
402.044	70796.62
402.407	70958.93
402.77	71116.96
403.133	71300.96
403.496	71442.93
403.859	71595.32
404.221	71825.94
404.584	72053.72
404.947	72296.69
405.309	72504.92
405.672	72740.82
406.034	72963.06
406.397	73215.8
406.759	73430.76
407.122	73606.42
407.484	73775.09
407.847	73953.82
408.209	74197.18
408.571	74421.24
408.933	74685.32
409.296	74942.22
409.658	75183.64
410.02	75448.84
410.382	75762.13
410.744	76022.2
411.106	76310.94
411.468	76579.1
411.83	76817.11
412.191	77020.49
412.553	77197.32
412.915	77412.58
413.277	77623.09
413.638	77826.75
414	77998.22
414.361	78178.57
414.723	78411.99
415.084	78626.59
415.446	78799.75
415.807	78938.44
416.169	79046.72
416.53	79135.86
416.891	79240.04
417.252	79367.33
417.614	79449.1
417.975	79496.56
418.336	79550
418.697	79609.1
419.058	79662.02
419.419	79700.23
419.78	79742.75
420.141	79774.7
420.501	79803.13
420.862	79825.56
421.223	79843.19
421.584	79880.68
421.944	79902.25
422.305	79914.08
422.666	79922.23
423.026	79926.74
423.387	79936.99
423.747	79945.48
424.107	79955.4
424.468	79965.33
424.828	79973.42
425.188	79978
425.549	79984.43
425.909	79989.71
426.269	79987.13
426.629	79992.26
426.989	79996.25
427.349	79999.28
427.709	80003.13
428.069	80005.2
428.429	80010.56
428.789	80017.8
429.149	80022.42
429.508	80026.82
429.868	80030.15
430.228	80035.18
430.587	80039.06
430.947	80044.54
431.306	80050.41
431.666	80054.15
432.025	80057.67
432.385	80058.74
432.744	80060.7
433.103	80064.29
433.463	80068.03
433.822	80077.93
434.181	80080.22
434.54	80083.29
434.899	80085.33
435.258	80087.77
435.618	80088.99
435.976	80091.06
436.335	80091.77
436.694	80093.99
437.053	80095.8
437.412	80097.28
437.771	80098.24
438.129	80099.98
438.488	80100.43
438.847	80100.65
439.205	80101.72
439.564	80101.43
439.922	80102.13
440.281	80104.43
440.639	80105.98
440.997	80105.98
441.356	80106.35
441.714	80108.09
442.072	80108.57
442.431	80109.17
442.789	80109.05
443.147	80110.68
443.505	80111.5
443.863	80111.09
444.221	80109.79
444.579	80109.46
444.937	80110.09
445.294	80111.02
445.652	80113.02
446.01	80113.09
446.368	80113.53
446.725	80112.79
447.083	80113.53
447.441	80113.83
447.798	80114.09
448.156	80112.35
448.513	80111.98
448.87	80112.24
449.228	80112.09
449.585	80112.05
449.942	80113.13
450.3	80112.76
450.657	80111.94
451.014	80112.05
451.371	80112.94
451.728	80114.94
452.085	80115.2
452.442	80115.83
452.799	80116.79
453.156	80113.9
453.513	80113.5
453.869	80113.39
454.226	80115.5
454.583	80115.79
454.939	80115.72
455.296	80115.42
455.653	80116.57
456.009	80117.2
456.366	80115.87
456.722	80117.27
457.078	80117.16
457.435	80115.72
457.791	80116.02
458.147	80116.9
458.503	80117.9
458.86	80118.05
459.216	80118.2
459.572	80118.42
459.928	80119.24
460.284	80119.64
460.64	80120.61
460.996	80121.68
461.351	80122.5
461.707	80122.38
462.063	80123.01
462.419	80125.13
462.774	80125.38
463.13	80125.2
463.486	80125.01
463.841	80126.68
464.197	80125.87
464.552	80127.75
464.908	80129.83
465.263	80132.61
465.618	80134.68
465.974	80133.98
466.329	80133.31
466.684	80134.2
467.039	80135.09
467.394	80135.2
467.749	80135.5
468.104	80136.72
468.459	80136.87
468.814	80138.09
469.169	80139.38
469.524	80140.09
469.879	80140.24
470.233	80141.68
470.588	80143.16
470.943	80143.76
471.297	80144.87
471.652	80146.94
472.006	80147.79
472.361	80149.5
472.715	80149.02
473.07	80150.09
473.424	80151.24
473.778	80152.24
474.133	80152.8
474.487	80153.31
474.841	80153.72
475.195	80154.13
475.549	80155.91
475.903	80155.57
476.257	80154.8
476.611	80154.98
476.965	80155.28
477.319	80154.94
477.673	80154.61
478.026	80155.72
478.38	80155.24
478.734	80155.17
479.087	80153.35
479.441	80152.61
479.795	80151.83
480.148	80151.76
480.502	80149.94
480.855	80150.24
481.208	80151.54
481.562	80151.54
481.915	80152.42
482.268	80154.17
482.621	80154.91
482.974	80154.24
483.328	80156.17
483.681	80156.17
484.034	80155.35
484.387	80155.61
484.739	80155.57
485.092	80154.83
485.445	80155.43
485.798	80158.17
486.151	80158.91
486.503	80161.02
486.856	80160.98
487.209	80161.32
487.561	80162.47
487.914	80163.69
488.266	80164.02
488.618	80161.76
488.971	80162.24
489.323	80162.95
489.675	80162.58
490.028	80163.47
490.38	80163.84
490.732	80163.1
491.084	80163.88
491.436	80163.58
491.788	80165.21
492.14	80165.84
492.492	80167.8
492.844	80167.8
493.196	80165.84
493.548	80166.32
493.899	80166.25
494.251	80167.1
494.603	80166.91
494.954	80165.25
495.306	80164.58
495.657	80164.21
496.009	80164.88
496.36	80164.28
496.712	80163.32
497.063	80161.76
497.414	80160.98
497.765	80161.99
498.117	80161.13
498.468	80160.76
498.819	80159.47
499.17	80158.21
499.521	80158.95
499.872	80157.69
500.223	80156.17
500.574	80156.91
500.924	80157.58
501.275	80156.91
501.626	80157.13
501.977	80156.98
502.327	80157.8
502.678	80159.54
503.029	80160.99
503.379	80164.14
503.73	80164.77
504.08	80163.95
504.43	80165.36
504.781	80166.03
505.131	80165.02
505.481	80164.91
505.831	80164.21
506.182	80165.95
506.532	80165.51
506.882	80165.02
507.232	80164.28
507.582	80165.36
507.932	80165.62
508.281	80163.99
508.631	80163.76
508.981	80163.06
509.331	80163.88
509.681	80164.54
510.03	80163.21
510.38	80162.87
510.729	80161.87
511.079	80161.39
511.428	80162.58
511.778	80162.24
512.127	80160.65
512.476	80161.28
512.826	80162.35
513.175	80164.84
513.524	80164.5
513.873	80165.54
514.222	80166.62
514.571	80168.25
514.92	80168.65
515.269	80169.51
515.618	80170.62
515.967	80170.03
516.316	80170.58
516.665	80171.1
517.014	80169.91
517.362	80170.06
517.711	80168.84
518.059	80168.8
518.408	80168.4
518.757	80167.84
519.105	80167.73
519.453	80168.54
519.802	80166.91
520.15	80165.84
520.498	80165.47
520.847	80165.1
521.195	80166.28
521.543	80164.47
521.891	80165.36
522.239	80165.17
522.587	80163.88
522.935	80164.62
523.283	80165.43
523.631	80165.54
523.979	80165.1
524.326	80165.54
524.674	80165.25
525.022	80165.8
525.369	80165.62
525.717	80168.17
526.064	80168.58
526.412	80169.69
526.759	80169.4
527.107	80170.55
527.454	80172.07
527.801	80172.73
528.149	80173.55
528.496	80172.81
528.843	80174.33
529.19	80174.36
529.537	80172.66
529.884	80173.58
530.231	80173.44
530.578	80174.77
530.925	80175.4
531.272	80175.7
531.619	80175.62
531.966	80175.85
532.312	80175.96
532.659	80174.96
533.006	80172.92
533.352	80173.47
533.699	80172.88
534.045	80173.51
534.392	80173.25
534.738	80173.32
535.084	80172.77
535.431	80173.36
535.777	80171.99
536.123	80172.47
536.469	80172.95
536.815	80174.18
537.161	80173.95
537.507	80172.25
537.853	80170.06
538.199	80169.1
538.545	80168.43
538.891	80166.51
539.237	80166.21
539.582	80166.4
539.928	80166.58
540.274	80167.88
540.619	80169.84
540.965	80169.4
541.31	80170.55
541.656	80169.58
542.001	80169.66
542.347	80168.92
542.692	80167.81
543.037	80169.1
543.382	80167.51
543.728	80166.77
544.073	80166.29
544.418	80165.32
544.763	80165.28
545.108	80166.06
545.453	80165.54
545.798	80166.29
546.142	80169.62
546.487	80171.07
546.832	80170.99
547.177	80171.03
547.521	80168.47
547.866	80165.62
548.211	80165.02
548.555	80164.17
548.9	80164.39
549.244	80163.02
549.588	80164.06
549.933	80165.36
550.277	80164.62
550.621	80165.1
550.965	80162.84
551.31	80163.5
551.654	80163.21
551.998	80164.28
552.342	80164.76
552.686	80166.32
553.03	80165.73
553.373	80165.32
553.717	80162.76
554.061	80162.06
554.405	80162.73
554.748	80163.28
555.092	80164.62
555.436	80166.21
555.779	80165.36
556.123	80165.95
556.466	80166.58
556.81	80166.17
557.153	80165.76
557.496	80166.39
557.839	80166.73
558.183	80168.32
558.526	80168.02
558.869	80169.8
559.212	80169.54
559.555	80170.58
559.898	80169.88
560.241	80171.21
560.584	80170.36
560.927	80172.06
561.269	80172.84
561.612	80173.25
561.955	80173.44
562.297	80173.06
562.64	80169.84
562.983	80169.95
563.325	80171.21
563.668	80171.21
564.01	80169.8
564.352	80168.03
564.695	80166.14
565.037	80165.17
565.379	80164.95
565.721	80163.39
566.063	80162.39
566.406	80161.84
566.748	80161.39
567.09	80160.95
567.431	80159.35
567.773	80158.95
568.115	80157.5
568.457	80156.95
568.799	80156.46
569.14	80156.09
569.482	80155.24
569.824	80158.61
570.165	80156.17
570.507	80154.17
570.848	80154.39
571.19	80154.28
571.531	80154.69
571.872	80156.39
572.214	80157.54
572.555	80156.65
572.896	80157.24
573.237	80156.09
573.578	80155.24
573.919	80155.2
574.26	80154.17
574.601	80153.98
574.942	80153.17
575.283	80152.54
575.624	80151.68
575.964	80150.13
576.305	80151.54
576.646	80152.09
576.986	80150.39
577.327	80153.06
577.667	80154.17
578.008	80155.61
578.348	80156.84
578.689	80157.76
579.029	80157.21
579.369	80155.35
579.71	80155.43
580.05	80156.87
580.39	80157.91
580.73	80158.87
581.07	80158.47
581.41	80160.06
581.75	80158.91
582.09	80158.61
582.43	80160.13
582.769	80161.06
583.109	80161.06
583.449	80160.32
583.789	80158.87
584.128	80159.61
584.468	80158.21
584.807	80156.95
585.147	80154.91
585.486	80153.68
