Data from 24HourExp_27052025_FLMS018081_12-18-20-064.txt Node
Date: Tue May 27 12:18:20 BST 2025
User: adleo
Spectrometer: FLMS01808
Trigger mode: 0
Integration Time (sec): 4.000000E-1
Scans to average: 10
Electric dark correction enabled: true
Nonlinearity correction enabled: true
Boxcar width: 10
XAxis mode: Wavelengths
Number of Pixels in Spectrum: 2048
>>>>>Begin Spectral Data<<<<<
178.471	-128.34
178.857	-121.18
179.244	-114.59
179.631	-104.95
180.017	-97.23
180.404	-89.6
180.79	-77.68
181.176	-67.43
181.563	-59.29
181.949	-48.83
182.335	-39.17
182.722	-24.06
183.108	-6.13
183.494	20.08
183.88	76.43
184.266	129.49
184.653	185.5
185.039	240.03
185.425	296.7
185.811	350.02
186.197	403.81
186.582	455.33
186.968	506.97
187.354	557.81
187.74	606.3
188.126	657.23
188.511	706.69
188.897	751.76
189.283	798.18
189.668	844.85
190.054	888.38
190.439	933.97
190.825	978.81
191.21	1018.05
191.596	1049.81
191.981	1056.65
192.366	1061.41
192.752	1063.21
193.137	1066.12
193.522	1066.47
193.908	1068.06
194.293	1070.3
194.678	1071.41
195.063	1073.61
195.448	1076.57
195.833	1077.83
196.218	1076.94
196.603	1077.38
196.988	1077.45
197.373	1077.3
197.757	1077.06
198.142	1076.28
198.527	1073.49
198.912	1071.13
199.296	1072.33
199.681	1070.78
200.066	1069.95
200.45	1067.32
200.835	1065.83
201.219	1066.39
201.604	1065.21
201.988	1066.81
202.372	1067.83
202.757	1067.71
203.141	1067.69
203.525	1067.41
203.91	1068.71
204.294	1070.51
204.678	1070.72
205.062	1071.61
205.446	1071.04
205.83	1073.22
206.214	1074.81
206.598	1077.59
206.982	1079.41
207.366	1080.63
207.75	1080.64
208.134	1080.34
208.517	1082.02
208.901	1083.86
209.285	1084.1
209.669	1085.89
210.052	1084.89
210.436	1083.73
210.819	1085.42
211.203	1086.28
211.586	1088.06
211.97	1088.18
212.353	1088.06
212.737	1089.47
213.12	1091.23
213.503	1092.73
213.886	1093.17
214.27	1094.12
214.653	1094.4
215.036	1096.81
215.419	1096.98
215.802	1101.92
216.185	1103.52
216.568	1107.06
216.951	1109.73
217.334	1112.74
217.717	1116.2
218.1	1118.47
218.482	1121.95
218.865	1124.68
219.248	1127.57
219.631	1131.57
220.013	1136.15
220.396	1142.46
220.778	1146.49
221.161	1152.85
221.544	1158.01
221.926	1163.93
222.308	1172.05
222.691	1179.09
223.073	1185.3
223.455	1194.75
223.838	1202.56
224.22	1213.25
224.602	1223.02
224.984	1234.03
225.366	1244.46
225.749	1258.41
226.131	1270.29
226.513	1283.76
226.895	1296.8
227.276	1309.7
227.658	1322.99
228.04	1337.45
228.422	1351.46
228.804	1367.29
229.186	1381.95
229.567	1400.51
229.949	1418.57
230.331	1434.97
230.712	1453.36
231.094	1470.51
231.475	1489.15
231.857	1508.07
232.238	1524.93
232.62	1544.72
233.001	1564.11
233.382	1584.01
233.763	1600.17
234.145	1620.63
234.526	1639.03
234.907	1657.3
235.288	1677.29
235.669	1696.58
236.05	1715.79
236.431	1734.61
236.812	1754.46
237.193	1775.25
237.574	1795.12
237.955	1815.02
238.336	1836.49
238.717	1857.95
239.097	1882.11
239.478	1903.13
239.859	1924.44
240.239	1948.75
240.62	1970.36
241.001	1990.95
241.381	2012.57
241.762	2035.1
242.142	2058.05
242.522	2080.85
242.903	2107.36
243.283	2133.35
243.663	2160.79
244.044	2188.63
244.424	2217.73
244.804	2244.99
245.184	2273.68
245.564	2299.96
245.944	2330
246.324	2358.54
246.704	2387.12
247.084	2413.31
247.464	2441.27
247.844	2472.42
248.224	2502.6
248.604	2533.22
248.983	2562.24
249.363	2593.52
249.743	2623.07
250.122	2651.91
250.502	2681.99
250.882	2710.7
251.261	2740.18
251.641	2767.5
252.02	2797.74
252.399	2828.85
252.779	2863.05
253.158	2897.86
253.537	2935.12
253.917	2973.42
254.296	3010.49
254.675	3049.13
255.054	3089.95
255.433	3132.72
255.812	3168.96
256.191	3207.84
256.57	3247.25
256.949	3289.53
257.328	3333.46
257.707	3376.85
258.086	3424.05
258.465	3470.97
258.843	3520.27
259.222	3569.28
259.601	3621.94
259.979	3675.32
260.358	3726.22
260.736	3775.87
261.115	3827.67
261.493	3879.04
261.872	3928.33
262.25	3983.18
262.629	4034.5
263.007	4089.08
263.385	4146.91
263.763	4209.29
264.142	4270.43
264.52	4332.79
264.898	4397.26
265.276	4459.38
265.654	4527.53
266.032	4593.57
266.41	4660.69
266.788	4732.32
267.166	4806.06
267.544	4876.77
267.921	4947.9
268.299	5026.29
268.677	5108.83
269.055	5188.7
269.432	5272.83
269.81	5357.23
270.188	5444.7
270.565	5532.69
270.943	5625.34
271.32	5711.14
271.697	5804.7
272.075	5898.87
272.452	5993.51
272.829	6087.82
273.207	6189.2
273.584	6293.17
273.961	6399.44
274.338	6509.54
274.715	6621.56
275.092	6735.04
275.469	6856.3
275.846	6979.01
276.223	7100.36
276.6	7220.14
276.977	7341.84
277.354	7466.61
277.731	7591.83
278.108	7718.78
278.484	7850.42
278.861	7978.94
279.238	8117.08
279.614	8250.04
279.991	8387.7
280.367	8532.54
280.744	8682.76
281.12	8826.35
281.497	8968.34
281.873	9120.57
282.249	9272.44
282.625	9416.55
283.002	9562.69
283.378	9708.29
283.754	9855.24
284.13	10003.61
284.506	10158.61
284.882	10314.89
285.258	10469.11
285.634	10625.65
286.01	10783.33
286.386	10939.25
286.762	11104.78
287.138	11268.29
287.513	11435.28
287.889	11601.96
288.265	11762.91
288.641	11921.18
289.016	12083.95
289.392	12247.01
289.767	12405.7
290.143	12570.18
290.518	12736.13
290.894	12901.58
291.269	13061.57
291.644	13223.02
292.02	13375.98
292.395	13533.06
292.77	13693.57
293.145	13850.57
293.52	14004.35
293.895	14157.66
294.27	14316.79
294.646	14465.67
295.02	14613.85
295.395	14764.52
295.77	14918.08
296.145	15073.52
296.52	15226.51
296.895	15379.22
297.269	15534.94
297.644	15687.37
298.019	15833.89
298.393	15984.15
298.768	16136.22
299.143	16290.39
299.517	16442.8
299.891	16598.92
300.266	16754.99
300.64	16910.51
301.015	17069.03
301.389	17238.94
301.763	17410.48
302.137	17579.25
302.512	17756.72
302.886	17936.21
303.26	18117.65
303.634	18290.7
304.008	18462.68
304.382	18645.01
304.756	18826.34
305.13	19011.99
305.504	19189.44
305.877	19374.24
306.251	19577.08
306.625	19779.81
306.999	19990.34
307.372	20194.4
307.746	20416.47
308.119	20627.1
308.493	20836.7
308.866	21045.67
309.24	21259.66
309.613	21464.86
309.987	21672.07
310.36	21866.42
310.733	22068.8
311.107	22279.57
311.48	22500.03
311.853	22729.15
312.226	22947.63
312.599	23173.11
312.972	23393.67
313.345	23621.49
313.718	23851.59
314.091	24071.13
314.464	24294.74
314.837	24508.51
315.21	24727.54
315.582	24937.91
315.955	25145.88
316.328	25364.11
316.7	25582.28
317.073	25798.31
317.446	26016.68
317.818	26240.89
318.191	26473.79
318.563	26695.9
318.936	26906.77
319.308	27106.19
319.68	27300.17
320.053	27507.69
320.425	27696.57
320.797	27877.71
321.169	28046.79
321.541	28191.33
321.913	28321.06
322.285	28443.05
322.657	28571.4
323.029	28715.88
323.401	28857.89
323.773	29021.2
324.145	29189.5
324.517	29378.92
324.889	29556.74
325.26	29757.14
325.632	29975.81
326.004	30206.51
326.375	30460.58
326.747	30734.51
327.118	31036.41
327.49	31324.98
327.861	31622.08
328.233	31923.23
328.604	32228.22
328.975	32533.78
329.346	32845.9
329.718	33156.93
330.089	33451.36
330.46	33741.35
330.831	34014.54
331.202	34272.9
331.573	34521.6
331.944	34748.94
332.315	34963.57
332.686	35180.61
333.057	35375.02
333.428	35544.24
333.799	35712.08
334.169	35859.82
334.54	35990.97
334.911	36108.32
335.281	36244.26
335.652	36368.01
336.022	36506.32
336.393	36653.04
336.763	36818.32
337.134	36999
337.504	37190.2
337.874	37395.24
338.245	37600.8
338.615	37810.29
338.985	38034.24
339.355	38249.87
339.726	38469.04
340.096	38691.51
340.466	38937.79
340.836	39183.37
341.206	39426.64
341.576	39670.43
341.945	39915.18
342.315	40152.15
342.685	40389.75
343.055	40630.72
343.425	40869.03
343.794	41097.04
344.164	41326.92
344.533	41558.55
344.903	41788.09
345.273	42025.15
345.642	42253.14
346.011	42482.64
346.381	42716.84
346.75	42953.18
347.12	43201.5
347.489	43449.31
347.858	43688.79
348.227	43902.08
348.596	44120.06
348.965	44360.07
349.334	44590.3
349.704	44828.32
350.072	45067.52
350.441	45307.38
350.81	45544.32
351.179	45776.98
351.548	46011.3
351.917	46233.78
352.285	46424.28
352.654	46626.07
353.023	46827.5
353.391	47024.4
353.76	47239.01
354.129	47423.58
354.497	47645.56
354.865	47862.08
355.234	48096.31
355.602	48320.22
355.971	48550.82
356.339	48764.77
356.707	48975.85
357.075	49188.28
357.443	49401.83
357.811	49619.53
358.18	49823.57
358.548	50039.51
358.916	50244.04
359.284	50461.28
359.651	50674.64
360.019	50894.23
360.387	51099.75
360.755	51300.51
361.123	51524.05
361.49	51744.3
361.858	51961.66
362.226	52161.7
362.593	52363.71
362.961	52538.64
363.328	52735.68
363.696	52910.69
364.063	53126.45
364.43	53337.7
364.798	53552.48
365.165	53740.6
365.532	53921.64
365.899	54112.8
366.267	54272.32
366.634	54426.82
367.001	54592.4
367.368	54726.55
367.735	54908.85
368.102	55083.26
368.469	55271.6
368.835	55453.79
369.202	55620.76
369.569	55813.54
369.936	55997.48
370.303	56176.12
370.669	56373.92
371.036	56543.89
371.402	56751.21
371.769	56927.16
372.135	57066.08
372.502	57191.57
372.868	57333.26
373.235	57476.24
373.601	57602.71
373.967	57768.97
374.333	57951.95
374.7	58130.01
375.066	58343.58
375.432	58524.53
375.798	58703.85
376.164	58870.5
376.53	59019.5
376.896	59185.62
377.262	59355.37
377.628	59478.75
377.993	59627.33
378.359	59776.07
378.725	59926.61
379.091	60070.09
379.456	60206.71
379.822	60348.37
380.187	60492.44
380.553	60674.75
380.918	60866.16
381.284	61042.47
381.649	61215.81
382.015	61350.09
382.38	61469.68
382.745	61620.56
383.11	61773.45
383.476	61910.39
383.841	62038.2
384.206	62186.29
384.571	62299.65
384.936	62425.82
385.301	62594.09
385.666	62721.25
386.031	62861.27
386.396	63019.08
386.76	63162.43
387.125	63350.15
387.49	63543
387.855	63734.04
388.219	63898.45
388.584	64066
388.948	64258.81
389.313	64420.9
389.677	64629.57
390.042	64855.72
390.406	65011.26
390.771	65194.29
391.135	65382.19
391.499	65609.98
391.863	65838.53
392.227	66076.27
392.592	66273.36
392.956	66470.67
393.32	66669.29
393.684	66888.99
394.048	67064.3
394.412	67245.03
394.775	67383.81
395.139	67528.47
395.503	67686.75
395.867	67836.24
396.231	67982.56
396.594	68083.51
396.958	68218.22
397.321	68371.47
397.685	68495.7
398.048	68646.62
398.412	68785.11
398.775	68907.69
399.139	69029.58
399.502	69134.02
399.865	69273.11
400.228	69457.87
400.592	69586.45
400.955	69782.58
401.318	69909.01
401.681	70065.83
402.044	70201.93
402.407	70365.61
402.77	70519.35
403.133	70700.5
403.496	70842.32
403.859	70987.4
404.221	71221.46
404.584	71454.74
404.947	71692.26
405.309	71895.81
405.672	72120.11
406.034	72332.51
406.397	72588.82
406.759	72804.7
407.122	72977.46
407.484	73148.29
407.847	73332.88
408.209	73580.12
408.571	73799.74
408.933	74066.27
409.296	74317.45
409.658	74554.63
410.02	74825.8
410.382	75142.79
410.744	75404.82
411.106	75686.99
411.468	75959.47
411.83	76199.61
412.191	76404.08
412.553	76586.62
412.915	76813.44
413.277	77032.85
413.638	77248.72
414	77426.42
414.361	77623.16
414.723	77881.13
415.084	78114.45
415.446	78314.86
415.807	78479.62
416.169	78615.18
416.53	78723.32
416.891	78849.87
417.252	79005.34
417.614	79105.31
417.975	79169.1
418.336	79243.59
418.697	79325.87
419.058	79400.71
419.419	79460.93
419.78	79523.1
420.141	79571.16
420.501	79612.83
420.862	79647.03
421.223	79673.94
421.584	79725.57
421.944	79756.93
422.305	79778.61
422.666	79793.92
423.026	79798.6
423.387	79814.59
423.747	79827.33
424.107	79842.46
424.468	79858.73
424.828	79868.91
425.188	79875.14
425.549	79883.29
425.909	79891.93
426.269	79892.66
426.629	79900.63
426.989	79905.94
427.349	79912.62
427.709	79917.68
428.069	79922.04
428.429	79928.46
428.789	79937.02
429.149	79945.1
429.508	79951.23
429.868	79955.77
430.228	79959.91
430.587	79966.92
430.947	79973.05
431.306	79979.59
431.666	79984.54
432.025	79986.98
432.385	79988.72
432.744	79991.23
433.103	79994.04
433.463	79996.07
433.822	80004.56
434.181	80008.44
434.54	80012.17
434.899	80015.13
435.258	80017.83
435.618	80019.04
435.976	80021.11
436.335	80023.07
436.694	80023.48
437.053	80023.07
437.412	80024.26
437.771	80026.88
438.129	80027.44
438.488	80027.88
438.847	80028.21
439.205	80029.51
439.564	80030.62
439.922	80031.72
440.281	80033.5
440.639	80033.43
440.997	80034.16
441.356	80036.6
441.714	80036.09
442.072	80035.83
442.431	80035.24
442.789	80034.13
443.147	80035.53
443.505	80037.16
443.863	80035.9
444.221	80035.83
444.579	80036.27
444.937	80037.86
445.294	80037.6
445.652	80038.71
446.01	80039.75
446.368	80039.97
446.725	80038.56
447.083	80038.71
447.441	80038.42
447.798	80038.75
448.156	80039.3
448.513	80039.01
448.87	80038.05
449.228	80038.34
449.585	80037.9
449.942	80037.34
450.3	80039.41
450.657	80039.27
451.014	80039.67
451.371	80040.71
451.728	80042.19
452.085	80043.52
452.442	80044.04
452.799	80045.92
453.156	80046.33
453.513	80045.74
453.869	80046.44
454.226	80045.96
454.583	80044.63
454.939	80045.89
455.296	80045.74
455.653	80046.07
456.009	80046.55
456.366	80048.11
456.722	80049.03
457.078	80050.47
457.435	80050.7
457.791	80051.84
458.147	80050.81
458.503	80051.25
458.86	80050.58
459.216	80050.58
459.572	80050.36
459.928	80051.95
460.284	80051.95
460.64	80052.95
460.996	80052.69
461.351	80053.88
461.707	80056.25
462.063	80059.65
462.419	80061.35
462.774	80061.09
463.13	80062.68
463.486	80063.98
463.841	80065.2
464.197	80066.09
464.552	80066.53
464.908	80067.94
465.263	80067.34
465.618	80069.71
465.974	80069.82
466.329	80071.23
466.684	80071.71
467.039	80072.3
467.394	80071.19
467.749	80071.52
468.104	80071.67
468.459	80075.56
468.814	80075.93
469.169	80075.85
469.524	80075.59
469.879	80074.74
470.233	80076.74
470.588	80075.44
470.943	80074.08
471.297	80074.41
471.652	80073.96
472.006	80074.22
472.361	80074.33
472.715	80075.04
473.07	80074.67
473.424	80075.04
473.778	80075.96
474.133	80075.81
474.487	80076.67
474.841	80077.66
475.195	80077.66
475.549	80079.07
475.903	80076.78
476.257	80076.22
476.611	80077.67
476.965	80077.59
477.319	80077.67
477.673	80077.11
478.026	80078.66
478.38	80081.48
478.734	80080.96
479.087	80081.96
479.441	80082.14
479.795	80082.96
480.148	80083.62
480.502	80084.62
480.855	80086.36
481.208	80087.06
481.562	80088.69
481.915	80090.03
482.268	80088.88
482.621	80089.03
482.974	80088.58
483.328	80090.25
483.681	80091.84
484.034	80091.21
484.387	80090.8
484.739	80091.32
485.092	80092.17
485.445	80093.95
485.798	80094.76
486.151	80095.65
486.503	80095.76
486.856	80097.43
487.209	80097.98
487.561	80098.58
487.914	80098.02
488.266	80095.5
488.618	80094.95
488.971	80094.62
489.323	80093.76
489.675	80095.95
490.028	80095.8
490.38	80095.65
490.732	80094.99
491.084	80094.91
491.436	80094.95
491.788	80094.76
492.14	80096.39
492.492	80096.21
492.844	80095.39
493.196	80094.99
493.548	80095.13
493.899	80095.76
494.251	80094.84
494.603	80095.47
494.954	80093.51
495.306	80093.84
495.657	80094.73
496.009	80095.36
496.36	80094.28
496.712	80096.36
497.063	80094.62
497.414	80094.47
497.765	80093.54
498.117	80093.58
498.468	80095.02
498.819	80094.73
499.17	80095.73
499.521	80095.1
499.872	80096.5
500.223	80095.62
500.574	80093.58
500.924	80093.54
501.275	80093.21
501.626	80092.8
501.977	80091.17
502.327	80092.77
502.678	80093.36
503.029	80094.02
503.379	80093.84
503.73	80095.24
504.08	80093.17
504.43	80094.28
504.781	80095.61
505.131	80095.73
505.481	80094.5
505.831	80090.95
506.182	80092.69
506.532	80092.65
506.882	80091.99
507.232	80088.88
507.582	80089.62
507.932	80090.99
508.281	80090.17
508.631	80088.29
508.981	80088.1
509.331	80089.95
509.681	80091.03
510.03	80089.99
510.38	80089.06
510.729	80090.1
511.079	80088.47
511.428	80088.4
511.778	80088.25
512.127	80088.07
512.476	80088.81
512.826	80090.25
513.175	80091.77
513.524	80089.84
513.873	80091.25
514.222	80092.21
514.571	80093.91
514.92	80094.02
515.269	80094.06
515.618	80093.95
515.967	80095.8
516.316	80097.54
516.665	80096.43
517.014	80095.24
517.362	80097.17
517.711	80098.32
518.059	80097.76
518.408	80098.83
518.757	80099.35
519.105	80099.91
519.453	80098.87
519.802	80098.39
520.15	80098.69
520.498	80098.87
520.847	80099.32
521.195	80099.17
521.543	80098.76
521.891	80098.8
522.239	80099.32
522.587	80099.8
522.935	80101.24
523.283	80100.76
523.631	80099.02
523.979	80099.69
524.326	80098.98
524.674	80097.13
525.022	80098.21
525.369	80096.84
525.717	80097.69
526.064	80097.95
526.412	80097.46
526.759	80098.8
527.107	80098.98
527.454	80098.5
527.801	80100.02
528.149	80100.2
528.496	80099.28
528.843	80099.28
529.19	80099.72
529.537	80099.17
529.884	80099.76
530.231	80100.28
530.578	80100.87
530.925	80101.57
531.272	80098.61
531.619	80099.32
531.966	80099.98
532.312	80098.61
532.659	80100.95
533.006	80100.8
533.352	80100.76
533.699	80099.65
534.045	80100.76
534.392	80100.65
534.738	80102.06
535.084	80099.76
535.431	80101.28
535.777	80101.5
536.123	80101.72
536.469	80100.72
536.815	80100.02
537.161	80098.39
537.507	80098.98
537.853	80098.84
538.199	80097.69
538.545	80102.54
538.891	80102.02
539.237	80101.91
539.582	80101.8
539.928	80101.61
540.274	80100.87
540.619	80101.24
540.965	80101.98
541.31	80100.46
541.656	80099.13
542.001	80098.69
542.347	80099.65
542.692	80098.54
543.037	80098.61
543.382	80097.13
543.728	80098.69
544.073	80099.28
544.418	80100.13
544.763	80098.65
545.108	80097.36
545.453	80098.13
545.798	80095.43
546.142	80096.13
546.487	80096.43
546.832	80098.13
547.177	80096.65
547.521	80098.39
547.866	80098.58
548.211	80098.24
548.555	80098.5
548.9	80099.58
549.244	80099.06
549.588	80099.28
549.933	80099.91
550.277	80099.91
550.621	80100.06
550.965	80099.54
551.31	80100.35
551.654	80098.72
551.998	80098.83
552.342	80100.24
552.686	80101.02
553.03	80102.43
553.373	80101.87
553.717	80101.8
554.061	80100.35
554.405	80101.2
554.748	80100.57
555.092	80101.43
555.436	80102.06
555.779	80100.91
556.123	80102.09
556.466	80102.68
556.81	80101.76
557.153	80100.98
557.496	80099.65
557.839	80099.06
558.183	80098.24
558.526	80097.54
558.869	80098.87
559.212	80098.43
559.555	80097.28
559.898	80095.43
560.241	80094.28
560.584	80095.36
560.927	80096.28
561.269	80096.54
561.612	80096.06
561.955	80095.1
562.297	80092.91
562.64	80093.95
562.983	80092.84
563.325	80090.99
563.668	80089.25
564.01	80089.06
564.352	80087.81
564.695	80088.06
565.037	80088.73
565.379	80088.92
565.721	80088.06
566.063	80087.81
566.406	80086.47
566.748	80086.62
567.09	80087.29
567.431	80085.95
567.773	80084.07
568.115	80081.62
568.457	80080.92
568.799	80079.51
569.14	80078.77
569.482	80078.89
569.824	80077.26
570.165	80078.26
570.507	80078.48
570.848	80077.92
571.19	80078.11
571.531	80079.48
571.872	80079.33
572.214	80080.22
572.555	80080.11
572.896	80081.18
573.237	80079.92
573.578	80079.07
573.919	80078.66
574.26	80078.77
574.601	80079.26
574.942	80080.07
575.283	80080.92
575.624	80080.7
575.964	80081.18
576.305	80080.33
576.646	80080.33
576.986	80081.66
577.327	80080.85
577.667	80080.66
578.008	80081.37
578.348	80081.99
578.689	80081.99
579.029	80082.62
579.369	80080.74
579.71	80080.85
580.05	80080.48
580.39	80081.03
580.73	80081.18
581.07	80081.18
581.41	80081.03
581.75	80080.33
582.09	80080.03
582.43	80080.07
582.769	80080.14
583.109	80080.11
583.449	80081.03
583.789	80080.81
584.128	80079.03
584.468	80079.37
584.807	80079.77
585.147	80079.59
585.486	80077.26
