Data from 24HourExp_27052025_FLMS018081_14-58-19-933.txt Node
Date: Tue May 27 14:58:19 BST 2025
User: adleo
Spectrometer: FLMS01808
Trigger mode: 0
Integration Time (sec): 4.000000E-1
Scans to average: 10
Electric dark correction enabled: true
Nonlinearity correction enabled: true
Boxcar width: 10
XAxis mode: Wavelengths
Number of Pixels in Spectrum: 2048
>>>>>Begin Spectral Data<<<<<
178.471	-133.83
178.857	-125.01
179.244	-118.04
179.631	-109.61
180.017	-101.99
180.404	-92.4
180.79	-81.8
181.176	-71.68
181.563	-62.96
181.949	-51.01
182.335	-41.11
182.722	-25.35
183.108	-6.31
183.494	20.52
183.88	73.57
184.266	126.35
184.653	182.5
185.039	236.8
185.425	293.99
185.811	347.39
186.197	400.77
186.582	451.53
186.968	502.46
187.354	553.73
187.74	603.02
188.126	653.97
188.511	701.67
188.897	750.41
189.283	796.31
189.668	842.55
190.054	884.32
190.439	930.08
190.825	972.56
191.21	1013.72
191.596	1046.96
191.981	1056.7
192.366	1060.2
192.752	1061.14
193.137	1065.16
193.522	1065.72
193.908	1066.63
194.293	1070.31
194.678	1070.6
195.063	1071.42
195.448	1074.46
195.833	1075.04
196.218	1074.16
196.603	1074.62
196.988	1072.95
197.373	1073.83
197.757	1072.58
198.142	1073.8
198.527	1071.07
198.912	1072.37
199.296	1070.38
199.681	1068.46
200.066	1065.73
200.45	1064.67
200.835	1064.17
201.219	1062.28
201.604	1060.46
201.988	1061.16
202.372	1060.56
202.757	1062.64
203.141	1063.57
203.525	1062.54
203.91	1064.59
204.294	1063.91
204.678	1064.87
205.062	1064.51
205.446	1063.03
205.83	1065.93
206.214	1067.09
206.598	1068.44
206.982	1068.14
207.366	1068.15
207.75	1068.69
208.134	1069.57
208.517	1072.97
208.901	1072.67
209.285	1074.19
209.669	1076.76
210.052	1077.27
210.436	1078.47
210.819	1078.52
211.203	1078.98
211.586	1079.1
211.97	1078.89
212.353	1080.05
212.737	1081.43
213.12	1082.68
213.503	1085.12
213.886	1085.13
214.27	1085.44
214.653	1086.54
215.036	1089.66
215.419	1091.73
215.802	1095.22
216.185	1096.93
216.568	1100.12
216.951	1103.02
217.334	1104.37
217.717	1106.51
218.1	1107.85
218.482	1110.12
218.865	1114.18
219.248	1118.98
219.631	1124.42
220.013	1130.04
220.396	1138.29
220.778	1142.49
221.161	1148.38
221.544	1155.03
221.926	1162.97
222.308	1170.71
222.691	1177.88
223.073	1186.29
223.455	1195.02
223.838	1203.36
224.22	1212.72
224.602	1222.08
224.984	1232.98
225.366	1243.89
225.749	1258.37
226.131	1271.8
226.513	1285.29
226.895	1298.81
227.276	1312.42
227.658	1327.51
228.04	1340.56
228.422	1354.14
228.804	1369.72
229.186	1384.66
229.567	1402.18
229.949	1417.89
230.331	1434.35
230.712	1452.25
231.094	1467.51
231.475	1486.21
231.857	1505.44
232.238	1524.39
232.62	1543.34
233.001	1563.96
233.382	1585.98
233.763	1604.56
234.145	1623.54
234.526	1641.66
234.907	1658.88
235.288	1676.55
235.669	1694.43
236.05	1716.19
236.431	1735.55
236.812	1756.72
237.193	1778.86
237.574	1796.67
237.955	1818.15
238.336	1836.59
238.717	1857.11
239.097	1880.53
239.478	1902.62
239.859	1923.86
240.239	1947.53
240.62	1968.27
241.001	1989.12
241.381	2010.15
241.762	2033.03
242.142	2057.33
242.522	2082.35
242.903	2108.09
243.283	2135.37
243.663	2161.11
244.044	2188.42
244.424	2215.38
244.804	2241.18
245.184	2269.49
245.564	2298.25
245.944	2327.64
246.324	2360.08
246.704	2389.8
247.084	2417.02
247.464	2446.42
247.844	2475.74
248.224	2505.83
248.604	2539.54
248.983	2570.1
249.363	2601.32
249.743	2629.49
250.122	2658.75
250.502	2687.4
250.882	2717.6
251.261	2747.46
251.641	2778.06
252.02	2808.73
252.399	2842.51
252.779	2878.51
253.158	2911.93
253.537	2951.24
253.917	2991.68
254.296	3025.62
254.675	3064.48
255.054	3104.84
255.433	3145.47
255.812	3182.7
256.191	3223.1
256.57	3261.58
256.949	3304.22
257.328	3349.97
257.707	3396.26
258.086	3441.77
258.465	3490.84
258.843	3541.97
259.222	3592.13
259.601	3645.56
259.979	3697.19
260.358	3749.62
260.736	3799.18
261.115	3854.73
261.493	3903.36
261.872	3952.64
262.25	4012.01
262.629	4065.06
263.007	4122.7
263.385	4182.89
263.763	4248.16
264.142	4311.03
264.52	4372.05
264.898	4437.84
265.276	4498.89
265.654	4562.88
266.032	4633.56
266.41	4702.32
266.788	4770.29
267.166	4845.39
267.544	4917.71
267.921	4992.37
268.299	5069.4
268.677	5151.4
269.055	5232.08
269.432	5318.09
269.81	5402.63
270.188	5487.08
270.565	5576.55
270.943	5665.34
271.32	5749.4
271.697	5840.79
272.075	5933.55
272.452	6029.38
272.829	6125.11
273.207	6224.86
273.584	6329.27
273.961	6433.48
274.338	6545.8
274.715	6657.13
275.092	6772.28
275.469	6893.95
275.846	7014.55
276.223	7135.16
276.6	7253.86
276.977	7375.49
277.354	7495.43
277.731	7620.58
278.108	7747.46
278.484	7873.55
278.861	8005.03
279.238	8145.17
279.614	8283.03
279.991	8419.52
280.367	8559.91
280.744	8707.39
281.12	8854.2
281.497	8997.39
281.873	9144.93
282.249	9289.36
282.625	9438.22
283.002	9579.96
283.378	9722.73
283.754	9869.2
284.13	10020.63
284.506	10178.4
284.882	10333.06
285.258	10489.56
285.634	10641.43
286.01	10800.12
286.386	10958.52
286.762	11118.12
287.138	11277.56
287.513	11438.71
287.889	11601.11
288.265	11764.85
288.641	11917.28
289.016	12080.97
289.392	12248.89
289.767	12410.05
290.143	12573.72
290.518	12731.01
290.894	12894.74
291.269	13053.6
291.644	13208.43
292.02	13364.17
292.395	13514.93
292.77	13665.96
293.145	13820.14
293.52	13977.94
293.895	14124.58
294.27	14283.98
294.646	14437.89
295.02	14585.58
295.395	14734.58
295.77	14889.22
296.145	15040.79
296.52	15197.27
296.895	15345.73
297.269	15498.65
297.644	15648.79
298.019	15797.28
298.393	15951.06
298.768	16104.88
299.143	16259.45
299.517	16414.35
299.891	16565.17
300.266	16723.82
300.64	16884.58
301.015	17047.49
301.389	17217.88
301.763	17390.27
302.137	17552.68
302.512	17733.02
302.886	17912.54
303.26	18090.78
303.634	18268.36
304.008	18445.15
304.382	18623.61
304.756	18807.01
305.13	18990.28
305.504	19167.12
305.877	19355.72
306.251	19556.67
306.625	19755.79
306.999	19959.58
307.372	20167.09
307.746	20380.52
308.119	20587.34
308.493	20793.36
308.866	21002.38
309.24	21206.7
309.613	21410.76
309.987	21619.76
310.36	21808.42
310.733	22012.17
311.107	22228.53
311.48	22440.07
311.853	22669
312.226	22892.59
312.599	23115.86
312.972	23331.46
313.345	23565.12
313.718	23790.48
314.091	24009.24
314.464	24234.95
314.837	24452.01
315.21	24665.97
315.582	24883.89
315.955	25092.32
316.328	25313.41
316.7	25526.4
317.073	25741.46
317.446	25962.4
317.818	26190.35
318.191	26416.89
318.563	26633.54
318.936	26838.17
319.308	27043.29
319.68	27235.93
320.053	27434.12
320.425	27617.75
320.797	27797.44
321.169	27958.85
321.541	28098.45
321.913	28230.69
322.285	28346.18
322.657	28473.54
323.029	28614.6
323.401	28751.49
323.773	28917.49
324.145	29083.27
324.517	29267.24
324.889	29449.51
325.26	29648.89
325.632	29861.52
326.004	30094.77
326.375	30352.02
326.747	30622.45
327.118	30922.31
327.49	31208.46
327.861	31510.97
328.233	31815.97
328.604	32126.13
328.975	32432.57
329.346	32747.77
329.718	33046.33
330.089	33348.71
330.46	33637.96
330.831	33913.93
331.202	34172.72
331.573	34417.07
331.944	34649.8
332.315	34871.79
332.686	35087.12
333.057	35284.71
333.428	35455.48
333.799	35625.1
334.169	35778.31
334.54	35917.49
334.911	36027.6
335.281	36161.49
335.652	36279.81
336.022	36414.59
336.393	36553.49
336.763	36717.26
337.134	36893.76
337.504	37092.36
337.874	37293.53
338.245	37498.72
338.615	37703.79
338.985	37928.21
339.355	38147.66
339.726	38363.84
340.096	38582.46
340.466	38828.72
340.836	39066.19
341.206	39312.62
341.576	39553.94
341.945	39795.15
342.315	40026.12
342.685	40269.68
343.055	40512.46
343.425	40753.33
343.794	40977.91
344.164	41207.42
344.533	41444.46
344.903	41671.64
345.273	41906.07
345.642	42127.63
346.011	42346.98
346.381	42575.93
346.75	42804.74
347.12	43038.87
347.489	43284.45
347.858	43529.72
348.227	43737.38
348.596	43960.67
348.965	44194.9
349.334	44414.93
349.704	44650.04
350.072	44895.8
350.441	45124.82
350.81	45361.42
351.179	45592.51
351.548	45826.81
351.917	46055.64
352.285	46237.67
352.654	46438.05
353.023	46645.66
353.391	46845.72
353.76	47068.5
354.129	47259.09
354.497	47485.68
354.865	47709.04
355.234	47942.45
355.602	48154.5
355.971	48394.76
356.339	48610.42
356.707	48828.44
357.075	49055.75
357.443	49269.25
357.811	49478.74
358.18	49690.26
358.548	49894.62
358.916	50103.48
359.284	50320.23
359.651	50528.73
360.019	50753.77
360.387	50960.98
360.755	51155.28
361.123	51382.47
361.49	51599.14
361.858	51817.01
362.226	52013.09
362.593	52218.23
362.961	52395.37
363.328	52594.76
363.696	52765.54
364.063	52978.25
364.43	53180.81
364.798	53385.14
365.165	53565.72
365.532	53746.87
365.899	53935.32
366.267	54105.93
366.634	54253.38
367.001	54419.87
367.368	54563.71
367.735	54743.35
368.102	54921.86
368.469	55116.94
368.835	55297.53
369.202	55460.35
369.569	55649.61
369.936	55838.41
370.303	56022.93
370.669	56221.39
371.036	56395.58
371.402	56595.19
371.769	56778.18
372.135	56926.05
372.502	57055.1
372.868	57194.89
373.235	57337.82
373.601	57473.03
373.967	57632.78
374.333	57816.7
374.7	57992.2
375.066	58189.24
375.432	58370.5
375.798	58545.23
376.164	58704.66
376.53	58844.88
376.896	59015.9
377.262	59189.48
377.628	59313.78
377.993	59454.91
378.359	59598.91
378.725	59745.29
379.091	59895.88
379.456	60023.04
379.822	60149.87
380.187	60300.21
380.553	60485.69
380.918	60678.33
381.284	60853.07
381.649	61027.95
382.015	61168.36
382.38	61288.76
382.745	61450.72
383.11	61604.26
383.476	61739.55
383.841	61866.1
384.206	62022.21
384.571	62133.23
384.936	62262.26
385.301	62433.92
385.666	62566.28
386.031	62710.38
386.396	62866.8
386.76	63009.64
387.125	63193.75
387.49	63390.27
387.855	63575.75
388.219	63742.99
388.584	63908.46
388.948	64094.26
389.313	64256.78
389.677	64446.19
390.042	64673.85
390.406	64825.49
390.771	65007.11
391.135	65192.34
391.499	65416.4
391.863	65640.3
392.227	65878.04
392.592	66073.01
392.956	66264.15
393.32	66453.76
393.684	66671.3
394.048	66843.1
394.412	67021.85
394.775	67160.94
395.139	67311.22
395.503	67472.1
395.867	67615.91
396.231	67755.36
396.594	67855.83
396.958	67998.25
397.321	68159.18
397.685	68281.18
398.048	68420.96
398.412	68552.34
398.775	68680.15
399.139	68806.73
399.502	68917.15
399.865	69053.53
400.228	69241.04
400.592	69372.63
400.955	69566.99
401.318	69697.56
401.681	69857.29
402.044	69995.52
402.407	70163.49
402.77	70318.52
403.133	70495.8
403.496	70641.91
403.859	70791.94
404.221	71027.6
404.584	71246.83
404.947	71485
405.309	71683.11
405.672	71917.33
406.034	72139.9
406.397	72392.98
406.759	72610.22
407.122	72786.38
407.484	72967.47
407.847	73155.51
408.209	73399.4
408.571	73620.59
408.933	73876.12
409.296	74119.54
409.658	74350.28
410.02	74618.27
410.382	74935.06
410.744	75198.57
411.106	75484.99
411.468	75758.37
411.83	75994.96
412.191	76198.78
412.553	76382.31
412.915	76613.33
413.277	76828.89
413.638	77039.9
414	77215.79
414.361	77411.96
414.723	77664.25
415.084	77898.38
415.446	78096.64
415.807	78266.22
416.169	78410.89
416.53	78529.15
416.891	78673.06
417.252	78839.89
417.614	78950.31
417.975	79016.74
418.336	79098.07
418.697	79186.11
419.058	79271.73
419.419	79344.12
419.78	79421.63
420.141	79482.01
420.501	79536.22
420.862	79581.95
421.223	79617.47
421.584	79683.2
421.944	79726.07
422.305	79753.71
422.666	79772.06
423.026	79780.93
423.387	79801.59
423.747	79816.93
424.107	79836.76
424.468	79853.32
424.828	79865.12
425.188	79871.16
425.549	79882.22
425.909	79890.52
426.269	79891.33
426.629	79898.3
426.989	79905.57
427.349	79912.8
427.709	79916.79
428.069	79920.3
428.429	79927.56
428.789	79935.76
429.149	79943.14
429.508	79948.72
429.868	79954.29
430.228	79960.98
430.587	79968.29
430.947	79975.16
431.306	79981.33
431.666	79984.28
432.025	79989.83
432.385	79993.67
432.744	79997.92
433.103	80000.91
433.463	80005.27
433.822	80015.06
434.181	80020.52
434.54	80022.48
434.899	80024.85
435.258	80029.06
435.618	80031.69
435.976	80036.05
436.335	80037.56
436.694	80039.56
437.053	80041.3
437.412	80042.78
437.771	80043.41
438.129	80044.33
438.488	80044.29
438.847	80046.18
439.205	80047.36
439.564	80046.85
439.922	80046.92
440.281	80048.44
440.639	80049.43
440.997	80049.32
441.356	80050.29
441.714	80049.92
442.072	80050.25
442.431	80051.17
442.789	80052.76
443.147	80053.58
443.505	80051.88
443.863	80051.06
444.221	80051.84
444.579	80051.14
444.937	80051.69
445.294	80052.62
445.652	80052.95
446.01	80052.21
446.368	80051.88
446.725	80052.32
447.083	80054.06
447.441	80055.13
447.798	80054.65
448.156	80054.1
448.513	80055.02
448.87	80054.91
449.228	80055.39
449.585	80057.06
449.942	80058.09
450.3	80057.09
450.657	80056.61
451.014	80056.28
451.371	80058.31
451.728	80057.91
452.085	80056.69
452.442	80056.5
452.799	80054.91
453.156	80054.24
453.513	80055.58
453.869	80056.28
454.226	80057.91
454.583	80057.8
454.939	80058.2
455.296	80058.65
455.653	80060.16
456.009	80058.46
456.366	80059.13
456.722	80059.35
457.078	80059.57
457.435	80057.35
457.791	80058.57
458.147	80060.42
458.503	80063.38
458.86	80064.16
459.216	80064.53
459.572	80066.08
459.928	80067.27
460.284	80068.08
460.64	80070.89
460.996	80070.71
461.351	80071.26
461.707	80070.52
462.063	80070.37
462.419	80069.52
462.774	80069.89
463.13	80069.82
463.486	80072.41
463.841	80072.59
464.197	80072.89
464.552	80073.44
464.908	80074.92
465.263	80075.59
465.618	80075.78
465.974	80074
466.329	80074.67
466.684	80073.78
467.039	80074.96
467.394	80074.44
467.749	80077.29
468.104	80075.29
468.459	80075.89
468.814	80075.7
469.169	80076.4
469.524	80075.44
469.879	80076.07
470.233	80077.18
470.588	80077.11
470.943	80075.85
471.297	80074.92
471.652	80075.41
472.006	80075.92
472.361	80078.26
472.715	80079.26
473.07	80079.55
473.424	80082.29
473.778	80081.62
474.133	80083.84
474.487	80083.66
474.841	80084.18
475.195	80082.92
475.549	80084.14
475.903	80085.47
476.257	80086.14
476.611	80086.29
476.965	80088.84
477.319	80090.02
477.673	80090.02
478.026	80089.99
478.38	80091.84
478.734	80092.61
479.087	80093.83
479.441	80093.28
479.795	80092.39
480.148	80092.47
480.502	80093.13
480.855	80092.1
481.208	80093.76
481.562	80093.87
481.915	80095.28
482.268	80096.28
482.621	80097.17
482.974	80098.72
483.328	80098.13
483.681	80100.42
484.034	80099.61
484.387	80100.02
484.739	80099.76
485.092	80099.46
485.445	80100.13
485.798	80100.79
486.151	80101.46
486.503	80101.57
486.856	80101.79
487.209	80100.87
487.561	80100.09
487.914	80098.8
488.266	80098.54
488.618	80097.5
488.971	80097.91
489.323	80096.54
489.675	80097.57
490.028	80098.61
490.38	80097.32
490.732	80098.72
491.084	80097.43
491.436	80098.76
491.788	80097.57
492.14	80097.91
492.492	80098.17
492.844	80098.02
493.196	80097.54
493.548	80099.13
493.899	80098.91
494.251	80099.54
494.603	80100.2
494.954	80101.13
495.306	80101.2
495.657	80102.2
496.009	80102.79
496.36	80100.91
496.712	80103.05
497.063	80101.87
497.414	80100.76
497.765	80101.53
498.117	80100.94
498.468	80100.94
498.819	80100.91
499.17	80102.13
499.521	80102.13
499.872	80100.57
500.223	80100.39
500.574	80100.54
500.924	80099.87
501.275	80100.68
501.626	80099.87
501.977	80101.2
502.327	80101.46
502.678	80104.09
503.029	80105.16
503.379	80105.64
503.73	80107.98
504.08	80106.61
504.43	80106.64
504.781	80108.87
505.131	80109.49
505.481	80109.83
505.831	80109.53
506.182	80110.72
506.532	80109.31
506.882	80108.46
507.232	80108.68
507.582	80109.53
507.932	80109.53
508.281	80110.12
508.631	80110.42
508.981	80110.9
509.331	80110.31
509.681	80110.09
510.03	80110.64
510.38	80110.68
510.729	80109.53
511.079	80108.13
511.428	80108.57
511.778	80108.87
512.127	80106.87
512.476	80106.61
512.826	80106.68
513.175	80108.09
513.524	80107.64
513.873	80108.94
514.222	80110.09
514.571	80112.2
514.92	80113.01
515.269	80113.27
515.618	80111.83
515.967	80111.75
516.316	80111.94
516.665	80111.83
517.014	80111.68
517.362	80108.49
517.711	80107.75
518.059	80108.31
518.408	80108.35
518.757	80107.94
519.105	80107.24
519.453	80107.79
519.802	80106.16
520.15	80104.79
520.498	80103.53
520.847	80103.09
521.195	80103.2
521.543	80104.87
521.891	80105.5
522.239	80106.2
522.587	80105.79
522.935	80107.27
523.283	80107.57
523.631	80105.57
523.979	80105.35
524.326	80105.87
524.674	80107.27
525.022	80107.61
525.369	80107.79
525.717	80108.87
526.064	80110.01
526.412	80112.27
526.759	80112.72
527.107	80113.38
527.454	80113.72
527.801	80113.64
528.149	80113.83
528.496	80112.72
528.843	80111.68
529.19	80111.42
529.537	80109.98
529.884	80111.38
530.231	80110.05
530.578	80108.75
530.925	80111.68
531.272	80112.97
531.619	80112.31
531.966	80112.23
532.312	80111.12
532.659	80111.09
533.006	80110.61
533.352	80110.35
533.699	80108.49
534.045	80107.68
534.392	80106.98
534.738	80106.79
535.084	80106.94
535.431	80106.72
535.777	80108.01
536.123	80109.09
536.469	80108.79
536.815	80109.46
537.161	80109.05
537.507	80110.83
537.853	80110.57
538.199	80109.75
538.545	80107.5
538.891	80107.68
539.237	80106.9
539.582	80107.53
539.928	80108.01
540.274	80108.42
540.619	80107.79
540.965	80108.12
541.31	80108.38
541.656	80109.31
542.001	80111.83
542.347	80111.79
542.692	80112.01
543.037	80110.86
543.382	80108.57
543.728	80109.72
544.073	80109.49
544.418	80109.61
544.763	80108.57
545.108	80108.35
545.453	80108.46
545.798	80109.68
546.142	80109.86
546.487	80111.27
546.832	80110.72
547.177	80109.9
547.521	80108.79
547.866	80108.27
548.211	80108.94
548.555	80108.79
548.9	80109.53
549.244	80107.53
549.588	80107.12
549.933	80107.5
550.277	80107.61
550.621	80108.46
550.965	80106.57
551.31	80105.87
551.654	80105.38
551.998	80105.12
552.342	80105.46
552.686	80107.38
553.03	80107.31
553.373	80107.42
553.717	80106.64
554.061	80107.12
554.405	80108.9
554.748	80108.79
555.092	80109.38
555.436	80108.38
555.779	80108.68
556.123	80109.2
556.466	80109.72
556.81	80108.61
557.153	80108.2
557.496	80107.98
557.839	80106.61
558.183	80106.76
558.526	80108.72
558.869	80109.09
559.212	80109.46
559.555	80108.05
559.898	80104.65
560.241	80103.5
560.584	80103.09
560.927	80103.09
561.269	80102.39
561.612	80101.76
561.955	80102.68
562.297	80101.87
562.64	80102.35
562.983	80104.09
563.325	80102.65
563.668	80102.13
564.01	80103.5
564.352	80103.13
564.695	80102.72
565.037	80102.94
565.379	80102.76
565.721	80101.24
566.063	80100.83
566.406	80101.39
566.748	80102.5
567.09	80101.79
567.431	80103.5
567.773	80103.31
568.115	80103.94
568.457	80104.9
568.799	80104.61
569.14	80102.09
569.482	80102.5
569.824	80102.09
570.165	80099.35
570.507	80099.35
570.848	80099.54
571.19	80099.5
571.531	80099.57
571.872	80101.54
572.214	80102.53
572.555	80102.57
572.896	80102.53
573.237	80100.76
573.578	80099.31
573.919	80100.65
574.26	80101.35
574.601	80099.06
574.942	80099.31
575.283	80096.91
575.624	80095.13
575.964	80093.87
576.305	80095.98
576.646	80093.72
576.986	80094.13
577.327	80094.1
577.667	80093.35
578.008	80092.21
578.348	80092.13
578.689	80091.73
579.029	80090.39
579.369	80089.43
579.71	80088.25
580.05	80088.28
580.39	80088.21
580.73	80088.1
581.07	80085.36
581.41	80086.8
581.75	80088.99
582.09	80086.66
582.43	80087.73
582.769	80088.1
583.109	80088.02
583.449	80087.54
583.789	80088.21
584.128	80087.88
584.468	80086.36
584.807	80085.32
585.147	80084.18
