Data from 24HourExp_27052025_FLMS018081_05-08-20-231.txt Node
Date: Wed May 28 05:08:20 BST 2025
User: adleo
Spectrometer: FLMS01808
Trigger mode: 0
Integration Time (sec): 4.000000E-1
Scans to average: 10
Electric dark correction enabled: true
Nonlinearity correction enabled: true
Boxcar width: 10
XAxis mode: Wavelengths
Number of Pixels in Spectrum: 2048
>>>>>Begin Spectral Data<<<<<
178.471	-142.66
178.857	-132.7
179.244	-125.21
179.631	-115.06
180.017	-106.27
180.404	-98.6
180.79	-87.59
181.176	-79.16
181.563	-68.92
181.949	-57.29
182.335	-46.22
182.722	-27.78
183.108	-7.14
183.494	21.64
183.88	75.09
184.266	127.86
184.653	182.47
185.039	234.81
185.425	290.08
185.811	344.69
186.197	397.2
186.582	448.53
186.968	498.31
187.354	549.41
187.74	599.69
188.126	650.36
188.511	700.18
188.897	746.97
189.283	794.87
189.668	839.7
190.054	881.84
190.439	927.08
190.825	968.56
191.21	1009.1
191.596	1042.95
191.981	1050.73
192.366	1055.04
192.752	1057.14
193.137	1062.27
193.522	1063.68
193.908	1065.56
194.293	1068.01
194.678	1070.45
195.063	1074.03
195.448	1077.12
195.833	1077.86
196.218	1077.03
196.603	1076.79
196.988	1077.62
197.373	1078.16
197.757	1079.24
198.142	1081.04
198.527	1078.77
198.912	1079.06
199.296	1079.64
199.681	1075.81
200.066	1074.51
200.45	1074.15
200.835	1074.21
201.219	1072.37
201.604	1072.47
201.988	1073.39
202.372	1074.45
202.757	1073.88
203.141	1073.13
203.525	1072.33
203.91	1072.78
204.294	1072.41
204.678	1072.63
205.062	1071.84
205.446	1072.85
205.83	1075.13
206.214	1074.98
206.598	1075.1
206.982	1077.27
207.366	1075.48
207.75	1078
208.134	1079.51
208.517	1080.31
208.901	1080.76
209.285	1083.56
209.669	1085.62
210.052	1084.01
210.436	1082.81
210.819	1083.55
211.203	1085.04
211.586	1085.17
211.97	1085.12
212.353	1085.52
212.737	1086.6
213.12	1090.4
213.503	1090.39
213.886	1090.96
214.27	1092.83
214.653	1093.59
215.036	1094.62
215.419	1098.08
215.802	1100.18
216.185	1102.23
216.568	1106.04
216.951	1108.19
217.334	1111.16
217.717	1114.25
218.1	1117.58
218.482	1122.75
218.865	1128.13
219.248	1132.24
219.631	1137.71
220.013	1142.6
220.396	1151.92
220.778	1157.59
221.161	1162.34
221.544	1169.19
221.926	1174.6
222.308	1181.89
222.691	1189.98
223.073	1198.22
223.455	1206.46
223.838	1217.29
224.22	1226.82
224.602	1237.78
224.984	1248.25
225.366	1258.79
225.749	1272.92
226.131	1286.58
226.513	1300.54
226.895	1314.07
227.276	1328.1
227.658	1341.63
228.04	1356.55
228.422	1370.32
228.804	1389.06
229.186	1403.86
229.567	1421.7
229.949	1439.28
230.331	1456.64
230.712	1473.58
231.094	1491.12
231.475	1510.59
231.857	1528.73
232.238	1546.96
232.62	1565.75
233.001	1586.11
233.382	1607.18
233.763	1623.45
234.145	1641.55
234.526	1659.66
234.907	1679.94
235.288	1700.01
235.669	1721.57
236.05	1740.41
236.431	1760.34
236.812	1778.94
237.193	1799.41
237.574	1816.5
237.955	1837.43
238.336	1858.16
238.717	1882.14
239.097	1906.2
239.478	1927.37
239.859	1947.41
240.239	1970.18
240.62	1992.2
241.001	2014
241.381	2035.61
241.762	2060.61
242.142	2087
242.522	2112.14
242.903	2135.14
243.283	2159.32
243.663	2184.98
244.044	2213.62
244.424	2240.45
244.804	2269.12
245.184	2298.25
245.564	2327.83
245.944	2358.03
246.324	2387.54
246.704	2418.22
247.084	2445.31
247.464	2474.83
247.844	2507.59
248.224	2539.07
248.604	2569.76
248.983	2601.65
249.363	2637.24
249.743	2668.16
250.122	2696.32
250.502	2726.18
250.882	2757.2
251.261	2791.11
251.641	2822.37
252.02	2853.58
252.399	2886.35
252.779	2919.2
253.158	2954.92
253.537	2992.61
253.917	3033.38
254.296	3070.97
254.675	3108.52
255.054	3149.05
255.433	3192.56
255.812	3231.7
256.191	3275.09
256.57	3316.62
256.949	3360.55
257.328	3399.17
257.707	3445.68
258.086	3494.04
258.465	3540.53
258.843	3591.53
259.222	3641.33
259.601	3694.96
259.979	3748.98
260.358	3802.95
260.736	3856.29
261.115	3912.09
261.493	3968.8
261.872	4019.2
262.25	4076.92
262.629	4131.99
263.007	4191.54
263.385	4250.02
263.763	4313.36
264.142	4371.82
264.52	4436.58
264.898	4500.09
265.276	4567.13
265.654	4634.28
266.032	4701.95
266.41	4774.26
266.788	4845.47
267.166	4919.71
267.544	4989.6
267.921	5067.31
268.299	5146.96
268.677	5227.08
269.055	5306.39
269.432	5388.83
269.81	5475.89
270.188	5563.59
270.565	5653.74
270.943	5741.99
271.32	5833.11
271.697	5926.98
272.075	6024.23
272.452	6117.87
272.829	6214.05
273.207	6314.98
273.584	6417.07
273.961	6519.8
274.338	6632.23
274.715	6748.62
275.092	6866.49
275.469	6994.31
275.846	7115.26
276.223	7233.34
276.6	7356.32
276.977	7484.7
277.354	7609.82
277.731	7735.3
278.108	7862.36
278.484	7990.64
278.861	8123.67
279.238	8261.06
279.614	8397.89
279.991	8538.85
280.367	8683.02
280.744	8830.86
281.12	8977.73
281.497	9124.56
281.873	9277.04
282.249	9424.77
282.625	9569.39
283.002	9713.07
283.378	9855.54
283.754	10005.82
284.13	10161.46
284.506	10319.88
284.882	10470.25
285.258	10626.28
285.634	10781.94
286.01	10944.09
286.386	11103.17
286.762	11268.29
287.138	11430.03
287.513	11594.13
287.889	11760.19
288.265	11925.24
288.641	12086.12
289.016	12249.57
289.392	12416.48
289.767	12586.92
290.143	12750.72
290.518	12911.76
290.894	13078.1
291.269	13239.96
291.644	13397.9
292.02	13551.16
292.395	13702.31
292.77	13860.8
293.145	14016.01
293.52	14173.55
293.895	14322.22
294.27	14478.32
294.646	14627.44
295.02	14777.41
295.395	14930.83
295.77	15084.92
296.145	15239.53
296.52	15395.54
296.895	15546.15
297.269	15699.14
297.644	15848.13
298.019	15999.5
298.393	16151.29
298.768	16300.47
299.143	16452.48
299.517	16601.16
299.891	16757.44
300.266	16915.44
300.64	17074.22
301.015	17235.28
301.389	17403.77
301.763	17574.82
302.137	17741.67
302.512	17925.22
302.886	18100.44
303.26	18280.94
303.634	18456.39
304.008	18627.35
304.382	18807.56
304.756	18990.43
305.13	19174.18
305.504	19348.13
305.877	19541.73
306.251	19746.39
306.625	19953.45
306.999	20162.87
307.372	20380.24
307.746	20596.36
308.119	20804.57
308.493	21013.36
308.866	21222.06
309.24	21429.02
309.613	21635.33
309.987	21846.93
310.36	22038.1
310.733	22243.07
311.107	22459.91
311.48	22682.34
311.853	22917.52
312.226	23140.24
312.599	23368.93
312.972	23592.06
313.345	23827.69
313.718	24050.64
314.091	24273.06
314.464	24494.71
314.837	24718.96
315.21	24927.98
315.582	25146.93
315.955	25363.87
316.328	25582.33
316.7	25802.54
317.073	26025.95
317.446	26252.24
317.818	26483.35
318.191	26713.34
318.563	26939.21
318.936	27143.15
319.308	27347.7
319.68	27547.55
320.053	27743.4
320.425	27933.88
320.797	28114.88
321.169	28275.47
321.541	28423.39
321.913	28550.88
322.285	28670.33
322.657	28792.5
323.029	28935.72
323.401	29076.7
323.773	29240.91
324.145	29412.28
324.517	29600.58
324.889	29775.71
325.26	29976.7
325.632	30186.78
326.004	30419.04
326.375	30677.25
326.747	30952.67
327.118	31250.84
327.49	31536.3
327.861	31851.07
328.233	32155.49
328.604	32462.76
328.975	32775.24
329.346	33084.83
329.718	33398.41
330.089	33700.55
330.46	33985.62
330.831	34258.07
331.202	34511.21
331.573	34758.48
331.944	34985.84
332.315	35207.25
332.686	35425.28
333.057	35622.53
333.428	35799.78
333.799	35971.25
334.169	36126.48
334.54	36263.34
334.911	36376.17
335.281	36506.34
335.652	36628.79
336.022	36764.26
336.393	36911.02
336.763	37079.52
337.134	37263.16
337.504	37454.71
337.874	37659.72
338.245	37874.79
338.615	38093.14
338.985	38329.09
339.355	38545.88
339.726	38769.13
340.096	38991.77
340.466	39245.75
340.836	39489.68
341.206	39737.35
341.576	39983.84
341.945	40218.99
342.315	40449.11
342.685	40692.14
343.055	40941.8
343.425	41177.69
343.794	41410.12
344.164	41645.13
344.533	41874.89
344.903	42104.48
345.273	42341.17
345.642	42564.49
346.011	42793.22
346.381	43027.59
346.75	43255.31
347.12	43503.73
347.489	43757.16
347.858	43998.88
348.227	44204.56
348.596	44421.59
348.965	44654.24
349.334	44881.74
349.704	45119.03
350.072	45367.78
350.441	45596.67
350.81	45831.66
351.179	46054.54
351.548	46290.19
351.917	46506.99
352.285	46702.14
352.654	46905.6
353.023	47108.32
353.391	47314.14
353.76	47527.7
354.129	47717.81
354.497	47948.49
354.865	48165.37
355.234	48389.88
355.602	48610.23
355.971	48856.48
356.339	49070.48
356.707	49290.82
357.075	49506.02
357.443	49730.82
357.811	49940.54
358.18	50160.05
358.548	50371.98
358.916	50589.32
359.284	50803.06
359.651	51021.44
360.019	51242.4
360.387	51449.22
360.755	51652.93
361.123	51874.14
361.49	52094.15
361.858	52305.31
362.226	52502.2
362.593	52706.92
362.961	52886.53
363.328	53084.79
363.696	53252.04
364.063	53475.86
364.43	53675.42
364.798	53893.03
365.165	54071.3
365.532	54257.46
365.899	54445.49
366.267	54607.2
366.634	54755.62
367.001	54922.19
367.368	55059.85
367.735	55243.12
368.102	55414.95
368.469	55605.31
368.835	55787.46
369.202	55946.46
369.569	56138.78
369.936	56320.5
370.303	56506.69
370.669	56707.78
371.036	56871.6
371.402	57073.62
371.769	57248.39
372.135	57399.64
372.502	57513.68
372.868	57655.58
373.235	57795.01
373.601	57924.52
373.967	58096.49
374.333	58280.04
374.7	58459.15
375.066	58657.46
375.432	58835.96
375.798	59015.18
376.164	59183.83
376.53	59327.61
376.896	59506.12
377.262	59683.47
377.628	59814.45
377.993	59953.26
378.359	60097.27
378.725	60258.22
379.091	60407.6
379.456	60537.01
379.822	60669.84
380.187	60825.82
380.553	61008.93
380.918	61207.29
381.284	61383.71
381.649	61554.41
382.015	61693.27
382.38	61809.66
382.745	61976.65
383.11	62132.22
383.476	62269.95
383.841	62393.36
384.206	62557.93
384.571	62669.39
384.936	62792.13
385.301	62965.16
385.666	63092.78
386.031	63245.29
386.396	63405.08
386.76	63558.1
387.125	63750.18
387.49	63940.29
387.855	64130.71
388.219	64297.75
388.584	64466.14
388.948	64657.7
389.313	64821
389.677	65026.52
390.042	65256.69
390.406	65407.83
390.771	65585.57
391.135	65774.04
391.499	66003.3
391.863	66222.46
392.227	66465.24
392.592	66661.01
392.956	66853.54
393.32	67055.09
393.684	67267.46
394.048	67434.64
394.412	67608.64
394.775	67755.33
395.139	67912.63
395.503	68073.86
395.867	68224.04
396.231	68363.42
396.594	68460.67
396.958	68590.78
397.321	68748.16
397.685	68871.19
398.048	69015.76
398.412	69146.65
398.775	69275.31
399.139	69398.25
399.502	69508.76
399.865	69647.78
400.228	69838.75
400.592	69974.25
400.955	70173.76
401.318	70304.49
401.681	70470.05
402.044	70608.89
402.407	70767.12
402.77	70917.34
403.133	71096.19
403.496	71238.44
403.859	71389.51
404.221	71626.06
404.584	71863.93
404.947	72105.69
405.309	72306.83
405.672	72527.7
406.034	72754.13
406.397	73008.27
406.759	73224.62
407.122	73398.83
407.484	73573.28
407.847	73762.72
408.209	74006.45
408.571	74230.69
408.933	74491.88
409.296	74733.62
409.658	74969.96
410.02	75235.6
410.382	75551.84
410.744	75817.92
411.106	76109.15
411.468	76388.82
411.83	76632.06
412.191	76834.09
412.553	77006.18
412.915	77231
413.277	77454.41
413.638	77657.83
414	77830.05
414.361	78018.41
414.723	78257.96
415.084	78471.79
415.446	78646.64
415.807	78792.7
416.169	78906.39
416.53	79001.61
416.891	79119.29
417.252	79256.24
417.614	79344.12
417.975	79392.8
418.336	79447.46
418.697	79507.11
419.058	79559.61
419.419	79601.35
419.78	79647.71
420.141	79685.01
420.501	79713.93
420.862	79739.05
421.223	79757.68
421.584	79797.37
421.944	79819.75
422.305	79836.75
422.666	79848.13
423.026	79853.89
423.387	79865.86
423.747	79875.54
424.107	79888.25
424.468	79899.57
424.828	79906.1
425.188	79909.71
425.549	79915.99
425.909	79922.33
426.269	79919.57
426.629	79924.84
426.989	79929.24
427.349	79935.37
427.709	79939.76
428.069	79942.2
428.429	79945.81
428.789	79953.94
429.149	79959.37
429.508	79964.65
429.868	79967.35
430.228	79971.74
430.587	79976.62
430.947	79980.57
431.306	79987.85
431.666	79991.25
432.025	79993.87
432.385	79996.75
432.744	80000.67
433.103	80003.22
433.463	80006.58
433.822	80015.92
434.181	80019.43
434.54	80021.76
434.899	80021.73
435.258	80024.79
435.618	80028.12
435.976	80029.86
436.335	80029.04
436.694	80030.34
437.053	80031.93
437.412	80034.41
437.771	80037.4
438.129	80039.03
438.488	80040.91
438.847	80042.76
439.205	80044.91
439.564	80045.72
439.922	80045.21
440.281	80045.24
440.639	80045.24
440.997	80045.32
441.356	80043.95
441.714	80043.32
442.072	80043.1
442.431	80044.8
442.789	80044.36
443.147	80046.87
443.505	80049.13
443.863	80051.2
444.221	80051.46
444.579	80052.01
444.937	80051.42
445.294	80048.94
445.652	80048.79
446.01	80049.87
446.368	80048.24
446.725	80045.83
447.083	80046.94
447.441	80049.35
447.798	80049.35
448.156	80050.94
448.513	80050.72
448.87	80052.93
449.228	80053.67
449.585	80056
449.942	80057.41
450.3	80058.41
450.657	80058.3
451.014	80057.71
451.371	80057.67
451.728	80056.63
452.085	80055.49
452.442	80056.74
452.799	80058.07
453.156	80058.44
453.513	80057.15
453.869	80057.93
454.226	80059.81
454.583	80059.26
454.939	80059.44
455.296	80060.66
455.653	80060.04
456.009	80061.26
456.366	80060.55
456.722	80060.7
457.078	80060.22
457.435	80058.11
457.791	80056.93
458.147	80055.86
458.503	80057.26
458.86	80056.08
459.216	80056.15
459.572	80058.41
459.928	80056.97
460.284	80057.22
460.64	80056.78
460.996	80058.52
461.351	80058.41
461.707	80057.93
462.063	80057.59
462.419	80057.08
462.774	80056.04
463.13	80058.26
463.486	80057.45
463.841	80058.48
464.197	80058.85
464.552	80059.93
464.908	80061.33
465.263	80062.44
465.618	80063.11
465.974	80063.92
466.329	80064.99
466.684	80065.51
467.039	80064.22
467.394	80066.25
467.749	80066.88
468.104	80068.25
468.459	80068.95
468.814	80069.4
469.169	80069.77
469.524	80072.17
469.879	80073.5
470.233	80074.72
470.588	80074.76
470.943	80075.02
471.297	80075.83
471.652	80077.61
472.006	80077.31
472.361	80078.46
472.715	80079.27
473.07	80079.35
473.424	80079.09
473.778	80081.16
474.133	80081.86
474.487	80083.27
474.841	80083.16
475.195	80083.53
475.549	80084.16
475.903	80084.38
476.257	80085.2
476.611	80085.82
476.965	80085.94
477.319	80087.79
477.673	80088.9
478.026	80088.05
478.38	80090.27
478.734	80090.75
479.087	80090.49
479.441	80088.9
479.795	80090.12
480.148	80091.86
480.502	80091.64
480.855	80092.52
481.208	80090.9
481.562	80091.49
481.915	80091.97
482.268	80093.19
482.621	80095.15
482.974	80094.82
483.328	80095.15
483.681	80094.45
484.034	80096.08
484.387	80097.34
484.739	80095.74
485.092	80094.78
485.445	80095.86
485.798	80095.78
486.151	80096.97
486.503	80099.15
486.856	80101.3
487.209	80100.67
487.561	80100.22
487.914	80099.85
488.266	80099.08
488.618	80098.89
488.971	80098.78
489.323	80098.93
489.675	80098.59
490.028	80098.04
490.38	80098.15
490.732	80098.3
491.084	80098.96
491.436	80097.56
491.788	80096.04
492.14	80096.67
492.492	80096.74
492.844	80097.71
493.196	80097.22
493.548	80096.97
493.899	80095.04
494.251	80094.89
494.603	80094.82
494.954	80094.93
495.306	80095.85
495.657	80095.11
496.009	80096.08
496.36	80098.33
496.712	80099.78
497.063	80100.11
497.414	80100.04
497.765	80100.56
498.117	80099.78
498.468	80100.04
498.819	80101.85
499.17	80103.07
499.521	80102.67
499.872	80103.3
500.223	80102.41
500.574	80101.7
500.924	80100.67
501.275	80100.78
501.626	80100.56
501.977	80100.67
502.327	80100.56
502.678	80100.67
503.029	80101.3
503.379	80102.85
503.73	80101.85
504.08	80102.22
504.43	80102.11
504.781	80101.33
505.131	80102.48
505.481	80102.81
505.831	80102
506.182	80100.11
506.532	80099.19
506.882	80098.3
507.232	80098.08
507.582	80098.08
507.932	80097.67
508.281	80099.82
508.631	80099.78
508.981	80098.34
509.331	80099.93
509.681	80101.15
510.03	80100.19
510.38	80101.26
510.729	80101.11
511.079	80100.19
511.428	80097.97
511.778	80098.08
512.127	80096.12
512.476	80095.6
512.826	80096.15
513.175	80096.15
513.524	80098.49
513.873	80100.04
514.222	80100.93
514.571	80100.04
514.92	80099.86
515.269	80100.85
515.618	80098.52
515.967	80098
516.316	80100.19
516.665	80097.23
517.014	80095.12
517.362	80096.6
517.711	80097.08
518.059	80094.78
518.408	80093.78
518.757	80093.52
519.105	80094.52
519.453	80096.78
519.802	80097
520.15	80096.93
520.498	80097.15
520.847	80093.86
521.195	80093.08
521.543	80093.86
521.891	80094.45
522.239	80093.38
522.587	80093.27
522.935	80093.52
523.283	80093.71
523.631	80093.23
523.979	80095.45
524.326	80094.89
524.674	80094.56
525.022	80093.26
525.369	80095.45
525.717	80097.04
526.064	80097
526.412	80097
526.759	80097.71
527.107	80096.15
527.454	80095.45
527.801	80096.3
528.149	80099.96
528.496	80101.56
528.843	80100.93
529.19	80101.7
529.537	80101.82
529.884	80101.82
530.231	80103.67
530.578	80104.89
530.925	80104.37
531.272	80105.41
531.619	80105.74
531.966	80104.85
532.312	80105.59
532.659	80105.33
533.006	80105.11
533.352	80105.85
533.699	80104.37
534.045	80102.93
534.392	80103.3
534.738	80104.15
535.084	80103.82
535.431	80103.15
535.777	80100.74
536.123	80101.41
536.469	80100.74
536.815	80102
537.161	80102.74
537.507	80101.67
537.853	80101.04
538.199	80099.85
538.545	80097.63
538.891	80098.82
539.237	80100.89
539.582	80101.04
539.928	80101.41
540.274	80102.96
540.619	80103.48
540.965	80103.78
541.31	80105.15
541.656	80105.11
542.001	80105.33
542.347	80105.74
542.692	80103.59
543.037	80102.93
543.382	80102.33
543.728	80103.04
544.073	80102.96
544.418	80101
544.763	80101.74
545.108	80100.82
545.453	80101.89
545.798	80103.44
546.142	80102.67
546.487	80101.15
546.832	80099.67
547.177	80097.6
547.521	80095.74
547.866	80095.37
548.211	80095.08
548.555	80095.67
548.9	80096.67
549.244	80095.45
549.588	80093.89
549.933	80095.52
550.277	80097.11
550.621	80098
550.965	80097.89
551.31	80097.26
551.654	80098.08
551.998	80095.89
552.342	80096.45
552.686	80097.45
553.03	80095.45
553.373	80096.78
553.717	80097.67
554.061	80098.48
554.405	80099.08
554.748	80099.63
555.092	80100.85
555.436	80101.37
555.779	80100.11
556.123	80100.78
556.466	80100.89
556.81	80101.74
557.153	80102.19
557.496	80101.63
557.839	80100.89
558.183	80100.3
558.526	80100.04
558.869	80101.44
559.212	80102.55
559.555	80102.11
559.898	80100.41
560.241	80101.93
560.584	80101.59
560.927	80099.71
561.269	80099
561.612	80099.15
561.955	80099.52
562.297	80097.63
562.64	80097.08
562.983	80097.37
563.325	80096.15
563.668	80095.74
564.01	80094.15
564.352	80092.34
564.695	80091.52
565.037	80090.49
565.379	80090.6
565.721	80090.75
566.063	80089.12
566.406	80089.78
566.748	80087.79
567.09	80087.97
567.431	80087.38
567.773	80086.38
568.115	80087.9
568.457	80087.34
568.799	80087.56
569.14	80085.16
569.482	80084.01
569.824	80083.86
570.165	80082.27
570.507	80083.16
570.848	80082.27
571.19	80083.75
571.531	80083.72
571.872	80084.16
572.214	80085.23
572.555	80085.86
572.896	80085.49
573.237	80086.01
573.578	80084.68
573.919	80085.53
574.26	80086.86
574.601	80087.42
574.942	80087.34
575.283	80086.12
575.624	80086.34
575.964	80086.08
576.305	80085.75
576.646	80085.9
576.986	80085.09
577.327	80085.53
577.667	80084.34
578.008	80084.01
578.348	80085.12
578.689	80084.12
579.029	80085.05
579.369	80085.42
579.71	80084.05
580.05	80084.42
580.39	80083.01
580.73	80083.86
581.07	80084.64
581.41	80083.86
581.75	80081.64
582.09	80080.79
582.43	80081.87
582.769	80081.53
583.109	80081.87
583.449	80083.09
583.789	80083.31
584.128	80083.38
584.468	80082.53
584.807	80082.79
585.147	80084.72
585.486	80081.79
585.825	80083.57
