Data from 24HourExp_27052025_FLMS018081_13-58-19-883.txt Node
Date: Tue May 27 13:58:19 BST 2025
User: adleo
Spectrometer: FLMS01808
Trigger mode: 0
Integration Time (sec): 4.000000E-1
Scans to average: 10
Electric dark correction enabled: true
Nonlinearity correction enabled: true
Boxcar width: 10
XAxis mode: Wavelengths
Number of Pixels in Spectrum: 2048
>>>>>Begin Spectral Data<<<<<
178.471	-133.21
178.857	-125.36
179.244	-117.07
179.631	-108.94
180.017	-100.19
180.404	-91.06
180.79	-81.54
181.176	-72.63
181.563	-62.43
181.949	-52.36
182.335	-41.97
182.722	-27.02
183.108	-8.3
183.494	18.79
183.88	73.37
184.266	125.61
184.653	182.41
185.039	236.56
185.425	291.89
185.811	344.19
186.197	397.96
186.582	448.67
186.968	500.74
187.354	551.86
187.74	602.83
188.126	651.92
188.511	700.15
188.897	747.82
189.283	795.09
189.668	840.8
190.054	885.51
190.439	930.82
190.825	974.93
191.21	1015.11
191.596	1048.85
191.981	1057.58
192.366	1064.88
192.752	1066.97
193.137	1070.8
193.522	1071.67
193.908	1075.3
194.293	1077.25
194.678	1080.55
195.063	1082.21
195.448	1085.71
195.833	1085.63
196.218	1087.05
196.603	1086.99
196.988	1086.5
197.373	1089.69
197.757	1089.48
198.142	1090.07
198.527	1088.9
198.912	1089.11
199.296	1089.29
199.681	1088.14
200.066	1085.44
200.45	1082.43
200.835	1082.19
201.219	1080.4
201.604	1079.82
201.988	1080.42
202.372	1080.06
202.757	1079.88
203.141	1081.26
203.525	1080.19
203.91	1082.23
204.294	1083.19
204.678	1082.49
205.062	1083.36
205.446	1080.35
205.83	1082.66
206.214	1082.97
206.598	1084.96
206.982	1086.37
207.366	1088.78
207.75	1089.34
208.134	1090.11
208.517	1091.84
208.901	1090.51
209.285	1092.74
209.669	1094.01
210.052	1093.81
210.436	1096.28
210.819	1096.41
211.203	1097.24
211.586	1097.21
211.97	1096.04
212.353	1095.36
212.737	1099.68
213.12	1101.87
213.503	1101.74
213.886	1100.28
214.27	1100.61
214.653	1099.31
215.036	1100.65
215.419	1099.99
215.802	1099.35
216.185	1100.57
216.568	1104.77
216.951	1107.52
217.334	1109.51
217.717	1114.01
218.1	1115.17
218.482	1117.64
218.865	1120.96
219.248	1123.05
219.631	1127.28
220.013	1132.68
220.396	1141.06
220.778	1145.14
221.161	1148.3
221.544	1157.13
221.926	1166.82
222.308	1175.2
222.691	1184.38
223.073	1193.26
223.455	1201.34
223.838	1213.02
224.22	1224.99
224.602	1236.31
224.984	1249.46
225.366	1259.68
225.749	1272.31
226.131	1285.47
226.513	1298.79
226.895	1313.91
227.276	1327.35
227.658	1340.33
228.04	1355.59
228.422	1368.36
228.804	1385.5
229.186	1403.22
229.567	1420.57
229.949	1435.25
230.331	1451.28
230.712	1467.65
231.094	1483.65
231.475	1505.35
231.857	1523.52
232.238	1541.7
232.62	1558.58
233.001	1578.82
233.382	1599.57
233.763	1616.46
234.145	1636.98
234.526	1656.88
234.907	1676.29
235.288	1697.6
235.669	1718.55
236.05	1738.41
236.431	1757.12
236.812	1776.42
237.193	1797.51
237.574	1816.72
237.955	1838
238.336	1861.05
238.717	1882.34
239.097	1906.91
239.478	1925.7
239.859	1948.44
240.239	1971.08
240.62	1994.34
241.001	2015.37
241.381	2039.8
241.762	2063.2
242.142	2086.98
242.522	2107.3
242.903	2131.79
243.283	2156.01
243.663	2181.37
244.044	2208.89
244.424	2236.75
244.804	2265.13
245.184	2295.44
245.564	2323.32
245.944	2353.17
246.324	2381.32
246.704	2411.52
247.084	2437.62
247.464	2469.65
247.844	2499.55
248.224	2531.52
248.604	2562.2
248.983	2592.21
249.363	2624.12
249.743	2656.77
250.122	2685.02
250.502	2715.29
250.882	2747.1
251.261	2779.12
251.641	2810.03
252.02	2840.21
252.399	2875.17
252.779	2908.54
253.158	2940.53
253.537	2979.03
253.917	3020.17
254.296	3057.35
254.675	3095.7
255.054	3134.7
255.433	3174.87
255.812	3212.14
256.191	3250.76
256.57	3289.35
256.949	3332.14
257.328	3372.57
257.707	3415.42
258.086	3463.08
258.465	3513.03
258.843	3560.74
259.222	3610.18
259.601	3665.61
259.979	3718.39
260.358	3768.92
260.736	3819.2
261.115	3876.37
261.493	3928.99
261.872	3978.63
262.25	4034.98
262.629	4090.84
263.007	4153.47
263.385	4211.96
263.763	4274.57
264.142	4337.45
264.52	4402.68
264.898	4463.55
265.276	4525.88
265.654	4596.52
266.032	4665.2
266.41	4734.11
266.788	4802.06
267.166	4876.73
267.544	4947.21
267.921	5022.54
268.299	5100.65
268.677	5183.39
269.055	5262.79
269.432	5346.68
269.81	5429.33
270.188	5516.61
270.565	5606.72
270.943	5692.1
271.32	5782.11
271.697	5877.05
272.075	5969.22
272.452	6064.15
272.829	6165.53
273.207	6269.69
273.584	6371.05
273.961	6474.15
274.338	6586.81
274.715	6703.98
275.092	6822.59
275.469	6943.2
275.846	7065.49
276.223	7187.83
276.6	7307.14
276.977	7429.83
277.354	7553.22
277.731	7680.9
278.108	7809.19
278.484	7940.73
278.861	8072.85
279.238	8210.45
279.614	8348.24
279.991	8490.18
280.367	8635.13
280.744	8780.97
281.12	8931.24
281.497	9078.47
281.873	9232.94
282.249	9382.01
282.625	9528.07
283.002	9674.28
283.378	9819.45
283.754	9971.85
284.13	10124.44
284.506	10284.76
284.882	10444.32
285.258	10603.92
285.634	10763.48
286.01	10922.15
286.386	11080.65
286.762	11246.58
287.138	11410.82
287.513	11575.05
287.889	11740.88
288.265	11904.83
288.641	12068.25
289.016	12228.27
289.392	12391.42
289.767	12553.57
290.143	12718.68
290.518	12882.73
290.894	13047.5
291.269	13209.04
291.644	13365.32
292.02	13521.89
292.395	13672.53
292.77	13825.87
293.145	13977.58
293.52	14131.38
293.895	14288.82
294.27	14446.52
294.646	14599.36
295.02	14747.48
295.395	14899.65
295.77	15055.28
296.145	15210.21
296.52	15362.23
296.895	15515.18
297.269	15668.46
297.644	15821.83
298.019	15975.06
298.393	16128.79
298.768	16280.72
299.143	16440.78
299.517	16592.38
299.891	16747.9
300.266	16910.68
300.64	17071.11
301.015	17235.05
301.389	17408.09
301.763	17576.78
302.137	17743.56
302.512	17923.92
302.886	18103.68
303.26	18288.58
303.634	18466.79
304.008	18642.51
304.382	18827.31
304.756	19012.28
305.13	19201.84
305.504	19378.36
305.877	19568.82
306.251	19771.54
306.625	19976.13
306.999	20178.68
307.372	20395.57
307.746	20612.46
308.119	20823.83
308.493	21038.38
308.866	21252.68
309.24	21461.91
309.613	21669.13
309.987	21877.67
310.36	22070.31
310.733	22274.65
311.107	22485.18
311.48	22699.35
311.853	22931.66
312.226	23158.67
312.599	23387.39
312.972	23607.7
313.345	23837.09
313.718	24058.37
314.091	24281.49
314.464	24508.64
314.837	24735.02
315.21	24944.45
315.582	25167.77
315.955	25377.98
316.328	25592.72
316.7	25806.52
317.073	26029.46
317.446	26254.38
317.818	26484.81
318.191	26716.01
318.563	26945.42
318.936	27152.62
319.308	27358.01
319.68	27553.06
320.053	27750.51
320.425	27938.28
320.797	28124.42
321.169	28290.59
321.541	28444.61
321.913	28573.71
322.285	28690.4
322.657	28813.89
323.029	28960.83
323.401	29098
323.773	29270.09
324.145	29442.54
324.517	29630.74
324.889	29809.89
325.26	30011.78
325.632	30221.94
326.004	30463.39
326.375	30712.87
326.747	30994.84
327.118	31294.82
327.49	31586.53
327.861	31893.33
328.233	32200.99
328.604	32506.32
328.975	32821.77
329.346	33129.04
329.718	33441.26
330.089	33749.59
330.46	34046.8
330.831	34314.92
331.202	34575.41
331.573	34819.62
331.944	35048.49
332.315	35276.29
332.686	35491.72
333.057	35692.47
333.428	35871.63
333.799	36035.9
334.169	36190.48
334.54	36327.8
334.911	36445.32
335.281	36580.69
335.652	36698.58
336.022	36836.64
336.393	36986.95
336.763	37149.45
337.134	37335.21
337.504	37531.19
337.874	37728.44
338.245	37930.13
338.615	38154.55
338.985	38377.93
339.355	38597.26
339.726	38820.03
340.096	39037.18
340.466	39288.37
340.836	39521.09
341.206	39773.45
341.576	40023.66
341.945	40272.54
342.315	40501.06
342.685	40747.48
343.055	40992.13
343.425	41230.65
343.794	41456.44
344.164	41676.68
344.533	41917.88
344.903	42145.24
345.273	42379.64
345.642	42607.1
346.011	42841.73
346.381	43070.25
346.75	43299.59
347.12	43544.73
347.489	43794.05
347.858	44039.52
348.227	44252.01
348.596	44479.9
348.965	44712.38
349.334	44938.79
349.704	45173.11
350.072	45422.19
350.441	45661.72
350.81	45895.43
351.179	46127.59
351.548	46366.96
351.917	46598.38
352.285	46788.44
352.654	46993.26
353.023	47201.5
353.391	47405
353.76	47617.73
354.129	47804.46
354.497	48035.93
354.865	48259.33
355.234	48488.17
355.602	48705.13
355.971	48946.52
356.339	49158.42
356.707	49377.22
357.075	49593.74
357.443	49812.02
357.811	50023.26
358.18	50223.02
358.548	50432.77
358.916	50640.03
359.284	50853.6
359.651	51071.57
360.019	51297.57
360.387	51503.28
360.755	51697.79
361.123	51916.82
361.49	52140.39
361.858	52357.93
362.226	52558.18
362.593	52751.83
362.961	52931.49
363.328	53137.08
363.696	53304.34
364.063	53524
364.43	53728
364.798	53943.82
365.165	54124.38
365.532	54311.2
365.899	54498.6
366.267	54670.41
366.634	54824.8
367.001	54990.27
367.368	55126.53
367.735	55297.67
368.102	55473.45
368.469	55669.14
368.835	55852.88
369.202	56010.07
369.569	56207.34
369.936	56395.36
370.303	56580.29
370.669	56778.9
371.036	56942.7
371.402	57150.49
371.769	57327.92
372.135	57478.5
372.502	57600.6
372.868	57743.71
373.235	57885.7
373.601	58028.73
373.967	58197.69
374.333	58382.56
374.7	58566
375.066	58765.35
375.432	58959.68
375.798	59141.49
376.164	59307.59
376.53	59451.55
376.896	59623.54
377.262	59789.47
377.628	59914.14
377.993	60063.49
378.359	60211.52
378.725	60368.39
379.091	60514.35
379.456	60640.91
379.822	60774.06
380.187	60929.53
380.553	61115.79
380.918	61308.34
381.284	61475.04
381.649	61644.16
382.015	61787.61
382.38	61906.28
382.745	62079.98
383.11	62225.67
383.476	62362.93
383.841	62493.94
384.206	62650.53
384.571	62769.09
384.936	62902.47
385.301	63080.46
385.666	63218.77
386.031	63372.34
386.396	63526.64
386.76	63674.26
387.125	63876.18
387.49	64069.91
387.855	64255.01
388.219	64426.59
388.584	64600.56
388.948	64793.94
389.313	64959.26
389.677	65160.2
390.042	65392.82
390.406	65548.45
390.771	65726.69
391.135	65916.37
391.499	66145.98
391.863	66381.37
392.227	66624.41
392.592	66819.35
392.956	67009.38
393.32	67203.93
393.684	67418.75
394.048	67592.82
394.412	67777.36
394.775	67924.71
395.139	68073.91
395.503	68235.22
395.867	68382.8
396.231	68522.94
396.594	68633.42
396.958	68770.02
397.321	68924.41
397.685	69047.68
398.048	69184.3
398.412	69324.48
398.775	69452.14
399.139	69577.39
399.502	69684.53
399.865	69822.63
400.228	70019.86
400.592	70151.77
400.955	70347.11
401.318	70479.16
401.681	70647.25
402.044	70786.96
402.407	70939.63
402.77	71098.71
403.133	71284.47
403.496	71425.42
403.859	71576.72
404.221	71801.76
404.584	72033.91
404.947	72277.41
405.309	72484.66
405.672	72714.41
406.034	72932.12
406.397	73184.32
406.759	73397.88
407.122	73578.1
407.484	73755.67
407.847	73946.4
408.209	74206.1
408.571	74430.59
408.933	74689.15
409.296	74932.69
409.658	75164.29
410.02	75434.02
410.382	75743.88
410.744	75999.83
411.106	76287.79
411.468	76562.9
411.83	76812.14
412.191	77015.17
412.553	77194.27
412.915	77407.78
413.277	77620.24
413.638	77825.34
414	77999.59
414.361	78183.42
414.723	78414.64
415.084	78622.69
415.446	78786.43
415.807	78917.78
416.169	79028.08
416.53	79117.77
416.891	79227.89
417.252	79357.98
417.614	79436.56
417.975	79478.11
418.336	79530.45
418.697	79585.54
419.058	79633.2
419.419	79667.37
419.78	79706.11
420.141	79734.6
420.501	79759.26
420.862	79777.16
421.223	79792.38
421.584	79823.02
421.944	79840.6
422.305	79852.31
422.666	79861.2
423.026	79865.59
423.387	79874.2
423.747	79880.25
424.107	79891.64
424.468	79901.85
424.828	79909.68
425.188	79913.81
425.549	79918.79
425.909	79923.37
426.269	79923.18
426.629	79928.2
426.989	79932.48
427.349	79939.09
427.709	79943.71
428.069	79946.22
428.429	79951.72
428.789	79958.26
429.149	79965.13
429.508	79970.37
429.868	79974.69
430.228	79979.94
430.587	79983.63
430.947	79989.88
431.306	79995.27
431.666	79997.74
432.025	79999.81
432.385	80001.4
432.744	80004.51
433.103	80008.68
433.463	80011.27
433.822	80020.36
434.181	80023.13
434.54	80023.31
434.899	80024.2
435.258	80025.31
435.618	80026.9
435.976	80031.19
436.335	80030.3
436.694	80031.26
437.053	80032.15
437.412	80033.52
437.771	80032.85
438.129	80033.15
438.488	80033.89
438.847	80036.33
439.205	80038.47
439.564	80041.54
439.922	80042.32
440.281	80044.72
440.639	80047.13
440.997	80047.46
441.356	80046.9
441.714	80047.94
442.072	80050.97
442.431	80051.67
442.789	80053.08
443.147	80054.97
443.505	80055.71
443.863	80056.96
444.221	80057.11
444.579	80057.15
444.937	80057.15
445.294	80058.29
445.652	80059.77
446.01	80059.26
446.368	80059.22
446.725	80057.81
447.083	80055.82
447.441	80057.11
447.798	80056.41
448.156	80056.89
448.513	80056.67
448.87	80056.07
449.228	80057.48
449.585	80058.41
449.942	80057.56
450.3	80057.19
450.657	80057.26
451.014	80055.08
451.371	80055.19
451.728	80054.74
452.085	80056.11
452.442	80055.78
452.799	80056.67
453.156	80055.96
453.513	80057.04
453.869	80055.41
454.226	80055.71
454.583	80055.19
454.939	80053.04
455.296	80053.12
455.653	80051.67
456.009	80052.08
456.366	80050.71
456.722	80049.2
457.078	80048.34
457.435	80050.45
457.791	80050.12
458.147	80050.34
458.503	80051.41
458.86	80051.49
459.216	80051.08
459.572	80050.34
459.928	80050.12
460.284	80049.82
460.64	80050.56
460.996	80050.42
461.351	80052.71
461.707	80053.67
462.063	80054.82
462.419	80057.74
462.774	80060.18
463.13	80060.48
463.486	80061.26
463.841	80064.62
464.197	80064.58
464.552	80065.18
464.908	80065.25
465.263	80067.32
465.618	80067.62
465.974	80067.73
466.329	80069.28
466.684	80071.02
467.039	80072.17
467.394	80074.57
467.749	80074.87
468.104	80075.57
468.459	80076.46
468.814	80075.87
469.169	80075.2
469.524	80078.09
469.879	80077.24
470.233	80077.2
470.588	80077.87
470.943	80077.9
471.297	80077.98
471.652	80079.57
472.006	80080.64
472.361	80081.71
472.715	80079.98
473.07	80080.01
473.424	80079.94
473.778	80081.38
474.133	80081.97
474.487	80083.12
474.841	80082.53
475.195	80085.38
475.549	80084.9
475.903	80086.38
476.257	80088.12
476.611	80091.52
476.965	80090.67
477.319	80091.63
477.673	80091.38
478.026	80092.89
478.38	80094.3
478.734	80094.89
479.087	80096.11
479.441	80096.22
479.795	80095.41
480.148	80098.04
480.502	80098.63
480.855	80099.96
481.208	80098.81
481.562	80099.04
481.915	80099.44
482.268	80099.33
482.621	80098.78
482.974	80101.48
483.328	80101.33
483.681	80100.52
484.034	80099.41
484.387	80098.92
484.739	80099.04
485.092	80098.85
485.445	80098.74
485.798	80098.15
486.151	80098.29
486.503	80099.44
486.856	80100.78
487.209	80101.11
487.561	80101.26
487.914	80100.74
488.266	80100.48
488.618	80100.78
488.971	80100.78
489.323	80099.67
489.675	80100
490.028	80098.52
490.38	80098.33
490.732	80098.92
491.084	80099.04
491.436	80098.7
491.788	80098.81
492.14	80098.78
492.492	80099.18
492.844	80100.04
493.196	80102.48
493.548	80103.11
493.899	80102.26
494.251	80101.29
494.603	80103.22
494.954	80102.59
495.306	80102.55
495.657	80104.55
496.009	80105.07
496.36	80106.4
496.712	80106.33
497.063	80107.26
497.414	80108.18
497.765	80108.33
498.117	80109.33
498.468	80109
498.819	80108.44
499.17	80109.11
499.521	80109
499.872	80109
500.223	80109.37
500.574	80109
500.924	80110.14
501.275	80110.14
501.626	80109.7
501.977	80108.44
502.327	80109.44
502.678	80111.07
503.029	80111.62
503.379	80112.73
503.73	80110.48
504.08	80110.59
504.43	80109.33
504.781	80107.81
505.131	80105.48
505.481	80103.85
505.831	80103.55
506.182	80104.22
506.532	80103.81
506.882	80103.55
507.232	80104
507.582	80103.44
507.932	80101.52
508.281	80100.44
508.631	80100.18
508.981	80099.74
509.331	80099.59
509.681	80098.67
510.03	80097.82
510.38	80096.48
510.729	80095.78
511.079	80095.45
511.428	80096.59
511.778	80096.59
512.127	80097.63
512.476	80098.44
512.826	80097.78
513.175	80100.07
513.524	80100.85
513.873	80101.7
514.222	80101.52
514.571	80101.11
514.92	80100.52
515.269	80101.18
515.618	80099.96
515.967	80101.63
516.316	80103.7
516.665	80103.63
517.014	80104.92
517.362	80104.85
517.711	80105.63
518.059	80106.52
518.408	80108.29
518.757	80108.22
519.105	80108.4
519.453	80109.03
519.802	80110.77
520.15	80111.48
520.498	80109.4
520.847	80109.18
521.195	80108.62
521.543	80110.07
521.891	80109.44
522.239	80109.81
522.587	80111.11
522.935	80111.66
523.283	80109.14
523.631	80108.44
523.979	80108.59
524.326	80107.66
524.674	80107.37
525.022	80106.7
525.369	80105.92
525.717	80106.18
526.064	80105
526.412	80106.37
526.759	80106.48
527.107	80105.7
527.454	80105.44
527.801	80106.55
528.149	80105.7
528.496	80105.74
528.843	80104.92
529.19	80105.55
529.537	80104.85
529.884	80104.51
530.231	80104
530.578	80105.03
530.925	80104.66
531.272	80104.88
531.619	80104.77
531.966	80103.63
532.312	80102.77
532.659	80103.96
533.006	80103.44
533.352	80105.11
533.699	80103.63
534.045	80102.22
534.392	80100.15
534.738	80100.85
535.084	80101
535.431	80102
535.777	80101.85
536.123	80101.7
536.469	80102.59
536.815	80101.33
537.161	80101.55
537.507	80101.22
537.853	80100.37
538.199	80099.3
538.545	80098.89
538.891	80100.52
539.237	80102.18
539.582	80103.55
539.928	80103.29
540.274	80103.11
540.619	80102.18
540.965	80102.48
541.31	80104.7
541.656	80105.96
542.001	80105.55
542.347	80104.18
542.692	80101.89
543.037	80101.55
543.382	80101.81
543.728	80101.89
544.073	80104.15
544.418	80103.48
544.763	80103.55
545.108	80103.07
545.453	80104.22
545.798	80103.22
546.142	80101.07
546.487	80100.37
546.832	80099.41
547.177	80099.48
547.521	80099.96
547.866	80100.48
548.211	80100.85
548.555	80100.67
548.9	80101.22
549.244	80101.33
549.588	80101.81
549.933	80103.33
550.277	80104.29
550.621	80104.44
550.965	80103.26
551.31	80103.92
551.654	80103.85
551.998	80104.48
552.342	80106.18
552.686	80104.33
553.03	80105.7
553.373	80106.4
553.717	80106.37
554.061	80105.11
554.405	80104.03
554.748	80103
555.092	80102.63
555.436	80102.77
555.779	80101.74
556.123	80101.29
556.466	80102.07
556.81	80102.85
557.153	80103.07
557.496	80102.55
557.839	80100.89
558.183	80101.96
558.526	80099.26
558.869	80098.67
559.212	80097.7
559.555	80096.93
559.898	80097.52
560.241	80096.7
560.584	80097.74
560.927	80097.85
561.269	80099.96
561.612	80099.7
561.955	80100.44
562.297	80100.85
562.64	80101.29
562.983	80101.33
563.325	80102.59
563.668	80102.07
564.01	80103.15
564.352	80102.59
564.695	80103.7
565.037	80106.33
565.379	80105.59
565.721	80105.03
566.063	80104.4
566.406	80104.07
566.748	80104.7
567.09	80104.11
567.431	80103.81
567.773	80102.63
568.115	80102.44
568.457	80100.11
568.799	80099.04
569.14	80099
569.482	80098.22
569.824	80098.07
570.165	80099
570.507	80096.59
570.848	80096.26
571.19	80095.52
571.531	80095.3
571.872	80092.52
572.214	80091.04
572.555	80091.56
572.896	80092.34
573.237	80093.11
573.578	80093.56
573.919	80092.71
574.26	80093.6
574.601	80095.19
574.942	80093.82
575.283	80093.11
575.624	80093.23
575.964	80094.37
576.305	80094.41
576.646	80093.37
576.986	80092.26
577.327	80090.23
577.667	80091.41
578.008	80091.49
578.348	80091.15
578.689	80091.26
579.029	80091.15
579.369	80091.37
579.71	80090.86
580.05	80090.93
580.39	80089.67
580.73	80090.67
581.07	80089.78
581.41	80090.15
581.75	80088.49
582.09	80089.71
582.43	80089.63
582.769	80092.04
583.109	80089.89
583.449	80089.23
583.789	80090.04
584.128	80089.19
584.468	80088.71
584.807	80087.67
585.147	80084.34
585.486	80084.86
585.825	80085.31
586.165	80086.68
