Data from 24HourExp_27052025_FLMS018081_07-38-19-889.txt Node
Date: Wed May 28 07:38:19 BST 2025
User: adleo
Spectrometer: FLMS01808
Trigger mode: 0
Integration Time (sec): 4.000000E-1
Scans to average: 10
Electric dark correction enabled: true
Nonlinearity correction enabled: true
Boxcar width: 10
XAxis mode: Wavelengths
Number of Pixels in Spectrum: 2048
>>>>>Begin Spectral Data<<<<<
178.471	-127.75
178.857	-120.97
179.244	-113.54
179.631	-105.38
180.017	-97.2
180.404	-88.69
180.79	-78.38
181.176	-69.65
181.563	-60.53
181.949	-49.18
182.335	-40.22
182.722	-23.39
183.108	-4.71
183.494	21.64
183.88	75.44
184.266	128.43
184.653	183.48
185.039	238.58
185.425	294.28
185.811	347.37
186.197	400.23
186.582	450.69
186.968	503.2
187.354	554.1
187.74	603.76
188.126	653.69
188.511	703.61
188.897	751.93
189.283	799.13
189.668	843.43
190.054	885.33
190.439	932.14
190.825	974.81
191.21	1016.38
191.596	1049.98
191.981	1057.78
192.366	1063.14
192.752	1065.56
193.137	1069.01
193.522	1070.68
193.908	1071.69
194.293	1075.03
194.678	1077.25
195.063	1079.07
195.448	1081.79
195.833	1083.12
196.218	1083.7
196.603	1083.71
196.988	1081.87
197.373	1083.28
197.757	1084.3
198.142	1085.98
198.527	1082.75
198.912	1081.74
199.296	1080.73
199.681	1080.82
200.066	1079.13
200.45	1077.07
200.835	1077.76
201.219	1077.22
201.604	1076.27
201.988	1077.85
202.372	1077.75
202.757	1078.45
203.141	1078.16
203.525	1078.67
203.91	1080.84
204.294	1080.76
204.678	1081.17
205.062	1081.91
205.446	1080.09
205.83	1081.76
206.214	1080.77
206.598	1082.03
206.982	1083.55
207.366	1084.49
207.75	1083.91
208.134	1085.36
208.517	1088.08
208.901	1088.52
209.285	1090.04
209.669	1092.27
210.052	1091.31
210.436	1091.76
210.819	1091.94
211.203	1093.15
211.586	1093.26
211.97	1091.62
212.353	1092.02
212.737	1093.71
213.12	1097.08
213.503	1099.44
213.886	1100.39
214.27	1103.32
214.653	1104.96
215.036	1108.35
215.419	1110.36
215.802	1112.4
216.185	1115.72
216.568	1117.71
216.951	1121.12
217.334	1123.51
217.717	1126.52
218.1	1128.83
218.482	1132.36
218.865	1136.72
219.248	1140.97
219.631	1146.21
220.013	1151.35
220.396	1158.56
220.778	1162.18
221.161	1166.59
221.544	1172.43
221.926	1180.59
222.308	1188.67
222.691	1196.47
223.073	1204.46
223.455	1211.43
223.838	1219.95
224.22	1228.38
224.602	1238.37
224.984	1247.81
225.366	1258.66
225.749	1273.14
226.131	1288.07
226.513	1300.72
226.895	1314.6
227.276	1328.91
227.658	1343.89
228.04	1358.8
228.422	1374.12
228.804	1391.23
229.186	1409.02
229.567	1427.25
229.949	1441.87
230.331	1458.21
230.712	1476.86
231.094	1492.66
231.475	1512.27
231.857	1532.66
232.238	1553.33
232.62	1572.37
233.001	1590.62
233.382	1611.43
233.763	1627.96
234.145	1647.73
234.526	1668.32
234.907	1687.34
235.288	1705.26
235.669	1723.07
236.05	1743.73
236.431	1762.35
236.812	1782.62
237.193	1802.38
237.574	1822.58
237.955	1847.26
238.336	1869.08
238.717	1889.6
239.097	1913.57
239.478	1934.68
239.859	1958.14
240.239	1980.8
240.62	2003.95
241.001	2028.79
241.381	2052.94
241.762	2077.07
242.142	2098.29
242.522	2121.53
242.903	2147.97
243.283	2174.76
243.663	2199.48
244.044	2227.24
244.424	2254.58
244.804	2282.04
245.184	2310.45
245.564	2337.75
245.944	2367.73
246.324	2397.87
246.704	2428.17
247.084	2455.22
247.464	2487.08
247.844	2516.75
248.224	2546.83
248.604	2578.99
248.983	2611.13
249.363	2639.99
249.743	2669.73
250.122	2701.03
250.502	2731.39
250.882	2761.55
251.261	2794.64
251.641	2830.14
252.02	2862.18
252.399	2898.91
252.779	2933.16
253.158	2966.23
253.537	3006.1
253.917	3046.59
254.296	3082.89
254.675	3123.15
255.054	3163.03
255.433	3203.92
255.812	3240.77
256.191	3282.45
256.57	3323.76
256.949	3367.41
257.328	3412.82
257.707	3458.99
258.086	3505.49
258.465	3552.31
258.843	3601.7
259.222	3650.26
259.601	3701.31
259.979	3753.99
260.358	3805.42
260.736	3858.53
261.115	3917.2
261.493	3969.5
261.872	4018.42
262.25	4076.83
262.629	4131.29
263.007	4191.53
263.385	4252.31
263.763	4318.52
264.142	4378.76
264.52	4441.74
264.898	4502.72
265.276	4567.7
265.654	4635.08
266.032	4707.74
266.41	4777.5
266.788	4850.01
267.166	4925.85
267.544	4999.23
267.921	5078.21
268.299	5156.55
268.677	5237.24
269.055	5317.3
269.432	5402.88
269.81	5490.42
270.188	5575.74
270.565	5665.61
270.943	5756.57
271.32	5847.65
271.697	5941.51
272.075	6039.1
272.452	6135.39
272.829	6233.65
273.207	6334.17
273.584	6438.35
273.961	6542.03
274.338	6655.73
274.715	6771.2
275.092	6886.47
275.469	7007.12
275.846	7124.51
276.223	7246.98
276.6	7368.48
276.977	7495.44
277.354	7619.72
277.731	7746.86
278.108	7877.82
278.484	8008.98
278.861	8137.53
279.238	8274.72
279.614	8411.29
279.991	8547.93
280.367	8692.98
280.744	8843.29
281.12	8994.4
281.497	9142
281.873	9291.64
282.249	9442.38
282.625	9588.64
283.002	9736.18
283.378	9886.32
283.754	10040.92
284.13	10195.94
284.506	10355.19
284.882	10509.6
285.258	10670.51
285.634	10826.76
286.01	10987.96
286.386	11146.56
286.762	11313.51
287.138	11473.71
287.513	11640.36
287.889	11808.91
288.265	11973.55
288.641	12131.61
289.016	12291.43
289.392	12456.84
289.767	12622.2
290.143	12786.42
290.518	12949.49
290.894	13120.38
291.269	13282.73
291.644	13442.03
292.02	13596.8
292.395	13749.91
292.77	13907.33
293.145	14061.76
293.52	14219.85
293.895	14370.65
294.27	14529.23
294.646	14684.52
295.02	14839.5
295.395	14987.66
295.77	15144.95
296.145	15297.79
296.52	15454.92
296.895	15610.57
297.269	15763.55
297.644	15917.36
298.019	16070.9
298.393	16225.51
298.768	16374.73
299.143	16528.31
299.517	16683.93
299.891	16842.47
300.266	17003.56
300.64	17162.3
301.015	17324.65
301.389	17496.49
301.763	17675.93
302.137	17848.99
302.512	18032.82
302.886	18211.66
303.26	18404.77
303.634	18586.13
304.008	18760.98
304.382	18949.22
304.756	19135.04
305.13	19325.2
305.504	19510.48
305.877	19700.31
306.251	19906.46
306.625	20103.86
306.999	20313.26
307.372	20528.48
307.746	20747.74
308.119	20963.47
308.493	21176.68
308.866	21386.02
309.24	21594.37
309.613	21800.03
309.987	22012.58
310.36	22201.42
310.733	22406.61
311.107	22615.98
311.48	22831.98
311.853	23070
312.226	23293.04
312.599	23523
312.972	23748.85
313.345	23980.39
313.718	24211.53
314.091	24433.26
314.464	24671.58
314.837	24897.66
315.21	25106.15
315.582	25326.15
315.955	25540.27
316.328	25764.62
316.7	25989
317.073	26217.04
317.446	26437.51
317.818	26663.46
318.191	26901.18
318.563	27126.67
318.936	27335.95
319.308	27543.07
319.68	27737.79
320.053	27933.14
320.425	28121.38
320.797	28305.45
321.169	28463.9
321.541	28609.97
321.913	28743.22
322.285	28857.76
322.657	28982.25
323.029	29130.05
323.401	29269.77
323.773	29433.89
324.145	29600.94
324.517	29786.95
324.889	29959.84
325.26	30163.03
325.632	30375.51
326.004	30609.8
326.375	30867.44
326.747	31142.65
327.118	31442.51
327.49	31736.96
327.861	32046.17
328.233	32356.42
328.604	32660.88
328.975	32977.91
329.346	33290.11
329.718	33597.54
330.089	33907.68
330.46	34203.49
330.831	34476.86
331.202	34735.83
331.573	34986.54
331.944	35216.08
332.315	35442.02
332.686	35660.43
333.057	35859.63
333.428	36040.3
333.799	36207.28
334.169	36360.76
334.54	36506.85
334.911	36621.65
335.281	36754.75
335.652	36878.19
336.022	37010.62
336.393	37156.73
336.763	37326.37
337.134	37508.46
337.504	37707.22
337.874	37912.89
338.245	38117.66
338.615	38337.18
338.985	38572.36
339.355	38790.9
339.726	39014.62
340.096	39236.52
340.466	39487.84
340.836	39731.65
341.206	39976.04
341.576	40223.8
341.945	40472.29
342.315	40700.6
342.685	40948.04
343.055	41191.97
343.425	41439.56
343.794	41673.35
344.164	41907.85
344.533	42142.43
344.903	42375.19
345.273	42611.72
345.642	42834.36
346.011	43062.73
346.381	43292.55
346.75	43517.81
347.12	43767.13
347.489	44017.48
347.858	44262.13
348.227	44473.2
348.596	44696.16
348.965	44931.23
349.334	45165.24
349.704	45398.36
350.072	45642.71
350.441	45880.42
350.81	46117.65
351.179	46339.32
351.548	46573.69
351.917	46795.54
352.285	46986.36
352.654	47195.51
353.023	47400.54
353.391	47594.06
353.76	47810.61
354.129	48005.78
354.497	48236.32
354.865	48449.62
355.234	48680.14
355.602	48895.67
355.971	49145.92
356.339	49364.31
356.707	49586.45
357.075	49799.7
357.443	50021.89
357.811	50232.97
358.18	50433.14
358.548	50650.88
358.916	50868.73
359.284	51086.66
359.651	51303.93
360.019	51527.8
360.387	51727.22
360.755	51931.71
361.123	52167.68
361.49	52397.36
361.858	52610.29
362.226	52807.38
362.593	53011.71
362.961	53190.16
363.328	53392.83
363.696	53555.45
364.063	53772.22
364.43	53977.52
364.798	54191.9
365.165	54368.25
365.532	54556.62
365.899	54749.98
366.267	54910.69
366.634	55060.38
367.001	55224.01
367.368	55363.67
367.735	55536.44
368.102	55709.64
368.469	55896.29
368.835	56074.38
369.202	56230.02
369.569	56423.87
369.936	56613.34
370.303	56793.12
370.669	56998.37
371.036	57169
371.402	57374.67
371.769	57554.7
372.135	57703.28
372.502	57828.09
372.868	57973.16
373.235	58119.89
373.601	58260.21
373.967	58431.63
374.333	58615.69
374.7	58796.65
375.066	59000.01
375.432	59189.9
375.798	59377.54
376.164	59541.02
376.53	59688.8
376.896	59857.8
377.262	60022.6
377.628	60152.06
377.993	60303.11
378.359	60442.62
378.725	60593.73
379.091	60736.53
379.456	60859.57
379.822	60988.91
380.187	61136.15
380.553	61323.72
380.918	61512.68
381.284	61686.35
381.649	61862.96
382.015	62001.45
382.38	62117.47
382.745	62284.36
383.11	62433.58
383.476	62571.05
383.841	62702.98
384.206	62862.2
384.571	62985.49
384.936	63122.91
385.301	63287.89
385.666	63419.31
386.031	63573.98
386.396	63742.31
386.76	63904.45
387.125	64094.35
387.49	64298.98
387.855	64497.78
388.219	64664.21
388.584	64842.71
388.948	65036.93
389.313	65195.83
389.677	65402.76
390.042	65641.01
390.406	65796.14
390.771	65987.92
391.135	66180.23
391.499	66415.03
391.863	66637.89
392.227	66876.09
392.592	67074.23
392.956	67275.83
393.32	67481.46
393.684	67693.6
394.048	67859.89
394.412	68038.93
394.775	68196.48
395.139	68349.27
395.503	68507.01
395.867	68657.65
396.231	68794.5
396.594	68902.21
396.958	69040.92
397.321	69198.38
397.685	69316.1
398.048	69456.44
398.412	69592.05
398.775	69716.34
399.139	69834.37
399.502	69951.26
399.865	70092.51
400.228	70286.77
400.592	70413.49
400.955	70604.79
401.318	70739.56
401.681	70906.26
402.044	71039
402.407	71192.97
402.77	71343.44
403.133	71531.72
403.496	71675.82
403.859	71825.55
404.221	72053.31
404.584	72294.56
404.947	72545.84
405.309	72763.47
405.672	73002.22
406.034	73223.07
406.397	73481.73
406.759	73715.21
407.122	73897.28
407.484	74067.84
407.847	74254.78
408.209	74513.86
408.571	74742.44
408.933	75009.26
409.296	75263.44
409.658	75514.65
410.02	75786.36
410.382	76093.12
410.744	76347.85
411.106	76638.56
411.468	76918.18
411.83	77154.8
412.191	77348.47
412.553	77509.91
412.915	77713.86
413.277	77910.72
413.638	78100.29
414	78261.73
414.361	78425.47
414.723	78643.22
415.084	78849.24
415.446	79004.74
415.807	79127.6
416.169	79225.75
416.53	79300.29
416.891	79388.71
417.252	79495.91
417.614	79563.23
417.975	79600.68
418.336	79640.64
418.697	79681.03
419.058	79716.62
419.419	79745.85
419.78	79776.48
420.141	79798.1
420.501	79818.23
420.862	79833.83
421.223	79844.99
421.584	79873.1
421.944	79887.97
422.305	79896.49
422.666	79901.33
423.026	79903.95
423.387	79913.71
423.747	79920.13
424.107	79929.35
424.468	79938.83
424.828	79944.37
425.188	79948.58
425.549	79953.75
425.909	79958.37
426.269	79957.89
426.629	79960.4
426.989	79964.65
427.349	79967.57
427.709	79971.15
428.069	79972.74
428.429	79977.58
428.789	79983.56
429.149	79987.07
429.508	79990.84
429.868	79995.5
430.228	80001.56
430.587	80006.14
430.947	80011.28
431.306	80015.12
431.666	80018.86
432.025	80021.63
432.385	80023.48
432.744	80024.44
433.103	80025.55
433.463	80028.47
433.822	80037.22
434.181	80042.36
434.54	80043.84
434.899	80046.21
435.258	80048.06
435.618	80051.79
435.976	80054.9
436.335	80055.93
436.694	80057.75
437.053	80057.23
437.412	80056.23
437.771	80054.75
438.129	80056.86
438.488	80056.19
438.847	80057.41
439.205	80057.64
439.564	80057.52
439.922	80058.04
440.281	80059.15
440.639	80059.85
440.997	80061.3
441.356	80061.48
441.714	80061.15
442.072	80062.3
442.431	80062.41
442.789	80064.07
443.147	80063.44
443.505	80063.78
443.863	80062.96
444.221	80062.3
444.579	80065.26
444.937	80067.55
445.294	80069.44
445.652	80069.4
446.01	80070.62
446.368	80069.92
446.725	80070.84
447.083	80071.62
447.441	80072.54
447.798	80072.51
448.156	80074.06
448.513	80073.03
448.87	80073.14
449.228	80073.99
449.585	80073.69
449.942	80074.88
450.3	80075.1
450.657	80075.62
451.014	80076.58
451.371	80077.17
451.728	80079.72
452.085	80079.83
452.442	80078.91
452.799	80079.06
453.156	80079.24
453.513	80078.83
453.869	80080.94
454.226	80080.87
454.583	80081.09
454.939	80081.02
455.296	80081.54
455.653	80081.61
456.009	80082.91
456.366	80083.98
456.722	80084.05
457.078	80084.53
457.435	80083.2
457.791	80082.35
458.147	80081.35
458.503	80081.28
458.86	80083.65
459.216	80081.65
459.572	80080.35
459.928	80079.8
460.284	80080.57
460.64	80080.17
460.996	80079.95
461.351	80078.17
461.707	80078.06
462.063	80078.32
462.419	80079.02
462.774	80081.06
463.13	80080.24
463.486	80079.43
463.841	80077.47
464.197	80077.36
464.552	80077.21
464.908	80078.17
465.263	80077.84
465.618	80078.61
465.974	80079.21
466.329	80078.61
466.684	80080.87
467.039	80082.24
467.394	80082.65
467.749	80083.35
468.104	80085.9
468.459	80088.27
468.814	80090.46
469.169	80092.2
469.524	80092.71
469.879	80092.16
470.233	80091.09
470.588	80092.64
470.943	80093.71
471.297	80095.01
471.652	80096.12
472.006	80098.6
472.361	80097.93
472.715	80100.86
473.07	80101.75
473.424	80102.37
473.778	80103.41
474.133	80103.15
474.487	80103.3
474.841	80106
475.195	80105.97
475.549	80105.52
475.903	80105.15
476.257	80105.78
476.611	80104.82
476.965	80106.89
477.319	80107.41
477.673	80107.93
478.026	80108.67
478.38	80108.59
478.734	80108.89
479.087	80108.59
479.441	80108.67
479.795	80109.93
480.148	80110.33
480.502	80111.93
480.855	80111
481.208	80110.89
481.562	80112.26
481.915	80112.67
482.268	80113.37
482.621	80113.11
482.974	80112.37
483.328	80113.7
483.681	80112.93
484.034	80114.33
484.387	80113
484.739	80113.74
485.092	80114.22
485.445	80114.52
485.798	80116.74
486.151	80117.55
486.503	80120.15
486.856	80120
487.209	80121.63
487.561	80122.81
487.914	80122.7
488.266	80123.18
488.618	80122.33
488.971	80121.96
489.323	80121.96
489.675	80119.81
490.028	80121.07
490.38	80121.3
490.732	80120.59
491.084	80119.74
491.436	80119.81
491.788	80119.81
492.14	80120.63
492.492	80119.56
492.844	80120.78
493.196	80119.74
493.548	80119.89
493.899	80117.93
494.251	80118.15
494.603	80116.74
494.954	80114.81
495.306	80113.48
495.657	80112.63
496.009	80114.81
496.36	80115.67
496.712	80116.74
497.063	80117.74
497.414	80116.67
497.765	80116.96
498.117	80117.04
498.468	80119
498.819	80119.26
499.17	80121.48
499.521	80121.44
499.872	80122
500.223	80121.07
500.574	80121.11
500.924	80122.74
501.275	80123.74
501.626	80122.48
501.977	80121.96
502.327	80121.89
502.678	80123.18
503.029	80125.26
503.379	80124.33
503.73	80123.85
504.08	80123.07
504.43	80121.67
504.781	80122.63
505.131	80122.63
505.481	80121.48
505.831	80119.89
506.182	80119.74
506.532	80116.89
506.882	80117.18
507.232	80118.89
507.582	80118.74
507.932	80118.33
508.281	80117.67
508.631	80117.55
508.981	80117.85
509.331	80119.29
509.681	80120.11
510.03	80118.89
510.38	80118.63
510.729	80118.7
511.079	80118.52
511.428	80119.78
511.778	80121.89
512.127	80122.59
512.476	80122.18
512.826	80122.44
513.175	80123.22
513.524	80123.7
513.873	80123.85
514.222	80123.48
514.571	80122.92
514.92	80123.07
515.269	80123.7
515.618	80123.37
515.967	80123.37
516.316	80123.78
516.665	80123.89
517.014	80122.52
517.362	80123.15
517.711	80122.29
518.059	80122.59
518.408	80120.89
518.757	80120.59
519.105	80119.89
519.453	80118.59
519.802	80119.7
520.15	80120.11
520.498	80120.7
520.847	80118.78
521.195	80120.4
521.543	80120.66
521.891	80120.63
522.239	80120.85
522.587	80120.7
522.935	80122.07
523.283	80119.55
523.631	80120.15
523.979	80119.92
524.326	80121.48
524.674	80121.44
525.022	80121
525.369	80121.37
525.717	80122.96
526.064	80121.81
526.412	80121.48
526.759	80123.29
527.107	80122.59
527.454	80122.67
527.801	80121.78
528.149	80122.26
528.496	80120.85
528.843	80120.52
529.19	80119.44
529.537	80118.3
529.884	80118.74
530.231	80119
530.578	80121.59
530.925	80121.29
531.272	80122.18
531.619	80120.96
531.966	80120.44
532.312	80121.29
532.659	80120.7
533.006	80119.15
533.352	80120.11
533.699	80120.52
534.045	80119.89
534.392	80120.48
534.738	80122.11
535.084	80124.15
535.431	80124.33
535.777	80123.67
536.123	80123.44
536.469	80123.55
536.815	80124.81
537.161	80124.33
537.507	80122.44
537.853	80121.48
538.199	80119.96
538.545	80120.18
538.891	80120.22
539.237	80122.78
539.582	80124.11
539.928	80124.67
540.274	80124.92
540.619	80123.22
540.965	80122.96
541.31	80123.07
541.656	80122.3
542.001	80122.52
542.347	80121
542.692	80121.67
543.037	80122.07
543.382	80121.85
543.728	80123.81
544.073	80123.74
544.418	80123.89
544.763	80125.93
545.108	80126.74
545.453	80128.67
545.798	80127.18
546.142	80128.48
546.487	80127.26
546.832	80126.89
547.177	80125.63
547.521	80126.07
547.866	80129.11
548.211	80129.7
548.555	80127.92
548.9	80129.11
549.244	80127.44
549.588	80127.04
549.933	80128.22
550.277	80128.85
550.621	80130
550.965	80129.74
551.31	80128.89
551.654	80127.74
551.998	80126.18
552.342	80126.41
552.686	80125.81
553.03	80125.74
553.373	80124.74
553.717	80124.03
554.061	80121.63
554.405	80120.89
554.748	80120.63
555.092	80118.44
555.436	80116.81
555.779	80117.33
556.123	80117.63
556.466	80119.7
556.81	80120.18
557.153	80119.26
557.496	80118.89
557.839	80118.07
558.183	80117.63
558.526	80117.89
558.869	80118.18
559.212	80118.04
559.555	80117.85
559.898	80118.78
560.241	80118.67
560.584	80119.55
560.927	80119.07
561.269	80120.89
561.612	80121.52
561.955	80122.44
562.297	80122.07
562.64	80123.33
562.983	80124.59
563.325	80123.74
563.668	80122.22
564.01	80122
564.352	80119.96
564.695	80119.18
565.037	80117.85
565.379	80116.33
565.721	80116.52
566.063	80116.48
566.406	80115.3
566.748	80115.3
567.09	80113.89
567.431	80114.52
567.773	80113.74
568.115	80113.7
568.457	80113.56
568.799	80114.59
569.14	80112.63
569.482	80113.52
569.824	80114.37
570.165	80112.11
570.507	80110.52
570.848	80110.41
571.19	80110.37
571.531	80111.78
571.872	80113.11
572.214	80114.22
572.555	80114.89
572.896	80113.33
573.237	80112.3
573.578	80111.37
573.919	80110.45
574.26	80109.82
574.601	80109.78
574.942	80109.82
575.283	80110.45
575.624	80107.74
575.964	80106.74
576.305	80107.3
576.646	80106.71
576.986	80103.6
577.327	80104.08
577.667	80105.11
578.008	80105.67
578.348	80105.6
578.689	80105.74
579.029	80104.37
579.369	80103.3
579.71	80102.82
580.05	80102.97
580.39	80103.04
580.73	80104.23
581.07	80103.97
581.41	80104.15
581.75	80103.08
582.09	80102.93
582.43	80101.52
582.769	80104.48
583.109	80104.78
583.449	80105.08
583.789	80104.93
584.128	80105.56
584.468	80104.48
584.807	80104.19
585.147	80103.45
585.486	80103.93
585.825	80102.41
