Data from 24HourExp_27052025_FLMS018081_11-38-20-168.txt Node
Date: Tue May 27 11:38:20 BST 2025
User: adleo
Spectrometer: FLMS01808
Trigger mode: 0
Integration Time (sec): 4.000000E-1
Scans to average: 10
Electric dark correction enabled: true
Nonlinearity correction enabled: true
Boxcar width: 10
XAxis mode: Wavelengths
Number of Pixels in Spectrum: 2048
>>>>>Begin Spectral Data<<<<<
178.471	-126.5
178.857	-119.61
179.244	-112.92
179.631	-105.92
180.017	-98.28
180.404	-91.4
180.79	-80.18
181.176	-71.26
181.563	-60.89
181.949	-49.61
182.335	-38.58
182.722	-24.42
183.108	-6.29
183.494	20.82
183.88	72.8
184.266	127.59
184.653	183.06
185.039	236.21
185.425	292.77
185.811	346.84
186.197	399.16
186.582	450.54
186.968	503.57
187.354	553.51
187.74	604.86
188.126	656.04
188.511	707.59
188.897	754.73
189.283	801.94
189.668	848.04
190.054	890.98
190.439	937.47
190.825	982.68
191.21	1024.99
191.596	1057.3
191.981	1067.02
192.366	1069.81
192.752	1072.17
193.137	1076.32
193.522	1075.28
193.908	1076.01
194.293	1078.92
194.678	1079.86
195.063	1080.54
195.448	1085.03
195.833	1085.72
196.218	1085.05
196.603	1082.58
196.988	1082.31
197.373	1082.61
197.757	1081.97
198.142	1082.92
198.527	1078.03
198.912	1076.83
199.296	1075.74
199.681	1073.37
200.066	1069.84
200.45	1069.27
200.835	1068.39
201.219	1067.31
201.604	1067.49
201.988	1067.3
202.372	1068.81
202.757	1071.49
203.141	1072.66
203.525	1072.56
203.91	1073.25
204.294	1074.24
204.678	1075.56
205.062	1075.4
205.446	1074.67
205.83	1075.27
206.214	1075.08
206.598	1075.06
206.982	1077.12
207.366	1075.28
207.75	1076.56
208.134	1079.13
208.517	1081.33
208.901	1082.25
209.285	1083.22
209.669	1083.44
210.052	1084.23
210.436	1082.26
210.819	1081.43
211.203	1080.55
211.586	1081.12
211.97	1083.54
212.353	1082.44
212.737	1083.97
213.12	1084.94
213.503	1086.61
213.886	1086.77
214.27	1087.95
214.653	1090.59
215.036	1091.24
215.419	1093.2
215.802	1096.04
216.185	1097.95
216.568	1100.59
216.951	1103.84
217.334	1105.57
217.717	1109.64
218.1	1111.25
218.482	1116.04
218.865	1120.33
219.248	1125.2
219.631	1129.09
220.013	1131.62
220.396	1140.87
220.778	1145.77
221.161	1152.87
221.544	1160.23
221.926	1167.94
222.308	1175
222.691	1181.84
223.073	1189.26
223.455	1199.11
223.838	1207.75
224.22	1215.09
224.602	1222.94
224.984	1233.32
225.366	1246.37
225.749	1259.07
226.131	1271.27
226.513	1283.81
226.895	1297.93
227.276	1310.16
227.658	1323.73
228.04	1337.62
228.422	1350.27
228.804	1364.66
229.186	1378.51
229.567	1395.42
229.949	1411.77
230.331	1428.51
230.712	1445.19
231.094	1462.42
231.475	1479.79
231.857	1498.84
232.238	1517.98
232.62	1539.26
233.001	1558.75
233.382	1577.56
233.763	1595.28
234.145	1615.94
234.526	1636.41
234.907	1654.42
235.288	1674.36
235.669	1693.65
236.05	1714.63
236.431	1733.93
236.812	1753.83
237.193	1774.96
237.574	1793.96
237.955	1814.56
238.336	1833.79
238.717	1856.95
239.097	1880.22
239.478	1901.14
239.859	1921.59
240.239	1945.75
240.62	1966.4
241.001	1988.58
241.381	2012
241.762	2035.81
242.142	2058.32
242.522	2080.67
242.903	2103.78
243.283	2129.82
243.663	2154.72
244.044	2181.88
244.424	2209.95
244.804	2236.4
245.184	2264.49
245.564	2291.61
245.944	2321.23
246.324	2354.09
246.704	2381.72
247.084	2408.93
247.464	2437.99
247.844	2468.08
248.224	2498.69
248.604	2530.21
248.983	2559.77
249.363	2590.57
249.743	2620.32
250.122	2651.43
250.502	2679.98
250.882	2712.42
251.261	2740.15
251.641	2770.73
252.02	2799.21
252.399	2832.54
252.779	2867.9
253.158	2903.9
253.537	2941.8
253.917	2980.65
254.296	3013.7
254.675	3052.55
255.054	3091.23
255.433	3133.4
255.812	3172.55
256.191	3212.6
256.57	3252.52
256.949	3294.89
257.328	3336.81
257.707	3380.74
258.086	3425.63
258.465	3473.23
258.843	3518.8
259.222	3568.98
259.601	3622.6
259.979	3674.1
260.358	3723.11
260.736	3775.33
261.115	3825.65
261.493	3875.73
261.872	3927.39
262.25	3985.82
262.629	4039.54
263.007	4097.92
263.385	4155.98
263.763	4217.04
264.142	4276.76
264.52	4339.31
264.898	4402.01
265.276	4466.05
265.654	4533.55
266.032	4601.38
266.41	4667.73
266.788	4738.08
267.166	4812.68
267.544	4884.31
267.921	4961.64
268.299	5038.83
268.677	5116.32
269.055	5198.55
269.432	5281.22
269.81	5364.13
270.188	5450.6
270.565	5540.23
270.943	5627.83
271.32	5714.89
271.697	5807.51
272.075	5899.49
272.452	5992.12
272.829	6088.3
273.207	6185.61
273.584	6284.91
273.961	6391.35
274.338	6502.97
274.715	6618.17
275.092	6735.12
275.469	6855.12
275.846	6973.96
276.223	7094.35
276.6	7215.05
276.977	7335.52
277.354	7461.62
277.731	7586.11
278.108	7714.5
278.484	7841.18
278.861	7973.99
279.238	8114.97
279.614	8250.56
279.991	8393.97
280.367	8542.98
280.744	8693.26
281.12	8842.77
281.497	8988.96
281.873	9137.29
282.249	9287.33
282.625	9434.79
283.002	9575.13
283.378	9719.45
283.754	9867.29
284.13	10021.53
284.506	10180.24
284.882	10338.58
285.258	10494.97
285.634	10652.38
286.01	10810.71
286.386	10973.2
286.762	11137.69
287.138	11295.02
287.513	11457.15
287.889	11618.31
288.265	11774.58
288.641	11932.28
289.016	12092.15
289.392	12262.25
289.767	12423.18
290.143	12591.48
290.518	12751.14
290.894	12919.24
291.269	13084.08
291.644	13244.3
292.02	13397.64
292.395	13552.16
292.77	13707.22
293.145	13861.7
293.52	14018.21
293.895	14166.83
294.27	14317.14
294.646	14464.89
295.02	14617.12
295.395	14771.61
295.77	14928.03
296.145	15081.96
296.52	15239.01
296.895	15394.16
297.269	15543.23
297.644	15696.61
298.019	15843.84
298.393	16001.68
298.768	16154.57
299.143	16307.68
299.517	16458.21
299.891	16614.01
300.266	16768.82
300.64	16930.06
301.015	17094.91
301.389	17267.77
301.763	17445.55
302.137	17619.66
302.512	17800.59
302.886	17975.44
303.26	18155.09
303.634	18332.81
304.008	18512.93
304.382	18687.22
304.756	18870.4
305.13	19058.99
305.504	19239
305.877	19426.89
306.251	19627.45
306.625	19824.47
306.999	20029.25
307.372	20242.12
307.746	20456.14
308.119	20675.08
308.493	20881.15
308.866	21090.38
309.24	21297.49
309.613	21497.94
309.987	21707.74
310.36	21901.27
310.733	22107.76
311.107	22325.93
311.48	22535.11
311.853	22763.95
312.226	22989.4
312.599	23213.81
312.972	23427.98
313.345	23657.24
313.718	23884.19
314.091	24101.13
314.464	24329.03
314.837	24552.45
315.21	24762.46
315.582	24978.93
315.955	25187.61
316.328	25405.52
316.7	25616.83
317.073	25834.11
317.446	26053.49
317.818	26277.45
318.191	26510.31
318.563	26733.54
318.936	26934.59
319.308	27143.16
319.68	27339.45
320.053	27535.01
320.425	27721.4
320.797	27908.38
321.169	28068.05
321.541	28212.54
321.913	28342.68
322.285	28460.43
322.657	28579.3
323.029	28725.38
323.401	28870
323.773	29028.69
324.145	29203.74
324.517	29389.35
324.889	29563.66
325.26	29762.74
325.632	29975.22
326.004	30207.73
326.375	30458.57
326.747	30736.03
327.118	31034.37
327.49	31314.95
327.861	31626.86
328.233	31933.47
328.604	32237.84
328.975	32555.11
329.346	32865.67
329.718	33175.4
330.089	33481.25
330.46	33778.52
330.831	34046.6
331.202	34303.77
331.573	34550.38
331.944	34770.76
332.315	34996.36
332.686	35214.7
333.057	35416.96
333.428	35597.76
333.799	35770.07
334.169	35925.04
334.54	36059.54
334.911	36176.33
335.281	36312.28
335.652	36432.09
336.022	36567.93
336.393	36718.45
336.763	36881.08
337.134	37063.13
337.504	37257.23
337.874	37463.21
338.245	37663.4
338.615	37878.9
338.985	38104.87
339.355	38326.63
339.726	38552.25
340.096	38773.65
340.466	39025.05
340.836	39262.91
341.206	39501.49
341.576	39741.49
341.945	39985.35
342.315	40214.9
342.685	40457.6
343.055	40703.92
343.425	40938.22
343.794	41168.42
344.164	41392.67
344.533	41624.81
344.903	41857.28
345.273	42093.3
345.642	42313.5
346.011	42541.76
346.381	42780.14
346.75	43010.75
347.12	43254.73
347.489	43499.4
347.858	43743.44
348.227	43945.15
348.596	44167.92
348.965	44404
349.334	44630.2
349.704	44860.91
350.072	45105.89
350.441	45337.05
350.81	45578.13
351.179	45813.48
351.548	46046.44
351.917	46267.35
352.285	46462.99
352.654	46660.83
353.023	46866.53
353.391	47064.51
353.76	47279.5
354.129	47464.85
354.497	47691.79
354.865	47907.74
355.234	48135.96
355.602	48351.14
355.971	48605.96
356.339	48816.41
356.707	49034.43
357.075	49248.31
357.443	49470.63
357.811	49679.47
358.18	49892.93
358.548	50096.12
358.916	50303.26
359.284	50518.83
359.651	50737.67
360.019	50948.06
360.387	51155.47
360.755	51358.62
361.123	51591.57
361.49	51814.37
361.858	52030.82
362.226	52221.02
362.593	52422.8
362.961	52605.92
363.328	52807.44
363.696	52968.12
364.063	53189.83
364.43	53391
364.798	53608.91
365.165	53792.39
365.532	53982.14
365.899	54169.37
366.267	54334.46
366.634	54479.5
367.001	54640.15
367.368	54776.57
367.735	54966.48
368.102	55142.24
368.469	55327.87
368.835	55500.94
369.202	55661.14
369.569	55852.67
369.936	56046.69
370.303	56229.64
370.669	56426.02
371.036	56586.09
371.402	56790.66
371.769	56974.84
372.135	57129.98
372.502	57251.4
372.868	57395.26
373.235	57531.82
373.601	57667.58
373.967	57837.96
374.333	58028.59
374.7	58213.66
375.066	58415.57
375.432	58595.65
375.798	58769.15
376.164	58930.79
376.53	59081.1
376.896	59243.04
377.262	59411.92
377.628	59535.23
377.993	59676.19
378.359	59823.76
378.725	59980.21
379.091	60129.11
379.456	60254.11
379.822	60380.55
380.187	60532.24
380.553	60714.27
380.918	60909.87
381.284	61076.06
381.649	61244.54
382.015	61383.49
382.38	61499.4
382.745	61661.46
383.11	61810.96
383.476	61951.1
383.841	62085.25
384.206	62235.43
384.571	62362.27
384.936	62494.31
385.301	62662.57
385.666	62800.11
386.031	62946.22
386.396	63103.13
386.76	63250.37
387.125	63435.89
387.49	63632.08
387.855	63820.73
388.219	63983.61
388.584	64157.9
388.948	64352.46
389.313	64514.19
389.677	64716.77
390.042	64949.89
390.406	65107.41
390.771	65290.84
391.135	65476.24
391.499	65702.41
391.863	65926.66
392.227	66160.82
392.592	66357.58
392.956	66554.09
393.32	66748.11
393.684	66958.12
394.048	67132.28
394.412	67310.51
394.775	67459.45
395.139	67606.89
395.503	67760.45
395.867	67908.68
396.231	68046.06
396.594	68149.4
396.958	68291.15
397.321	68438.02
397.685	68557.37
398.048	68701.41
398.412	68835.37
398.775	68977.5
399.139	69099.09
399.502	69207.32
399.865	69342.44
400.228	69531.78
400.592	69669.65
400.955	69862.97
401.318	69999.97
401.681	70164.14
402.044	70304.02
402.407	70454.86
402.77	70611.49
403.133	70801.2
403.496	70947.69
403.859	71099.2
404.221	71330.49
404.584	71558.68
404.947	71801.65
405.309	72006.61
405.672	72234.33
406.034	72454.87
406.397	72689.54
406.759	72910.3
407.122	73094.06
407.484	73269.79
407.847	73457.02
408.209	73696.44
408.571	73922.78
408.933	74182.65
409.296	74419.87
409.658	74656.1
410.02	74934
410.382	75250.45
410.744	75507.74
411.106	75792.67
411.468	76068.17
411.83	76310.77
412.191	76516.73
412.553	76697.5
412.915	76918.31
413.277	77132.56
413.638	77339.59
414	77517.21
414.361	77705.11
414.723	77949.46
415.084	78181.26
415.446	78367.18
415.807	78528
416.169	78656.71
416.53	78765.53
416.891	78901.03
417.252	79047.69
417.614	79144.51
417.975	79200.94
418.336	79270.48
418.697	79346.2
419.058	79416.11
419.419	79473.99
419.78	79532.63
420.141	79581.12
420.501	79623.62
420.862	79658.04
421.223	79685.71
421.584	79741.03
421.944	79772.58
422.305	79790.88
422.666	79805.56
423.026	79810.17
423.387	79826.69
423.747	79839.13
424.107	79852.27
424.468	79866.68
424.828	79875.42
425.188	79879.4
425.549	79888.25
425.909	79894.59
426.269	79894.92
426.629	79898.57
426.989	79900.23
427.349	79906.1
427.709	79910.09
428.069	79913.67
428.429	79920.2
428.789	79928.68
429.149	79934.22
429.508	79937.62
429.868	79942.49
430.228	79947.77
430.587	79954.71
430.947	79959.7
431.306	79966.46
431.666	79969.01
432.025	79970.85
432.385	79974.03
432.744	79976.58
433.103	79978.98
433.463	79983.45
433.822	79991.76
434.181	79997.93
434.54	80003.21
434.899	80004.43
435.258	80009.08
435.618	80011.63
435.976	80014.52
436.335	80015.92
436.694	80015.85
437.053	80017.66
437.412	80019.62
437.771	80021.46
438.129	80022.98
438.488	80022.24
438.847	80021.02
439.205	80021.83
439.564	80023.28
439.922	80024.2
440.281	80026.97
440.639	80028.53
440.997	80028.12
441.356	80028.82
441.714	80027.64
442.072	80027.42
442.431	80028.53
442.789	80029.41
443.147	80030.12
443.505	80031.45
443.863	80032.45
444.221	80032.82
444.579	80033.96
444.937	80035.4
445.294	80035.29
445.652	80035.14
446.01	80037.51
446.368	80039.55
446.725	80040.62
447.083	80042.13
447.441	80042.76
447.798	80043.06
448.156	80043.24
448.513	80044.32
448.87	80044.32
449.228	80046.31
449.585	80046.09
449.942	80046.87
450.3	80047.5
450.657	80047.5
451.014	80046.57
451.371	80047.24
451.728	80047.72
452.085	80049.01
452.442	80049.57
452.799	80050.01
453.156	80051.01
453.513	80049.27
453.869	80049.53
454.226	80051.97
454.583	80051.86
454.939	80051.97
455.296	80052.12
455.653	80051.86
456.009	80050.75
456.366	80052.67
456.722	80052.9
457.078	80054.26
457.435	80053.41
457.791	80051.75
458.147	80052.97
458.503	80053.64
458.86	80052.67
459.216	80052.49
459.572	80052.6
459.928	80051.86
460.284	80051.82
460.64	80052.23
460.996	80053.71
461.351	80053.64
461.707	80053.08
462.063	80053.78
462.419	80054.3
462.774	80053.27
463.13	80054.6
463.486	80055.71
463.841	80053.75
464.197	80054.12
464.552	80054.75
464.908	80056.63
465.263	80058.22
465.618	80057.82
465.974	80056.93
466.329	80057.26
466.684	80058.85
467.039	80058.41
467.394	80060.81
467.749	80061.92
468.104	80062.88
468.459	80064.51
468.814	80066.66
469.169	80065.51
469.524	80065.51
469.879	80063.77
470.233	80064.81
470.588	80064.4
470.943	80067.47
471.297	80070.06
471.652	80070.54
472.006	80069.43
472.361	80069.55
472.715	80069.25
473.07	80070.47
473.424	80072.02
473.778	80073.76
474.133	80075.84
474.487	80077.17
474.841	80075.83
475.195	80076.35
475.549	80075.13
475.903	80075.13
476.257	80073.69
476.611	80075.17
476.965	80074.17
477.319	80077.28
477.673	80077.24
478.026	80078.02
478.38	80077.46
478.734	80076.28
479.087	80076.05
479.441	80077.09
479.795	80077.87
480.148	80078.65
480.502	80078.53
480.855	80078.42
481.208	80077.87
481.562	80077.53
481.915	80078.39
482.268	80076.02
482.621	80077.09
482.974	80079.46
483.328	80080.76
483.681	80080.53
484.034	80081.76
484.387	80082.61
484.739	80083.61
485.092	80085.05
485.445	80084.42
485.798	80083.9
486.151	80085.94
486.503	80088.64
486.856	80089.27
487.209	80089.82
487.561	80090.53
487.914	80090.27
488.266	80090.6
488.618	80090.23
488.971	80090.08
489.323	80089.2
489.675	80092.52
490.028	80092.27
490.38	80091.67
490.732	80090.75
491.084	80092.27
491.436	80093.19
491.788	80093.52
492.14	80092.34
492.492	80091.49
492.844	80093.63
493.196	80093.71
493.548	80092.41
493.899	80090.19
494.251	80090.86
494.603	80089.27
494.954	80089.49
495.306	80090.3
495.657	80091.49
496.009	80093.86
496.36	80094.26
496.712	80095.26
497.063	80095.45
497.414	80093.75
497.765	80094.97
498.117	80094.08
498.468	80093.75
498.819	80092.49
499.17	80093.49
499.521	80094.37
499.872	80096.04
500.223	80094.93
500.574	80095.93
500.924	80097.85
501.275	80098.67
501.626	80099.11
501.977	80099.41
502.327	80098.74
502.678	80099.78
503.029	80099.78
503.379	80098.34
503.73	80098.19
504.08	80097.48
504.43	80096.93
504.781	80097.78
505.131	80096.63
505.481	80097
505.831	80095.93
506.182	80097.08
506.532	80096.74
506.882	80095.74
507.232	80094.3
507.582	80096.34
507.932	80095.19
508.281	80094.19
508.631	80092.82
508.981	80091.12
509.331	80092.63
509.681	80092.34
510.03	80090.19
510.38	80089.38
510.729	80089.6
511.079	80089.34
511.428	80088.38
511.778	80089.01
512.127	80090.93
512.476	80089.71
512.826	80090.75
513.175	80092.56
513.524	80091.89
513.873	80092.12
514.222	80092.08
514.571	80092.97
514.92	80093.26
515.269	80093.86
515.618	80094.82
515.967	80097.11
516.316	80098.22
516.665	80097.97
517.014	80098.85
517.362	80098.82
517.711	80099.41
518.059	80100.85
518.408	80100.56
518.757	80101.78
519.105	80101.78
519.453	80100.11
519.802	80102.67
520.15	80101.96
520.498	80102.44
520.847	80102.41
521.195	80102.22
521.543	80102.07
521.891	80102.15
522.239	80101.04
522.587	80100.74
522.935	80099.08
523.283	80097.59
523.631	80097.08
523.979	80096.93
524.326	80096.52
524.674	80098.67
525.022	80097.82
525.369	80096.08
525.717	80096.71
526.064	80096.74
526.412	80096.26
526.759	80099.48
527.107	80097.3
527.454	80096.26
527.801	80095.19
528.149	80095.41
528.496	80095.26
528.843	80095.41
529.19	80094.26
529.537	80094.08
529.884	80093.97
530.231	80095.45
530.578	80094.97
530.925	80097.48
531.272	80096
531.619	80095.75
531.966	80095.49
532.312	80095.93
532.659	80096.26
533.006	80096.71
533.352	80094.75
533.699	80095.86
534.045	80092.75
534.392	80093.41
534.738	80094.38
535.084	80094.41
535.431	80094.19
535.777	80093.04
536.123	80093.86
536.469	80095.37
536.815	80096.15
537.161	80098.04
537.507	80096.52
537.853	80097.3
538.199	80096.26
538.545	80098.08
538.891	80098.45
539.237	80099.04
539.582	80099.15
539.928	80099.89
540.274	80100.78
540.619	80101.93
540.965	80101.74
541.31	80102.3
541.656	80102.15
542.001	80101.89
542.347	80101.67
542.692	80102.22
543.037	80102.52
543.382	80100.85
543.728	80100.15
544.073	80098.48
544.418	80096.19
544.763	80097.71
545.108	80098.15
545.453	80095.63
545.798	80095.23
546.142	80094.93
546.487	80094.82
546.832	80092.82
547.177	80091.19
547.521	80088.9
547.866	80090.23
548.211	80088.82
548.555	80087.97
548.9	80088.38
549.244	80089.01
549.588	80090.12
549.933	80088.9
550.277	80089.45
550.621	80089.49
550.965	80090.34
551.31	80090.27
551.654	80089.42
551.998	80089.53
552.342	80088.71
552.686	80090.38
553.03	80089.49
553.373	80089.34
553.717	80087.71
554.061	80089.01
554.405	80089.79
554.748	80089.93
555.092	80089.23
555.436	80089.97
555.779	80091.08
556.123	80091.19
556.466	80089.97
556.81	80088.75
557.153	80089.01
557.496	80088.56
557.839	80087.9
558.183	80086.31
558.526	80085.94
558.869	80086.49
559.212	80086.19
559.555	80086.56
559.898	80086.49
560.241	80086.71
560.584	80086.97
560.927	80087.64
561.269	80088.79
561.612	80089.19
561.955	80088.79
562.297	80088.19
562.64	80088.93
562.983	80088.75
563.325	80089.12
563.668	80091.04
564.01	80090.19
564.352	80089.79
564.695	80090.82
565.037	80092.19
565.379	80091.86
565.721	80091.64
566.063	80092.01
566.406	80090.64
566.748	80090.15
567.09	80088.97
567.431	80088.05
567.773	80088.27
568.115	80087.19
568.457	80086.08
568.799	80085.45
569.14	80085.82
569.482	80085.34
569.824	80083.6
570.165	80081.94
570.507	80080.24
570.848	80077.94
571.19	80080.75
571.531	80081.79
571.872	80080.2
572.214	80080.2
572.555	80079.31
572.896	80078.72
573.237	80079.9
573.578	80077.87
573.919	80076.61
574.26	80075.98
574.601	80076.06
574.942	80074.65
575.283	80075.21
575.624	80074.43
575.964	80074.76
576.305	80074.21
576.646	80075.13
576.986	80074.5
577.327	80074.21
577.667	80075.28
578.008	80073.91
578.348	80071.95
578.689	80070.88
579.029	80071.02
579.369	80071.43
579.71	80072.32
580.05	80072.47
580.39	80070.73
580.73	80072.06
581.07	80073.72
581.41	80074.76
581.75	80074.06
582.09	80074.09
582.43	80072.02
582.769	80072.76
583.109	80072.06
583.449	80071.36
583.789	80072.02
584.128	80073.43
584.468	80073.43
584.807	80073.32
585.147	80074.58
585.486	80072.43
