Data from 24HourExp_27052025_FLMS018081_18-38-21-516.txt Node
Date: Tue May 27 18:38:21 BST 2025
User: adleo
Spectrometer: FLMS01808
Trigger mode: 0
Integration Time (sec): 4.000000E-1
Scans to average: 10
Electric dark correction enabled: true
Nonlinearity correction enabled: true
Boxcar width: 10
XAxis mode: Wavelengths
Number of Pixels in Spectrum: 2048
>>>>>Begin Spectral Data<<<<<
178.471	-124.56
178.857	-116.82
179.244	-109.9
179.631	-102.43
180.017	-94.91
180.404	-87.85
180.79	-78.4
181.176	-70.24
181.563	-60.58
181.949	-49.36
182.335	-39.31
182.722	-21.96
183.108	-2.09
183.494	25.54
183.88	79.57
184.266	132.92
184.653	189.46
185.039	243.1
185.425	298.35
185.811	353.67
186.197	405.48
186.582	456.26
186.968	508.14
187.354	560.13
187.74	609.6
188.126	661.2
188.511	713.04
188.897	762.13
189.283	809.33
189.668	853.84
190.054	897.97
190.439	944.14
190.825	987.42
191.21	1028.05
191.596	1060.61
191.981	1067.36
192.366	1071.1
192.752	1072.32
193.137	1076.06
193.522	1078
193.908	1078.02
194.293	1082.17
194.678	1086.19
195.063	1087.17
195.448	1089.57
195.833	1091.49
196.218	1090.7
196.603	1088.88
196.988	1088.49
197.373	1089.63
197.757	1092.53
198.142	1093.05
198.527	1091.54
198.912	1090.91
199.296	1090.84
199.681	1090.63
200.066	1090.16
200.45	1090.01
200.835	1089.76
201.219	1089.18
201.604	1090.42
201.988	1092.43
202.372	1093.21
202.757	1091.72
203.141	1093.57
203.525	1093.28
203.91	1093.61
204.294	1096.06
204.678	1097.35
205.062	1098.32
205.446	1098.5
205.83	1097.88
206.214	1097.24
206.598	1097.82
206.982	1097.21
207.366	1097.49
207.75	1097.05
208.134	1098.95
208.517	1100.28
208.901	1100.73
209.285	1102.05
209.669	1100.46
210.052	1099.74
210.436	1099.76
210.819	1100.45
211.203	1098.37
211.586	1099.27
211.97	1100.57
212.353	1099.4
212.737	1100.35
213.12	1101.19
213.503	1102.66
213.886	1104.45
214.27	1106.16
214.653	1108.24
215.036	1111.1
215.419	1111.82
215.802	1113.85
216.185	1115.52
216.568	1119.68
216.951	1123.12
217.334	1125.82
217.717	1131.65
218.1	1135.43
218.482	1138.2
218.865	1143.26
219.248	1149.61
219.631	1154.12
220.013	1158.63
220.396	1165.11
220.778	1171.08
221.161	1176.73
221.544	1183.13
221.926	1190.86
222.308	1198.61
222.691	1204.42
223.073	1213.42
223.455	1222.81
223.838	1233.87
224.22	1242.89
224.602	1251.73
224.984	1260.88
225.366	1273.52
225.749	1286.01
226.131	1298.67
226.513	1312.22
226.895	1324.65
227.276	1338.8
227.658	1353.2
228.04	1368.51
228.422	1384.99
228.804	1401.93
229.186	1418.55
229.567	1439.03
229.949	1456.37
230.331	1475.26
230.712	1496.61
231.094	1514.51
231.475	1535.59
231.857	1552.68
232.238	1572.13
232.62	1593.44
233.001	1614
233.382	1635.56
233.763	1653.62
234.145	1676.81
234.526	1698.04
234.907	1716.74
235.288	1735.35
235.669	1757.05
236.05	1778.69
236.431	1798.72
236.812	1818.82
237.193	1838.45
237.574	1857.36
237.955	1879.37
238.336	1900.64
238.717	1920.94
239.097	1945.44
239.478	1967.48
239.859	1994.3
240.239	2020.59
240.62	2042.78
241.001	2067.63
241.381	2090.74
241.762	2115.45
242.142	2137.21
242.522	2162.68
242.903	2190.42
243.283	2219.69
243.663	2248.29
244.044	2277.37
244.424	2307.06
244.804	2337.03
245.184	2370.23
245.564	2398.57
245.944	2430.41
246.324	2461.04
246.704	2492.77
247.084	2521.94
247.464	2554.66
247.844	2584.87
248.224	2614.08
248.604	2648.77
248.983	2681.62
249.363	2714.96
249.743	2748.86
250.122	2783.12
250.502	2813.88
250.882	2848.18
251.261	2881.86
251.641	2912.69
252.02	2946.38
252.399	2981.98
252.779	3018.73
253.158	3055.31
253.537	3096.83
253.917	3139.15
254.296	3179.68
254.675	3219.32
255.054	3262.06
255.433	3302.59
255.812	3345.93
256.191	3388.98
256.57	3432.7
256.949	3477.57
257.328	3523.35
257.707	3570.71
258.086	3619.11
258.465	3668.35
258.843	3722.21
259.222	3774.77
259.601	3830.86
259.979	3885.19
260.358	3940.18
260.736	3995.48
261.115	4052.39
261.493	4107.96
261.872	4159.89
262.25	4218.58
262.629	4278.72
263.007	4339.7
263.385	4403.6
263.763	4467.72
264.142	4534.49
264.52	4598.13
264.898	4663.78
265.276	4730.62
265.654	4801.82
266.032	4871.02
266.41	4942.69
266.788	5014.29
267.166	5089.21
267.544	5162.59
267.921	5242.73
268.299	5323.58
268.677	5405.78
269.055	5490.66
269.432	5577.1
269.81	5667.87
270.188	5758.35
270.565	5848.26
270.943	5941.67
271.32	6029.83
271.697	6124.37
272.075	6219.62
272.452	6317.05
272.829	6418.4
273.207	6517.08
273.584	6620.53
273.961	6729.11
274.338	6848.15
274.715	6964.92
275.092	7084.48
275.469	7207.93
275.846	7329.21
276.223	7451.64
276.6	7572.35
276.977	7695.71
277.354	7823.06
277.731	7950.59
278.108	8077.72
278.484	8209.33
278.861	8341.98
279.238	8486.62
279.614	8626.08
279.991	8770.29
280.367	8914.86
280.744	9063.5
281.12	9219.56
281.497	9369.06
281.873	9519.26
282.249	9666.36
282.625	9817.16
283.002	9962.72
283.378	10112.06
283.754	10262.86
284.13	10417.91
284.506	10582.73
284.882	10740.87
285.258	10895.07
285.634	11048.1
286.01	11209.49
286.386	11372.77
286.762	11534.93
287.138	11697.51
287.513	11862.11
287.889	12026.5
288.265	12190.94
288.641	12351.43
289.016	12511.77
289.392	12675.65
289.767	12841.31
290.143	13007.95
290.518	13165.33
290.894	13331.38
291.269	13491.97
291.644	13650.99
292.02	13802.07
292.395	13951.37
292.77	14107.77
293.145	14268.54
293.52	14428.14
293.895	14580.62
294.27	14734.31
294.646	14888.4
295.02	15032.62
295.395	15187.08
295.77	15338.76
296.145	15491.36
296.52	15649.1
296.895	15804.93
297.269	15956.74
297.644	16109.58
298.019	16260.59
298.393	16414.63
298.768	16571.95
299.143	16731.84
299.517	16884.7
299.891	17046.4
300.266	17206.76
300.64	17366.45
301.015	17531.44
301.389	17706.61
301.763	17883.09
302.137	18053.13
302.512	18233.17
302.886	18415.31
303.26	18600.31
303.634	18780.96
304.008	18958.31
304.382	19141.29
304.756	19328.84
305.13	19520.42
305.504	19703.34
305.877	19894.45
306.251	20104.32
306.625	20302.92
306.999	20509.32
307.372	20719.67
307.746	20942.11
308.119	21159.81
308.493	21374.59
308.866	21585.86
309.24	21800.19
309.613	22014.14
309.987	22225.48
310.36	22422.57
310.733	22631.41
311.107	22846.83
311.48	23065.93
311.853	23309.84
312.226	23537.95
312.599	23766.49
312.972	23989.91
313.345	24226.17
313.718	24457.3
314.091	24675.36
314.464	24910.75
314.837	25133.35
315.21	25355.29
315.582	25573.22
315.955	25785.99
316.328	26007.18
316.7	26225.75
317.073	26446.24
317.446	26664.87
317.818	26900.32
318.191	27136.8
318.563	27366.27
318.936	27577.85
319.308	27787.59
319.68	27981
320.053	28183.34
320.425	28369.17
320.797	28562.03
321.169	28724.06
321.541	28868.44
321.913	29008.85
322.285	29128.35
322.657	29257.64
323.029	29403.64
323.401	29550.59
323.773	29721.5
324.145	29895.88
324.517	30082.69
324.889	30259.1
325.26	30466.99
325.632	30679.24
326.004	30919.14
326.375	31177.93
326.747	31455.86
327.118	31761.96
327.49	32060.88
327.861	32367.89
328.233	32678.8
328.604	32985.22
328.975	33306.08
329.346	33623.92
329.718	33937.32
330.089	34245.23
330.46	34542.49
330.831	34820.11
331.202	35080.24
331.573	35330.73
331.944	35565.52
332.315	35803.46
332.686	36025.31
333.057	36219.63
333.428	36399.46
333.799	36572.09
334.169	36729.58
334.54	36867.91
334.911	36987.99
335.281	37114.53
335.652	37237.34
336.022	37378.11
336.393	37531.11
336.763	37694.66
337.134	37884.57
337.504	38082.16
337.874	38284.49
338.245	38489.42
338.615	38710.5
338.985	38938.73
339.355	39154.33
339.726	39375.76
340.096	39597.72
340.466	39847.45
340.836	40095.87
341.206	40349.68
341.576	40594.73
341.945	40834.66
342.315	41073.53
342.685	41318.52
343.055	41571.07
343.425	41819.63
343.794	42049.86
344.164	42280.07
344.533	42519.16
344.903	42745.57
345.273	42978.56
345.642	43209.29
346.011	43445.87
346.381	43681.75
346.75	43907.38
347.12	44161.65
347.489	44412.71
347.858	44653.52
348.227	44867.86
348.596	45092.48
348.965	45329.42
349.334	45554.72
349.704	45802.24
350.072	46050.75
350.441	46283.91
350.81	46523.64
351.179	46754.26
351.548	46997.2
351.917	47221.56
352.285	47415.16
352.654	47622.48
353.023	47834.18
353.391	48031.81
353.76	48246.73
354.129	48433.96
354.497	48679.68
354.865	48898.48
355.234	49128.98
355.602	49345.63
355.971	49596.92
356.339	49818.09
356.707	50032.67
357.075	50259.01
357.443	50471.94
357.811	50679.01
358.18	50894.3
358.548	51107.77
358.916	51320.29
359.284	51538.83
359.651	51754.81
360.019	51972.48
360.387	52172.85
360.755	52372.42
361.123	52603.02
361.49	52819.18
361.858	53030.13
362.226	53215.92
362.593	53416.84
362.961	53603.22
363.328	53807.76
363.696	53974.47
364.063	54188.64
364.43	54396.73
364.798	54606.66
365.165	54790.56
365.532	54977.38
365.899	55163.44
366.267	55320.53
366.634	55465.63
367.001	55627.35
367.368	55765.06
367.735	55953.3
368.102	56137.61
368.469	56332.78
368.835	56515.49
369.202	56680.84
369.569	56881.03
369.936	57075.07
370.303	57261.56
370.669	57462.76
371.036	57629.75
371.402	57830.96
371.769	58010.37
372.135	58164.19
372.502	58290.2
372.868	58433.31
373.235	58576.44
373.601	58718.54
373.967	58897.55
374.333	59080.58
374.7	59262.41
375.066	59476.08
375.432	59662.5
375.798	59844.7
376.164	60013.93
376.53	60161.15
376.896	60330.43
377.262	60501.15
377.628	60631.69
377.993	60778.13
378.359	60919.47
378.725	61075.27
379.091	61229.83
379.456	61366.82
379.822	61498.9
380.187	61649.67
380.553	61843.36
380.918	62049.29
381.284	62218.07
381.649	62385.16
382.015	62535.49
382.38	62657.4
382.745	62820.43
383.11	62968.25
383.476	63111.15
383.841	63242.89
384.206	63400.55
384.571	63526.7
384.936	63664.54
385.301	63838.42
385.666	63970.88
386.031	64130.86
386.396	64295.81
386.76	64445.69
387.125	64638.31
387.49	64848.38
387.855	65040.76
388.219	65216.43
388.584	65386.15
388.948	65587
389.313	65763.57
389.677	65973.72
390.042	66211.44
390.406	66365.7
390.771	66562.15
391.135	66753.88
391.499	66988.97
391.863	67232.78
392.227	67474.84
392.592	67672.12
392.956	67877.89
393.32	68081.56
393.684	68293.9
394.048	68465.67
394.412	68655.5
394.775	68804.8
395.139	68951.07
395.503	69120.21
395.867	69267.99
396.231	69408.64
396.594	69511.06
396.958	69644.45
397.321	69803.23
397.685	69932.55
398.048	70081.12
398.412	70211.52
398.775	70345.05
399.139	70465.43
399.502	70568.82
399.865	70718.15
400.228	70923.27
400.592	71053.5
400.955	71249.68
401.318	71387.92
401.681	71558.76
402.044	71696.15
402.407	71852.11
402.77	72002.97
403.133	72188.85
403.496	72330.74
403.859	72488.74
404.221	72735.65
404.584	72975.2
404.947	73215.14
405.309	73428.71
405.672	73660.8
406.034	73888.33
406.397	74137.51
406.759	74369.01
407.122	74558.38
407.484	74726.77
407.847	74910.07
408.209	75159.12
408.571	75388.37
408.933	75646.07
409.296	75902.06
409.658	76155.18
410.02	76423.31
410.382	76721.03
410.744	76968.16
411.106	77249.03
411.468	77510.49
411.83	77723.28
412.191	77906.74
412.553	78057.71
412.915	78234.46
413.277	78409.99
413.638	78575.14
414	78721.95
414.361	78859.14
414.723	79045.03
415.084	79225.21
415.446	79348.7
415.807	79447.15
416.169	79517.64
416.53	79569.19
416.891	79630.53
417.252	79702.83
417.614	79745.81
417.975	79764.05
418.336	79784.74
418.697	79804.71
419.058	79823.36
419.419	79837.36
419.78	79851.5
420.141	79862.55
420.501	79873.87
420.862	79883.82
421.223	79889.09
421.584	79906.36
421.944	79915.58
422.305	79920.93
422.666	79923.29
423.026	79927.72
423.387	79933.44
423.747	79938.57
424.107	79945.91
424.468	79951.16
424.828	79954.33
425.188	79955.4
425.549	79961.13
425.909	79966.59
426.269	79965.12
426.629	79968.51
426.989	79969.96
427.349	79972.21
427.709	79975.86
428.069	79978.12
428.429	79981.41
428.789	79986.06
429.149	79988.61
429.508	79991.05
429.868	79994.52
430.228	79997.85
430.587	79998.77
430.947	80002.25
431.306	80004.98
431.666	80007.75
432.025	80009.56
432.385	80011.52
432.744	80013.33
433.103	80014.74
433.463	80016.7
433.822	80023.64
434.181	80025.82
434.54	80028.67
434.899	80032.77
435.258	80033.7
435.618	80035.51
435.976	80037.8
436.335	80039.21
436.694	80039.69
437.053	80040.95
437.412	80042.91
437.771	80043.57
438.129	80045.01
438.488	80045.86
438.847	80048.82
439.205	80047.79
439.564	80047.57
439.922	80047.23
440.281	80049.41
440.639	80051.49
440.997	80050.71
441.356	80050.04
441.714	80050.38
442.072	80051.37
442.431	80050.93
442.789	80051.71
443.147	80050.89
443.505	80050.6
443.863	80051.52
444.221	80053.19
444.579	80052.74
444.937	80053.85
445.294	80054.41
445.652	80055.41
446.01	80056.33
446.368	80054.56
446.725	80054.56
447.083	80054.59
447.441	80055.59
447.798	80055.55
448.156	80053.45
448.513	80054.11
448.87	80055.52
449.228	80055.04
449.585	80054.41
449.942	80053.82
450.3	80053.74
450.657	80056.11
451.014	80057.04
451.371	80056.81
451.728	80056.44
452.085	80057.59
452.442	80056.11
452.799	80056.52
453.156	80057.04
453.513	80057.89
453.869	80058.88
454.226	80060.92
454.583	80061.55
454.939	80060.44
455.296	80060.7
455.653	80062.44
456.009	80062.36
456.366	80062.99
456.722	80063.32
457.078	80063.99
457.435	80065.28
457.791	80065.65
458.147	80063.1
458.503	80063.73
458.86	80063.25
459.216	80063.17
459.572	80062.88
459.928	80061.4
460.284	80060.96
460.64	80060.33
460.996	80058.88
461.351	80060.99
461.707	80060.92
462.063	80063.03
462.419	80064.36
462.774	80063.73
463.13	80062.77
463.486	80063.51
463.841	80062.69
464.197	80062.99
464.552	80063.14
464.908	80062.4
465.263	80063.43
465.618	80064.8
465.974	80065.95
466.329	80065.88
466.684	80064.95
467.039	80065.28
467.394	80068.58
467.749	80067.87
468.104	80068.1
468.459	80068.73
468.814	80068.24
469.169	80068.43
469.524	80067.43
469.879	80067.95
470.233	80068.21
470.588	80068.39
470.943	80068.58
471.297	80069.02
471.652	80070.02
472.006	80070.39
472.361	80072.39
472.715	80072.09
473.07	80072.83
473.424	80071.46
473.778	80072.83
474.133	80074.61
474.487	80076.09
474.841	80075.13
475.195	80077.38
475.549	80079.16
475.903	80079.49
476.257	80079.2
476.611	80079.94
476.965	80080.27
477.319	80081.01
477.673	80081.86
478.026	80082.97
478.38	80084.97
478.734	80086.86
479.087	80086.97
479.441	80086.97
479.795	80087
480.148	80088.26
480.502	80088.89
480.855	80090.89
481.208	80090.93
481.562	80092.3
481.915	80092.59
482.268	80093.3
482.621	80093.11
482.974	80093.22
483.328	80094.7
483.681	80095.18
484.034	80096.11
484.387	80097.37
484.739	80098.26
485.092	80098.4
485.445	80100.74
485.798	80099.88
486.151	80099.81
486.503	80100.55
486.856	80102.96
487.209	80103.92
487.561	80104.22
487.914	80103.59
488.266	80102.44
488.618	80102.85
488.971	80102.14
489.323	80102.07
489.675	80103.4
490.028	80103.85
490.38	80104.14
490.732	80103.36
491.084	80104.29
491.436	80103.33
491.788	80102.74
492.14	80103.03
492.492	80102.7
492.844	80102.14
493.196	80102.99
493.548	80102.51
493.899	80104.07
494.251	80103.59
494.603	80103.81
494.954	80103.29
495.306	80103.44
495.657	80104.48
496.009	80103.92
496.36	80104.77
496.712	80105.88
497.063	80105.18
497.414	80104.77
497.765	80105.03
498.117	80105.55
498.468	80105.36
498.819	80106.36
499.17	80107.7
499.521	80106.55
499.872	80107.99
500.223	80106.7
500.574	80105.47
500.924	80105.29
501.275	80103.96
501.626	80102.74
501.977	80102.07
502.327	80102.03
502.678	80103.07
503.029	80102.96
503.379	80103.25
503.73	80102.48
504.08	80100.96
504.43	80100.59
504.781	80100.51
505.131	80099.77
505.481	80098.7
505.831	80097.7
506.182	80097.03
506.532	80095.85
506.882	80095.85
507.232	80094.07
507.582	80095.18
507.932	80095.66
508.281	80097.74
508.631	80098.92
508.981	80099.63
509.331	80100.59
509.681	80101.37
510.03	80101.7
510.38	80101.74
510.729	80102.74
511.079	80102.48
511.428	80103.25
511.778	80102.44
512.127	80104.07
512.476	80104.33
512.826	80104.81
513.175	80107.44
513.524	80107.85
513.873	80106.88
514.222	80107.88
514.571	80109.33
514.92	80109.25
515.269	80108.66
515.618	80105.96
515.967	80105.14
516.316	80104.33
516.665	80103.22
517.014	80101.51
517.362	80099.92
517.711	80101.03
518.059	80100.77
518.408	80102.92
518.757	80101
519.105	80101.44
519.453	80099.63
519.802	80100.11
520.15	80100.18
520.498	80097.63
520.847	80097.07
521.195	80098.11
521.543	80096.89
521.891	80098.37
522.239	80098.15
522.587	80096.22
522.935	80097.22
523.283	80097.07
523.631	80096.7
523.979	80097.07
524.326	80099.41
524.674	80100.29
525.022	80097.74
525.369	80099.07
525.717	80097.48
526.064	80098.63
526.412	80099.44
526.759	80100.66
527.107	80100.18
527.454	80100.52
527.801	80102.74
528.149	80104.22
528.496	80104.74
528.843	80105.92
529.19	80104.44
529.537	80104.11
529.884	80106.77
530.231	80105.62
530.578	80105.73
530.925	80108.18
531.272	80107.29
531.619	80107.7
531.966	80106.11
532.312	80108.33
532.659	80106.14
533.006	80106.1
533.352	80105.85
533.699	80106.51
534.045	80106.14
534.392	80105.92
534.738	80106.07
535.084	80105.14
535.431	80104.22
535.777	80105.07
536.123	80104.07
536.469	80104.29
536.815	80103.85
537.161	80102.55
537.507	80103.37
537.853	80103.48
538.199	80100.88
538.545	80100.37
538.891	80099.29
539.237	80100.26
539.582	80099.63
539.928	80101.62
540.274	80101.7
540.619	80102.59
540.965	80102.62
541.31	80103.4
541.656	80104.4
542.001	80104.44
542.347	80104.14
542.692	80104.62
543.037	80103.18
543.382	80103.07
543.728	80102.7
544.073	80104.81
544.418	80104.7
544.763	80105.51
545.108	80105.51
545.453	80105.92
545.798	80107.36
546.142	80107.07
546.487	80107.36
546.832	80107.14
547.177	80107.18
547.521	80107.36
547.866	80107.14
548.211	80105.92
548.555	80106.1
548.9	80104.88
549.244	80104.18
549.588	80103.81
549.933	80103.55
550.277	80103.62
550.621	80103.55
550.965	80104.99
551.31	80102.51
551.654	80103.4
551.998	80103.4
552.342	80103.62
552.686	80105.44
553.03	80104.92
553.373	80104.88
553.717	80104.51
554.061	80102.77
554.405	80101.11
554.748	80101.22
555.092	80102.66
555.436	80103.48
555.779	80103.62
556.123	80105.18
556.466	80106.33
556.81	80105.14
557.153	80104.14
557.496	80104.51
557.839	80105.14
558.183	80102.63
558.526	80104.4
558.869	80104.37
559.212	80104.44
559.555	80103.59
559.898	80102.74
560.241	80102.25
560.584	80102.92
560.927	80102.88
561.269	80103.59
561.612	80106.07
561.955	80105.62
562.297	80104.11
562.64	80103.81
562.983	80102.22
563.325	80102.85
563.668	80102.07
564.01	80103.37
564.352	80103.51
564.695	80102.44
565.037	80101.96
565.379	80103.18
565.721	80102.62
566.063	80102.11
566.406	80101.14
566.748	80102.4
567.09	80101.7
567.431	80101.55
567.773	80102.03
568.115	80102.22
568.457	80103.18
568.799	80101.18
569.14	80100.77
569.482	80100.66
569.824	80099.92
570.165	80099.14
570.507	80096.96
570.848	80097.18
571.19	80095.96
571.531	80097.29
571.872	80098.37
572.214	80099.03
572.555	80098
572.896	80096.85
573.237	80096.78
573.578	80095.7
573.919	80093.67
574.26	80092.22
574.601	80092.63
574.942	80091.37
575.283	80090.74
575.624	80089.63
575.964	80088.82
576.305	80087.45
576.646	80086.12
576.986	80085.93
577.327	80086.6
577.667	80085.78
578.008	80085.56
578.348	80085.63
578.689	80085.19
579.029	80083.97
579.369	80083.93
579.71	80086.26
580.05	80087.75
580.39	80086.12
580.73	80086.86
581.07	80087.63
581.41	80088.23
581.75	80089.74
582.09	80089.82
582.43	80089.12
582.769	80089.12
583.109	80089.08
583.449	80090.63
583.789	80091.37
584.128	80092.19
584.468	80090.52
584.807	80090.93
585.147	80090.56
585.486	80090.67
