Data from 24HourExp_27052025_FLMS018081_17-38-21-251.txt Node
Date: Tue May 27 17:38:21 BST 2025
User: adleo
Spectrometer: FLMS01808
Trigger mode: 0
Integration Time (sec): 4.000000E-1
Scans to average: 10
Electric dark correction enabled: true
Nonlinearity correction enabled: true
Boxcar width: 10
XAxis mode: Wavelengths
Number of Pixels in Spectrum: 2048
>>>>>Begin Spectral Data<<<<<
178.471	-126.21
178.857	-118.48
179.244	-111.04
179.631	-103.24
180.017	-95.65
180.404	-87.48
180.79	-75.68
181.176	-66.49
181.563	-58.66
181.949	-47.84
182.335	-38.33
182.722	-22.32
183.108	-3.76
183.494	22.83
183.88	76.32
184.266	130.3
184.653	187.2
185.039	242.87
185.425	298.31
185.811	352.38
186.197	407.13
186.582	460.28
186.968	512.11
187.354	564.55
187.74	614.15
188.126	666.19
188.511	716.25
188.897	761.54
189.283	808.66
189.668	855.37
190.054	899.33
190.439	945.15
190.825	989.41
191.21	1031.02
191.596	1063.81
191.981	1073.36
192.366	1077.11
192.752	1078.91
193.137	1082.15
193.522	1084.04
193.908	1086.92
194.293	1087.8
194.678	1089.17
195.063	1091.18
195.448	1091.92
195.833	1094.98
196.218	1094.23
196.603	1093.65
196.988	1095.16
197.373	1094.76
197.757	1095.93
198.142	1096.52
198.527	1093.9
198.912	1092.13
199.296	1090.76
199.681	1090.12
200.066	1087.78
200.45	1087.62
200.835	1086.93
201.219	1087.04
201.604	1086.39
201.988	1084.9
202.372	1085.63
202.757	1086.32
203.141	1087.3
203.525	1088.13
203.91	1087.57
204.294	1088.01
204.678	1089.05
205.062	1088.43
205.446	1089.4
205.83	1091.55
206.214	1090.96
206.598	1092.41
206.982	1094.56
207.366	1094.19
207.75	1094.6
208.134	1095.28
208.517	1096.62
208.901	1097.78
209.285	1096.36
209.669	1098.9
210.052	1101.03
210.436	1102.09
210.819	1100.88
211.203	1099.11
211.586	1099.14
211.97	1099.63
212.353	1100.06
212.737	1101.86
213.12	1104.7
213.503	1106.07
213.886	1105.9
214.27	1108.24
214.653	1111.08
215.036	1112.34
215.419	1115.81
215.802	1117.77
216.185	1118.65
216.568	1121.88
216.951	1123.65
217.334	1126.96
217.717	1130.17
218.1	1131.6
218.482	1136.21
218.865	1139.84
219.248	1146.53
219.631	1150.04
220.013	1156.13
220.396	1164.26
220.778	1168.27
221.161	1172.81
221.544	1179.05
221.926	1187.88
222.308	1195.27
222.691	1201.64
223.073	1210
223.455	1218.09
223.838	1228.97
224.22	1238.71
224.602	1248.48
224.984	1259.07
225.366	1271.07
225.749	1284.04
226.131	1298.34
226.513	1309.6
226.895	1325.46
227.276	1340.83
227.658	1356.41
228.04	1372.18
228.422	1387.96
228.804	1405.78
229.186	1422.86
229.567	1440.04
229.949	1454.71
230.331	1472
230.712	1489.51
231.094	1508.22
231.475	1528.06
231.857	1546.89
232.238	1565.95
232.62	1586.08
233.001	1606.92
233.382	1628.75
233.763	1647.93
234.145	1668.46
234.526	1688.14
234.907	1708.58
235.288	1726.11
235.669	1746.19
236.05	1765.01
236.431	1783.92
236.812	1804.37
237.193	1825.24
237.574	1847.39
237.955	1869.7
238.336	1894.06
238.717	1918.04
239.097	1941.28
239.478	1963.48
239.859	1988.36
240.239	2015.57
240.62	2039.62
241.001	2063.78
241.381	2088.4
241.762	2113.32
242.142	2136.72
242.522	2162.22
242.903	2188.75
243.283	2215.87
243.663	2245.11
244.044	2275.14
244.424	2303.55
244.804	2331.1
245.184	2364.29
245.564	2393.75
245.944	2426.18
246.324	2457.54
246.704	2488.31
247.084	2520.24
247.464	2553.44
247.844	2586.75
248.224	2617.83
248.604	2650.72
248.983	2683.17
249.363	2715.2
249.743	2748.06
250.122	2780.52
250.502	2812.24
250.882	2844.42
251.261	2876.67
251.641	2908.96
252.02	2943.18
252.399	2978.98
252.779	3016.6
253.158	3051.27
253.537	3092.27
253.917	3136.51
254.296	3174.82
254.675	3218.74
255.054	3258.72
255.433	3303.02
255.812	3340.72
256.191	3385.03
256.57	3428.36
256.949	3474.17
257.328	3520.74
257.707	3567.05
258.086	3617.47
258.465	3668.7
258.843	3720.44
259.222	3774.9
259.601	3830.98
259.979	3886.17
260.358	3940.81
260.736	3997.98
261.115	4053.38
261.493	4110.33
261.872	4165.03
262.25	4223.13
262.629	4278.26
263.007	4336.91
263.385	4395.08
263.763	4460.72
264.142	4524.22
264.52	4588.66
264.898	4655.82
265.276	4721.81
265.654	4791.69
266.032	4860.57
266.41	4934.51
266.788	5007.76
267.166	5085.59
267.544	5161.71
267.921	5240.95
268.299	5321.21
268.677	5403.77
269.055	5489.29
269.432	5572.95
269.81	5659.54
270.188	5748.61
270.565	5838.66
270.943	5934.05
271.32	6026.91
271.697	6125.41
272.075	6223.67
272.452	6319.85
272.829	6417.84
273.207	6519.66
273.584	6621.65
273.961	6728.82
274.338	6839.97
274.715	6954.58
275.092	7075.3
275.469	7197.41
275.846	7320.07
276.223	7443.88
276.6	7567.59
276.977	7693.36
277.354	7819.91
277.731	7946.97
278.108	8075.29
278.484	8209.66
278.861	8343.03
279.238	8484.45
279.614	8617.51
279.991	8758.99
280.367	8905.69
280.744	9052.24
281.12	9205.16
281.497	9358.31
281.873	9508.72
282.249	9657.04
282.625	9802.75
283.002	9942.33
283.378	10088.01
283.754	10237.76
284.13	10392.01
284.506	10551.99
284.882	10710.51
285.258	10867.71
285.634	11023.95
286.01	11189.32
286.386	11347.34
286.762	11511.48
287.138	11679.31
287.513	11847.32
287.889	12009.03
288.265	12175.67
288.641	12339.24
289.016	12501
289.392	12667.09
289.767	12833.3
290.143	13002.93
290.518	13172.97
290.894	13342.85
291.269	13508.65
291.644	13670.34
292.02	13826.33
292.395	13975.86
292.77	14133.33
293.145	14285.93
293.52	14441.42
293.895	14588.7
294.27	14745.48
294.646	14896.96
295.02	15041.89
295.395	15192.08
295.77	15354.18
296.145	15510.12
296.52	15669.67
296.895	15824.63
297.269	15981.98
297.644	16137.51
298.019	16289.87
298.393	16442.91
298.768	16598.43
299.143	16749.56
299.517	16901.37
299.891	17063.66
300.266	17226.34
300.64	17385.26
301.015	17553.44
301.389	17729.39
301.763	17910.25
302.137	18085.82
302.512	18271.22
302.886	18451.52
303.26	18638.53
303.634	18815.48
304.008	18989.26
304.382	19172.3
304.756	19358.83
305.13	19541.68
305.504	19723.45
305.877	19918.86
306.251	20127.07
306.625	20326.56
306.999	20541.86
307.372	20757.07
307.746	20975.27
308.119	21189.87
308.493	21403.55
308.866	21615.61
309.24	21828.45
309.613	22031.29
309.987	22237.97
310.36	22430.81
310.733	22643.33
311.107	22858.1
311.48	23080.18
311.853	23319.78
312.226	23546.32
312.599	23777.4
312.972	24007.14
313.345	24240.03
313.718	24471.86
314.091	24694.16
314.464	24929.46
314.837	25149.57
315.21	25360.09
315.582	25580.69
315.955	25794.74
316.328	26017.1
316.7	26241.19
317.073	26464.25
317.446	26696.52
317.818	26935.42
318.191	27174.49
318.563	27401.85
318.936	27620.19
319.308	27821.43
319.68	28026.16
320.053	28226.03
320.425	28415.72
320.797	28598.08
321.169	28767.07
321.541	28912.08
321.913	29050.4
322.285	29164.9
322.657	29295.09
323.029	29450.24
323.401	29590.52
323.773	29759.53
324.145	29933.93
324.517	30114.77
324.889	30294.17
325.26	30494.65
325.632	30707.01
326.004	30941.5
326.375	31197.89
326.747	31470.89
327.118	31782.34
327.49	32068.9
327.861	32384.95
328.233	32695.27
328.604	33009.94
328.975	33327.39
329.346	33641.44
329.718	33945.87
330.089	34262.82
330.46	34558.06
330.831	34836.01
331.202	35096.94
331.573	35348.57
331.944	35578.61
332.315	35816.41
332.686	36035.35
333.057	36240.11
333.428	36423.18
333.799	36603.46
334.169	36760.09
334.54	36911.15
334.911	37026.07
335.281	37157.69
335.652	37268.93
336.022	37413.35
336.393	37559.47
336.763	37724.35
337.134	37905.25
337.504	38102.69
337.874	38303.89
338.245	38518.14
338.615	38736.29
338.985	38972.56
339.355	39194.3
339.726	39420.07
340.096	39635.96
340.466	39889.56
340.836	40131.35
341.206	40377.33
341.576	40617.29
341.945	40858.16
342.315	41083.27
342.685	41333.54
343.055	41586.14
343.425	41833.76
343.794	42063.99
344.164	42297.02
344.533	42535.98
344.903	42774.91
345.273	43015.37
345.642	43246.49
346.011	43475.09
346.381	43706.76
346.75	43936.58
347.12	44186.83
347.489	44443.26
347.858	44694.98
348.227	44906.88
348.596	45133.16
348.965	45372.17
349.334	45598.2
349.704	45837.92
350.072	46088.23
350.441	46322.74
350.81	46561.32
351.179	46800.36
351.548	47033.82
351.917	47255.12
352.285	47446.23
352.654	47646.83
353.023	47861.58
353.391	48063.42
353.76	48278.88
354.129	48470.76
354.497	48706.79
354.865	48926.42
355.234	49155.39
355.602	49374.14
355.971	49624.08
356.339	49831.69
356.707	50051.06
357.075	50275.77
357.443	50503.57
357.811	50712.31
358.18	50921.01
358.548	51131.17
358.916	51342.03
359.284	51557.07
359.651	51775.64
360.019	52000.78
360.387	52205.47
360.755	52401.74
361.123	52629.05
361.49	52856.88
361.858	53072.95
362.226	53264.74
362.593	53469.48
362.961	53653.22
363.328	53854.7
363.696	54025.37
364.063	54243.39
364.43	54447.11
364.798	54666.84
365.165	54844.06
365.532	55033.06
365.899	55222.59
366.267	55384.6
366.634	55529.62
367.001	55695.86
367.368	55840.24
367.735	56028.59
368.102	56208.15
368.469	56402.67
368.835	56581.35
369.202	56736.6
369.569	56935.12
369.936	57126.26
370.303	57311.32
370.669	57508.4
371.036	57680.67
371.402	57881.37
371.769	58078.37
372.135	58231.66
372.502	58350.48
372.868	58494.86
373.235	58641.27
373.601	58778.9
373.967	58963.06
374.333	59153.35
374.7	59340.61
375.066	59549.18
375.432	59728.01
375.798	59913.18
376.164	60081.1
376.53	60232.76
376.896	60413.1
377.262	60586.47
377.628	60717.38
377.993	60860.79
378.359	61009.31
378.725	61165.41
379.091	61325.34
379.456	61457.19
379.822	61590.49
380.187	61747.03
380.553	61940.51
380.918	62141.38
381.284	62320.71
381.649	62486.09
382.015	62631.31
382.38	62756.04
382.745	62925.58
383.11	63079.06
383.476	63227.27
383.841	63359.11
384.206	63521.67
384.571	63636.67
384.936	63766.48
385.301	63945.97
385.666	64085.54
386.031	64237.44
386.396	64399.57
386.76	64545.47
387.125	64738.19
387.49	64934.88
387.855	65124.9
388.219	65292.85
388.584	65468.24
388.948	65663.92
389.313	65832.25
389.677	66038.73
390.042	66270.19
390.406	66418.53
390.771	66614.96
391.135	66803.88
391.499	67041.98
391.863	67272.58
392.227	67520.05
392.592	67720.06
392.956	67911.25
393.32	68111.3
393.684	68341.33
394.048	68514.34
394.412	68698.24
394.775	68841.78
395.139	69003.85
395.503	69171.92
395.867	69329.74
396.231	69470.51
396.594	69577.33
396.958	69719.47
397.321	69876.47
397.685	70006.24
398.048	70154.82
398.412	70287.96
398.775	70415.64
399.139	70535.11
399.502	70643.48
399.865	70787.1
400.228	70985.12
400.592	71123.38
400.955	71319.11
401.318	71450.12
401.681	71623.05
402.044	71763.54
402.407	71923.87
402.77	72084.75
403.133	72271.72
403.496	72414.5
403.859	72568
404.221	72809.71
404.584	73050.97
404.947	73302.75
405.309	73520.09
405.672	73763.48
406.034	73994.96
406.397	74261.05
406.759	74494.09
407.122	74685.17
407.484	74857.28
407.847	75042.89
408.209	75291.36
408.571	75517.03
408.933	75770.28
409.296	76027.29
409.658	76285.66
410.02	76556.9
410.382	76842.56
410.744	77087.64
411.106	77361.61
411.468	77620.06
411.83	77830.64
412.191	78003.93
412.553	78145.84
412.915	78316.63
413.277	78481.36
413.638	78632.16
414	78762.38
414.361	78897.11
414.723	79080.36
415.084	79251.71
415.446	79377.58
415.807	79473.64
416.169	79543.92
416.53	79591.36
416.891	79644.16
417.252	79707.14
417.614	79741.92
417.975	79758.58
418.336	79776.42
418.697	79797.31
419.058	79815.59
419.419	79828.08
419.78	79844.93
420.141	79856.21
420.501	79864.46
420.862	79872.53
421.223	79879.54
421.584	79896.28
421.944	79903.77
422.305	79908.71
422.666	79912.77
423.026	79914.14
423.387	79920.96
423.747	79924.24
424.107	79932.47
424.468	79938.27
424.828	79942.03
425.188	79944.51
425.549	79948.31
425.909	79951.89
426.269	79950.12
426.629	79952.78
426.989	79955.44
427.349	79957.73
427.709	79960.16
428.069	79962.27
428.429	79964.96
428.789	79969.14
429.149	79972.02
429.508	79974.72
429.868	79978.56
430.228	79982.33
430.587	79984.8
430.947	79988.42
431.306	79992.52
431.666	79993.45
432.025	79993.37
432.385	79996.55
432.744	79996.96
433.103	79998.51
433.463	80000.51
433.822	80006.97
434.181	80011.3
434.54	80013.7
434.899	80015.73
435.258	80017.28
435.618	80020.98
435.976	80024.71
436.335	80025.71
436.694	80026.71
437.053	80025.64
437.412	80027.04
437.771	80027.23
438.129	80028.85
438.488	80029.89
438.847	80030.85
439.205	80032.74
439.564	80035.4
439.922	80036.21
440.281	80038.54
440.639	80038.47
440.997	80038.02
441.356	80037.87
441.714	80035.14
442.072	80036.88
442.431	80035.8
442.789	80037.65
443.147	80036.73
443.505	80036.1
443.863	80036.84
444.221	80037.69
444.579	80039.21
444.937	80038.02
445.294	80038.43
445.652	80039.32
446.01	80037.87
446.368	80038.47
446.725	80039.1
447.083	80039.43
447.441	80039.28
447.798	80038.54
448.156	80040.09
448.513	80041.28
448.87	80040.02
449.228	80041.76
449.585	80041.98
449.942	80043.05
450.3	80040.65
450.657	80041.39
451.014	80041.68
451.371	80041.83
451.728	80041.76
452.085	80042.35
452.442	80042.27
452.799	80042.64
453.156	80043.24
453.513	80044.75
453.869	80046.12
454.226	80044.97
454.583	80044.27
454.939	80044.79
455.296	80044.42
455.653	80044.97
456.009	80045.09
456.366	80046.34
456.722	80046.93
457.078	80045.64
457.435	80047.56
457.791	80049.74
458.147	80050.04
458.503	80049.89
458.86	80050.74
459.216	80050.85
459.572	80050.93
459.928	80051.59
460.284	80053.59
460.64	80053.59
460.996	80052.7
461.351	80051.78
461.707	80053.15
462.063	80054.29
462.419	80053.85
462.774	80055
463.13	80054.96
463.486	80056.14
463.841	80057.73
464.197	80057.44
464.552	80058.36
464.908	80057.7
465.263	80057.77
465.618	80057.88
465.974	80056.81
466.329	80056.14
466.684	80056.96
467.039	80058.25
467.394	80058.47
467.749	80057.62
468.104	80057.44
468.459	80059.66
468.814	80060.25
469.169	80060.58
469.524	80060.69
469.879	80059.62
470.233	80058.84
470.588	80059.51
470.943	80060.55
471.297	80060.62
471.652	80063.21
472.006	80063.54
472.361	80065.36
472.715	80065.25
473.07	80066.13
473.424	80069.54
473.778	80070.91
474.133	80070.98
474.487	80071.02
474.841	80073.9
475.195	80074.94
475.549	80075.94
475.903	80076.83
476.257	80077.42
476.611	80077.38
476.965	80078.71
477.319	80079.49
477.673	80080.71
478.026	80081.9
478.38	80082.01
478.734	80082.41
479.087	80080.97
479.441	80081.04
479.795	80081.38
480.148	80082.75
480.502	80084.12
480.855	80084.89
481.208	80085.23
481.562	80087.3
481.915	80088.48
482.268	80085.12
482.621	80084.71
482.974	80085.52
483.328	80085.45
483.681	80085.74
484.034	80085.67
484.387	80085.45
484.739	80088.04
485.092	80088.74
485.445	80089.04
485.798	80087.41
486.151	80087.85
486.503	80089.26
486.856	80090.48
487.209	80091.56
487.561	80092.44
487.914	80090.59
488.266	80089.74
488.618	80088.48
488.971	80087.15
489.323	80087.11
489.675	80090.41
490.028	80090.56
490.38	80088.67
490.732	80088.37
491.084	80087.89
491.436	80089.11
491.788	80089.19
492.14	80089.04
492.492	80088.37
492.844	80088.34
493.196	80090.78
493.548	80091.15
493.899	80090.82
494.251	80091.04
494.603	80089.3
494.954	80088.22
495.306	80088.3
495.657	80088.04
496.009	80088.78
496.36	80089.07
496.712	80088.93
497.063	80087.08
497.414	80087.48
497.765	80088.37
498.117	80086.74
498.468	80087.45
498.819	80088.15
499.17	80087.48
499.521	80086.52
499.872	80087.82
500.223	80087.04
500.574	80088.26
500.924	80086.93
501.275	80087.22
501.626	80086.93
501.977	80087.67
502.327	80088
502.678	80088.82
503.029	80089.93
503.379	80088.96
503.73	80089.59
504.08	80089.82
504.43	80091.41
504.781	80089.78
505.131	80091.3
505.481	80092.41
505.831	80092.55
506.182	80092.33
506.532	80093.92
506.882	80094.81
507.232	80094.26
507.582	80093
507.932	80089.93
508.281	80091
508.631	80089.04
508.981	80089.96
509.331	80089.34
509.681	80088.96
510.03	80089.37
510.38	80087.74
510.729	80089.67
511.079	80087.71
511.428	80088.93
511.778	80086.19
512.127	80088.82
512.476	80087.08
512.826	80086.3
513.175	80086.41
513.524	80084.78
513.873	80082.97
514.222	80080.79
514.571	80079.38
514.92	80079.34
515.269	80080.49
515.618	80079.57
515.967	80081.93
516.316	80080.71
516.665	80079.82
517.014	80080.19
517.362	80080.82
517.711	80080.38
518.059	80080.42
518.408	80082.56
518.757	80080.27
519.105	80081.34
519.453	80080.6
519.802	80082.08
520.15	80084.08
520.498	80083.23
520.847	80083.52
521.195	80083.93
521.543	80085.86
521.891	80087.56
522.239	80088.74
522.587	80088.22
522.935	80089.85
523.283	80087.82
523.631	80088.67
523.979	80089.19
524.326	80090.04
524.674	80090.33
525.022	80091.07
525.369	80090.56
525.717	80090.37
526.064	80090.93
526.412	80092.78
526.759	80094.18
527.107	80092.85
527.454	80091.44
527.801	80091.48
528.149	80092.18
528.496	80093.37
528.843	80093.11
529.19	80093.29
529.537	80094.48
529.884	80095.03
530.231	80094.29
530.578	80096.51
530.925	80096.77
531.272	80098.37
531.619	80097.48
531.966	80097.7
532.312	80096.92
532.659	80097.14
533.006	80096.89
533.352	80097
533.699	80095.77
534.045	80093.11
534.392	80093.22
534.738	80095.18
535.084	80096.29
535.431	80096.55
535.777	80096
536.123	80096.44
536.469	80096.44
536.815	80095.63
537.161	80096.81
537.507	80096.66
537.853	80095.74
538.199	80093.29
538.545	80091.74
538.891	80092.59
539.237	80091.18
539.582	80093.74
539.928	80092.04
540.274	80092.85
540.619	80093.78
540.965	80092.89
541.31	80094.55
541.656	80094.59
542.001	80094.29
542.347	80093.41
542.692	80092.07
543.037	80091.56
543.382	80090.67
543.728	80091.93
544.073	80093.22
544.418	80090.22
544.763	80089.85
545.108	80088.74
545.453	80090.19
545.798	80090.78
546.142	80089.22
546.487	80090.04
546.832	80089.67
547.177	80092.15
547.521	80091.07
547.866	80092.48
548.211	80093.37
548.555	80092.85
548.9	80094.52
549.244	80092.67
549.588	80092.74
549.933	80092.41
550.277	80093.04
550.621	80091.78
550.965	80090.74
551.31	80089.19
551.654	80089.59
551.998	80090.52
552.342	80091.48
552.686	80091.74
553.03	80090.85
553.373	80092.41
553.717	80091.89
554.061	80090.67
554.405	80088.37
554.748	80088.19
555.092	80086.82
555.436	80087.19
555.779	80087.45
556.123	80086.15
556.466	80087.82
556.81	80088.26
557.153	80089.37
557.496	80089.3
557.839	80092.96
558.183	80092.59
558.526	80093.81
558.869	80094.89
559.212	80093.96
559.555	80092.81
559.898	80093.26
560.241	80092.3
560.584	80090.33
560.927	80091.37
561.269	80091.63
561.612	80094.63
561.955	80096.26
562.297	80096
562.64	80094.37
562.983	80094.15
563.325	80095.04
563.668	80094.52
564.01	80095.66
564.352	80094.67
564.695	80094.63
565.037	80092.52
565.379	80092.18
565.721	80091.81
566.063	80091.63
566.406	80091.33
566.748	80091.74
567.09	80089.22
567.431	80089.48
567.773	80090.56
568.115	80089.52
568.457	80090.04
568.799	80088.82
569.14	80086.82
569.482	80086.15
569.824	80086.37
570.165	80085.89
570.507	80083.97
570.848	80084.6
571.19	80082.38
571.531	80083.52
571.872	80083.63
572.214	80084.26
572.555	80083.67
572.896	80084.26
573.237	80083.41
573.578	80082.75
573.919	80083.08
574.26	80084.3
574.601	80086.04
574.942	80083.71
575.283	80083.64
575.624	80082.38
575.964	80081.3
576.305	80081.53
576.646	80081.97
576.986	80082.78
577.327	80082.38
577.667	80083.15
578.008	80081.82
578.348	80082.3
578.689	80082.34
579.029	80082.45
579.369	80080.53
579.71	80080.79
580.05	80078.01
580.39	80079.9
580.73	80079.67
581.07	80079.3
581.41	80079.27
581.75	80078.08
582.09	80079.38
582.43	80078.56
582.769	80078.53
583.109	80079.38
583.449	80078.86
583.789	80077.9
584.128	80078.27
584.468	80077.27
584.807	80076.79
585.147	80075.49
