Data from 24HourExp_27052025_FLMS018081_03-08-22-238.txt Node
Date: Wed May 28 03:08:22 BST 2025
User: adleo
Spectrometer: FLMS01808
Trigger mode: 0
Integration Time (sec): 4.000000E-1
Scans to average: 10
Electric dark correction enabled: true
Nonlinearity correction enabled: true
Boxcar width: 10
XAxis mode: Wavelengths
Number of Pixels in Spectrum: 2048
>>>>>Begin Spectral Data<<<<<
178.471	-134.46
178.857	-126.26
179.244	-118.14
179.631	-111
180.017	-101.33
180.404	-92.47
180.79	-82.1
181.176	-72.51
181.563	-63.56
181.949	-52.79
182.335	-42.9
182.722	-25.89
183.108	-5.42
183.494	22.22
183.88	75.42
184.266	130.48
184.653	186.75
185.039	240.12
185.425	295.88
185.811	350.37
186.197	404.02
186.582	455.32
186.968	506.24
187.354	558.78
187.74	610.25
188.126	659.99
188.511	709.56
188.897	756.44
189.283	803.03
189.668	849.56
190.054	893.77
190.439	938
190.825	982.57
191.21	1022.89
191.596	1056.57
191.981	1063.29
192.366	1066.28
192.752	1068.45
193.137	1073.3
193.522	1072.92
193.908	1072.53
194.293	1076.07
194.678	1078.02
195.063	1079.97
195.448	1081.3
195.833	1081.26
196.218	1080.92
196.603	1081.08
196.988	1083.01
197.373	1084.37
197.757	1083.96
198.142	1083.87
198.527	1082.16
198.912	1082.07
199.296	1081.5
199.681	1078.08
200.066	1077.16
200.45	1076.37
200.835	1075.64
201.219	1074.61
201.604	1073.02
201.988	1075.64
202.372	1075.5
202.757	1076.07
203.141	1077.5
203.525	1076.86
203.91	1078.3
204.294	1077.9
204.678	1077.64
205.062	1076.44
205.446	1074.82
205.83	1076.72
206.214	1075.55
206.598	1078.33
206.982	1078.03
207.366	1078.11
207.75	1081.7
208.134	1083.92
208.517	1084.77
208.901	1085.97
209.285	1088.98
209.669	1090.95
210.052	1090.8
210.436	1090.03
210.819	1088.62
211.203	1088.25
211.586	1090.05
211.97	1091.34
212.353	1093.44
212.737	1095.14
213.12	1097.14
213.503	1099.42
213.886	1099.14
214.27	1102.7
214.653	1104.49
215.036	1105.3
215.419	1106.78
215.802	1107.32
216.185	1108.1
216.568	1112.66
216.951	1114.7
217.334	1115.65
217.717	1120.13
218.1	1122.39
218.482	1126.42
218.865	1131.77
219.248	1137.48
219.631	1140.53
220.013	1145.02
220.396	1152.68
220.778	1158.86
221.161	1164.83
221.544	1171.77
221.926	1180.43
222.308	1186.69
222.691	1193.28
223.073	1201.99
223.455	1211.74
223.838	1221.47
224.22	1231.05
224.602	1242.44
224.984	1254.09
225.366	1265.96
225.749	1280.34
226.131	1293.65
226.513	1307.34
226.895	1321.27
227.276	1334.08
227.658	1349.39
228.04	1364.08
228.422	1378.53
228.804	1393.01
229.186	1407.95
229.567	1425.68
229.949	1442.45
230.331	1460.9
230.712	1479.3
231.094	1497.11
231.475	1516.1
231.857	1536.18
232.238	1556.51
232.62	1571.91
233.001	1591.03
233.382	1612.51
233.763	1629.97
234.145	1650.99
234.526	1669.55
234.907	1689.47
235.288	1708.97
235.669	1728.56
236.05	1748.34
236.431	1766.38
236.812	1788.2
237.193	1810.61
237.574	1830.04
237.955	1850.96
238.336	1871.36
238.717	1892.67
239.097	1916.77
239.478	1936.93
239.859	1959.44
240.239	1982.19
240.62	2008.89
241.001	2031.54
241.381	2054.04
241.762	2077.55
242.142	2101.82
242.522	2126.71
242.903	2151.99
243.283	2178.14
243.663	2204.06
244.044	2235.04
244.424	2263.91
244.804	2290.57
245.184	2318.56
245.564	2347.42
245.944	2377.64
246.324	2409.55
246.704	2441.16
247.084	2470.35
247.464	2504.65
247.844	2537.85
248.224	2569.28
248.604	2600.37
248.983	2631.6
249.363	2663.94
249.743	2695.92
250.122	2725.3
250.502	2758.17
250.882	2789.36
251.261	2822.99
251.641	2855.13
252.02	2884.19
252.399	2918.81
252.779	2957.08
253.158	2993.92
253.537	3032.03
253.917	3074.53
254.296	3112.82
254.675	3151.08
255.054	3190.38
255.433	3231.42
255.812	3270.03
256.191	3312.7
256.57	3353.75
256.949	3396.77
257.328	3440.78
257.707	3484.84
258.086	3534.4
258.465	3582.82
258.843	3635.7
259.222	3685.56
259.601	3739.26
259.979	3795.02
260.358	3851.26
260.736	3904
261.115	3959
261.493	4014.9
261.872	4066.64
262.25	4123.43
262.629	4179.53
263.007	4240.1
263.385	4299.41
263.763	4365.01
264.142	4426.94
264.52	4493.06
264.898	4560.66
265.276	4627.14
265.654	4698.22
266.032	4766.63
266.41	4834.89
266.788	4906.73
267.166	4980.8
267.544	5058.07
267.921	5135.6
268.299	5211.25
268.677	5291.76
269.055	5374.9
269.432	5458.48
269.81	5541.95
270.188	5628.67
270.565	5719.12
270.943	5808.96
271.32	5896.98
271.697	5987.96
272.075	6084.2
272.452	6180.84
272.829	6279.06
273.207	6377.86
273.584	6482.42
273.961	6589.6
274.338	6703.52
274.715	6817.51
275.092	6937.99
275.469	7055.35
275.846	7176.67
276.223	7298.98
276.6	7418.97
276.977	7545.78
277.354	7673.07
277.731	7803.14
278.108	7933.75
278.484	8062.94
278.861	8196.57
279.238	8339.46
279.614	8479.36
279.991	8622.72
280.367	8763.91
280.744	8913.04
281.12	9063.2
281.497	9208.83
281.873	9361.16
282.249	9510.99
282.625	9655.61
283.002	9801.05
283.378	9953.36
283.754	10102.8
284.13	10257.87
284.506	10415.86
284.882	10569.35
285.258	10722.65
285.634	10876.91
286.01	11037.53
286.386	11201.11
286.762	11367.52
287.138	11528.6
287.513	11691.68
287.889	11853.33
288.265	12020.9
288.641	12179.5
289.016	12337.89
289.392	12501.9
289.767	12663.75
290.143	12827.45
290.518	12990.97
290.894	13155.79
291.269	13313.44
291.644	13469.88
292.02	13624.22
292.395	13777.76
292.77	13936.16
293.145	14094.75
293.52	14255.39
293.895	14405.75
294.27	14555.11
294.646	14705.03
295.02	14851.76
295.395	15003.91
295.77	15162.01
296.145	15315.2
296.52	15474.78
296.895	15633.04
297.269	15785.17
297.644	15934.34
298.019	16085.37
298.393	16237.96
298.768	16390.94
299.143	16543.95
299.517	16699.76
299.891	16858.33
300.266	17024.47
300.64	17179.51
301.015	17342.45
301.389	17510.03
301.763	17683.38
302.137	17858.57
302.512	18039.58
302.886	18217.74
303.26	18399.07
303.634	18576.61
304.008	18750.16
304.382	18926.81
304.756	19109.26
305.13	19299.32
305.504	19487.35
305.877	19677.97
306.251	19886.97
306.625	20079.59
306.999	20290.36
307.372	20501.54
307.746	20721.47
308.119	20928.9
308.493	21147.11
308.866	21360.59
309.24	21570.25
309.613	21774.82
309.987	21982.16
310.36	22174.53
310.733	22388.26
311.107	22604.35
311.48	22822.25
311.853	23050.91
312.226	23276.53
312.599	23511.69
312.972	23736.1
313.345	23963.56
313.718	24191.79
314.091	24412.63
314.464	24653.32
314.837	24869.04
315.21	25084.92
315.582	25302.19
315.955	25518.02
316.328	25735.51
316.7	25947.72
317.073	26171.18
317.446	26402.93
317.818	26635.34
318.191	26872.31
318.563	27086.13
318.936	27295.91
319.308	27499.56
319.68	27704.78
320.053	27900.61
320.425	28081.68
320.797	28261.55
321.169	28427.14
321.541	28579.63
321.913	28709.94
322.285	28821.8
322.657	28952.58
323.029	29099.58
323.401	29238.75
323.773	29397.88
324.145	29566.66
324.517	29756.56
324.889	29934.82
325.26	30134.24
325.632	30343.11
326.004	30578.08
326.375	30842.47
326.747	31115.2
327.118	31419.54
327.49	31710.42
327.861	32026.57
328.233	32335.03
328.604	32642.22
328.975	32956.9
329.346	33265.42
329.718	33577.97
330.089	33885.96
330.46	34184.18
330.831	34451.82
331.202	34711.41
331.573	34965.73
331.944	35199.08
332.315	35427.76
332.686	35645.11
333.057	35840.52
333.428	36022.02
333.799	36190.87
334.169	36339.31
334.54	36481.12
334.911	36598.16
335.281	36727.9
335.652	36848.2
336.022	36985.88
336.393	37136.11
336.763	37300.95
337.134	37484.34
337.504	37679.64
337.874	37886.31
338.245	38083.07
338.615	38309.07
338.985	38535.01
339.355	38747.48
339.726	38968.32
340.096	39181.46
340.466	39434.72
340.836	39679
341.206	39931.48
341.576	40170.76
341.945	40418.03
342.315	40649.63
342.685	40894.33
343.055	41138.59
343.425	41385.17
343.794	41619.88
344.164	41848.62
344.533	42080.51
344.903	42306.54
345.273	42543.54
345.642	42771.35
346.011	43005.66
346.381	43242.68
346.75	43471.95
347.12	43720.6
347.489	43969.31
347.858	44223.03
348.227	44430.23
348.596	44657.9
348.965	44887.55
349.334	45121.93
349.704	45365.05
350.072	45611.55
350.441	45842.23
350.81	46081
351.179	46306.76
351.548	46539.3
351.917	46769.28
352.285	46964.28
352.654	47174.31
353.023	47380.39
353.391	47569.98
353.76	47785.95
354.129	47964.62
354.497	48197.66
354.865	48419.47
355.234	48653.91
355.602	48868.3
355.971	49114.42
356.339	49326.48
356.707	49548.47
357.075	49769.08
357.443	49986.38
357.811	50201.08
358.18	50413.04
358.548	50627.66
358.916	50835.21
359.284	51049.13
359.651	51265.72
360.019	51487.39
360.387	51689.94
360.755	51885.9
361.123	52126.41
361.49	52352.86
361.858	52571.54
362.226	52774.85
362.593	52972.14
362.961	53150.79
363.328	53355.47
363.696	53521.23
364.063	53737.59
364.43	53937.51
364.798	54142.39
365.165	54323.13
365.532	54507.49
365.899	54700.44
366.267	54863.6
366.634	55010.8
367.001	55180.02
367.368	55316.9
367.735	55497.21
368.102	55673.7
368.469	55869.03
368.835	56045.71
369.202	56211.74
369.569	56404.74
369.936	56587.87
370.303	56781.04
370.669	56975.47
371.036	57139.7
371.402	57348.29
371.769	57523.93
372.135	57672.72
372.502	57801.88
372.868	57947.54
373.235	58087.86
373.601	58218.9
373.967	58393.85
374.333	58583.68
374.7	58760.63
375.066	58964.75
375.432	59148.15
375.798	59330.52
376.164	59494.76
376.53	59636.28
376.896	59792.2
377.262	59970.25
377.628	60095.26
377.993	60235.84
378.359	60380.48
378.725	60536.81
379.091	60690.35
379.456	60825.8
379.822	60966.56
380.187	61115.5
380.553	61299.64
380.918	61497.89
381.284	61679.38
381.649	61850.73
382.015	61992.93
382.38	62111.94
382.745	62276.77
383.11	62427.07
383.476	62568.38
383.841	62690.49
384.206	62855.5
384.571	62984.42
384.936	63109.89
385.301	63283.41
385.666	63412.4
386.031	63565.83
386.396	63727.6
386.76	63870.56
387.125	64056.57
387.49	64252.48
387.855	64449.73
388.219	64610.24
388.584	64774.15
388.948	64961.13
389.313	65122.17
389.677	65332.3
390.042	65568.23
390.406	65716.02
390.771	65906.39
391.135	66094.32
391.499	66336.33
391.863	66564.37
392.227	66796.96
392.592	66992.94
392.956	67195.94
393.32	67399.45
393.684	67613.62
394.048	67786.4
394.412	67969.65
394.775	68112.27
395.139	68264.02
395.503	68421.78
395.867	68584.18
396.231	68730.08
396.594	68828.44
396.958	68967.65
397.321	69115.1
397.685	69240.08
398.048	69385.38
398.412	69518.5
398.775	69645.72
399.139	69776.24
399.502	69883.94
399.865	70031.7
400.228	70219.9
400.592	70352.72
400.955	70549.05
401.318	70683.09
401.681	70838.9
402.044	70978.27
402.407	71151.67
402.77	71309.16
403.133	71498.27
403.496	71637.41
403.859	71789.41
404.221	72032.35
404.584	72268.44
404.947	72506.68
405.309	72709.99
405.672	72946.57
406.034	73168.61
406.397	73419.02
406.759	73639.96
407.122	73815.74
407.484	73993.05
407.847	74184.89
408.209	74425.56
408.571	74652.83
408.933	74918.29
409.296	75174.11
409.658	75411.29
410.02	75671
410.382	75970.16
410.744	76221.18
411.106	76505.29
411.468	76780.63
411.83	77012.48
412.191	77206.62
412.553	77382.9
412.915	77592.66
413.277	77793.21
413.638	77983.53
414	78151.81
414.361	78315.7
414.723	78542.2
415.084	78742.91
415.446	78902.02
415.807	79033.6
416.169	79133.25
416.53	79210.97
416.891	79307.96
417.252	79424.72
417.614	79498.21
417.975	79536.99
418.336	79581.79
418.697	79628.5
419.058	79667.37
419.419	79698.01
419.78	79731.16
420.141	79755.11
420.501	79778.05
420.862	79794.6
421.223	79809.06
421.584	79838.8
421.944	79853.16
422.305	79863.04
422.666	79869.71
423.026	79874.14
423.387	79884.97
423.747	79894.37
424.107	79903.81
424.468	79913.32
424.828	79919.23
425.188	79922.99
425.549	79930.3
425.909	79934.76
426.269	79932.88
426.629	79938.34
426.989	79942.85
427.349	79946.32
427.709	79949.38
428.069	79951.75
428.429	79957.25
428.789	79963.23
429.149	79966.37
429.508	79970.43
429.868	79974.72
430.228	79979.93
430.587	79983.73
430.947	79986.76
431.306	79989.27
431.666	79994.01
432.025	79994.37
432.385	79996.81
432.744	79999.22
433.103	79999.59
433.463	80001.36
433.822	80008.71
434.181	80012.44
434.54	80013.25
434.899	80017.06
435.258	80019.39
435.618	80020.53
435.976	80021.94
436.335	80022.71
436.694	80023.93
437.053	80024.12
437.412	80024.08
437.771	80023.71
438.129	80025.56
438.488	80027.52
438.847	80028.41
439.205	80027.41
439.564	80029.15
439.922	80031.51
440.281	80031.36
440.639	80033.77
440.997	80035.02
441.356	80036.28
441.714	80035.47
442.072	80036.47
442.431	80037.5
442.789	80037.21
443.147	80037.8
443.505	80038.8
443.863	80039.94
444.221	80040.61
444.579	80041.94
444.937	80043.53
445.294	80044.79
445.652	80044.68
446.01	80043.38
446.368	80044.05
446.725	80044.27
447.083	80044.45
447.441	80044.08
447.798	80045.49
448.156	80046.04
448.513	80045.67
448.87	80045.45
449.228	80045.53
449.585	80044.68
449.942	80043.09
450.3	80044.19
450.657	80045.08
451.014	80045.27
451.371	80043.75
451.728	80042.75
452.085	80044.16
452.442	80042.94
452.799	80040.94
453.156	80040.35
453.513	80042.31
453.869	80042.09
454.226	80042.75
454.583	80042.57
454.939	80041.16
455.296	80041.16
455.653	80039.68
456.009	80040.57
456.366	80039.91
456.722	80041.16
457.078	80041.13
457.435	80043.23
457.791	80045.49
458.147	80045.79
458.503	80045.38
458.86	80045.9
459.216	80047.49
459.572	80046.56
459.928	80046.23
460.284	80048.45
460.64	80049.82
460.996	80049
461.351	80050.19
461.707	80048.78
462.063	80049.97
462.419	80050.19
462.774	80049.52
463.13	80050.11
463.486	80049.71
463.841	80052.44
464.197	80051.93
464.552	80052.74
464.908	80051.59
465.263	80049.93
465.618	80049.59
465.974	80050.74
466.329	80050.59
466.684	80051.59
467.039	80051.63
467.394	80054.74
467.749	80055.66
468.104	80055.11
468.459	80057.18
468.814	80058.47
469.169	80060.25
469.524	80061.62
469.879	80063.1
470.233	80063.47
470.588	80065.76
470.943	80067.98
471.297	80069.57
471.652	80071.35
472.006	80072.31
472.361	80074.79
472.715	80075.79
473.07	80076.56
473.424	80077.56
473.778	80079.41
474.133	80078.56
474.487	80080.26
474.841	80079.6
475.195	80080.19
475.549	80081.15
475.903	80081.3
476.257	80080.93
476.611	80084.11
476.965	80083.04
477.319	80083.82
477.673	80084
478.026	80084.15
478.38	80082.63
478.734	80081.82
479.087	80081.56
479.441	80082.97
479.795	80082.23
480.148	80083.85
480.502	80084.85
480.855	80084.74
481.208	80085.7
481.562	80086.78
481.915	80086.63
482.268	80087.11
482.621	80088.07
482.974	80087.3
483.328	80087.96
483.681	80087.96
484.034	80085.89
484.387	80086.41
484.739	80086.3
485.092	80088.78
485.445	80090.15
485.798	80091.74
486.151	80091.14
486.503	80091.77
486.856	80091.51
487.209	80092
487.561	80092.44
487.914	80092.92
488.266	80094.51
488.618	80093.88
488.971	80094.7
489.323	80094.03
489.675	80094.14
490.028	80092.55
490.38	80092.59
490.732	80092.48
491.084	80092.66
491.436	80094
491.788	80094.99
492.14	80096.85
492.492	80095.55
492.844	80095.07
493.196	80095.4
493.548	80096.22
493.899	80095.73
494.251	80094.85
494.603	80094.25
494.954	80093.55
495.306	80092.03
495.657	80089.96
496.009	80091
496.36	80090
496.712	80090.63
497.063	80090.29
497.414	80090.96
497.765	80092.48
498.117	80092.74
498.468	80092.88
498.819	80091.18
499.17	80090.03
499.521	80087.74
499.872	80087.41
500.223	80088.11
500.574	80089.59
500.924	80088.81
501.275	80089.29
501.626	80088.92
501.977	80088.59
502.327	80087.48
502.678	80089.11
503.029	80090.55
503.379	80089.22
503.73	80089.41
504.08	80089.26
504.43	80089.29
504.781	80088.67
505.131	80089.37
505.481	80089
505.831	80089.15
506.182	80089.29
506.532	80089.78
506.882	80090.52
507.232	80092.29
507.582	80091.15
507.932	80089.37
508.281	80090.18
508.631	80090.63
508.981	80091.96
509.331	80092.55
509.681	80093.07
510.03	80092.07
510.38	80091.26
510.729	80091.77
511.079	80092.51
511.428	80091.22
511.778	80092
512.127	80091.88
512.476	80090.48
512.826	80089.03
513.175	80089.29
513.524	80089.7
513.873	80089
514.222	80088.37
514.571	80086.81
514.92	80086.96
515.269	80086.74
515.618	80086.07
515.967	80086.22
516.316	80086.26
516.665	80085
517.014	80085.89
517.362	80084.93
517.711	80084.96
518.059	80084.67
518.408	80083.26
518.757	80084.26
519.105	80083.48
519.453	80083.67
519.802	80084.45
520.15	80084.41
520.498	80083.59
520.847	80083.3
521.195	80082.97
521.543	80083.48
521.891	80083.56
522.239	80083.59
522.587	80084.96
522.935	80086.7
523.283	80086.48
523.631	80086.78
523.979	80089.7
524.326	80088.44
524.674	80089.7
525.022	80088.48
525.369	80088.81
525.717	80091.48
526.064	80092.15
526.412	80092.96
526.759	80093.22
527.107	80091.04
527.454	80091.7
527.801	80090.96
528.149	80090.7
528.496	80092.22
528.843	80092
529.19	80091.48
529.537	80090.15
529.884	80089.78
530.231	80088.56
530.578	80088.44
530.925	80087.96
531.272	80086.3
531.619	80086.96
531.966	80088
532.312	80089.18
532.659	80088.89
533.006	80086.7
533.352	80087.59
533.699	80088.44
534.045	80088.26
534.392	80088.96
534.738	80090.33
535.084	80092.03
535.431	80093.48
535.777	80092.74
536.123	80094.48
536.469	80094.55
536.815	80095.11
537.161	80094.4
537.507	80093
537.853	80093.62
538.199	80093
538.545	80092.51
538.891	80093.18
539.237	80091.66
539.582	80092.96
539.928	80093.44
540.274	80094.7
540.619	80095.25
540.965	80092.96
541.31	80093.14
541.656	80094.25
542.001	80093.18
542.347	80092.96
542.692	80091.74
543.037	80093
543.382	80092.37
543.728	80092.85
544.073	80092.96
544.418	80090.78
544.763	80091.96
545.108	80089.89
545.453	80089.89
545.798	80090.63
546.142	80088.52
546.487	80089.37
546.832	80088.63
547.177	80087.44
547.521	80083.78
547.866	80083
548.211	80084.78
548.555	80084.89
548.9	80082.93
549.244	80082.3
549.588	80082.56
549.933	80082.38
550.277	80082.78
550.621	80083.34
550.965	80081.97
551.31	80082.04
551.654	80084.52
551.998	80085.34
552.342	80087.08
552.686	80088.22
553.03	80087.08
553.373	80088.41
553.717	80087.93
554.061	80087.15
554.405	80087.82
554.748	80089.26
555.092	80089.11
555.436	80087.37
555.779	80088.04
556.123	80089.74
556.466	80091.37
556.81	80091.55
557.153	80092.81
557.496	80089.63
557.839	80090.22
558.183	80091.18
558.526	80090.37
558.869	80090.7
559.212	80088.85
559.555	80089.26
559.898	80088.56
560.241	80089
560.584	80089.92
560.927	80088.85
561.269	80088.11
561.612	80088.7
561.955	80089.15
562.297	80087.3
562.64	80088.22
562.983	80087.96
563.325	80088.37
563.668	80087.19
564.01	80086.33
564.352	80085.34
564.695	80087.04
565.037	80085.85
565.379	80086.04
565.721	80086.85
566.063	80086.41
566.406	80086.67
566.748	80085.48
567.09	80084.78
567.431	80083.82
567.773	80082.71
568.115	80082.34
568.457	80081.97
568.799	80081.82
569.14	80081.86
569.482	80081.3
569.824	80080.93
570.165	80079.56
570.507	80079.45
570.848	80080.15
571.19	80079.75
571.531	80079.08
571.872	80078.93
572.214	80079.01
572.555	80079.34
572.896	80078.97
573.237	80078.01
573.578	80079.41
573.919	80080.23
574.26	80080.89
574.601	80080.71
574.942	80079.71
575.283	80081.34
575.624	80081.52
575.964	80081.82
576.305	80083.6
576.646	80085.48
576.986	80085.37
577.327	80085.74
577.667	80085.3
578.008	80084.78
578.348	80085.41
578.689	80086.67
579.029	80087.44
579.369	80087.18
579.71	80088.04
580.05	80087.55
580.39	80088
580.73	80088
581.07	80087.89
581.41	80087.67
581.75	80088.78
582.09	80089.55
582.43	80088.41
582.769	80090.33
583.109	80088.04
583.449	80086
583.789	80085.26
584.128	80084.96
584.468	80082.63
584.807	80083.23
585.147	80083.19
585.486	80082.71
585.825	80080.97
586.165	80081.26
586.504	80079.9
586.843	80078.34
