Data from 24HourExp_27052025_FLMS018081_01-48-20-611.txt Node
Date: Wed May 28 01:48:20 BST 2025
User: adleo
Spectrometer: FLMS01808
Trigger mode: 0
Integration Time (sec): 4.000000E-1
Scans to average: 10
Electric dark correction enabled: true
Nonlinearity correction enabled: true
Boxcar width: 10
XAxis mode: Wavelengths
Number of Pixels in Spectrum: 2048
>>>>>Begin Spectral Data<<<<<
178.471	-126.35
178.857	-119.19
179.244	-114.35
179.631	-105.35
180.017	-96.96
180.404	-89.35
180.79	-79.2
181.176	-69.97
181.563	-59.49
181.949	-49.11
182.335	-37.7
182.722	-22.34
183.108	-3.3
183.494	23.67
183.88	76.47
184.266	131.51
184.653	189.26
185.039	244.5
185.425	301.32
185.811	356.03
186.197	409.07
186.582	460.28
186.968	513.37
187.354	566.34
187.74	617.29
188.126	667.78
188.511	719.23
188.897	767.88
189.283	814.08
189.668	859.34
190.054	903.4
190.439	948.45
190.825	992.82
191.21	1032.3
191.596	1065.77
191.981	1073.94
192.366	1076.82
192.752	1077.5
193.137	1080.18
193.522	1082.42
193.908	1083.74
194.293	1087.2
194.678	1090.55
195.063	1093
195.448	1094.65
195.833	1094.72
196.218	1095.31
196.603	1094.16
196.988	1092.6
197.373	1092.89
197.757	1092.85
198.142	1094.64
198.527	1091.11
198.912	1089.09
199.296	1089.87
199.681	1086.8
200.066	1086.26
200.45	1085.6
200.835	1084.87
201.219	1084.56
201.604	1082.7
201.988	1084.08
202.372	1082.84
202.757	1083.57
203.141	1082.18
203.525	1082.77
203.91	1081.7
204.294	1081.99
204.678	1082.39
205.062	1082.89
205.446	1082.5
205.83	1084.24
206.214	1083.41
206.598	1085.95
206.982	1088.33
207.366	1087.53
207.75	1088.19
208.134	1090.19
208.517	1090.61
208.901	1092.54
209.285	1093.84
209.669	1095.87
210.052	1095.25
210.436	1096.53
210.819	1097.2
211.203	1099.74
211.586	1098.85
211.97	1101.26
212.353	1101.15
212.737	1102.56
213.12	1105.58
213.503	1108.52
213.886	1107.85
214.27	1109.56
214.653	1110.64
215.036	1111.5
215.419	1113.99
215.802	1117.76
216.185	1118.99
216.568	1124.3
216.951	1126.9
217.334	1128.61
217.717	1130.71
218.1	1134.8
218.482	1138.93
218.865	1140.86
219.248	1144.94
219.631	1150.55
220.013	1156.15
220.396	1162.35
220.778	1166.11
221.161	1169.63
221.544	1176.4
221.926	1184.81
222.308	1191.97
222.691	1199.35
223.073	1207.17
223.455	1216.31
223.838	1224.01
224.22	1233.05
224.602	1242.32
224.984	1252.28
225.366	1266.12
225.749	1281.36
226.131	1292.6
226.513	1306.92
226.895	1323.11
227.276	1336.26
227.658	1352.67
228.04	1367.38
228.422	1382.64
228.804	1399.92
229.186	1416.12
229.567	1434.71
229.949	1452.05
230.331	1469.45
230.712	1488.49
231.094	1509.33
231.475	1528.67
231.857	1550.25
232.238	1569.4
232.62	1588.33
233.001	1608.22
233.382	1628.71
233.763	1646.61
234.145	1667.93
234.526	1686.76
234.907	1703.77
235.288	1723.43
235.669	1741.55
236.05	1758.4
236.431	1778.15
236.812	1799.17
237.193	1821.24
237.574	1840.85
237.955	1861.43
238.336	1883.22
238.717	1903.63
239.097	1926.23
239.478	1948.67
239.859	1970.99
240.239	1995.32
240.62	2019.25
241.001	2041.92
241.381	2062.46
241.762	2084.25
242.142	2107.55
242.522	2130.9
242.903	2160
243.283	2186.35
243.663	2214.6
244.044	2245.4
244.424	2275.13
244.804	2303.17
245.184	2334.39
245.564	2363.3
245.944	2394.65
246.324	2425.83
246.704	2457.49
247.084	2486.45
247.464	2517.34
247.844	2547.4
248.224	2577.7
248.604	2608.06
248.983	2640.88
249.363	2677.04
249.743	2712.78
250.122	2745.84
250.502	2778.63
250.882	2809.53
251.261	2839.33
251.641	2869.27
252.02	2902.47
252.399	2937.07
252.779	2974.72
253.158	3010.55
253.537	3052.3
253.917	3096.09
254.296	3133.9
254.675	3173.82
255.054	3214.86
255.433	3257.43
255.812	3298.35
256.191	3341.78
256.57	3383.62
256.949	3428.41
257.328	3469.83
257.707	3513.47
258.086	3560.57
258.465	3608.99
258.843	3659.72
259.222	3713.36
259.601	3768.71
259.979	3824.77
260.358	3878.6
260.736	3931.6
261.115	3987.44
261.493	4039.27
261.872	4090.32
262.25	4149.52
262.629	4204.49
263.007	4265.43
263.385	4322.46
263.763	4383.78
264.142	4445.64
264.52	4514.67
264.898	4579.76
265.276	4646.77
265.654	4715.42
266.032	4784.74
266.41	4856.15
266.788	4928.16
267.166	5005.32
267.544	5081.78
267.921	5156.37
268.299	5234.7
268.677	5316.46
269.055	5398.74
269.432	5484.06
269.81	5571.26
270.188	5661.72
270.565	5752.83
270.943	5840.74
271.32	5933.94
271.697	6030.94
272.075	6129.66
272.452	6223.99
272.829	6321.94
273.207	6420.91
273.584	6524.85
273.961	6630.49
274.338	6743.91
274.715	6855.21
275.092	6971.36
275.469	7090.61
275.846	7211.98
276.223	7335.92
276.6	7457.41
276.977	7582.16
277.354	7709.52
277.731	7834.47
278.108	7961.99
278.484	8093.49
278.861	8223.37
279.238	8363.16
279.614	8503.2
279.991	8643.35
280.367	8790.51
280.744	8941.07
281.12	9093.07
281.497	9244.1
281.873	9396.01
282.249	9543.38
282.625	9697.82
283.002	9846.91
283.378	9997.79
283.754	10152.31
284.13	10304.73
284.506	10464.44
284.882	10622.12
285.258	10776.67
285.634	10936.58
286.01	11100.26
286.386	11257.71
286.762	11428.43
287.138	11591.13
287.513	11755.15
287.889	11919.95
288.265	12081.1
288.641	12238.03
289.016	12400.13
289.392	12562.89
289.767	12724.94
290.143	12892.16
290.518	13049.68
290.894	13214.27
291.269	13372.51
291.644	13527.88
292.02	13682.33
292.395	13834.73
292.77	13987.81
293.145	14144.73
293.52	14300.25
293.895	14446.53
294.27	14606.44
294.646	14759.13
295.02	14907.18
295.395	15059.94
295.77	15215.82
296.145	15368.51
296.52	15525.6
296.895	15682.53
297.269	15839.86
297.644	15991.73
298.019	16140.53
298.393	16294.43
298.768	16446.41
299.143	16603.64
299.517	16758.53
299.891	16914.79
300.266	17073.73
300.64	17233.64
301.015	17394.47
301.389	17562.76
301.763	17739.46
302.137	17907.09
302.512	18084.99
302.886	18265.27
303.26	18447.28
303.634	18622.09
304.008	18803.44
304.382	18987.34
304.756	19170.52
305.13	19357.95
305.504	19540.54
305.877	19732.43
306.251	19943.36
306.625	20146.49
306.999	20355.86
307.372	20567.4
307.746	20794.43
308.119	21012.35
308.493	21227.86
308.866	21446.26
309.24	21660.46
309.613	21864.72
309.987	22077.21
310.36	22275.25
310.733	22482.79
311.107	22696.03
311.48	22921.92
311.853	23148.41
312.226	23375.74
312.599	23602.1
312.972	23819.42
313.345	24055.19
313.718	24284.43
314.091	24501.73
314.464	24732.81
314.837	24952.45
315.21	25163.03
315.582	25375.36
315.955	25587.43
316.328	25808.12
316.7	26025.02
317.073	26249.12
317.446	26478.7
317.818	26705.76
318.191	26937.12
318.563	27163.52
318.936	27373.98
319.308	27578.64
319.68	27781.39
320.053	27977.83
320.425	28168.12
320.797	28354.12
321.169	28517.37
321.541	28661.28
321.913	28792.4
322.285	28906.31
322.657	29026.54
323.029	29176.01
323.401	29313.17
323.773	29476.94
324.145	29647.73
324.517	29837.04
324.889	30012.08
325.26	30209.31
325.632	30426.59
326.004	30664.47
326.375	30914.67
326.747	31191.07
327.118	31488.72
327.49	31780.87
327.861	32096.51
328.233	32409.97
328.604	32720.17
328.975	33029.65
329.346	33343.32
329.718	33655.04
330.089	33962.91
330.46	34263.42
330.831	34540.59
331.202	34801.08
331.573	35052.03
331.944	35279.67
332.315	35501.85
332.686	35725.39
333.057	35923.85
333.428	36103.29
333.799	36268.58
334.169	36427.74
334.54	36571.12
334.911	36691.77
335.281	36818.84
335.652	36937
336.022	37067.87
336.393	37217.33
336.763	37392.34
337.134	37583.88
337.504	37781.11
337.874	37984.47
338.245	38193.9
338.615	38409.26
338.985	38642.29
339.355	38859.19
339.726	39084.46
340.096	39304.4
340.466	39547.65
340.836	39792.94
341.206	40039.97
341.576	40289.38
341.945	40530.77
342.315	40757.95
342.685	41002.43
343.055	41255.21
343.425	41493.59
343.794	41725.82
344.164	41952.48
344.533	42179.08
344.903	42407.68
345.273	42643.74
345.642	42875.03
346.011	43106.3
346.381	43340.34
346.75	43568.03
347.12	43815.68
347.489	44070.19
347.858	44320.89
348.227	44532.86
348.596	44753.1
348.965	44993.33
349.334	45225.25
349.704	45473.98
350.072	45722.05
350.441	45954.96
350.81	46191.31
351.179	46426.01
351.548	46664.97
351.917	46889.24
352.285	47089.49
352.654	47291.69
353.023	47494.31
353.391	47689.26
353.76	47905.62
354.129	48092.83
354.497	48331.75
354.865	48549.92
355.234	48777.06
355.602	48995.03
355.971	49246.36
356.339	49465.03
356.707	49677.07
357.075	49897.2
357.443	50113.33
357.811	50327.04
358.18	50535.89
358.548	50745.75
358.916	50953.94
359.284	51169.89
359.651	51392.59
360.019	51606.44
360.387	51810.36
360.755	52015.32
361.123	52245.28
361.49	52461.88
361.858	52680.24
362.226	52872.66
362.593	53078.14
362.961	53257.14
363.328	53459.71
363.696	53628.09
364.063	53850.77
364.43	54058.03
364.798	54267.34
365.165	54448.34
365.532	54629.61
365.899	54821.57
366.267	54984.3
366.634	55130.64
367.001	55290.07
367.368	55421.88
367.735	55606.78
368.102	55777.96
368.469	55966.74
368.835	56148.54
369.202	56314.16
369.569	56505.86
369.936	56689.91
370.303	56869.57
370.669	57068.52
371.036	57229.61
371.402	57428.96
371.769	57603.08
372.135	57753.83
372.502	57875.44
372.868	58012.32
373.235	58162.29
373.601	58292.79
373.967	58470.53
374.333	58658.49
374.7	58843.88
375.066	59049.31
375.432	59230.95
375.798	59416.02
376.164	59588.48
376.53	59731.12
376.896	59903.02
377.262	60076.61
377.628	60212.16
377.993	60365.96
378.359	60517.05
378.725	60671.37
379.091	60819.33
379.456	60953.57
379.822	61082.26
380.187	61236.64
380.553	61430.83
380.918	61627.98
381.284	61805.9
381.649	61976.21
382.015	62124.46
382.38	62253.41
382.745	62422.93
383.11	62582.47
383.476	62730.52
383.841	62861.68
384.206	63022.94
384.571	63137.64
384.936	63273.7
385.301	63442.09
385.666	63575.86
386.031	63726.01
386.396	63894.24
386.76	64050.71
387.125	64242.92
387.49	64451.09
387.855	64642.01
388.219	64804.89
388.584	64971.64
388.948	65169.84
389.313	65339.04
389.677	65541.21
390.042	65765.9
390.406	65917.67
390.771	66097.85
391.135	66286.27
391.499	66514.43
391.863	66751.49
392.227	66997.76
392.592	67195.38
392.956	67394.93
393.32	67589.59
393.684	67804.12
394.048	67974.93
394.412	68157.87
394.775	68303.34
395.139	68452.74
395.503	68612.68
395.867	68770.31
396.231	68910.64
396.594	69011.31
396.958	69141.42
397.321	69292.55
397.685	69411.97
398.048	69558.44
398.412	69693.83
398.775	69827.25
399.139	69950.09
399.502	70053.81
399.865	70197.01
400.228	70394.48
400.592	70528.82
400.955	70726.53
401.318	70858.95
401.681	71019.26
402.044	71149.76
402.407	71310.67
402.77	71463.86
403.133	71652.2
403.496	71790.1
403.859	71943.66
404.221	72180.37
404.584	72416.71
404.947	72661.68
405.309	72878.86
405.672	73116.75
406.034	73347.1
406.397	73594.83
406.759	73817.66
407.122	73995.79
407.484	74171.31
407.847	74353.02
408.209	74601.99
408.571	74827.01
408.933	75091.74
409.296	75348.35
409.658	75602.88
410.02	75869.5
410.382	76173.7
410.744	76429.15
411.106	76717.88
411.468	76993.7
411.83	77226.27
412.191	77423.57
412.553	77592.24
412.915	77791.65
413.277	77983.66
413.638	78163.88
414	78324.61
414.361	78491.26
414.723	78708.48
415.084	78902.34
415.446	79055.35
415.807	79177.21
416.169	79272.89
416.53	79342.77
416.891	79429.15
417.252	79528.79
417.614	79591.98
417.975	79622.63
418.336	79659.43
418.697	79697.51
419.058	79732.43
419.419	79757.71
419.78	79786.17
420.141	79807.57
420.501	79825.35
420.862	79837.87
421.223	79849.87
421.584	79875.16
421.944	79889.3
422.305	79898.19
422.666	79904.61
423.026	79906.08
423.387	79914.9
423.747	79919.51
424.107	79927.43
424.468	79934.22
424.828	79938.5
425.188	79941.05
425.549	79947.29
425.909	79950.58
426.269	79950.61
426.629	79953.68
426.989	79956.78
427.349	79961.21
427.709	79963.58
428.069	79965.87
428.429	79971.3
428.789	79976.8
429.149	79981.38
429.508	79984.89
429.868	79990.95
430.228	79993.06
430.587	79996.68
430.947	79999.34
431.306	80003.77
431.666	80006.69
432.025	80008.65
432.385	80010.9
432.744	80013.53
433.103	80015.52
433.463	80018.37
433.822	80023.43
434.181	80024.47
434.54	80026.91
434.899	80029.16
435.258	80031.2
435.618	80033.16
435.976	80034.41
436.335	80035.56
436.694	80035.23
437.053	80036.04
437.412	80035.37
437.771	80036.3
438.129	80037.3
438.488	80038.81
438.847	80040.51
439.205	80041.59
439.564	80043.47
439.922	80045.36
440.281	80045.62
440.639	80045.76
440.997	80046.47
441.356	80048.17
441.714	80049.5
442.072	80050.98
442.431	80050.28
442.789	80049.91
443.147	80050.02
443.505	80051.39
443.863	80051.72
444.221	80051.72
444.579	80051.42
444.937	80051.72
445.294	80053.01
445.652	80053.23
446.01	80052.75
446.368	80051.98
446.725	80052.24
447.083	80052.61
447.441	80050.98
447.798	80052.79
448.156	80053.53
448.513	80054.53
448.87	80052.31
449.228	80051.68
449.585	80050.87
449.942	80049.72
450.3	80049.09
450.657	80049.91
451.014	80049.5
451.371	80049.5
451.728	80050.2
452.085	80049.94
452.442	80049.91
452.799	80049.8
453.156	80051.02
453.513	80051.54
453.869	80051.87
454.226	80052.09
454.583	80052.13
454.939	80055.64
455.296	80054.42
455.653	80053.9
456.009	80053.01
456.366	80054.46
456.722	80055.01
457.078	80054.53
457.435	80054.79
457.791	80056.68
458.147	80055.05
458.503	80055.64
458.86	80056.75
459.216	80057.75
459.572	80059.41
459.928	80058.97
460.284	80059.9
460.64	80058.93
460.996	80059.52
461.351	80060.6
461.707	80061.93
462.063	80062.85
462.419	80061.19
462.774	80063.34
463.13	80065.15
463.486	80065.48
463.841	80067.29
464.197	80067.81
464.552	80068.88
464.908	80071.51
465.263	80072.4
465.618	80073.21
465.974	80073.99
466.329	80073.43
466.684	80071.92
467.039	80071.66
467.394	80073.99
467.749	80074.06
468.104	80076.36
468.459	80077.73
468.814	80078.39
469.169	80078.32
469.524	80079.13
469.879	80080.28
470.233	80080.36
470.588	80080.36
470.943	80081.32
471.297	80080.65
471.652	80083.5
472.006	80084.43
472.361	80084.43
472.715	80083.98
473.07	80086.79
473.424	80087.79
473.778	80089.79
474.133	80091.75
474.487	80092.6
474.841	80091.94
475.195	80093.86
475.549	80092.27
475.903	80093.79
476.257	80094.83
476.611	80096.45
476.965	80096.38
477.319	80096.86
477.673	80097.56
478.026	80099.27
478.38	80099.05
478.734	80100.79
479.087	80099.82
479.441	80101.49
479.795	80101.38
480.148	80102.49
480.502	80101.86
480.855	80101.16
481.208	80101.04
481.562	80100.9
481.915	80101.67
482.268	80102.04
482.621	80102.04
482.974	80101.93
483.328	80100.67
483.681	80099.82
484.034	80100.19
484.387	80100.82
484.739	80101.97
485.092	80101.64
485.445	80101.38
485.798	80101.97
486.151	80100.38
486.503	80101.27
486.856	80101.86
487.209	80102.04
487.561	80101.82
487.914	80101.75
488.266	80101.97
488.618	80101.53
488.971	80103.27
489.323	80102.93
489.675	80105.45
490.028	80104.15
490.38	80105.04
490.732	80105.19
491.084	80106.01
491.436	80106.19
491.788	80105.49
492.14	80104.64
492.492	80105.08
492.844	80105.64
493.196	80106.6
493.548	80108.49
493.899	80108.12
494.251	80106.08
494.603	80106.23
494.954	80107.34
495.306	80107.63
495.657	80108
496.009	80109.67
496.36	80107.97
496.712	80107.78
497.063	80105.89
497.414	80106.78
497.765	80107.97
498.117	80107.63
498.468	80108
498.819	80108.19
499.17	80107.63
499.521	80108.04
499.872	80107.26
500.223	80106.49
500.574	80105.97
500.924	80106.23
501.275	80105.75
501.626	80104.38
501.977	80105.82
502.327	80104.89
502.678	80104.75
503.029	80104.64
503.379	80102.34
503.73	80102.9
504.08	80103.12
504.43	80103.38
504.781	80101.6
505.131	80101.67
505.481	80102.08
505.831	80101.04
506.182	80101.04
506.532	80102.04
506.882	80101.23
507.232	80101.78
507.582	80099.86
507.932	80099.64
508.281	80098.42
508.631	80097.6
508.981	80100.04
509.331	80098.45
509.681	80099.12
510.03	80098.53
510.38	80098.93
510.729	80100.19
511.079	80100.01
511.428	80100.04
511.778	80099.86
512.127	80100.04
512.476	80098.82
512.826	80098.82
513.175	80101.19
513.524	80100.67
513.873	80101.04
514.222	80101.93
514.571	80102.38
514.92	80105.23
515.269	80105.12
515.618	80106.08
515.967	80107.93
516.316	80107.49
516.665	80107.49
517.014	80106.52
517.362	80107.19
517.711	80107.71
518.059	80108.97
518.408	80108.67
518.757	80108.49
519.105	80108.12
519.453	80109.26
519.802	80110.97
520.15	80112.3
520.498	80110.34
520.847	80109.86
521.195	80109.74
521.543	80108.93
521.891	80108.26
522.239	80106.78
522.587	80106.67
522.935	80107.52
523.283	80106.56
523.631	80105.93
523.979	80107.6
524.326	80107.74
524.674	80110.49
525.022	80109.15
525.369	80108.12
525.717	80109.23
526.064	80109.52
526.412	80110.08
526.759	80109.34
527.107	80108.93
527.454	80106.45
527.801	80106.3
528.149	80106.15
528.496	80104.19
528.843	80104.16
529.19	80102.19
529.537	80102.38
529.884	80103.01
530.231	80102.01
530.578	80102.27
530.925	80102.93
531.272	80102.12
531.619	80101.38
531.966	80099.67
532.312	80100.23
532.659	80098.93
533.006	80097.53
533.352	80095.97
533.699	80095.68
534.045	80095.27
534.392	80094.53
534.738	80094.94
535.084	80095.16
535.431	80097.75
535.777	80100.68
536.123	80100.82
536.469	80101.75
536.815	80099.94
537.161	80099.79
537.507	80099.42
537.853	80096.97
538.199	80096.46
538.545	80097.16
538.891	80098.38
539.237	80099.75
539.582	80099.16
539.928	80100.83
540.274	80101.75
540.619	80104.49
540.965	80104.08
541.31	80104.56
541.656	80104.3
542.001	80106.01
542.347	80106.64
542.692	80103.64
543.037	80103.27
543.382	80103.42
543.728	80104.53
544.073	80107.23
544.418	80106.34
544.763	80103.68
545.108	80107.12
545.453	80107.38
545.798	80105.67
546.142	80104.75
546.487	80102.41
546.832	80103.12
547.177	80102.19
547.521	80102.71
547.866	80101.67
548.211	80100.71
548.555	80102.34
548.9	80101.08
549.244	80100.53
549.588	80100.86
549.933	80100.86
550.277	80099.16
550.621	80098.94
550.965	80098.38
551.31	80096.34
551.654	80096.53
551.998	80099.12
552.342	80097.49
552.686	80097.93
553.03	80098.93
553.373	80100.12
553.717	80099.97
554.061	80100.04
554.405	80099.34
554.748	80098.45
555.092	80097.82
555.436	80100.53
555.779	80101.16
556.123	80102.78
556.466	80101.3
556.81	80100.08
557.153	80100.56
557.496	80102.78
557.839	80102.82
558.183	80102.93
558.526	80103.86
558.869	80104.04
559.212	80103.12
559.555	80103.52
559.898	80104.3
560.241	80102.93
560.584	80104.01
560.927	80104.01
561.269	80103.34
561.612	80105.01
561.955	80105.27
562.297	80107.64
562.64	80106.64
562.983	80104.12
563.325	80104.38
563.668	80106.19
564.01	80105.93
564.352	80103.86
564.695	80101.45
565.037	80100.34
565.379	80099.68
565.721	80100.05
566.063	80099.79
566.406	80100.31
566.748	80102.23
567.09	80100.75
567.431	80102.38
567.773	80101.34
568.115	80099.94
568.457	80100.27
568.799	80099.2
569.14	80099.49
569.482	80096.94
569.824	80095.38
570.165	80095.31
570.507	80095.27
570.848	80094.2
571.19	80094.35
571.531	80097.64
571.872	80098.71
572.214	80098.86
572.555	80098.9
572.896	80098.75
573.237	80098.93
573.578	80099.12
573.919	80097.49
574.26	80098.08
574.601	80097.6
574.942	80096.56
575.283	80097.82
575.624	80096.56
575.964	80095.94
576.305	80094.57
576.646	80094.86
576.986	80097.01
577.327	80097.42
577.667	80096.75
578.008	80097.34
578.348	80098.86
578.689	80097.01
579.029	80095.38
579.369	80096.64
579.71	80096.71
580.05	80096.05
580.39	80095.49
580.73	80094.27
581.07	80092.86
581.41	80091.61
581.75	80090.38
582.09	80090.68
582.43	80090.61
582.769	80091.86
583.109	80093.6
583.449	80094.01
583.789	80092.49
584.128	80091.61
584.468	80091.94
584.807	80092.9
585.147	80092.01
585.486	80089.2
