Data from 24HourExp_27052025_FLMS018081_04-18-22-229.txt Node
Date: Wed May 28 04:18:22 BST 2025
User: adleo
Spectrometer: FLMS01808
Trigger mode: 0
Integration Time (sec): 4.000000E-1
Scans to average: 10
Electric dark correction enabled: true
Nonlinearity correction enabled: true
Boxcar width: 10
XAxis mode: Wavelengths
Number of Pixels in Spectrum: 2048
>>>>>Begin Spectral Data<<<<<
178.471	-134.1
178.857	-126.7
179.244	-119.15
179.631	-109.84
180.017	-103.38
180.404	-94.25
180.79	-82.58
181.176	-72.01
181.563	-61.96
181.949	-49.77
182.335	-40.38
182.722	-23.4
183.108	-4.16
183.494	23.28
183.88	75.03
184.266	128.41
184.653	185.16
185.039	237.45
185.425	292.32
185.811	346.59
186.197	400.94
186.582	452.67
186.968	505.89
187.354	558.18
187.74	608.24
188.126	659.03
188.511	709.04
188.897	755.5
189.283	801.64
189.668	847.38
190.054	888.9
190.439	935.09
190.825	978.31
191.21	1019.44
191.596	1052.9
191.981	1062.82
192.366	1066.57
192.752	1068.03
193.137	1073.29
193.522	1073.34
193.908	1075.94
194.293	1078.34
194.678	1080.57
195.063	1080.88
195.448	1084.11
195.833	1084.71
196.218	1086.76
196.603	1085.35
196.988	1086.26
197.373	1085.78
197.757	1086.02
198.142	1086.39
198.527	1083.38
198.912	1082.88
199.296	1083.36
199.681	1080.88
200.066	1078.99
200.45	1078.34
200.835	1078.85
201.219	1079.13
201.604	1081.35
201.988	1081.52
202.372	1081.1
202.757	1080.62
203.141	1082.45
203.525	1080.61
203.91	1080.48
204.294	1081.48
204.678	1082.01
205.062	1080.45
205.446	1081.49
205.83	1081.22
206.214	1080.47
206.598	1082.84
206.982	1084.12
207.366	1082.8
207.75	1084.21
208.134	1085.58
208.517	1087.81
208.901	1088.78
209.285	1087.86
209.669	1088.05
210.052	1088.34
210.436	1088.87
210.819	1090.3
211.203	1090.04
211.586	1089.14
211.97	1089.92
212.353	1088.08
212.737	1089.89
213.12	1093.24
213.503	1093.69
213.886	1095
214.27	1099.33
214.653	1100.41
215.036	1102.21
215.419	1103.92
215.802	1106.39
216.185	1109.81
216.568	1112.71
216.951	1116.9
217.334	1121.63
217.717	1126.24
218.1	1129.78
218.482	1135.44
218.865	1138.82
219.248	1143.3
219.631	1148.79
220.013	1154.75
220.396	1162.27
220.778	1166.44
221.161	1173.42
221.544	1179.44
221.926	1187.71
222.308	1194.46
222.691	1201.96
223.073	1209.43
223.455	1218.1
223.838	1226.34
224.22	1233.37
224.602	1243.49
224.984	1253.33
225.366	1263.85
225.749	1278.05
226.131	1289.86
226.513	1300.89
226.895	1315.43
227.276	1327.94
227.658	1344.12
228.04	1358.15
228.422	1373.98
228.804	1391.94
229.186	1404.05
229.567	1423.38
229.949	1439.1
230.331	1456.17
230.712	1473.05
231.094	1492.53
231.475	1513.78
231.857	1535.51
232.238	1555.24
232.62	1575.16
233.001	1594.54
233.382	1615.12
233.763	1631.54
234.145	1651.64
234.526	1671.18
234.907	1689.9
235.288	1711.02
235.669	1729.5
236.05	1751.33
236.431	1770.13
236.812	1789.07
237.193	1813
237.574	1832.71
237.955	1855.86
238.336	1879.28
238.717	1902.58
239.097	1925.16
239.478	1945.63
239.859	1967.65
240.239	1991.42
240.62	2015.82
241.001	2038.71
241.381	2061.23
241.762	2086.36
242.142	2109.93
242.522	2134.81
242.903	2159.41
243.283	2184.64
243.663	2211.24
244.044	2238.48
244.424	2268.08
244.804	2296.47
245.184	2325.32
245.564	2351.09
245.944	2380.88
246.324	2408.35
246.704	2438.92
247.084	2465.38
247.464	2495.39
247.844	2527.4
248.224	2559.22
248.604	2588.25
248.983	2618.39
249.363	2651.32
249.743	2681.88
250.122	2710.57
250.502	2744.03
250.882	2774.43
251.261	2804.73
251.641	2837.07
252.02	2868.1
252.399	2899.59
252.779	2936.03
253.158	2971.91
253.537	3013.13
253.917	3053.77
254.296	3091.46
254.675	3130.97
255.054	3172.71
255.433	3213.47
255.812	3251
256.191	3291.29
256.57	3332.73
256.949	3375.02
257.328	3418.18
257.707	3462.33
258.086	3511.51
258.465	3556.93
258.843	3609.33
259.222	3662.24
259.601	3715.25
259.979	3767.86
260.358	3821.08
260.736	3874.03
261.115	3928.59
261.493	3979.65
261.872	4031.22
262.25	4087.88
262.629	4143.22
263.007	4203.65
263.385	4262.71
263.763	4323.34
264.142	4385.81
264.52	4450.85
264.898	4517.27
265.276	4582.03
265.654	4652.35
266.032	4721.12
266.41	4788.63
266.788	4860.58
267.166	4935.8
267.544	5009.65
267.921	5086.21
268.299	5164.89
268.677	5246.84
269.055	5328.44
269.432	5414.53
269.81	5501.22
270.188	5589.42
270.565	5676.99
270.943	5764.4
271.32	5856.12
271.697	5950.23
272.075	6044.42
272.452	6138.56
272.829	6235.11
273.207	6335.83
273.584	6439.66
273.961	6543.72
274.338	6657.37
274.715	6771.89
275.092	6888.49
275.469	7008.72
275.846	7131.99
276.223	7254.51
276.6	7372.07
276.977	7495.22
277.354	7619.59
277.731	7743.77
278.108	7875.04
278.484	8005.62
278.861	8138.9
279.238	8279.85
279.614	8417.33
279.991	8562.43
280.367	8706.27
280.744	8855.55
281.12	9002.12
281.497	9147.73
281.873	9301.52
282.249	9452.29
282.625	9595.32
283.002	9737.83
283.378	9885.37
283.754	10032.05
284.13	10179.37
284.506	10340.02
284.882	10493.41
285.258	10652.32
285.634	10805.88
286.01	10966.69
286.386	11123.83
286.762	11288.34
287.138	11447.16
287.513	11612.4
287.889	11771.17
288.265	11935.5
288.641	12093.6
289.016	12258.21
289.392	12420.99
289.767	12583.12
290.143	12746.07
290.518	12908.75
290.894	13074.82
291.269	13231.47
291.644	13392.49
292.02	13554.98
292.395	13706.45
292.77	13863.3
293.145	14013.53
293.52	14172.41
293.895	14319.27
294.27	14475.53
294.646	14625.97
295.02	14775.8
295.395	14926.49
295.77	15079.49
296.145	15231.16
296.52	15385.73
296.895	15536.52
297.269	15687.39
297.644	15837.37
298.019	15989.09
298.393	16139.67
298.768	16292.43
299.143	16449.79
299.517	16601
299.891	16755.42
300.266	16916.09
300.64	17073.32
301.015	17233.41
301.389	17403.85
301.763	17578.19
302.137	17749.89
302.512	17926.2
302.886	18098.11
303.26	18280.69
303.634	18462.55
304.008	18641.58
304.382	18824.27
304.756	19010.59
305.13	19200.7
305.504	19380.81
305.877	19566.93
306.251	19769.68
306.625	19967.58
306.999	20172.34
307.372	20383.14
307.746	20597.66
308.119	20805.22
308.493	21019.53
308.866	21229.74
309.24	21435.66
309.613	21638.65
309.987	21847.29
310.36	22045.86
310.733	22257.39
311.107	22470.99
311.48	22686.67
311.853	22911.74
312.226	23132.82
312.599	23361.37
312.972	23580.76
313.345	23809.48
313.718	24044.24
314.091	24261.02
314.464	24488.71
314.837	24711.76
315.21	24924.59
315.582	25145.97
315.955	25358.31
316.328	25574.18
316.7	25795.16
317.073	26021.73
317.446	26240.49
317.818	26466.67
318.191	26698.07
318.563	26921.43
318.936	27125.63
319.308	27329.3
319.68	27531.69
320.053	27730.01
320.425	27912.73
320.797	28095.66
321.169	28260.71
321.541	28401.07
321.913	28537.94
322.285	28657.87
322.657	28780.07
323.029	28927.61
323.401	29066.53
323.773	29234.31
324.145	29405.86
324.517	29592.39
324.889	29765.86
325.26	29971.81
325.632	30189.2
326.004	30419.54
326.375	30670.36
326.747	30941.83
327.118	31243.06
327.49	31527.99
327.861	31836.79
328.233	32144.21
328.604	32453.56
328.975	32767.88
329.346	33077.67
329.718	33386.23
330.089	33691.69
330.46	33987.22
330.831	34255.75
331.202	34517.81
331.573	34761.63
331.944	34989.06
332.315	35217
332.686	35433.02
333.057	35628.18
333.428	35798.05
333.799	35966.66
334.169	36124.16
334.54	36265.35
334.911	36382.08
335.281	36520.17
335.652	36640.69
336.022	36774.35
336.393	36919.61
336.763	37084.58
337.134	37269.97
337.504	37471.28
337.874	37669.47
338.245	37877.88
338.615	38096.29
338.985	38314.27
339.355	38534.76
339.726	38762.01
340.096	38982.13
340.466	39231.85
340.836	39478.68
341.206	39728.2
341.576	39972.95
341.945	40210.67
342.315	40445.96
342.685	40691.41
343.055	40934.03
343.425	41174.3
343.794	41407
344.164	41636.54
344.533	41871.71
344.903	42103.67
345.273	42331.57
345.642	42556.84
346.011	42783.61
346.381	43015.44
346.75	43251.88
347.12	43497.04
347.489	43743
347.858	43985.23
348.227	44194.14
348.596	44411.85
348.965	44643.26
349.334	44869.68
349.704	45109.48
350.072	45356.82
350.441	45588.19
350.81	45823.34
351.179	46051.65
351.548	46282.87
351.917	46500.49
352.285	46686.23
352.654	46887.74
353.023	47099.3
353.391	47309.09
353.76	47526.85
354.129	47710.18
354.497	47936.34
354.865	48149.54
355.234	48377.03
355.602	48595.16
355.971	48844.19
356.339	49059.39
356.707	49275.14
357.075	49497.92
357.443	49716.96
357.811	49928.72
358.18	50133.93
358.548	50342.95
358.916	50549.6
359.284	50771.41
359.651	50993.04
360.019	51216.03
360.387	51421.42
360.755	51619.02
361.123	51837.13
361.49	52052.97
361.858	52272.61
362.226	52472.68
362.593	52676.5
362.961	52861.23
363.328	53061.78
363.696	53227.79
364.063	53441.47
364.43	53646.63
364.798	53858.69
365.165	54047.93
365.532	54226.08
365.899	54414.9
366.267	54579.44
366.634	54733.76
367.001	54897.88
367.368	55034.32
367.735	55214.92
368.102	55381.47
368.469	55575.42
368.835	55757.75
369.202	55916.36
369.569	56108.67
369.936	56293.68
370.303	56482.23
370.669	56676.22
371.036	56838.41
371.402	57037.01
371.769	57226.15
372.135	57376.63
372.502	57499.44
372.868	57630.31
373.235	57774.27
373.601	57912.74
373.967	58090
374.333	58275.83
374.7	58453.59
375.066	58660.41
375.432	58846.66
375.798	59032.29
376.164	59194.27
376.53	59339.2
376.896	59509.07
377.262	59684.94
377.628	59814.87
377.993	59952.27
378.359	60095.31
378.725	60247.29
379.091	60401.36
379.456	60528.23
379.822	60665.42
380.187	60820.82
380.553	61013.37
380.918	61206.9
381.284	61382.35
381.649	61553.83
382.015	61689.62
382.38	61800.18
382.745	61962.12
383.11	62106
383.476	62243.48
383.841	62367.57
384.206	62523.28
384.571	62648.75
384.936	62774.56
385.301	62946.23
385.666	63080.63
386.031	63230.02
386.396	63391.08
386.76	63537.03
387.125	63725.44
387.49	63927.01
387.855	64116.92
388.219	64284.67
388.584	64460.62
388.948	64652.24
389.313	64812.96
389.677	65018.25
390.042	65255.15
390.406	65408.35
390.771	65594.96
391.135	65788.99
391.499	66018.21
391.863	66248.48
392.227	66476.7
392.592	66666.15
392.956	66853.25
393.32	67055.08
393.684	67276.65
394.048	67454.53
394.412	67635.07
394.775	67781.27
395.139	67923.01
395.503	68073.72
395.867	68223.33
396.231	68359.76
396.594	68465.69
396.958	68597.6
397.321	68756.41
397.685	68882.33
398.048	69019.73
398.412	69156.6
398.775	69281.14
399.139	69405.87
399.502	69509.77
399.865	69654.51
400.228	69856.92
400.592	69990.65
400.955	70186.2
401.318	70312.59
401.681	70464.14
402.044	70601.93
402.407	70755.26
402.77	70910.07
403.133	71102.31
403.496	71247.74
403.859	71407.7
404.221	71639.55
404.584	71881.52
404.947	72115.19
405.309	72323.28
405.672	72569.4
406.034	72793.18
406.397	73035.78
406.759	73258.56
407.122	73439.75
407.484	73620.61
407.847	73810.08
408.209	74063.98
408.571	74290.43
408.933	74556.42
409.296	74814.7
409.658	75059.03
410.02	75334.54
410.382	75649.26
410.744	75905.47
411.106	76185.96
411.468	76455.87
411.83	76692.38
412.191	76887.7
412.553	77068.63
412.915	77284.87
413.277	77486.21
413.638	77687.49
414	77867.13
414.361	78049.07
414.723	78287.42
415.084	78501.54
415.446	78671.35
415.807	78812.43
416.169	78925.28
416.53	79017.86
416.891	79132.28
417.252	79262.43
417.614	79347.26
417.975	79395.38
418.336	79451.86
418.697	79513.96
419.058	79568.27
419.419	79611.5
419.78	79656.56
420.141	79694.93
420.501	79724.64
420.862	79750.57
421.223	79769.49
421.584	79812.32
421.944	79839.26
422.305	79854.36
422.666	79864.67
423.026	79869.87
423.387	79883.87
423.747	79895.66
424.107	79907.2
424.468	79917.63
424.828	79923.8
425.188	79927.82
425.549	79934.32
425.909	79941.04
426.269	79940.81
426.629	79946.17
426.989	79951.67
427.349	79957.02
427.709	79959.57
428.069	79961.68
428.429	79967.44
428.789	79976.15
429.149	79980.66
429.508	79982.88
429.868	79987.94
430.228	79993.89
430.587	79998.14
430.947	80004.13
431.306	80009.6
431.666	80013.14
432.025	80015.81
432.385	80019.39
432.744	80022.46
433.103	80025.34
433.463	80028.04
433.822	80034.58
434.181	80038.16
434.54	80040.42
434.899	80044.38
435.258	80048.55
435.618	80052.47
435.976	80053.88
436.335	80054.21
436.694	80055.58
437.053	80057.02
437.412	80058.58
437.771	80059.65
438.129	80060.8
438.488	80060.54
438.847	80060.65
439.205	80061.65
439.564	80062.72
439.922	80063.61
440.281	80064.09
440.639	80064.72
440.997	80064.64
441.356	80067.53
441.714	80067.97
442.072	80068.08
442.431	80067.42
442.789	80067.34
443.147	80068.01
443.505	80068.12
443.863	80068.6
444.221	80067.94
444.579	80069.16
444.937	80068.23
445.294	80067.97
445.652	80068.56
446.01	80068.27
446.368	80068.45
446.725	80069.27
447.083	80069.86
447.441	80069.56
447.798	80070.12
448.156	80071.52
448.513	80072.86
448.87	80072.04
449.228	80071.71
449.585	80074.19
449.942	80074.15
450.3	80074.08
450.657	80072.97
451.014	80074.04
451.371	80073.93
451.728	80074.56
452.085	80072.86
452.442	80071.97
452.799	80073.08
453.156	80073.86
453.513	80073.3
453.869	80073.04
454.226	80073.12
454.583	80072.52
454.939	80073.93
455.296	80072.78
455.653	80071.56
456.009	80071.12
456.366	80072.45
456.722	80074.26
457.078	80072.89
457.435	80073.3
457.791	80073.86
458.147	80074.78
458.503	80074.67
458.86	80075.41
459.216	80075.52
459.572	80077.78
459.928	80078.7
460.284	80078.07
460.64	80077.96
460.996	80077.93
461.351	80077.81
461.707	80077.26
462.063	80076.93
462.419	80076.22
462.774	80077.44
463.13	80078.07
463.486	80078.85
463.841	80079.15
464.197	80076.74
464.552	80077.7
464.908	80078.7
465.263	80077.56
465.618	80078
465.974	80078.89
466.329	80079.19
466.684	80080.26
467.039	80079.89
467.394	80080.7
467.749	80082.59
468.104	80083.4
468.459	80086.44
468.814	80087.1
469.169	80090.07
469.524	80090.58
469.879	80091.47
470.233	80092.51
470.588	80093.69
470.943	80093.4
471.297	80093.03
471.652	80096.02
472.006	80096.62
472.361	80098.21
472.715	80100.02
473.07	80101.06
473.424	80099.65
473.778	80099.99
474.133	80102.02
474.487	80103.84
474.841	80105.69
475.195	80105.83
475.549	80105.32
475.903	80104.72
476.257	80106.65
476.611	80105.28
476.965	80107.72
477.319	80107.87
477.673	80108.02
478.026	80108.91
478.38	80110.17
478.734	80110.17
479.087	80109.94
479.441	80109.54
479.795	80109.76
480.148	80112.83
480.502	80112.09
480.855	80115.5
481.208	80116.05
481.562	80116.35
481.915	80117.42
482.268	80116.35
482.621	80116.31
482.974	80118.5
483.328	80119.35
483.681	80119.64
484.034	80120.24
484.387	80118.87
484.739	80119.02
485.092	80119.98
485.445	80120.01
485.798	80120.76
486.151	80123.05
486.503	80125.42
486.856	80126.38
487.209	80125.98
487.561	80125.46
487.914	80126.09
488.266	80126.27
488.618	80125.46
488.971	80125.75
489.323	80124.2
489.675	80126.61
490.028	80127.94
490.38	80127.01
490.732	80127.16
491.084	80126.35
491.436	80127.2
491.788	80128.57
492.14	80128.13
492.492	80127.83
492.844	80127.01
493.196	80126.35
493.548	80125.24
493.899	80123.38
494.251	80121.94
494.603	80122.24
494.954	80120.87
495.306	80120.05
495.657	80118.09
496.009	80118.09
496.36	80116.98
496.712	80117.31
497.063	80115.2
497.414	80115.31
497.765	80115.61
498.117	80115.42
498.468	80116.13
498.819	80116.2
499.17	80115.02
499.521	80117.42
499.872	80117.13
500.223	80117.61
500.574	80117.5
500.924	80117.2
501.275	80116.53
501.626	80117.5
501.977	80117.31
502.327	80117.24
502.678	80118.98
503.029	80120.72
503.379	80119.87
503.73	80119.61
504.08	80119.46
504.43	80119.98
504.781	80118.83
505.131	80118.05
505.481	80117.13
505.831	80116.53
506.182	80116.24
506.532	80117.57
506.882	80116.57
507.232	80116.27
507.582	80115.24
507.932	80115.79
508.281	80117.05
508.631	80116.76
508.981	80115.09
509.331	80116.46
509.681	80118.65
510.03	80118.57
510.38	80118.53
510.729	80120.68
511.079	80120.35
511.428	80119.83
511.778	80120.09
512.127	80121.53
512.476	80121.46
512.826	80123.2
513.175	80123.61
513.524	80123.05
513.873	80124.05
514.222	80124.24
514.571	80124.42
514.92	80125.16
515.269	80124.35
515.618	80124.05
515.967	80124.57
516.316	80125.09
516.665	80122.5
517.014	80120.53
517.362	80120.42
517.711	80120.09
518.059	80119.79
518.408	80119.31
518.757	80119.2
519.105	80119.68
519.453	80117.5
519.802	80119.42
520.15	80120.09
520.498	80120.24
520.847	80121.5
521.195	80119.16
521.543	80118.2
521.891	80118.72
522.239	80119.16
522.587	80118.46
522.935	80117.09
523.283	80117.64
523.631	80117.87
523.979	80118.16
524.326	80117.35
524.674	80115.61
525.022	80115.28
525.369	80114.79
525.717	80116.31
526.064	80117.64
526.412	80117.5
526.759	80117.09
527.107	80115.53
527.454	80113.65
527.801	80113.61
528.149	80112.83
528.496	80114.24
528.843	80114.27
529.19	80114.72
529.537	80113.9
529.884	80114.09
530.231	80116.27
530.578	80117.2
530.925	80118.2
531.272	80119.72
531.619	80120.64
531.966	80121.87
532.312	80122.5
532.659	80122.61
533.006	80123.01
533.352	80122.05
533.699	80121.2
534.045	80122.87
534.392	80123.68
534.738	80123.68
535.084	80123.57
535.431	80124.09
535.777	80123.9
536.123	80123.35
536.469	80121.35
536.815	80120.87
537.161	80121.09
537.507	80118.64
537.853	80119.42
538.199	80116.87
538.545	80116.79
538.891	80115.83
539.237	80115.09
539.582	80114.65
539.928	80115.16
540.274	80113.68
540.619	80113.31
540.965	80112.76
541.31	80112.54
541.656	80113.65
542.001	80115.28
542.347	80116.05
542.692	80114.65
543.037	80113.61
543.382	80114.17
543.728	80116.17
544.073	80118.31
544.418	80118.16
544.763	80119.61
545.108	80117.98
545.453	80119.98
545.798	80118.53
546.142	80121.2
546.487	80122.94
546.832	80122.02
547.177	80121.87
547.521	80122.24
547.866	80123.94
548.211	80124.98
548.555	80126.35
548.9	80126.27
549.244	80124.57
549.588	80124.38
549.933	80123.68
550.277	80124.5
550.621	80125.01
550.965	80124.5
551.31	80123.16
551.654	80124.05
551.998	80123.94
552.342	80123.46
552.686	80121.9
553.03	80123.16
553.373	80122.13
553.717	80119.9
554.061	80119.42
554.405	80119.57
554.748	80119.94
555.092	80119.98
555.436	80120.31
555.779	80118.16
556.123	80116.35
556.466	80117.83
556.81	80117.46
557.153	80119.46
557.496	80120.02
557.839	80119.42
558.183	80119.83
558.526	80120.53
558.869	80121.35
559.212	80121.05
559.555	80123.61
559.898	80126.16
560.241	80126.53
560.584	80124.94
560.927	80127.87
561.269	80128.98
561.612	80129.61
561.955	80131.01
562.297	80131.68
562.64	80130.57
562.983	80130.83
563.325	80132.53
563.668	80131.72
564.01	80131.61
564.352	80130.05
564.695	80128.39
565.037	80128.94
565.379	80127.98
565.721	80127.94
566.063	80127.05
566.406	80126.16
566.748	80123.76
567.09	80123.68
567.431	80123.13
567.773	80123.79
568.115	80121.35
568.457	80121.72
568.799	80121.05
569.14	80119.13
569.482	80116.64
569.824	80117.61
570.165	80117.35
570.507	80114.42
570.848	80114.94
571.19	80115.31
571.531	80115.46
571.872	80116.13
572.214	80115.57
572.555	80115.42
572.896	80113.87
573.237	80113.87
573.578	80114.35
573.919	80114.87
574.26	80113.39
574.601	80112.13
574.942	80111.2
575.283	80110.05
575.624	80109.17
575.964	80109.57
576.305	80108.61
576.646	80108.54
576.986	80108.5
577.327	80106.57
577.667	80108.02
578.008	80107.72
578.348	80107.35
578.689	80109.54
579.029	80108.98
579.369	80108.83
579.71	80109.61
580.05	80109.02
580.39	80108.65
580.73	80108.91
581.07	80109.31
581.41	80109.76
581.75	80110.87
582.09	80112.09
582.43	80111.31
582.769	80110.76
583.109	80109.43
583.449	80109.13
583.789	80108.35
584.128	80106.72
584.468	80107.76
584.807	80107.46
585.147	80105.13
585.486	80103.76
