Data from 24HourExp_27052025_FLMS018081_21-08-19-037.txt Node
Date: Tue May 27 21:08:19 BST 2025
User: adleo
Spectrometer: FLMS01808
Trigger mode: 0
Integration Time (sec): 4.000000E-1
Scans to average: 10
Electric dark correction enabled: true
Nonlinearity correction enabled: true
Boxcar width: 10
XAxis mode: Wavelengths
Number of Pixels in Spectrum: 2048
>>>>>Begin Spectral Data<<<<<
178.471	-122.55
178.857	-117.16
179.244	-111.15
179.631	-103.33
180.017	-95.57
180.404	-87.63
180.79	-76.9
181.176	-67.32
181.563	-58.43
181.949	-47.66
182.335	-39.05
182.722	-22.49
183.108	-3.36
183.494	23.85
183.88	78.32
184.266	132.94
184.653	189.28
185.039	242.64
185.425	297.02
185.811	349.96
186.197	403.26
186.582	455.43
186.968	508.76
187.354	561.17
187.74	612.49
188.126	664.13
188.511	715.36
188.897	763.24
189.283	809.94
189.668	856.59
190.054	899.44
190.439	945.95
190.825	989.42
191.21	1031.15
191.596	1064.04
191.981	1071.13
192.366	1074.27
192.752	1075.51
193.137	1082.1
193.522	1084.16
193.908	1086.3
194.293	1089.49
194.678	1090.81
195.063	1092.6
195.448	1094.84
195.833	1094.49
196.218	1093.91
196.603	1092.2
196.988	1090.39
197.373	1092.3
197.757	1092.49
198.142	1093.62
198.527	1091.63
198.912	1091.16
199.296	1088.98
199.681	1087.81
200.066	1085.53
200.45	1085.22
200.835	1087.28
201.219	1085.9
201.604	1086.63
201.988	1086.65
202.372	1087.21
202.757	1087.4
203.141	1088.79
203.525	1089.35
203.91	1091.88
204.294	1092.9
204.678	1093.66
205.062	1095.1
205.446	1094.1
205.83	1096.28
206.214	1096.52
206.598	1098.62
206.982	1099.95
207.366	1102.2
207.75	1102.56
208.134	1104.48
208.517	1106.54
208.901	1105.44
209.285	1106.26
209.669	1107.76
210.052	1108.8
210.436	1108.83
210.819	1110.27
211.203	1109.03
211.586	1108.51
211.97	1108.71
212.353	1107.87
212.737	1110.05
213.12	1111.7
213.503	1113.3
213.886	1113.83
214.27	1116.85
214.653	1117.61
215.036	1117.37
215.419	1118.14
215.802	1120.14
216.185	1122.2
216.568	1125.74
216.951	1130.13
217.334	1134.69
217.717	1135.77
218.1	1137.34
218.482	1141.13
218.865	1144.26
219.248	1149.9
219.631	1154.34
220.013	1159.23
220.396	1167.72
220.778	1173.75
221.161	1179.57
221.544	1185.1
221.926	1192.09
222.308	1197.46
222.691	1205.21
223.073	1215.81
223.455	1224.6
223.838	1235.14
224.22	1244.07
224.602	1254.11
224.984	1263.7
225.366	1273.39
225.749	1288.48
226.131	1303.04
226.513	1316.95
226.895	1331.49
227.276	1344.21
227.658	1359.73
228.04	1375.31
228.422	1390.92
228.804	1406.67
229.186	1423.69
229.567	1440.53
229.949	1457.52
230.331	1475.88
230.712	1494.66
231.094	1511.71
231.475	1531.19
231.857	1551.39
232.238	1570.87
232.62	1588.85
233.001	1609.91
233.382	1629.87
233.763	1646.88
234.145	1668.7
234.526	1689.59
234.907	1709.67
235.288	1730.85
235.669	1751.98
236.05	1771.4
236.431	1789
236.812	1811.41
237.193	1833.09
237.574	1856.59
237.955	1878.53
238.336	1902.6
238.717	1925.57
239.097	1951.97
239.478	1975.48
239.859	1997.78
240.239	2022.73
240.62	2046.93
241.001	2069.92
241.381	2096.05
241.762	2121.14
242.142	2144.87
242.522	2169.89
242.903	2197.25
243.283	2223.63
243.663	2250.34
244.044	2280.58
244.424	2312.69
244.804	2340.36
245.184	2370.41
245.564	2398.97
245.944	2430.61
246.324	2461.99
246.704	2493.47
247.084	2520.36
247.464	2553.08
247.844	2584.58
248.224	2617.51
248.604	2652.73
248.983	2683.8
249.363	2717.03
249.743	2749.16
250.122	2781.46
250.502	2812.84
250.882	2843.6
251.261	2877.79
251.641	2912.12
252.02	2945.18
252.399	2979.18
252.779	3016.12
253.158	3054.65
253.537	3095.99
253.917	3141.12
254.296	3182.37
254.675	3223.63
255.054	3268.26
255.433	3310.88
255.812	3352.31
256.191	3396.09
256.57	3437.72
256.949	3485.02
257.328	3530.66
257.707	3578.72
258.086	3627.73
258.465	3678.97
258.843	3733.2
259.222	3787.41
259.601	3843.72
259.979	3900.5
260.358	3956.18
260.736	4011.98
261.115	4068.69
261.493	4124.14
261.872	4176.29
262.25	4233.77
262.629	4292.77
263.007	4352.17
263.385	4413.67
263.763	4480.79
264.142	4547.97
264.52	4613.11
264.898	4680.29
265.276	4747.81
265.654	4819.16
266.032	4887.76
266.41	4957.31
266.788	5028.81
267.166	5104.56
267.544	5180.44
267.921	5258.52
268.299	5341.29
268.677	5424.33
269.055	5506.99
269.432	5594.6
269.81	5682.19
270.188	5770.99
270.565	5861.83
270.943	5956.79
271.32	6048.69
271.697	6142.02
272.075	6238.1
272.452	6339.4
272.829	6438.32
273.207	6543.32
273.584	6650.79
273.961	6762.32
274.338	6878.25
274.715	7001.35
275.092	7121.79
275.469	7244.96
275.846	7366.22
276.223	7487.89
276.6	7610.1
276.977	7739.99
277.354	7867.79
277.731	7992.6
278.108	8129.11
278.484	8261.21
278.861	8393.05
279.238	8533.66
279.614	8673.4
279.991	8815.82
280.367	8959.21
280.744	9110.19
281.12	9261.08
281.497	9409.37
281.873	9560.05
282.249	9708.53
282.625	9850.54
283.002	9999.11
283.378	10146.81
283.754	10299.32
284.13	10455.58
284.506	10618.11
284.882	10771.36
285.258	10929.78
285.634	11094.26
286.01	11252.38
286.386	11416.93
286.762	11584.64
287.138	11749.64
287.513	11916.42
287.889	12080.47
288.265	12246.19
288.641	12406.65
289.016	12564.94
289.392	12728.59
289.767	12894.8
290.143	13067.11
290.518	13232.53
290.894	13393.89
291.269	13555.43
291.644	13717.77
292.02	13871.32
292.395	14021.28
292.77	14181.18
293.145	14336.83
293.52	14494.96
293.895	14644.84
294.27	14801.62
294.646	14958.23
295.02	15105.62
295.395	15261.76
295.77	15419.08
296.145	15573.5
296.52	15728.39
296.895	15888.36
297.269	16046.72
297.644	16198.5
298.019	16349.11
298.393	16506.81
298.768	16661.98
299.143	16818.44
299.517	16971.1
299.891	17131.53
300.266	17291.94
300.64	17452.1
301.015	17619
301.389	17789.49
301.763	17966.01
302.137	18139.42
302.512	18316.62
302.886	18500.43
303.26	18681.97
303.634	18863.5
304.008	19046.28
304.382	19232.84
304.756	19422.36
305.13	19608.48
305.504	19792.89
305.877	19988.38
306.251	20193.24
306.625	20403.07
306.999	20617.11
307.372	20835.89
307.746	21059.53
308.119	21280.35
308.493	21497.2
308.866	21717.06
309.24	21934.99
309.613	22142.67
309.987	22356.34
310.36	22554.26
310.733	22762.46
311.107	22981.03
311.48	23205.56
311.853	23440.96
312.226	23672.06
312.599	23901.25
312.972	24138.16
313.345	24377.74
313.718	24607
314.091	24831.41
314.464	25064.21
314.837	25294.47
315.21	25512.51
315.582	25732.89
315.955	25948.89
316.328	26170.96
316.7	26382.62
317.073	26605.85
317.446	26836.61
317.818	27066.36
318.191	27303.22
318.563	27534.67
318.936	27744.92
319.308	27951.59
319.68	28155.17
320.053	28354.96
320.425	28547.43
320.797	28726.85
321.169	28889.25
321.541	29037.73
321.913	29171.38
322.285	29286.7
322.657	29409.41
323.029	29559.56
323.401	29700.38
323.773	29866.52
324.145	30044.73
324.517	30232.46
324.889	30410.1
325.26	30612.95
325.632	30827.51
326.004	31069.96
326.375	31326.05
326.747	31608.86
327.118	31913.71
327.49	32207.59
327.861	32520.05
328.233	32824
328.604	33136.52
328.975	33453.34
329.346	33767.25
329.718	34081.78
330.089	34394.75
330.46	34692.74
330.831	34966.98
331.202	35227.86
331.573	35481.78
331.944	35706.62
332.315	35941.45
332.686	36164.43
333.057	36364.71
333.428	36545.65
333.799	36717.27
334.169	36878.08
334.54	37020.07
334.911	37136.12
335.281	37266.81
335.652	37386.47
336.022	37526.05
336.393	37672.05
336.763	37845.72
337.134	38035.09
337.504	38240.23
337.874	38442.69
338.245	38650.61
338.615	38868.84
338.985	39101.26
339.355	39321.93
339.726	39553.21
340.096	39775
340.466	40027.28
340.836	40270.55
341.206	40522.79
341.576	40772.06
341.945	41013.94
342.315	41245.83
342.685	41492.72
343.055	41743.96
343.425	41991.28
343.794	42232.99
344.164	42470.85
344.533	42702.28
344.903	42930.77
345.273	43166.79
345.642	43400.73
346.011	43634.04
346.381	43867.61
346.75	44100.59
347.12	44355.96
347.489	44606.74
347.858	44859.7
348.227	45070.41
348.596	45298.36
348.965	45536.61
349.334	45766.86
349.704	46011.35
350.072	46268.58
350.441	46501.83
350.81	46749.55
351.179	46988.8
351.548	47222.54
351.917	47442.37
352.285	47637.71
352.654	47846.08
353.023	48052.04
353.391	48251.51
353.76	48468.64
354.129	48665.41
354.497	48903.85
354.865	49121.52
355.234	49352.75
355.602	49567.65
355.971	49816.38
356.339	50034.06
356.707	50247.67
357.075	50466.6
357.443	50688.86
357.811	50897.81
358.18	51110.78
358.548	51311.43
358.916	51514.84
359.284	51730.53
359.651	51951.53
360.019	52170.94
360.387	52375.73
360.755	52577.02
361.123	52809.96
361.49	53035.22
361.858	53245.56
362.226	53437.8
362.593	53635.72
362.961	53817.82
363.328	54019.14
363.696	54186.85
364.063	54406.45
364.43	54616.62
364.798	54831.83
365.165	55008.84
365.532	55190.92
365.899	55379.02
366.267	55542.46
366.634	55693.4
367.001	55862.43
367.368	55999.81
367.735	56186.02
368.102	56366.65
368.469	56557.89
368.835	56734.35
369.202	56891.89
369.569	57088.27
369.936	57284.88
370.303	57473.93
370.669	57669.49
371.036	57833.22
371.402	58044.06
371.769	58224.6
372.135	58378.65
372.502	58501.35
372.868	58645.86
373.235	58789.27
373.601	58928.79
373.967	59104.86
374.333	59293.51
374.7	59473.18
375.066	59680.13
375.432	59865.63
375.798	60044.38
376.164	60217.77
376.53	60366.18
376.896	60544.19
377.262	60718.04
377.628	60845.43
377.993	60993.07
378.359	61145.14
378.725	61308.71
379.091	61462.3
379.456	61597.01
379.822	61730.41
380.187	61882.59
380.553	62078.21
380.918	62282.93
381.284	62469.27
381.649	62646.56
382.015	62789.34
382.38	62913.61
382.745	63088.98
383.11	63250.82
383.476	63402.01
383.841	63533.38
384.206	63702.99
384.571	63822.93
384.936	63960.71
385.301	64133.82
385.666	64273.87
386.031	64429.12
386.396	64585.65
386.76	64738.19
387.125	64938.25
387.49	65148.04
387.855	65347.92
388.219	65518.87
388.584	65692.25
388.948	65883.22
389.313	66042.98
389.677	66251.23
390.042	66488.76
390.406	66645.82
390.771	66831.09
391.135	67017.58
391.499	67251.4
391.863	67478.64
392.227	67722.58
392.592	67921.86
392.956	68128.93
393.32	68327.72
393.684	68547.62
394.048	68729.42
394.412	68908.26
394.775	69056.48
395.139	69202.69
395.503	69362.81
395.867	69511.06
396.231	69652.93
396.594	69761.25
396.958	69912.61
397.321	70075.98
397.685	70199.86
398.048	70341.93
398.412	70476.31
398.775	70620.69
399.139	70746.84
399.502	70863.78
399.865	71007.9
400.228	71213.3
400.592	71342.59
400.955	71544.77
401.318	71681
401.681	71848.67
402.044	71987.14
402.407	72140.85
402.77	72300.76
403.133	72497.65
403.496	72651.74
403.859	72810.16
404.221	73048.55
404.584	73289.94
404.947	73538.75
405.309	73760.87
405.672	74004.53
406.034	74238.56
406.397	74490.91
406.759	74720.56
407.122	74917.69
407.484	75097.02
407.847	75278.18
408.209	75527.55
408.571	75748.24
408.933	76002.32
409.296	76259.48
409.658	76520.95
410.02	76786.2
410.382	77068.76
410.744	77295.26
411.106	77556.44
411.468	77806.22
411.83	78011.52
412.191	78174.61
412.553	78306.7
412.915	78468.98
413.277	78622.18
413.638	78766.64
414	78891.53
414.361	79018.25
414.723	79176.76
415.084	79332.68
415.446	79442.97
415.807	79530.9
416.169	79588.82
416.53	79631.76
416.891	79679.52
417.252	79733.6
417.614	79764.28
417.975	79777.2
418.336	79796.8
418.697	79816.38
419.058	79832.35
419.419	79844.17
419.78	79855.62
420.141	79865.61
420.501	79875.2
420.862	79883.67
421.223	79889.09
421.584	79903.64
421.944	79910.35
422.305	79914.37
422.666	79918.21
423.026	79920.24
423.387	79925.29
423.747	79930.42
424.107	79936.03
424.468	79940.05
424.828	79943.56
425.188	79947.51
425.549	79952.09
425.909	79954.71
426.269	79953.2
426.629	79955.93
426.989	79956.86
427.349	79958.92
427.709	79960.07
428.069	79960.7
428.429	79963.02
428.789	79967.49
429.149	79972.15
429.508	79974.7
429.868	79979.13
430.228	79981.12
430.587	79983.3
430.947	79985.93
431.306	79989.32
431.666	79991.58
432.025	79994.65
432.385	79994.94
432.744	79994.57
433.103	79995.72
433.463	79996.57
433.822	79999.6
434.181	80001.74
434.54	80004.33
434.899	80008.61
435.258	80012.86
435.618	80014.6
435.976	80017.11
436.335	80018.11
436.694	80017.15
437.053	80017.33
437.412	80018.37
437.771	80019.22
438.129	80021.44
438.488	80021.29
438.847	80021.77
439.205	80020.96
439.564	80019.92
439.922	80019.85
440.281	80021.4
440.639	80022.4
440.997	80022.4
441.356	80024.43
441.714	80025.24
442.072	80024.25
442.431	80023.99
442.789	80022.36
443.147	80022.69
443.505	80023.47
443.863	80023.84
444.221	80022.8
444.579	80023.14
444.937	80023.99
445.294	80023.73
445.652	80022.95
446.01	80024.39
446.368	80026.61
446.725	80028.54
447.083	80028.46
447.441	80027.8
447.798	80028.5
448.156	80028.87
448.513	80029.57
448.87	80029.5
449.228	80028.5
449.585	80029.94
449.942	80029.61
450.3	80031.09
450.657	80031.46
451.014	80031.83
451.371	80032.34
451.728	80033.82
452.085	80034.01
452.442	80034.3
452.799	80034.93
453.156	80035.71
453.513	80036.01
453.869	80034.38
454.226	80034.64
454.583	80035.56
454.939	80038.19
455.296	80038.78
455.653	80039.26
456.009	80039.48
456.366	80039.44
456.722	80040.22
457.078	80041.14
457.435	80042.48
457.791	80042.66
458.147	80043.36
458.503	80043.47
458.86	80044.1
459.216	80042.99
459.572	80043.95
459.928	80043.55
460.284	80044.36
460.64	80045.21
460.996	80045.58
461.351	80045.73
461.707	80045.17
462.063	80045.1
462.419	80043.95
462.774	80044.29
463.13	80043.44
463.486	80044.18
463.841	80044.36
464.197	80045.51
464.552	80044.47
464.908	80043.33
465.263	80044.55
465.618	80045.21
465.974	80044.47
466.329	80042.51
466.684	80044.58
467.039	80042.92
467.394	80042.73
467.749	80042.88
468.104	80042.29
468.459	80042.55
468.814	80042.88
469.169	80043.03
469.524	80043.18
469.879	80045.03
470.233	80043.44
470.588	80044.03
470.943	80045.4
471.297	80047.28
471.652	80048.32
472.006	80049.21
472.361	80050.39
472.715	80049.95
473.07	80049.35
473.424	80050.98
473.778	80054.2
474.133	80054.64
474.487	80056.05
474.841	80057.27
475.195	80058.9
475.549	80060.16
475.903	80060.78
476.257	80061.52
476.611	80062.82
476.965	80064.37
477.319	80065.82
477.673	80067.78
478.026	80069.51
478.38	80069
478.734	80069.18
479.087	80070.07
479.441	80070.07
479.795	80070.03
480.148	80071.18
480.502	80072.44
480.855	80073.62
481.208	80073.77
481.562	80073.66
481.915	80076.25
482.268	80075.58
482.621	80075.36
482.974	80075.88
483.328	80076.4
483.681	80075.88
484.034	80075.14
484.387	80074.44
484.739	80073.88
485.092	80074.95
485.445	80075.03
485.798	80076.47
486.151	80077.84
486.503	80076.95
486.856	80078.25
487.209	80079.73
487.561	80079.88
487.914	80081.17
488.266	80079.77
488.618	80078.4
488.971	80079.17
489.323	80076.47
489.675	80077.43
490.028	80077.21
490.38	80075.92
490.732	80074.36
491.084	80075.99
491.436	80078.29
491.788	80079.62
492.14	80079.43
492.492	80078.95
492.844	80079.06
493.196	80077.4
493.548	80076.43
493.899	80076.66
494.251	80075.92
494.603	80075.92
494.954	80073.96
495.306	80071.96
495.657	80073.29
496.009	80073.22
496.36	80073.7
496.712	80075.62
497.063	80075.21
497.414	80076.36
497.765	80078.84
498.117	80080.32
498.468	80081.28
498.819	80080.25
499.17	80080.36
499.521	80081.25
499.872	80082.02
500.223	80081.99
500.574	80083.35
500.924	80084.39
501.275	80084.95
501.626	80085.43
501.977	80084.58
502.327	80084.95
502.678	80085.2
503.029	80084.24
503.379	80084.24
503.73	80084.43
504.08	80083.58
504.43	80084.69
504.781	80084.65
505.131	80083.76
505.481	80082.76
505.831	80082.5
506.182	80080.91
506.532	80080.36
506.882	80079.21
507.232	80078.17
507.582	80077.1
507.932	80076.14
508.281	80076.47
508.631	80075.47
508.981	80075.1
509.331	80074.73
509.681	80076.47
510.03	80077.03
510.38	80076.43
510.729	80077.88
511.079	80076.55
511.428	80076.47
511.778	80072.81
512.127	80072
512.476	80073.62
512.826	80073.88
513.175	80073.77
513.524	80076.21
513.873	80077.73
514.222	80080.1
514.571	80078.92
514.92	80078.88
515.269	80078.58
515.618	80076.99
515.967	80076.88
516.316	80078.44
516.665	80077.84
517.014	80076.92
517.362	80074.55
517.711	80075.25
518.059	80074.81
518.408	80074.96
518.757	80073.96
519.105	80076.92
519.453	80076.4
519.802	80075.44
520.15	80075.73
520.498	80074.7
520.847	80074.36
521.195	80071.92
521.543	80070
521.891	80071.51
522.239	80071.14
522.587	80072.62
522.935	80072.18
523.283	80070.81
523.631	80068.22
523.979	80069.55
524.326	80070.26
524.674	80072.48
525.022	80072.92
525.369	80073.18
525.717	80072.62
526.064	80072.25
526.412	80071.22
526.759	80072.4
527.107	80070.92
527.454	80070.51
527.801	80070.22
528.149	80069.26
528.496	80070.48
528.843	80071.29
529.19	80070.48
529.537	80072.4
529.884	80073.14
530.231	80074.18
530.578	80075.1
530.925	80076.03
531.272	80075.36
531.619	80074.25
531.966	80074.25
532.312	80073.66
532.659	80073.29
533.006	80074.47
533.352	80076.06
533.699	80076.21
534.045	80075.21
534.392	80073.18
534.738	80073.85
535.084	80075.14
535.431	80074.62
535.777	80074.92
536.123	80074.7
536.469	80076.62
536.815	80075.07
537.161	80073.55
537.507	80072.07
537.853	80074.22
538.199	80074.33
538.545	80075.4
538.891	80076.51
539.237	80076.99
539.582	80077.32
539.928	80076.88
540.274	80076.29
540.619	80076.44
540.965	80074.84
541.31	80075.81
541.656	80078.73
542.001	80079.32
542.347	80077.4
542.692	80078.95
543.037	80078.54
543.382	80078.32
543.728	80077.69
544.073	80078.21
544.418	80077.1
544.763	80077.06
545.108	80075.14
545.453	80075.44
545.798	80075.73
546.142	80075.03
546.487	80073.84
546.832	80074.14
547.177	80075.18
547.521	80075.84
547.866	80075.36
548.211	80077.54
548.555	80075.44
548.9	80075.07
549.244	80074.29
549.588	80074.77
549.933	80074.18
550.277	80074.95
550.621	80073.88
550.965	80071.66
551.31	80070
551.654	80071.66
551.998	80072.92
552.342	80073.29
552.686	80073.73
553.03	80072.11
553.373	80072.66
553.717	80072.55
554.061	80071.59
554.405	80071.07
554.748	80071.03
555.092	80071.85
555.436	80071.74
555.779	80073.55
556.123	80072.77
556.466	80072.51
556.81	80072.66
557.153	80071.7
557.496	80069.77
557.839	80072.29
558.183	80073.7
558.526	80073.25
558.869	80072.44
559.212	80071.99
559.555	80071.7
559.898	80071.81
560.241	80071.99
560.584	80071.33
560.927	80072.03
561.269	80072.29
561.612	80072.07
561.955	80071.66
562.297	80071.07
562.64	80070.85
562.983	80070.88
563.325	80072.36
563.668	80072.03
564.01	80072.62
564.352	80072.07
564.695	80071.81
565.037	80070.59
565.379	80071.03
565.721	80073.33
566.063	80074.07
566.406	80075.25
566.748	80075.84
567.09	80075.92
567.431	80075.21
567.773	80075.4
568.115	80074.29
568.457	80074.14
568.799	80075.18
569.14	80075.25
569.482	80075.18
569.824	80075.14
570.165	80074.62
570.507	80072.62
570.848	80072.55
571.19	80072.73
571.531	80073.36
571.872	80073.7
572.214	80073.33
572.555	80072.99
572.896	80071.55
573.237	80070.55
573.578	80067.63
573.919	80065.78
574.26	80065.33
574.601	80066.89
574.942	80064.71
575.283	80065.78
575.624	80065.71
575.964	80063.08
576.305	80061.64
576.646	80061.93
576.986	80061.86
577.327	80061.01
577.667	80062.56
578.008	80063.67
578.348	80063.34
578.689	80062.71
579.029	80061.34
579.369	80060.64
579.71	80060.45
580.05	80061.64
580.39	80061.49
580.73	80060.64
581.07	80062.41
581.41	80063.12
581.75	80060.19
582.09	80060.31
582.43	80060.56
582.769	80059.79
583.109	80061.34
583.449	80060.53
583.789	80060.6
584.128	80060.6
584.468	80060.42
584.807	80061.08
585.147	80059.01
585.486	80057.98
585.825	80059.08
