Data from 24HourExp_27052025_FLMS018081_06-08-20-048.txt Node
Date: Wed May 28 06:08:20 BST 2025
User: adleo
Spectrometer: FLMS01808
Trigger mode: 0
Integration Time (sec): 4.000000E-1
Scans to average: 10
Electric dark correction enabled: true
Nonlinearity correction enabled: true
Boxcar width: 10
XAxis mode: Wavelengths
Number of Pixels in Spectrum: 2048
>>>>>Begin Spectral Data<<<<<
178.471	-124.13
178.857	-116.93
179.244	-110.65
179.631	-100.61
180.017	-93.17
180.404	-84.63
180.79	-73.72
181.176	-64.94
181.563	-57.53
181.949	-47.75
182.335	-37.72
182.722	-22.69
183.108	-4.69
183.494	20.9
183.88	74.85
184.266	128.53
184.653	183.95
185.039	238.15
185.425	294.79
185.811	347.85
186.197	400.66
186.582	452.95
186.968	504.37
187.354	557.52
187.74	605.47
188.126	655.04
188.511	704.94
188.897	752
189.283	799.33
189.668	845.22
190.054	891.04
190.439	936.32
190.825	979.21
191.21	1019.97
191.596	1053.26
191.981	1059.49
192.366	1062.18
192.752	1064.01
193.137	1067.94
193.522	1068.33
193.908	1070.82
194.293	1073.58
194.678	1075.69
195.063	1076.8
195.448	1078.64
195.833	1080.46
196.218	1081.87
196.603	1080.25
196.988	1079.69
197.373	1081.19
197.757	1082.4
198.142	1080.95
198.527	1079.93
198.912	1081.06
199.296	1081.26
199.681	1081.36
200.066	1080
200.45	1081.6
200.835	1082.09
201.219	1081.86
201.604	1080.94
201.988	1080.65
202.372	1081
202.757	1079.2
203.141	1080.18
203.525	1079.26
203.91	1079.5
204.294	1080
204.678	1081
205.062	1081.93
205.446	1080.93
205.83	1082.52
206.214	1083.18
206.598	1082.6
206.982	1082.51
207.366	1081.54
207.75	1081.65
208.134	1084.06
208.517	1084.15
208.901	1084.99
209.285	1085.82
209.669	1088.23
210.052	1090.51
210.436	1089.25
210.819	1091.66
211.203	1091.98
211.586	1092.54
211.97	1093.49
212.353	1093.63
212.737	1096.83
213.12	1097.76
213.503	1098.88
213.886	1099.1
214.27	1101.09
214.653	1102.95
215.036	1103.95
215.419	1106.1
215.802	1109.6
216.185	1112.72
216.568	1116.03
216.951	1119.15
217.334	1121.66
217.717	1124.91
218.1	1126.31
218.482	1130.8
218.865	1134.36
219.248	1139.49
219.631	1143.79
220.013	1148.02
220.396	1154.27
220.778	1157.86
221.161	1162.84
221.544	1168.68
221.926	1177.19
222.308	1184.19
222.691	1192.03
223.073	1202.26
223.455	1210.72
223.838	1218.73
224.22	1228.2
224.602	1236.96
224.984	1248.13
225.366	1259.11
225.749	1272.67
226.131	1284.55
226.513	1298.27
226.895	1312.83
227.276	1324.6
227.658	1338.54
228.04	1353.88
228.422	1369.64
228.804	1385.83
229.186	1402.7
229.567	1420.77
229.949	1437.62
230.331	1454.14
230.712	1472.4
231.094	1488.03
231.475	1507.16
231.857	1526.38
232.238	1543.96
232.62	1564.29
233.001	1581.83
233.382	1603.91
233.763	1622.38
234.145	1643.72
234.526	1662.45
234.907	1681.22
235.288	1701.66
235.669	1722.88
236.05	1742.06
236.431	1760.6
236.812	1780.99
237.193	1800.69
237.574	1821.2
237.955	1842.49
238.336	1865.32
238.717	1887.13
239.097	1913.07
239.478	1935.68
239.859	1958.35
240.239	1984.31
240.62	2007.65
241.001	2030.88
241.381	2053.85
241.762	2076.55
242.142	2099.19
242.522	2124.05
242.903	2148.13
243.283	2176.11
243.663	2202.97
244.044	2230.11
244.424	2258.57
244.804	2286.45
245.184	2316.99
245.564	2345.34
245.944	2373.19
246.324	2402.68
246.704	2432.21
247.084	2459.25
247.464	2489.2
247.844	2518.55
248.224	2546.03
248.604	2577.08
248.983	2609.26
249.363	2640.05
249.743	2669.93
250.122	2702.78
250.502	2731.42
250.882	2762.98
251.261	2794.02
251.641	2824.13
252.02	2856.04
252.399	2890.75
252.779	2926.88
253.158	2962.73
253.537	3000.75
253.917	3042.23
254.296	3079.04
254.675	3117.92
255.054	3155.12
255.433	3198.38
255.812	3238.64
256.191	3280.26
256.57	3321.33
256.949	3363.3
257.328	3407.29
257.707	3451.4
258.086	3495.5
258.465	3545.92
258.843	3595.84
259.222	3647.06
259.601	3697.08
259.979	3752.79
260.358	3806.03
260.736	3857.62
261.115	3912.52
261.493	3966.12
261.872	4017.41
262.25	4076.38
262.629	4131.59
263.007	4191.56
263.385	4249.48
263.763	4312.48
264.142	4375.96
264.52	4440.75
264.898	4507.83
265.276	4573.42
265.654	4642.03
266.032	4712.83
266.41	4780.91
266.788	4852.51
267.166	4926.55
267.544	5005.38
267.921	5081.08
268.299	5159.11
268.677	5237.69
269.055	5321.17
269.432	5405.03
269.81	5491.22
270.188	5575.36
270.565	5663.42
270.943	5756.48
271.32	5847.07
271.697	5942.41
272.075	6037.32
272.452	6133.16
272.829	6230.83
273.207	6331.71
273.584	6433.69
273.961	6537.47
274.338	6649.62
274.715	6764.97
275.092	6880.18
275.469	6998.86
275.846	7119.36
276.223	7242.48
276.6	7365.54
276.977	7488.68
277.354	7614.7
277.731	7742.64
278.108	7875.31
278.484	8013.23
278.861	8143.6
279.238	8282.06
279.614	8418.57
279.991	8560.1
280.367	8705.81
280.744	8853.57
281.12	9001.91
281.497	9155.18
281.873	9309.03
282.249	9456.41
282.625	9603.93
283.002	9752.04
283.378	9900.79
283.754	10048.93
284.13	10203.3
284.506	10366.13
284.882	10522.98
285.258	10680.23
285.634	10834.4
286.01	10996.53
286.386	11153.07
286.762	11318.88
287.138	11482.62
287.513	11647.03
287.889	11811.96
288.265	11973.59
288.641	12131.14
289.016	12293.3
289.392	12455.98
289.767	12616.7
290.143	12783.26
290.518	12947.17
290.894	13119.37
291.269	13279.88
291.644	13443.11
292.02	13596.09
292.395	13747.35
292.77	13902.61
293.145	14061.11
293.52	14221.67
293.895	14372.5
294.27	14529.44
294.646	14682.96
295.02	14829.5
295.395	14983.23
295.77	15142.25
296.145	15296.93
296.52	15459.46
296.895	15612.4
297.269	15765.64
297.644	15921.72
298.019	16077.79
298.393	16232.32
298.768	16379.65
299.143	16533.9
299.517	16686.28
299.891	16845.82
300.266	17002.67
300.64	17165.03
301.015	17324.99
301.389	17494.74
301.763	17665.71
302.137	17834.95
302.512	18013.21
302.886	18193.17
303.26	18374.33
303.634	18548.81
304.008	18729.44
304.382	18911.94
304.756	19097.66
305.13	19281.74
305.504	19461.54
305.877	19652.51
306.251	19857.32
306.625	20059.48
306.999	20268.69
307.372	20481.57
307.746	20699.8
308.119	20917
308.493	21125.38
308.866	21338.93
309.24	21550.43
309.613	21758.16
309.987	21961.21
310.36	22156.67
310.733	22368.73
311.107	22586.42
311.48	22806.46
311.853	23036.73
312.226	23260.04
312.599	23488.37
312.972	23717.73
313.345	23949.29
313.718	24177.48
314.091	24396.15
314.464	24627.09
314.837	24848.56
315.21	25061.83
315.582	25280.86
315.955	25492.37
316.328	25710.65
316.7	25926.39
317.073	26148.13
317.446	26368.09
317.818	26606.67
318.191	26839.56
318.563	27065.2
318.936	27273.39
319.308	27476.12
319.68	27674.64
320.053	27875.29
320.425	28064.9
320.797	28245.7
321.169	28402.43
321.541	28543.42
321.913	28673.22
322.285	28791.26
322.657	28916.81
323.029	29068.62
323.401	29205.91
323.773	29372.62
324.145	29547.76
324.517	29732.5
324.889	29910.52
325.26	30116.77
325.632	30326.83
326.004	30557.49
326.375	30809.51
326.747	31090.58
327.118	31395.96
327.49	31682.06
327.861	31990.5
328.233	32299.81
328.604	32608.03
328.975	32930.61
329.346	33243.07
329.718	33555.78
330.089	33854
330.46	34147.44
330.831	34419.23
331.202	34676.86
331.573	34922.77
331.944	35154.9
332.315	35378.94
332.686	35596.06
333.057	35797.51
333.428	35980.63
333.799	36157
334.169	36314.92
334.54	36450.06
334.911	36568.74
335.281	36703.18
335.652	36817.01
336.022	36947.21
336.393	37097.9
336.763	37260.32
337.134	37449.94
337.504	37646.64
337.874	37854.48
338.245	38068.13
338.615	38285.1
338.985	38518.1
339.355	38742.61
339.726	38965.2
340.096	39193.83
340.466	39445.82
340.836	39689.14
341.206	39933.5
341.576	40177.86
341.945	40411.25
342.315	40642.83
342.685	40884.72
343.055	41129.87
343.425	41372.43
343.794	41602.88
344.164	41831.24
344.533	42067.31
344.903	42296.57
345.273	42534
345.642	42759.11
346.011	42987.61
346.381	43220.5
346.75	43450.03
347.12	43690.1
347.489	43939.41
347.858	44179.41
348.227	44387.68
348.596	44610.05
348.965	44844.06
349.334	45072.75
349.704	45322.59
350.072	45566.08
350.441	45794.73
350.81	46037.44
351.179	46267.16
351.548	46507.67
351.917	46730.54
352.285	46929.33
352.654	47130.07
353.023	47337.37
353.391	47544.4
353.76	47759.12
354.129	47944.36
354.497	48171.51
354.865	48389.42
355.234	48619.15
355.602	48840.36
355.971	49087.65
356.339	49298.11
356.707	49514.5
357.075	49732.66
357.443	49943.05
357.811	50153.87
358.18	50367.73
358.548	50574.08
358.916	50785.43
359.284	50998.48
359.651	51213.09
360.019	51428.92
360.387	51632.81
360.755	51834.88
361.123	52063.06
361.49	52285.38
361.858	52506.64
362.226	52706.64
362.593	52910.28
362.961	53089.41
363.328	53289.44
363.696	53459.52
364.063	53683.58
364.43	53888.65
364.798	54100.65
365.165	54286.38
365.532	54475.5
365.899	54662.72
366.267	54829.07
366.634	54984.34
367.001	55151.71
367.368	55287.84
367.735	55469.01
368.102	55649.53
368.469	55835.82
368.835	56007.59
369.202	56164.23
369.569	56351.27
369.936	56539.27
370.303	56723.83
370.669	56917.14
371.036	57079.55
371.402	57279.52
371.769	57456.34
372.135	57607.05
372.502	57735.39
372.868	57873.96
373.235	58012.17
373.601	58150.86
373.967	58325.67
374.333	58512.65
374.7	58691.7
375.066	58902.85
375.432	59083.94
375.798	59259.85
376.164	59422.62
376.53	59568.15
376.896	59737.33
377.262	59910.56
377.628	60043.69
377.993	60191.51
378.359	60338.78
378.725	60502.64
379.091	60655.39
379.456	60782.67
379.822	60921.31
380.187	61062.82
380.553	61245.27
380.918	61443.51
381.284	61616.67
381.649	61778.62
382.015	61910.99
382.38	62036.67
382.745	62200.41
383.11	62350.97
383.476	62490.62
383.841	62628.2
384.206	62793.53
384.571	62913.78
384.936	63045.94
385.301	63211.18
385.666	63343.43
386.031	63492.8
386.396	63647.24
386.76	63797.06
387.125	63981
387.49	64176.3
387.855	64373.04
388.219	64549.8
388.584	64714.79
388.948	64907.11
389.313	65079.42
389.677	65292.57
390.042	65528.11
390.406	65677.81
390.771	65868.99
391.135	66056.73
391.499	66281.21
391.863	66507.6
392.227	66748.33
392.592	66947.05
392.956	67146.67
393.32	67345.6
393.684	67563.63
394.048	67738.54
394.412	67920.66
394.775	68082.39
395.139	68226.81
395.503	68388.16
395.867	68537.44
396.231	68685.82
396.594	68784.64
396.958	68921.39
397.321	69074.8
397.685	69192.55
398.048	69339.45
398.412	69465.15
398.775	69590.2
399.139	69708.6
399.502	69817.79
399.865	69957.08
400.228	70148.1
400.592	70278.05
400.955	70474.93
401.318	70610.84
401.681	70782.26
402.044	70917.43
402.407	71070.94
402.77	71233.76
403.133	71422.24
403.496	71568.17
403.859	71722.54
404.221	71962.76
404.584	72192.46
404.947	72432.05
405.309	72635
405.672	72871.13
406.034	73103.29
406.397	73364.33
406.759	73592.49
407.122	73777.53
407.484	73954.52
407.847	74143.46
408.209	74394.35
408.571	74619.17
408.933	74880.07
409.296	75121.57
409.658	75362.09
410.02	75626.2
410.382	75928.93
410.744	76183.64
411.106	76467.14
411.468	76741.55
411.83	76980.57
412.191	77183.94
412.553	77358.6
412.915	77573.14
413.277	77773.4
413.638	77963.89
414	78133.53
414.361	78308.94
414.723	78528.39
415.084	78736.33
415.446	78897.31
415.807	79029.27
416.169	79132.35
416.53	79214.7
416.891	79314.26
417.252	79432.89
417.614	79508.54
417.975	79547.91
418.336	79593.75
418.697	79641.81
419.058	79681.13
419.419	79711.31
419.78	79745.6
420.141	79769.05
420.501	79791.23
420.862	79808.29
421.223	79824.08
421.584	79852.06
421.944	79870.32
422.305	79880.72
422.666	79885.88
423.026	79889.13
423.387	79897.68
423.747	79906.6
424.107	79916.93
424.468	79927.99
424.828	79933.27
425.188	79937.52
425.549	79944.16
425.909	79948.07
426.269	79947.19
426.629	79951.62
426.989	79954.87
427.349	79959.11
427.709	79961.14
428.069	79962.92
428.429	79969.45
428.789	79976.07
429.149	79980.76
429.508	79982.05
429.868	79985.75
430.228	79992.21
430.587	79996.5
430.947	80002.34
431.306	80004.85
431.666	80007.44
432.025	80007.59
432.385	80009.88
432.744	80011.84
433.103	80012.98
433.463	80016.09
433.822	80022.4
434.181	80025.54
434.54	80026.95
434.899	80029.09
435.258	80033.27
435.618	80034.04
435.976	80033.53
436.335	80032.05
436.694	80033.23
437.053	80034.23
437.412	80035.93
437.771	80034.27
438.129	80034.78
438.488	80034.3
438.847	80036.37
439.205	80036.78
439.564	80037.89
439.922	80039.07
440.281	80040.63
440.639	80043.99
440.997	80043.51
441.356	80045.14
441.714	80045.95
442.072	80047.36
442.431	80047.8
442.789	80049.1
443.147	80053.17
443.505	80056.01
443.863	80057.34
444.221	80057.53
444.579	80059.56
444.937	80060.79
445.294	80063.74
445.652	80064.59
446.01	80064.34
446.368	80064.52
446.725	80064.34
447.083	80066.15
447.441	80066.85
447.798	80067.37
448.156	80067.63
448.513	80068.41
448.87	80069.33
449.228	80068.66
449.585	80068.26
449.942	80068.37
450.3	80066.81
450.657	80065.15
451.014	80064.41
451.371	80064.67
451.728	80063.67
452.085	80062.89
452.442	80061.78
452.799	80061.01
453.156	80061.19
453.513	80060.75
453.869	80060.6
454.226	80061.08
454.583	80061.23
454.939	80060.64
455.296	80060.86
455.653	80059.19
456.009	80059.64
456.366	80059.86
456.722	80062.41
457.078	80063.19
457.435	80062.67
457.791	80061.78
458.147	80062.67
458.503	80063.12
458.86	80064.11
459.216	80065.71
459.572	80066.96
459.928	80066.7
460.284	80066.52
460.64	80066.89
460.996	80069.18
461.351	80069.77
461.707	80070.77
462.063	80069.52
462.419	80070.26
462.774	80072.18
463.13	80073.03
463.486	80073.59
463.841	80073.29
464.197	80072.03
464.552	80071.88
464.908	80073.55
465.263	80075.69
465.618	80076.62
465.974	80077.84
466.329	80077.69
466.684	80077.8
467.039	80077.62
467.394	80080.43
467.749	80081.39
468.104	80081.62
468.459	80081.99
468.814	80083.28
469.169	80083.1
469.524	80085.28
469.879	80086.54
470.233	80084.98
470.588	80086.94
470.943	80087.57
471.297	80087.17
471.652	80087.09
472.006	80089.05
472.361	80089.39
472.715	80090.02
473.07	80088.76
473.424	80089.54
473.778	80090.57
474.133	80093.16
474.487	80093.01
474.841	80092.87
475.195	80093.68
475.549	80094.9
475.903	80094.94
476.257	80096.35
476.611	80096.24
476.965	80096.94
477.319	80097.12
477.673	80097.68
478.026	80097.05
478.38	80097.64
478.734	80099.01
479.087	80101.42
479.441	80100.57
479.795	80099.68
480.148	80099.9
480.502	80100.82
480.855	80100.2
481.208	80100.42
481.562	80099.27
481.915	80100.97
482.268	80100.12
482.621	80101.38
482.974	80101.6
483.328	80102.75
483.681	80102.56
484.034	80103.97
484.387	80102.56
484.739	80103.3
485.092	80103.71
485.445	80104.38
485.798	80104.97
486.151	80106.41
486.503	80105.67
486.856	80107.38
487.209	80107.34
487.561	80108.41
487.914	80107.19
488.266	80107.86
488.618	80107.23
488.971	80108.41
489.323	80107.01
489.675	80106.67
490.028	80105.6
490.38	80103.19
490.732	80103.42
491.084	80103.12
491.436	80103.08
491.788	80104.19
492.14	80102.97
492.492	80103.68
492.844	80104.9
493.196	80105.34
493.548	80106.08
493.899	80105.71
494.251	80104.9
494.603	80104.53
494.954	80103.64
495.306	80104.93
495.657	80103.56
496.009	80104.34
496.36	80105.01
496.712	80107.86
497.063	80108.45
497.414	80108.23
497.765	80109.23
498.117	80107.19
498.468	80107.16
498.819	80107.19
499.17	80106.9
499.521	80106.97
499.872	80107.01
500.223	80106.64
500.574	80104.6
500.924	80103.38
501.275	80105.12
501.626	80105.31
501.977	80106.79
502.327	80107.08
502.678	80108.79
503.029	80111.64
503.379	80111.82
503.73	80111.41
504.08	80108.93
504.43	80108.71
504.781	80109.86
505.131	80110.67
505.481	80112.75
505.831	80112.56
506.182	80112.01
506.532	80111.86
506.882	80112.71
507.232	80112.52
507.582	80111.26
507.932	80113.04
508.281	80113.52
508.631	80110.93
508.981	80110.75
509.331	80110.45
509.681	80110.12
510.03	80108.82
510.38	80107.01
510.729	80108.01
511.079	80107.3
511.428	80107.04
511.778	80108.82
512.127	80107.38
512.476	80108.86
512.826	80108.82
513.175	80109.19
513.524	80110.08
513.873	80110.04
514.222	80111.3
514.571	80110.49
514.92	80110.56
515.269	80108.86
515.618	80108.53
515.967	80111.78
516.316	80111.49
516.665	80111.6
517.014	80111.93
517.362	80111.01
517.711	80111.45
518.059	80109.56
518.408	80110.38
518.757	80111.56
519.105	80110.6
519.453	80111.52
519.802	80111.82
520.15	80110.45
520.498	80109.45
520.847	80108.67
521.195	80109.19
521.543	80108.67
521.891	80111.27
522.239	80112.67
522.587	80113.89
522.935	80114.64
523.283	80112.97
523.631	80112.75
523.979	80114.38
524.326	80114.3
524.674	80116.04
525.022	80115.93
525.369	80116.56
525.717	80116.26
526.064	80116.52
526.412	80115.78
526.759	80116.86
527.107	80113.41
527.454	80112.97
527.801	80113.38
528.149	80114.49
528.496	80114.38
528.843	80112.64
529.19	80111.64
529.537	80110.71
529.884	80110.78
530.231	80109.34
530.578	80108.53
530.925	80109.6
531.272	80108.15
531.619	80109.04
531.966	80108.04
532.312	80106.82
532.659	80105.3
533.006	80104.68
533.352	80103.31
533.699	80103.6
534.045	80102.08
534.392	80102.49
534.738	80104.12
535.084	80104.05
535.431	80103.23
535.777	80102.31
536.123	80103.9
536.469	80103.38
536.815	80102.16
537.161	80101.71
537.507	80101.75
537.853	80102.93
538.199	80100.82
538.545	80101.16
538.891	80101.45
539.237	80102.05
539.582	80103.16
539.928	80103.97
540.274	80102.9
540.619	80104.82
540.965	80104.6
541.31	80104.34
541.656	80106.12
542.001	80105.75
542.347	80105.82
542.692	80106.53
543.037	80107.9
543.382	80108.15
543.728	80108.86
544.073	80109.38
544.418	80108.71
544.763	80107.34
545.108	80106.49
545.453	80109.19
545.798	80109.52
546.142	80108.56
546.487	80109.08
546.832	80109.56
547.177	80110.56
547.521	80110.86
547.866	80109.41
548.211	80109.04
548.555	80108.75
548.9	80108.3
549.244	80107.56
549.588	80108.01
549.933	80106.05
550.277	80107.34
550.621	80105.97
550.965	80104.53
551.31	80103.94
551.654	80105.38
551.998	80107.86
552.342	80107.27
552.686	80107.16
553.03	80106.75
553.373	80106.82
553.717	80106.71
554.061	80105.05
554.405	80104.16
554.748	80105.01
555.092	80106.12
555.436	80108.49
555.779	80109.34
556.123	80110.3
556.466	80109.01
556.81	80110.64
557.153	80112.34
557.496	80110.53
557.839	80110.64
558.183	80110.6
558.526	80111.49
558.869	80109.45
559.212	80109.3
559.555	80110.78
559.898	80110.12
560.241	80109.01
560.584	80109.6
560.927	80108.12
561.269	80108.86
561.612	80109.97
561.955	80109.01
562.297	80108.64
562.64	80107.56
562.983	80106.6
563.325	80106.08
563.668	80106.53
564.01	80103.16
564.352	80101.94
564.695	80101.49
565.037	80100.38
565.379	80100.79
565.721	80101.49
566.063	80102.34
566.406	80103.45
566.748	80103.12
567.09	80102.68
567.431	80103.68
567.773	80103.9
568.115	80104.56
568.457	80103.82
568.799	80103.68
569.14	80102.64
569.482	80103.97
569.824	80102.79
570.165	80104.01
570.507	80103.12
570.848	80104.23
571.19	80104.05
571.531	80104.97
571.872	80106.12
572.214	80108.27
572.555	80108.01
572.896	80105.71
573.237	80104.94
573.578	80101.42
573.919	80100.42
574.26	80099.75
574.601	80100.38
574.942	80098.79
575.283	80097.86
575.624	80096.53
575.964	80096.05
576.305	80097.83
576.646	80097.09
576.986	80097.16
577.327	80095.38
577.667	80094.68
578.008	80094.61
578.348	80096.16
578.689	80095.27
579.029	80093.9
579.369	80092.46
579.71	80092.87
580.05	80093.09
580.39	80094.09
580.73	80094.5
581.07	80094.42
581.41	80094.75
581.75	80093.75
582.09	80093.53
582.43	80092.64
582.769	80093.27
583.109	80091.76
583.449	80090.79
583.789	80087.87
584.128	80088.68
584.468	80089.53
584.807	80088.5
585.147	80087.72
585.486	80088.02
585.825	80087.13
