Data from 24HourExp_27052025_FLMS018081_11-08-22-253.txt Node
Date: Tue May 27 11:08:22 BST 2025
User: adleo
Spectrometer: FLMS01808
Trigger mode: 0
Integration Time (sec): 4.000000E-1
Scans to average: 10
Electric dark correction enabled: true
Nonlinearity correction enabled: true
Boxcar width: 10
XAxis mode: Wavelengths
Number of Pixels in Spectrum: 2048
>>>>>Begin Spectral Data<<<<<
178.471	-128.96
178.857	-121.44
179.244	-115.39
179.631	-106.68
180.017	-99.66
180.404	-92.66
180.79	-82.42
181.176	-72.72
181.563	-63.7
181.949	-54.11
182.335	-42.41
182.722	-26.07
183.108	-6.89
183.494	19.86
183.88	73.7
184.266	125.31
184.653	182
185.039	234.45
185.425	289.24
185.811	339.95
186.197	390.63
186.582	441.93
186.968	492.88
187.354	544.48
187.74	596.43
188.126	646.8
188.511	697.4
188.897	744.15
189.283	789.68
189.668	834.94
190.054	878.94
190.439	922.5
190.825	964.17
191.21	1004.42
191.596	1038.62
191.981	1045.1
192.366	1050.46
192.752	1050.81
193.137	1054.37
193.522	1055.73
193.908	1058.11
194.293	1063.35
194.678	1064.94
195.063	1066.71
195.448	1068.13
195.833	1065.29
196.218	1065.43
196.603	1065
196.988	1065.12
197.373	1066.15
197.757	1065.79
198.142	1067.12
198.527	1063.67
198.912	1064.32
199.296	1064.26
199.681	1061.36
200.066	1060.46
200.45	1061.08
200.835	1061.46
201.219	1061.82
201.604	1061.67
201.988	1064.38
202.372	1063.56
202.757	1065.31
203.141	1065.88
203.525	1066.31
203.91	1068.56
204.294	1068.93
204.678	1069.98
205.062	1070.3
205.446	1069.97
205.83	1071.51
206.214	1070.86
206.598	1072.91
206.982	1075.38
207.366	1075.23
207.75	1077.65
208.134	1080.53
208.517	1080.28
208.901	1080.56
209.285	1082.33
209.669	1082.98
210.052	1081.06
210.436	1079.89
210.819	1079.75
211.203	1080.75
211.586	1081.41
211.97	1081.5
212.353	1081.84
212.737	1083.49
213.12	1085.59
213.503	1087.68
213.886	1089.57
214.27	1090.09
214.653	1091.21
215.036	1092.23
215.419	1093.85
215.802	1094.98
216.185	1094.69
216.568	1098.13
216.951	1100.45
217.334	1102.96
217.717	1105.43
218.1	1109.96
218.482	1114.34
218.865	1117.42
219.248	1120.46
219.631	1123.71
220.013	1128.48
220.396	1135.13
220.778	1137.67
221.161	1141.12
221.544	1144.54
221.926	1151.55
222.308	1159.42
222.691	1167.14
223.073	1175.1
223.455	1183.22
223.838	1192.03
224.22	1203.1
224.602	1213.16
224.984	1223.28
225.366	1230.9
225.749	1243.5
226.131	1253.92
226.513	1266.67
226.895	1278.85
227.276	1292.13
227.658	1307.39
228.04	1322.61
228.422	1336.83
228.804	1353.85
229.186	1368.54
229.567	1388
229.949	1402.59
230.331	1418.28
230.712	1432.62
231.094	1448.88
231.475	1467.01
231.857	1486.21
232.238	1504.61
232.62	1522.58
233.001	1542.49
233.382	1564.56
233.763	1582.98
234.145	1602.5
234.526	1621.38
234.907	1639.93
235.288	1658.55
235.669	1676.71
236.05	1693.74
236.431	1710.39
236.812	1729.28
237.193	1751.21
237.574	1770.72
237.955	1792.06
238.336	1813.66
238.717	1837.55
239.097	1859.23
239.478	1880.22
239.859	1899.84
240.239	1920.59
240.62	1944.13
241.001	1964.56
241.381	1987.82
241.762	2009.69
242.142	2032.68
242.522	2056.6
242.903	2082.37
243.283	2106.85
243.663	2133.41
244.044	2160.65
244.424	2189.04
244.804	2215.05
245.184	2242.41
245.564	2267.72
245.944	2293.07
246.324	2320.77
246.704	2348.96
247.084	2375.97
247.464	2405.51
247.844	2434.05
248.224	2463.68
248.604	2491.66
248.983	2519.49
249.363	2548.35
249.743	2579.9
250.122	2607.44
250.502	2635.43
250.882	2662.64
251.261	2693.53
251.641	2725.23
252.02	2754.48
252.399	2786.28
252.779	2821.8
253.158	2856.86
253.537	2893.21
253.917	2936.2
254.296	2971.44
254.675	3009.4
255.054	3047.76
255.433	3088.49
255.812	3126.94
256.191	3164.63
256.57	3204.23
256.949	3248.96
257.328	3290.56
257.707	3330.53
258.086	3375.81
258.465	3419.48
258.843	3468.68
259.222	3514.7
259.601	3561.94
259.979	3614.38
260.358	3665.84
260.736	3713.86
261.115	3767.3
261.493	3817.43
261.872	3864.42
262.25	3921.12
262.629	3974.32
263.007	4031.67
263.385	4085.04
263.763	4143.24
264.142	4205.11
264.52	4265.68
264.898	4327.02
265.276	4389.29
265.654	4454.39
266.032	4521.07
266.41	4591.44
266.788	4658.06
267.166	4733.22
267.544	4804
267.921	4875.65
268.299	4952.26
268.677	5029.34
269.055	5106.45
269.432	5190.33
269.81	5273.46
270.188	5356.7
270.565	5441.48
270.943	5531.03
271.32	5619.04
271.697	5712.19
272.075	5801.95
272.452	5895.17
272.829	5991.95
273.207	6088.9
273.584	6189.4
273.961	6292.14
274.338	6400.56
274.715	6514.69
275.092	6626.67
275.469	6744.06
275.846	6861.13
276.223	6977.24
276.6	7093.98
276.977	7214.13
277.354	7332.66
277.731	7458.58
278.108	7583.96
278.484	7712.08
278.861	7838.03
279.238	7975.77
279.614	8108.6
279.991	8249.06
280.367	8390.69
280.744	8533.44
281.12	8678.61
281.497	8824.2
281.873	8968.48
282.249	9110.44
282.625	9251.3
283.002	9395.06
283.378	9539.47
283.754	9688.48
284.13	9836.23
284.506	9995.48
284.882	10149.98
285.258	10303.37
285.634	10457.38
286.01	10615.61
286.386	10770.07
286.762	10928.22
287.138	11088.13
287.513	11253.71
287.889	11410.78
288.265	11570.51
288.641	11727.39
289.016	11883.4
289.392	12048.32
289.767	12209.81
290.143	12376.28
290.518	12535.47
290.894	12693.34
291.269	12846.55
291.644	13001.98
292.02	13156.27
292.395	13304.13
292.77	13454.32
293.145	13609.1
293.52	13756.33
293.895	13899.46
294.27	14053.64
294.646	14206.06
295.02	14345.72
295.395	14492.28
295.77	14644.02
296.145	14792.79
296.52	14942.71
296.895	15094.49
297.269	15239.59
297.644	15390.66
298.019	15534.73
298.393	15687.52
298.768	15835.99
299.143	15996.15
299.517	16147.53
299.891	16301.64
300.266	16461.49
300.64	16619.59
301.015	16781.19
301.389	16953.56
301.763	17123.91
302.137	17291.43
302.512	17469.35
302.886	17648.29
303.26	17826.31
303.634	18008.07
304.008	18179.06
304.382	18356.41
304.756	18536.78
305.13	18721.24
305.504	18890.93
305.877	19080.95
306.251	19275.04
306.625	19475.45
306.999	19674.97
307.372	19875.88
307.746	20087.8
308.119	20290.97
308.493	20494.4
308.866	20694.94
309.24	20896.3
309.613	21097.93
309.987	21302.52
310.36	21485.93
310.733	21689.43
311.107	21894.22
311.48	22100.74
311.853	22325.53
312.226	22545.59
312.599	22771.12
312.972	22987.24
313.345	23220.29
313.718	23439.52
314.091	23656.94
314.464	23879.02
314.837	24098.26
315.21	24308.19
315.582	24520.69
315.955	24732.45
316.328	24951.27
316.7	25169.2
317.073	25388.79
317.446	25611.9
317.818	25830.57
318.191	26059.9
318.563	26275.68
318.936	26484.28
319.308	26679.79
319.68	26877.86
320.053	27070.04
320.425	27250.43
320.797	27423.36
321.169	27580.4
321.541	27726.12
321.913	27852.57
322.285	27966.05
322.657	28079.35
323.029	28222.43
323.401	28357.78
323.773	28517.6
324.145	28682.89
324.517	28860.86
324.889	29029.9
325.26	29221.69
325.632	29430.31
326.004	29652.27
326.375	29899.86
326.747	30170.63
327.118	30470.58
327.49	30751.42
327.861	31053.55
328.233	31346.81
328.604	31650.05
328.975	31957.72
329.346	32257.16
329.718	32564.53
330.089	32866.64
330.46	33163.9
330.831	33432.57
331.202	33691.44
331.573	33927.3
331.944	34150.11
332.315	34373.05
332.686	34586.68
333.057	34787.66
333.428	34963.34
333.799	35135.15
334.169	35283.89
334.54	35412.1
334.911	35526.21
335.281	35655.66
335.652	35777.48
336.022	35922.02
336.393	36067.47
336.763	36232.06
337.134	36411.78
337.504	36603.34
337.874	36797.74
338.245	36994.59
338.615	37210.46
338.985	37431.28
339.355	37646.96
339.726	37862.04
340.096	38080.8
340.466	38328.15
340.836	38564.76
341.206	38807.41
341.576	39049.12
341.945	39295.85
342.315	39522.44
342.685	39759.97
343.055	39999.82
343.425	40232.99
343.794	40450.53
344.164	40681.78
344.533	40905.24
344.903	41131.91
345.273	41361.85
345.642	41589.84
346.011	41814.92
346.381	42039.29
346.75	42263.79
347.12	42500.64
347.489	42748.77
347.858	42986.09
348.227	43185.23
348.596	43399.86
348.965	43634.31
349.334	43863.73
349.704	44091.93
350.072	44338.46
350.441	44568.67
350.81	44809.46
351.179	45040.66
351.548	45278.17
351.917	45499.09
352.285	45696.01
352.654	45899.15
353.023	46102.12
353.391	46300.01
353.76	46517.92
354.129	46706.71
354.497	46939.75
354.865	47157.74
355.234	47386.85
355.602	47603.8
355.971	47853.36
356.339	48067.75
356.707	48283.89
357.075	48499.06
357.443	48721.99
357.811	48934.67
358.18	49141.62
358.548	49348.61
358.916	49558.43
359.284	49772.84
359.651	49982.33
360.019	50193.72
360.387	50394.85
360.755	50598.13
361.123	50821.64
361.49	51033.74
361.858	51247.84
362.226	51434.92
362.593	51639.35
362.961	51818.15
363.328	52018.9
363.696	52183.15
364.063	52400.29
364.43	52598.84
364.798	52805.7
365.165	52983.74
365.532	53167.63
365.899	53360.56
366.267	53526.31
366.634	53670.95
367.001	53834.4
367.368	53972.37
367.735	54155.23
368.102	54328.75
368.469	54516.99
368.835	54692.74
369.202	54851.44
369.569	55043.68
369.936	55231.18
370.303	55415.1
370.669	55609.59
371.036	55765.81
371.402	55964.17
371.769	56141.84
372.135	56293.08
372.502	56418.05
372.868	56555.22
373.235	56696.08
373.601	56822.97
373.967	56984.09
374.333	57162.95
374.7	57338.19
375.066	57534.04
375.432	57710.36
375.798	57890.39
376.164	58050.89
376.53	58192.64
376.896	58364.64
377.262	58527.48
377.628	58652.63
377.993	58795.16
378.359	58934.17
378.725	59094.15
379.091	59246.31
379.456	59371.46
379.822	59493.35
380.187	59641.5
380.553	59816.92
380.918	60003.78
381.284	60184
381.649	60349.13
382.015	60490.26
382.38	60608.77
382.745	60771.63
383.11	60923.92
383.476	61059.96
383.841	61186.52
384.206	61346.36
384.571	61461.6
384.936	61589.81
385.301	61755.47
385.666	61879.82
386.031	62021.28
386.396	62171.94
386.76	62306.38
387.125	62491.17
387.49	62689.1
387.855	62868.67
388.219	63037.14
388.584	63198.64
388.948	63377.7
389.313	63542.64
389.677	63735.64
390.042	63958.86
390.406	64106.15
390.771	64277.85
391.135	64451.26
391.499	64675.27
391.863	64887.2
392.227	65117.13
392.592	65311.94
392.956	65503.52
393.32	65692.34
393.684	65904.69
394.048	66078.95
394.412	66261.6
394.775	66403.29
395.139	66543.09
395.503	66701.56
395.867	66844.35
396.231	66985.88
396.594	67088.25
396.958	67217.29
397.321	67370.9
397.685	67488.6
398.048	67627.12
398.412	67759.31
398.775	67895.87
399.139	68018.14
399.502	68129.87
399.865	68263.94
400.228	68448.22
400.592	68572.36
400.955	68763.6
401.318	68893.72
401.681	69041.52
402.044	69177.22
402.407	69329.09
402.77	69482.56
403.133	69667.87
403.496	69807.57
403.859	69956.05
404.221	70181.79
404.584	70407.6
404.947	70638.55
405.309	70840.78
405.672	71065.89
406.034	71292.9
406.397	71537.45
406.759	71741.32
407.122	71909.85
407.484	72088.81
407.847	72271.73
408.209	72520.33
408.571	72752.01
408.933	73009.52
409.296	73241.4
409.658	73460.28
410.02	73736.37
410.382	74059.61
410.744	74301.24
411.106	74567.51
411.468	74830.88
411.83	75072.35
412.191	75269.84
412.553	75451.57
412.915	75674.03
413.277	75892.01
413.638	76100.66
414	76252.68
414.361	76455.49
414.723	76722.76
415.084	76966.82
415.446	77189.71
415.807	77373.19
416.169	77526.32
416.53	77664.99
416.891	77839.3
417.252	78037.81
417.614	78173.97
417.975	78267.43
418.336	78393
418.697	78536.16
419.058	78662.1
419.419	78766.42
419.78	78884.59
420.141	78985.25
420.501	79078.29
420.862	79165.05
421.223	79238.4
421.584	79363.63
421.944	79440.38
422.305	79496.37
422.666	79540.95
423.026	79565.78
423.387	79607.02
423.747	79643.05
424.107	79683.73
424.468	79720.55
424.828	79745.96
425.188	79762.3
425.549	79780.39
425.909	79796.29
426.269	79800.96
426.629	79812.55
426.989	79822.5
427.349	79834.81
427.709	79844.2
428.069	79850.47
428.429	79860.75
428.789	79873.73
429.149	79882.95
429.508	79891.17
429.868	79900.66
430.228	79909.88
430.587	79916.7
430.947	79925.52
431.306	79934.96
431.666	79938.88
432.025	79946.26
432.385	79953.02
432.744	79956.82
433.103	79961.59
433.463	79966.13
433.822	79978.66
434.181	79984.61
434.54	79989.3
434.899	79990.34
435.258	79994.44
435.618	79998.57
435.976	80003.89
436.335	80004.3
436.694	80005.59
437.053	80008.55
437.412	80009.95
437.771	80011.4
438.129	80014.2
438.488	80016.05
438.847	80018.64
439.205	80021.97
439.564	80020.67
439.922	80021.08
440.281	80021.19
440.639	80022.11
440.997	80022.59
441.356	80024.37
441.714	80025.51
442.072	80025.88
442.431	80027.95
442.789	80029.21
443.147	80030.47
443.505	80031.69
443.863	80034.87
444.221	80034.28
444.579	80033.8
444.937	80034.61
445.294	80035.83
445.652	80037.98
446.01	80037.31
446.368	80037.01
446.725	80036.83
447.083	80037.64
447.441	80037.75
447.798	80038.68
448.156	80039.6
448.513	80039.97
448.87	80040.71
449.228	80040.9
449.585	80040.16
449.942	80039.38
450.3	80039.97
450.657	80038.97
451.014	80038.46
451.371	80037.01
451.728	80040.64
452.085	80043.01
452.442	80043.08
452.799	80043.82
453.156	80041.78
453.513	80042.71
453.869	80044.48
454.226	80045.41
454.583	80047.59
454.939	80049.29
455.296	80049.48
455.653	80049.18
456.009	80050.62
456.366	80050.74
456.722	80050.92
457.078	80051.81
457.435	80052.55
457.791	80053.03
458.147	80053.58
458.503	80053.92
458.86	80054.4
459.216	80052.66
459.572	80051.51
459.928	80050.18
460.284	80051.4
460.64	80050.96
460.996	80050.18
461.351	80047.55
461.707	80047.18
462.063	80046.52
462.419	80046.81
462.774	80047.18
463.13	80047.55
463.486	80046.63
463.841	80046.89
464.197	80046.15
464.552	80047.44
464.908	80047.33
465.263	80047.74
465.618	80048.85
465.974	80049.18
466.329	80049.07
466.684	80051.36
467.039	80050.85
467.394	80050.33
467.749	80050.07
468.104	80053.84
468.459	80056.99
468.814	80059.32
469.169	80060.13
469.524	80061.02
469.879	80059.5
470.233	80060.5
470.588	80061.09
470.943	80062.42
471.297	80064.83
471.652	80067.23
472.006	80066.57
472.361	80067.83
472.715	80069.16
473.07	80070.75
473.424	80070.27
473.778	80072.04
474.133	80071.3
474.487	80072.71
474.841	80074.23
475.195	80075.3
475.549	80072.45
475.903	80071.19
476.257	80071.97
476.611	80072.12
476.965	80071.16
477.319	80073.63
477.673	80074.74
478.026	80076.11
478.38	80075.89
478.734	80075.41
479.087	80076.6
479.441	80078.11
479.795	80079.15
480.148	80077.93
480.502	80079
480.855	80082
481.208	80082.04
481.562	80082.55
481.915	80083.18
482.268	80084.48
482.621	80083.63
482.974	80086.4
483.328	80088.36
483.681	80090.03
484.034	80091.21
484.387	80092.58
484.739	80091.18
485.092	80090.95
485.445	80091.47
485.798	80093.06
486.151	80093.77
486.503	80093.88
486.856	80094.51
487.209	80094.47
487.561	80095.17
487.914	80093.28
488.266	80092.17
488.618	80093.77
488.971	80092.73
489.323	80092.77
489.675	80093.95
490.028	80095.8
490.38	80096.51
490.732	80096.36
491.084	80094.73
491.436	80094.43
491.788	80093.43
492.14	80093.58
492.492	80094.51
492.844	80094.43
493.196	80093.43
493.548	80092.21
493.899	80092.54
494.251	80092.51
494.603	80092.58
494.954	80092.95
495.306	80093.54
495.657	80092.8
496.009	80091.66
496.36	80092.62
496.712	80093.03
497.063	80091.58
497.414	80090.51
497.765	80090.88
498.117	80089.62
498.468	80090.73
498.819	80090.29
499.17	80090.92
499.521	80091.77
499.872	80089.47
500.223	80088.25
500.574	80089.62
500.924	80089.73
501.275	80090.03
501.626	80089.62
501.977	80089.99
502.327	80090.25
502.678	80090.29
503.029	80090.4
503.379	80090.4
503.73	80090.95
504.08	80090.06
504.43	80090.99
504.781	80091.36
505.131	80091.1
505.481	80092.77
505.831	80093.69
506.182	80093.58
506.532	80094.54
506.882	80094.14
507.232	80094.77
507.582	80095.28
507.932	80094.62
508.281	80094.4
508.631	80093.25
508.981	80093.36
509.331	80092.32
509.681	80092.06
510.03	80091.95
510.38	80092.17
510.729	80091.25
511.079	80091.95
511.428	80092.1
511.778	80092.51
512.127	80092.99
512.476	80093.32
512.826	80091.58
513.175	80089.81
513.524	80088.95
513.873	80088.51
514.222	80090.69
514.571	80091.58
514.92	80092.17
515.269	80092.4
515.618	80093.54
515.967	80093.58
516.316	80094.14
516.665	80094.91
517.014	80095.51
517.362	80094.99
517.711	80095.43
518.059	80096.76
518.408	80096.47
518.757	80096.84
519.105	80095.88
519.453	80094.84
519.802	80094.02
520.15	80094.06
520.498	80094.28
520.847	80094.91
521.195	80093.06
521.543	80091.25
521.891	80090.4
522.239	80089.69
522.587	80088.44
522.935	80089.81
523.283	80089.62
523.631	80090.47
523.979	80090.07
524.326	80089.18
524.674	80090.25
525.022	80089.62
525.369	80088.25
525.717	80086.25
526.064	80086.99
526.412	80087.88
526.759	80088.92
527.107	80088.33
527.454	80089.66
527.801	80088.51
528.149	80088.51
528.496	80090.62
528.843	80091.77
529.19	80093.66
529.537	80092.84
529.884	80094.36
530.231	80092.84
530.578	80094.03
530.925	80094.84
531.272	80095.32
531.619	80094.36
531.966	80092.84
532.312	80092.77
532.659	80092.84
533.006	80095.62
533.352	80094.69
533.699	80094.51
534.045	80093.43
534.392	80092.84
534.738	80092.32
535.084	80093.88
535.431	80094.51
535.777	80092.95
536.123	80091.73
536.469	80089.88
536.815	80091.25
537.161	80090.92
537.507	80089.66
537.853	80088.18
538.199	80086.7
538.545	80086.81
538.891	80086.81
539.237	80087.77
539.582	80087.44
539.928	80087.18
540.274	80085.1
540.619	80085.55
540.965	80084.48
541.31	80084.59
541.656	80084.51
542.001	80084.92
542.347	80084.36
542.692	80083.66
543.037	80083.7
543.382	80083.77
543.728	80084.7
544.073	80085.1
544.418	80084.77
544.763	80085.88
545.108	80086.18
545.453	80084.73
545.798	80082.7
546.142	80084.36
546.487	80084.81
546.832	80085.25
547.177	80086.66
547.521	80086.99
547.866	80086.47
548.211	80086.59
548.555	80087.4
548.9	80088.03
549.244	80087.66
549.588	80086.33
549.933	80086.25
550.277	80086.73
550.621	80087.47
550.965	80087.21
551.31	80085.96
551.654	80085.88
551.998	80086.36
552.342	80084.99
552.686	80086.81
553.03	80088.14
553.373	80088.77
553.717	80088.51
554.061	80088.47
554.405	80087.92
554.748	80088.4
555.092	80089.92
555.436	80090.36
555.779	80089.88
556.123	80090.66
556.466	80090.99
556.81	80092.51
557.153	80092.95
557.496	80093.8
557.839	80093.69
558.183	80092.06
558.526	80091.51
558.869	80092.58
559.212	80092.43
559.555	80092.36
559.898	80091.66
560.241	80091.77
560.584	80090.99
560.927	80090.84
561.269	80091.43
561.612	80091.32
561.955	80090.66
562.297	80089.25
562.64	80090.81
562.983	80090.18
563.325	80090.69
563.668	80091.29
564.01	80089.99
564.352	80089.1
564.695	80087.44
565.037	80085
565.379	80085.66
565.721	80087.22
566.063	80086.4
566.406	80085.14
566.748	80087.22
567.09	80086.73
567.431	80086.29
567.773	80086.7
568.115	80084.96
568.457	80084.48
568.799	80084.07
569.14	80084.22
569.482	80083.11
569.824	80081.33
570.165	80081.15
570.507	80078.96
570.848	80077.78
571.19	80078.15
571.531	80078.74
571.872	80080
572.214	80082.33
572.555	80082.66
572.896	80081.4
573.237	80079.67
573.578	80079.22
573.919	80077.59
574.26	80077.22
574.601	80075.56
574.942	80073.56
575.283	80073
575.624	80071.89
575.964	80071.34
576.305	80070.38
576.646	80070.71
576.986	80070.16
577.327	80070.34
577.667	80070.3
578.008	80068.79
578.348	80068.93
578.689	80067.12
579.029	80065.97
579.369	80065.23
579.71	80066.31
580.05	80066.86
580.39	80067.45
580.73	80068.05
581.07	80068.01
581.41	80068.75
581.75	80070.41
582.09	80070.53
582.43	80072.08
582.769	80072.78
583.109	80074.6
583.449	80075.45
583.789	80075.93
584.128	80076.48
584.468	80075.74
584.807	80076.3
585.147	80076.82
585.486	80074.97
585.825	80076.93
