Data from 20250704_urea_0.1M_MAYP1162681_11-18-40-695.txt Node
Date: Fri Jul 04 11:18:40 BST 2025
User: adleo
Spectrometer: MAYP116268
Trigger mode: 0
Integration Time (sec): 1.000000E0
Scans to average: 1
Electric dark correction enabled: true
Nonlinearity correction enabled: true
Boxcar width: 10
XAxis mode: Wavelengths
Number of Pixels in Spectrum: 2068
>>>>>Begin Spectral Data<<<<<
179.565	1242.48
179.642	1298.71
179.718	1345.53
179.795	1387.22
179.871	1420.57
179.948	1443.19
180.024	1463.09
180.101	1486.83
180.177	1500.76
180.254	1524.09
180.33	1545.05
180.407	1601.36
180.483	1700.03
180.56	1793.54
180.636	1881.04
180.712	1867.96
180.789	1878.61
180.865	1888.93
180.942	1898.53
181.018	1908.27
181.095	1921.88
181.171	1928.77
181.248	1931.05
181.324	1945.8
181.4	1953.17
181.477	1963.77
181.553	1976.42
181.63	2001.38
181.706	2015.27
181.782	2024.4
181.859	2025.44
181.935	2033.19
182.011	2029.72
182.088	2047.51
182.164	2068.11
182.24	2081.71
182.317	2094.46
182.393	2093.74
182.469	2111.01
182.546	2124.23
182.622	2130.41
182.698	2124.56
182.775	2136.07
182.851	2148.68
182.927	2141.59
183.003	2137.17
183.08	2132.08
183.156	2136.69
183.232	2130.79
183.308	2121.95
183.385	2130.79
183.461	2146.2
183.537	2145.44
183.613	2158.72
183.69	2148.77
183.766	2137.64
183.842	2145.34
183.918	2149.43
183.995	2161.61
184.071	2161.8
184.147	2154.71
184.223	2141.92
184.299	2156.77
184.375	2145.07
184.452	2152.92
184.528	2200.31
184.604	2209.58
184.68	2222.52
184.756	2234.85
184.832	2239.61
184.908	2242.08
184.985	2241.89
185.061	2227.28
185.137	2236.61
185.213	2225.05
185.289	2226.71
185.365	2221.29
185.441	2217.48
185.517	2230.05
185.593	2225.29
185.669	2222.82
185.745	2236.57
185.822	2252.83
185.898	2243.27
185.974	2254.16
186.05	2246.59
186.126	2214.34
186.202	2209.96
186.278	2204.3
186.354	2192.11
186.43	2199.97
186.506	2199.49
186.582	2198.68
186.658	2204.34
186.734	2184.27
186.81	2188.88
186.886	2190.98
186.962	2201.54
187.038	2201.68
187.114	2196.02
187.19	2204.01
187.266	2195.35
187.341	2195.59
187.417	2188.6
187.493	2187.51
187.569	2188.12
187.645	2182.84
187.721	2172.18
187.797	2177.32
187.873	2185.74
187.949	2181.32
188.025	2174.99
188.101	2179.03
188.176	2184.46
188.252	2180.41
188.328	2189.45
188.404	2189.11
188.48	2183.69
188.556	2177.27
188.632	2172.7
188.707	2172.32
188.783	2168.04
188.859	2162
188.935	2150.67
189.011	2160.9
189.086	2155.38
189.162	2148.2
189.238	2144.77
189.314	2143.25
189.39	2138.97
189.465	2129.88
189.541	2147.49
189.617	2130.17
189.693	2124.42
189.768	2124.32
189.844	2150.17
189.92	2142.03
189.996	2151.22
190.071	2165.06
190.147	2163.21
190.223	2174.86
190.298	2165.44
190.374	2153.65
190.45	2165.15
190.526	2173.05
190.601	2165.68
190.677	2167.39
190.753	2197
190.828	2201.19
190.904	2214.7
190.98	2227.93
191.055	2238.11
191.131	2226.55
191.207	2247.58
191.282	2257.23
191.358	2249.81
191.433	2232.48
191.509	2246.32
191.585	2242.13
191.66	2240.99
191.736	2251.22
191.811	2242.28
191.887	2262.51
191.963	2285.25
192.038	2290.53
192.114	2289.96
192.189	2294.81
192.265	2293.29
192.34	2271.34
192.416	2270.39
192.491	2264.25
192.567	2267.39
192.642	2268.63
192.718	2268.3
192.793	2254.17
192.869	2251.07
192.944	2253.64
193.02	2263.3
193.095	2268.3
193.171	2273.77
193.246	2274.53
193.322	2268.16
193.397	2268.78
193.473	2252.45
193.548	2233.74
193.624	2237.88
193.699	2237.69
193.775	2254.59
193.85	2255.59
193.925	2263.3
194.001	2260.07
194.076	2258.5
194.152	2247.6
194.227	2240.08
194.302	2232.42
194.378	2238.27
194.453	2235.32
194.529	2248.5
194.604	2231.85
194.679	2223.43
194.755	2202.93
194.83	2215.3
194.905	2213.07
194.981	2222.4
195.056	2219.59
195.131	2224.35
195.207	2223.96
195.282	2215.69
195.357	2195.74
195.433	2209.3
195.508	2197.26
195.583	2205.45
195.659	2215.44
195.734	2224.34
195.809	2224.48
195.884	2232.52
195.96	2231.71
196.035	2247.51
196.11	2244.13
196.185	2256.46
196.261	2260.98
196.336	2295.33
196.411	2278.34
196.486	2284.29
196.561	2280.05
196.637	2285.62
196.712	2304.04
196.787	2308.42
196.862	2322.65
196.937	2335.69
197.013	2340.59
197.088	2352.39
197.163	2376.2
197.238	2393.73
197.313	2394.78
197.388	2408.3
197.464	2439.39
197.539	2450.91
197.614	2444.91
197.689	2458.19
197.764	2477.86
197.839	2501.76
197.914	2494.86
197.989	2521.91
198.065	2538.71
198.14	2584.55
198.215	2610.89
198.29	2620.61
198.365	2633.42
198.44	2645.8
198.515	2672.33
198.59	2685.24
198.665	2710.25
198.74	2721.21
198.815	2723.31
198.89	2747.85
198.965	2778.01
199.04	2775.01
199.115	2792.59
199.19	2833.9
199.265	2835.23
199.34	2841.04
199.415	2870.08
199.49	2890.52
199.565	2896.57
199.64	2919.45
199.715	2921.12
199.79	2930.04
199.865	2938.9
199.94	2941.33
200.015	2972.8
200.09	2978.28
200.165	2989.25
200.24	2993.77
200.315	3035.96
200.39	3051.41
200.464	3052.46
200.539	3055.75
200.614	3067.96
200.689	3091.94
200.764	3099
200.839	3121.88
200.914	3130.37
200.989	3121.3
201.063	3136.99
201.138	3122.03
201.213	3123.61
201.288	3099.81
201.363	3102.77
201.438	3105.63
201.512	3120.69
201.587	3101.23
201.662	3108.53
201.737	3123.94
201.812	3135.48
201.886	3099.06
201.961	3108.32
202.036	3101.93
202.111	3099.45
202.186	3074.72
202.26	3062.31
202.335	3044.43
202.41	3039.9
202.485	3024.98
202.559	3010.96
202.634	2989.65
202.709	3003.56
202.784	2989.26
202.858	3000.98
202.933	2990.07
203.008	2987.68
203.082	2974.53
203.157	2983.49
203.232	2948.84
203.306	2936.15
203.381	2914.84
203.456	2904.54
203.53	2897.05
203.605	2892.04
203.68	2885.7
203.754	2898.47
203.829	2897.99
203.904	2896.51
203.978	2904.19
204.053	2933.13
204.127	2941.86
204.202	2968.09
204.277	2979.2
204.351	3002.37
204.426	3026.71
204.5	3053.61
204.575	3058.28
204.65	3108.96
204.724	3143.23
204.799	3196.11
204.873	3239.65
204.948	3292.57
205.022	3332.75
205.097	3381.13
205.171	3456.61
205.246	3528.93
205.32	3592.31
205.395	3669.71
205.469	3733.55
205.544	3822.22
205.618	3886.64
205.693	3986.69
205.767	4060.4
205.842	4175.13
205.916	4264.46
205.991	4354.49
206.065	4466.12
206.14	4590.48
206.214	4699.91
206.289	4807.99
206.363	4937.33
206.438	5060.45
206.512	5190.39
206.586	5343.05
206.661	5479.31
206.735	5587.87
206.81	5723.62
206.884	5885.9
206.958	6015.67
207.033	6184.9
207.107	6336.15
207.181	6521.33
207.256	6675.49
207.33	6854.08
207.405	7024.92
207.479	7211.25
207.553	7379.42
207.628	7519.4
207.702	7697.02
207.776	7860.75
207.851	8035.56
207.925	8225.87
207.999	8402.19
208.073	8580.26
208.148	8758.09
208.222	8932.57
208.296	9150.1
208.371	9356.86
208.445	9549.27
208.519	9769.14
208.593	9964.09
208.668	10152.04
208.742	10338.49
208.816	10521.68
208.89	10725.73
208.965	10918.67
209.039	11113.78
209.113	11326.81
209.187	11545.56
209.261	11733.12
209.336	11942.42
209.41	12157.14
209.484	12348.97
209.558	12565.49
209.632	12769.95
209.707	12979.49
209.781	13194.32
209.855	13411.86
209.929	13615.91
210.003	13810.99
210.077	13995.47
210.151	14232.97
210.226	14445.3
210.3	14667.42
210.374	14879.9
210.448	15068.42
210.522	15259.73
210.596	15450.23
210.67	15641.68
210.744	15869.57
210.818	16094.04
210.892	16298.01
210.966	16470.56
211.041	16668.31
211.115	16836.91
211.189	17025.79
211.263	17210.37
211.337	17381.32
211.411	17549.08
211.485	17706.96
211.559	17889.42
211.633	18041.86
211.707	18165.32
211.781	18330.76
211.855	18449.7
211.929	18592.1
212.003	18725.45
212.077	18889.06
212.151	19058.59
212.225	19215.84
212.299	19357.96
212.373	19479.3
212.447	19611.59
212.52	19785.7
212.594	19920.88
212.668	20074.13
212.742	20201.22
212.816	20333.31
212.89	20463.72
212.964	20594.86
213.038	20726.53
213.112	20868.14
213.186	21020.92
213.26	21138.13
213.333	21227.63
213.407	21356.46
213.481	21486.74
213.555	21626.85
213.629	21728.7
213.703	21820.33
213.777	21928.36
213.85	22019.22
213.924	22166.45
213.998	22282.25
214.072	22386.24
214.146	22490.95
214.219	22590.56
214.293	22691.99
214.367	22792.66
214.441	22899.69
214.515	22990.82
214.588	23068.84
214.662	23132.87
214.736	23209.78
214.81	23296.18
214.883	23387.69
214.957	23456.89
215.031	23528.01
215.105	23589.39
215.178	23661.59
215.252	23743.62
215.326	23803.9
215.4	23866.02
215.473	23887.58
215.547	23941.31
215.621	23999.58
215.694	24071.55
215.768	24123.4
215.842	24180.03
215.915	24240.47
215.989	24285.72
216.063	24335.02
216.136	24403.24
216.21	24449.01
216.284	24517.57
216.357	24583.13
216.431	24636.58
216.504	24715.17
216.578	24806.07
216.652	24871
216.725	24929.72
216.799	24987.48
216.873	25052.38
216.946	25120.27
217.02	25181.45
217.093	25228.01
217.167	25246.54
217.24	25281.43
217.314	25319.5
217.387	25356.75
217.461	25389.23
217.535	25448.45
217.608	25480.35
217.682	25510.41
217.755	25566.44
217.829	25594.97
217.902	25639.61
217.976	25685.12
218.049	25703.66
218.123	25717.9
218.196	25762.74
218.27	25794.11
218.343	25809.08
218.417	25838.52
218.49	25856.48
218.563	25904.41
218.637	25944.58
218.71	26002.89
218.784	26043.06
218.857	26089.16
218.931	26121.45
219.004	26146.55
219.077	26190.64
219.151	26227.62
219.224	26258.32
219.298	26284.49
219.371	26321.66
219.444	26333.88
219.518	26361.25
219.591	26395.05
219.665	26440.82
219.738	26458.16
219.811	26478.24
219.885	26513.78
219.958	26547.05
220.031	26571.67
220.105	26597.65
220.178	26619.91
220.251	26637.54
220.325	26653.67
220.398	26680.91
220.471	26713.69
220.544	26753.58
220.618	26740.44
220.691	26771.83
220.764	26794.04
220.838	26828.91
220.911	26838.23
220.984	26878.07
221.057	26893.33
221.131	26912.79
221.204	26902.51
221.277	26935.59
221.35	26972.54
221.424	26983.45
221.497	26988.62
221.57	27009.82
221.643	27026.92
221.716	27050.35
221.79	27050.68
221.863	27050.2
221.936	27045.27
222.009	27045.03
222.082	27049.28
222.155	27060.58
222.229	27071.21
222.302	27075.22
222.375	27070
222.448	27084.25
222.521	27084.83
222.594	27091.88
222.667	27076.33
222.74	27093.86
222.814	27087
222.887	27074.16
222.96	27081.69
223.033	27086.76
223.106	27079.23
223.179	27073.62
223.252	27057.78
223.325	27053.63
223.398	27048.27
223.471	27046.58
223.544	27044.6
223.617	27036.82
223.69	27033.73
223.763	27009.34
223.837	27002
223.91	26994.08
223.983	26964.37
224.056	26943.17
224.129	26930.33
224.202	26936.12
224.275	26906.47
224.348	26878.89
224.42	26848.47
224.493	26814.57
224.566	26792.54
224.639	26779.36
224.712	26753.04
224.785	26736.33
224.858	26709.38
224.931	26687.22
225.004	26645.7
225.077	26621.94
225.15	26567.72
225.223	26536.62
225.296	26541.21
225.369	26502.48
225.442	26472.64
225.514	26454.15
225.587	26430.25
225.66	26414.65
225.733	26386.65
225.806	26371.44
225.879	26344.79
225.952	26309.83
226.025	26300.23
226.097	26295.11
226.17	26271.98
226.243	26223.51
226.316	26189.76
226.389	26170.74
226.461	26151.09
226.534	26136.95
226.607	26106.92
226.68	26107.74
226.753	26085.88
226.825	26023.26
226.898	26017.71
226.971	25995.26
227.044	25979.14
227.117	25947.04
227.189	25923.48
227.262	25905.52
227.335	25880.61
227.407	25846.34
227.48	25836.88
227.553	25812.07
227.626	25773.69
227.698	25731.89
227.771	25708.44
227.844	25668.33
227.916	25637.1
227.989	25599.75
228.062	25561
228.134	25554.48
228.207	25521.85
228.28	25487.01
228.352	25461.87
228.425	25427.84
228.498	25401.73
228.57	25356.32
228.643	25341.5
228.716	25299.37
228.788	25254.54
228.861	25207.68
228.934	25203.1
229.006	25166.28
229.079	25135.35
229.151	25098.72
229.224	25054.72
229.296	25028.42
229.369	25035.75
229.442	25026.63
229.514	24990.35
229.587	24983.89
229.659	24932.6
229.732	24902.25
229.804	24877.3
229.877	24875.04
229.949	24850.14
230.022	24836.44
230.094	24798.52
230.167	24773.19
230.239	24731.12
230.312	24710.32
230.384	24712.11
230.457	24677.85
230.529	24646.93
230.602	24615.77
230.674	24574.42
230.747	24561.69
230.819	24536.02
230.892	24465.83
230.964	24434.95
231.037	24409.34
231.109	24379.96
231.181	24351.07
231.254	24306.69
231.326	24273.99
231.399	24225.75
231.471	24176.74
231.544	24112.2
231.616	24088.81
231.688	24040.33
231.761	24005.9
231.833	23963.69
231.905	23909.09
231.978	23869.83
232.05	23830.04
232.122	23793.19
232.195	23757.65
232.267	23731.41
232.339	23700.45
232.412	23683.18
232.484	23629.07
232.556	23578.34
232.629	23552.92
232.701	23522.44
232.773	23489.56
232.846	23444.47
232.918	23410.66
232.99	23390.36
233.062	23370.11
233.135	23337.08
233.207	23289.53
233.279	23258.82
233.351	23229.55
233.424	23179.98
233.496	23127.33
233.568	23103.22
233.64	23042.8
233.713	23001.48
233.785	22966.04
233.857	22922.55
233.929	22856.79
234.001	22837.07
234.074	22812.91
234.146	22746.9
234.218	22711.08
234.29	22671.69
234.362	22625.12
234.434	22566.69
234.507	22506.33
234.579	22442.35
234.651	22403.11
234.723	22375.68
234.795	22331.33
234.867	22278.4
234.939	22249.95
235.012	22216.98
235.084	22191.53
235.156	22168.63
235.228	22119.89
235.3	22064.02
235.372	22024.01
235.444	22000.01
235.516	21933.63
235.588	21895.64
235.66	21855.54
235.732	21802.75
235.804	21819.68
235.876	21801.74
235.948	21776.1
236.02	21743.37
236.092	21700.81
236.164	21654.2
236.236	21605.95
236.308	21566.86
236.38	21531.73
236.452	21481.98
236.524	21430.7
236.596	21396.57
236.668	21347.46
236.74	21314.2
236.812	21276.42
236.884	21245.04
236.956	21201.18
237.028	21150.14
237.1	21103.15
237.172	21083.2
237.244	21065.75
237.316	20980.72
237.388	20922.94
237.46	20871.8
237.532	20834.3
237.604	20782.59
237.675	20750.45
237.747	20713.77
237.819	20657.19
237.891	20608.13
237.963	20559.36
238.035	20517.58
238.107	20439.98
238.178	20419.65
238.25	20367.74
238.322	20342.1
238.394	20279.79
238.466	20239.12
238.538	20208.08
238.609	20166.83
238.681	20092.37
238.753	20038.25
238.825	19994.25
238.897	19958.88
238.968	19937.53
239.04	19889.2
239.112	19871.12
239.184	19820.19
239.255	19781.68
239.327	19747.27
239.399	19705.73
239.471	19673.25
239.542	19651.33
239.614	19621.98
239.686	19551.28
239.758	19526.03
239.829	19475.34
239.901	19442.33
239.973	19402.81
240.044	19374.52
240.116	19337.71
240.188	19293.18
240.259	19249.95
240.331	19201.38
240.403	19167.79
240.474	19118.39
240.546	19063.41
240.618	19005
240.689	18954.02
240.761	18906.99
240.833	18882.07
240.904	18840.58
240.976	18792.63
241.048	18745.07
241.119	18714.8
241.191	18681.55
241.262	18653.6
241.334	18612.26
241.405	18561.9
241.477	18506.82
241.549	18446.63
241.62	18405.57
241.692	18383.88
241.763	18353.33
241.835	18309.48
241.906	18257.58
241.978	18192.81
242.049	18168.04
242.121	18151.27
242.192	18122.45
242.264	18065.58
242.335	18004.86
242.407	17970.26
242.478	17929.25
242.55	17883.52
242.621	17825.98
242.693	17775.18
242.764	17729.21
242.836	17680.82
242.907	17657.16
242.979	17631.48
243.05	17602.03
243.122	17567.04
243.193	17522.71
243.264	17453.4
243.336	17416.15
243.407	17394.51
243.479	17384.78
243.55	17355.72
243.622	17307.91
243.693	17267.14
243.764	17258.56
243.836	17217.88
243.907	17172.92
243.978	17135.71
244.05	17108
244.121	17058.46
244.192	17041.73
244.264	16982.94
244.335	16951.76
244.407	16896.33
244.478	16854.64
244.549	16822.74
244.62	16767.6
244.692	16729.05
244.763	16711.41
244.834	16669.48
244.906	16621.14
244.977	16570.53
245.048	16545.37
245.119	16500.45
245.191	16457.94
245.262	16388.01
245.333	16372.1
245.405	16343.43
245.476	16309.93
245.547	16272.38
245.618	16245.44
245.689	16205.05
245.761	16177.19
245.832	16135.65
245.903	16096.27
245.974	16064.65
246.045	16019.39
246.117	16005.85
246.188	15958.08
246.259	15909.26
246.33	15873.44
246.401	15833.25
246.473	15786.88
246.544	15735.59
246.615	15710.19
246.686	15680.12
246.757	15665.61
246.828	15615.05
246.899	15593.4
246.97	15535.13
247.042	15482.25
247.113	15454.73
247.184	15437.47
247.255	15399.44
247.326	15367.44
247.397	15341.6
247.468	15310.8
247.539	15277.64
247.61	15231.46
247.681	15201.38
247.752	15181.95
247.823	15140.21
247.894	15103.29
247.965	15066.22
248.037	15027.37
248.108	14981.24
248.179	14937.32
248.25	14898.08
248.321	14872.05
248.392	14819.71
248.463	14813.63
248.534	14790.4
248.605	14768.08
248.675	14735.69
248.746	14705.85
248.817	14681.94
248.888	14653.16
248.959	14602.79
249.03	14580.71
249.101	14550.05
249.172	14519.06
249.243	14461.98
249.314	14455.18
249.385	14424.14
249.456	14397.39
249.527	14368.46
249.598	14347.06
249.669	14321.61
249.739	14298.61
249.81	14279.72
249.881	14244.91
249.952	14215.65
250.023	14186.49
250.094	14140.11
250.165	14097.84
250.235	14069.54
250.306	14036.18
250.377	14001.18
250.448	13981.66
250.519	13924.39
250.59	13907.52
250.66	13874.5
250.731	13866.59
250.802	13827.35
250.873	13810.19
250.944	13790.38
251.014	13756.92
251.085	13750.56
251.156	13726.6
251.227	13713.73
251.297	13698.5
251.368	13684.85
251.439	13671.89
251.51	13652.6
251.58	13615.34
251.651	13588.15
251.722	13577.4
251.792	13540.96
251.863	13512.71
251.934	13501.09
252.005	13504.13
252.075	13477.9
252.146	13473.03
252.217	13462.04
252.287	13448.3
252.358	13418.56
252.429	13417.64
252.499	13393.97
252.57	13374.21
252.641	13365.73
252.711	13336.27
252.782	13289.99
252.852	13279.05
252.923	13252.54
252.994	13235.76
253.064	13234.22
253.135	13194.64
253.205	13161.14
253.276	13155.16
253.347	13151.93
253.417	13124.16
253.488	13099.91
253.558	13069.54
253.629	13035.95
253.699	13010.4
253.77	12995.55
253.841	12977.04
253.911	12949.42
253.982	12923.24
254.052	12905.89
254.123	12878.02
254.193	12854.16
254.264	12868.14
254.334	12839.84
254.405	12801.47
254.475	12762.81
254.546	12736.49
254.616	12730.42
254.687	12714.9
254.757	12695.56
254.827	12667.99
254.898	12646.59
254.968	12627.26
255.039	12596.89
255.109	12585.18
255.18	12557.02
255.25	12512.34
255.321	12494.07
255.391	12450.2
255.461	12451.02
255.532	12396.07
255.602	12371.15
255.673	12329.5
255.743	12299.66
255.813	12253.68
255.884	12249.05
255.954	12238.83
256.024	12234.35
256.095	12211.84
256.165	12179.78
256.235	12157.99
256.306	12130.42
256.376	12120.88
256.446	12107.14
256.517	12090.9
256.587	12081.26
256.657	12061.59
256.728	12041.06
256.798	12015.75
256.868	11999.03
256.938	11970.54
257.009	11967.12
257.079	11958.58
257.149	11966.97
257.219	11924.41
257.29	11911.73
257.36	11866.91
257.43	11854.38
257.5	11809.93
257.571	11783.28
257.641	11768.05
257.711	11742.36
257.781	11729.3
257.852	11712.91
257.922	11675.94
257.992	11663.22
258.062	11639.45
258.132	11629.43
258.202	11611.69
258.273	11602.05
258.343	11595.59
258.413	11565.37
258.483	11535.93
258.553	11499.97
258.623	11475.87
258.693	11459.58
258.764	11455.82
258.834	11457.7
258.904	11435.14
258.974	11409.07
259.044	11392.83
259.114	11380.49
259.184	11362.81
259.254	11333.07
259.324	11293.12
259.394	11286.32
259.464	11285.07
259.535	11264.87
259.605	11245.55
259.675	11219.43
259.745	11194.66
259.815	11168.82
259.885	11150.71
259.955	11175.14
260.025	11144.98
260.095	11119.24
260.165	11109.26
260.235	11104.78
260.305	11076.83
260.375	11048.35
260.445	11054.37
260.515	11049.27
260.585	11043.24
260.655	11022.86
260.725	11022.23
260.795	11008.45
260.865	11002.86
260.934	10969.08
261.004	10957.37
261.074	10934.62
261.144	10935.83
261.214	10933.85
261.284	10917.47
261.354	10913.08
261.424	10882.14
261.494	10888.02
261.564	10873.61
261.634	10862.91
261.703	10832.22
261.773	10824.99
