Data from 20250704_urea_1M_MAYP1162681_11-32-06-656.txt Node
Date: Fri Jul 04 11:32:06 BST 2025
User: adleo
Spectrometer: MAYP116268
Trigger mode: 0
Integration Time (sec): 1.000000E0
Scans to average: 1
Electric dark correction enabled: true
Nonlinearity correction enabled: true
Boxcar width: 10
XAxis mode: Wavelengths
Number of Pixels in Spectrum: 2068
>>>>>Begin Spectral Data<<<<<
179.565	1255.93
179.642	1312.94
179.718	1361.41
179.795	1398.47
179.871	1432.58
179.948	1451.2
180.024	1474.15
180.101	1495.26
180.177	1509.43
180.254	1532.31
180.33	1554.44
180.407	1611.27
180.483	1708.29
180.56	1805.83
180.636	1894.66
180.712	1881.78
180.789	1893.81
180.865	1907.87
180.942	1917.33
181.018	1925.46
181.095	1935.5
181.171	1942.3
181.248	1945.24
181.324	1959.37
181.4	1969.26
181.477	1978.63
181.553	1993.98
181.63	2015.24
181.706	2031.08
181.782	2040.21
181.859	2039.78
181.935	2045.96
182.011	2041.54
182.088	2059.71
182.164	2077.88
182.24	2091.72
182.317	2101.14
182.393	2097.71
182.469	2113.89
182.546	2126.4
182.622	2133.29
182.698	2130.39
182.775	2140.24
182.851	2152.65
182.927	2144.09
183.003	2138.15
183.08	2133.39
183.156	2141.95
183.232	2137.19
183.308	2128.97
183.385	2139.05
183.461	2159.13
183.537	2160.69
183.613	2174.73
183.69	2166.55
183.766	2151.93
183.842	2157.45
183.918	2166.54
183.995	2179.91
184.071	2183.19
184.147	2178.05
184.223	2166.4
184.299	2179.77
184.375	2167.64
184.452	2177.69
184.528	2228.12
184.604	2239.83
184.68	2252.29
184.756	2260.24
184.832	2268.95
184.908	2271.94
184.985	2268.99
185.061	2253.67
185.137	2266.43
185.213	2253.68
185.289	2253.11
185.365	2247.68
185.441	2247.92
185.517	2260.16
185.593	2256.97
185.669	2251.45
185.745	2264.15
185.822	2282.47
185.898	2274.37
185.974	2286.41
186.05	2273.42
186.126	2239.97
186.202	2233.88
186.278	2230.74
186.354	2218.89
186.43	2220.98
186.506	2219.98
186.582	2221.31
186.658	2225.31
186.734	2202.09
186.81	2205.66
186.886	2210.99
186.962	2223.45
187.038	2221.31
187.114	2211.79
187.19	2218.64
187.266	2210.6
187.341	2206.94
187.417	2200.32
187.493	2198.66
187.569	2199.7
187.645	2200.13
187.721	2184.05
187.797	2193.8
187.873	2198.23
187.949	2192.71
188.025	2187.19
188.101	2189.9
188.176	2191.18
188.252	2187
188.328	2193.7
188.404	2195.27
188.48	2187.71
188.556	2180.91
188.632	2177.72
188.707	2176.53
188.783	2174.2
188.859	2168.2
188.935	2161.4
189.011	2166.16
189.086	2161.07
189.162	2150.79
189.238	2143.56
189.314	2141.66
189.39	2134.81
189.465	2125.43
189.541	2141.37
189.617	2126.1
189.693	2121.97
189.768	2127.01
189.844	2157.09
189.92	2151.48
189.996	2159.66
190.071	2172.6
190.147	2172.08
190.223	2184.22
190.298	2178.03
190.374	2167.9
190.45	2181.31
190.526	2189.21
190.601	2184.02
190.677	2188.49
190.753	2220.01
190.828	2226.71
190.904	2244.61
190.98	2255.6
191.055	2268.59
191.131	2260.12
191.207	2279.96
191.282	2290.71
191.358	2282.29
191.433	2262.72
191.509	2275.13
191.585	2271.51
191.66	2272.37
191.736	2279.89
191.811	2268.61
191.887	2284.08
191.963	2303.26
192.038	2307.3
192.114	2309.11
192.189	2316.68
192.265	2309.92
192.34	2288.97
192.416	2285.26
192.491	2281.74
192.567	2289.02
192.642	2292.16
192.718	2291.69
192.793	2280.22
192.869	2274.46
192.944	2277.22
193.02	2284.89
193.095	2287.46
193.171	2294.02
193.246	2295.4
193.322	2294.21
193.397	2295.02
193.473	2283.36
193.548	2265.37
193.624	2269.51
193.699	2266.89
193.775	2279.56
193.85	2282.31
193.925	2287.03
194.001	2287.5
194.076	2282.46
194.152	2269.18
194.227	2259.71
194.302	2250.1
194.378	2256
194.453	2255.66
194.529	2266.56
194.604	2251.24
194.679	2245.15
194.755	2223.79
194.83	2235.6
194.905	2231.89
194.981	2239.45
195.056	2232.08
195.131	2240.64
195.207	2240.83
195.282	2230.41
195.357	2211.85
195.433	2226.79
195.508	2214.18
195.583	2220.79
195.659	2233.36
195.734	2241.07
195.809	2242.16
195.884	2254.1
195.96	2252.49
196.035	2265.67
196.11	2264.48
196.185	2276.28
196.261	2281.13
196.336	2313.34
196.411	2297.16
196.486	2303.49
196.561	2298.97
196.637	2304.77
196.712	2321.77
196.787	2324.86
196.862	2340.85
196.937	2352.65
197.013	2358.8
197.088	2369.36
197.163	2392.36
197.238	2409.75
197.313	2410.56
197.388	2427.32
197.464	2456.84
197.539	2468.46
197.614	2461.94
197.689	2471.08
197.764	2486.79
197.839	2507.65
197.914	2502.74
197.989	2527.36
198.065	2541.79
198.14	2591.96
198.215	2619.11
198.29	2628.68
198.365	2642.31
198.44	2651.4
198.515	2679.23
198.59	2693.38
198.665	2720.86
198.74	2728.1
198.815	2726.86
198.89	2749.44
198.965	2778
199.04	2774.85
199.115	2793.15
199.19	2836.26
199.265	2841.88
199.34	2853.89
199.415	2887.56
199.49	2913
199.565	2922.54
199.64	2947.61
199.715	2949.04
199.79	2959.38
199.865	2966.82
199.94	2967.25
200.015	3004.63
200.09	3010.69
200.165	3019.94
200.24	3028.18
200.315	3072.42
200.39	3088.78
200.464	3096.45
200.539	3096.98
200.614	3111.04
200.689	3130.64
200.764	3138.37
200.839	3158.01
200.914	3164.21
200.989	3152.99
201.063	3166.59
201.138	3148.62
201.213	3148.1
201.288	3125.21
201.363	3129.07
201.438	3128.31
201.512	3144.75
201.587	3123.33
201.662	3124.96
201.737	3135.45
201.812	3145.9
201.886	3109.81
201.961	3120.64
202.036	3109.77
202.111	3106.19
202.186	3082.03
202.26	3066.87
202.335	3044.83
202.41	3038.82
202.485	3020.47
202.559	3000.78
202.634	2968.84
202.709	2979.66
202.784	2957.97
202.858	2961.11
202.933	2940.9
203.008	2935.61
203.082	2912.64
203.157	2914.31
203.232	2874.24
203.306	2850.54
203.381	2816.07
203.456	2791.67
203.53	2770.68
203.605	2748.92
203.68	2724.23
203.754	2713.04
203.829	2694.55
203.904	2675.11
203.978	2660.67
204.053	2664.58
204.127	2651.15
204.202	2652.34
204.277	2633.76
204.351	2627.71
204.426	2615.18
204.5	2610.89
204.575	2574.13
204.65	2583.8
204.724	2571.6
204.799	2576.17
204.873	2575.41
204.948	2575.08
205.022	2563.51
205.097	2550.73
205.171	2563.73
205.246	2574.6
205.32	2574.84
205.395	2577.12
205.469	2565.7
205.544	2571.13
205.618	2554.7
205.693	2567.13
205.767	2554.56
205.842	2575.9
205.916	2568.66
205.991	2560.95
206.065	2565.33
206.14	2584.56
206.214	2579.84
206.289	2572.88
206.363	2587.27
206.438	2587.27
206.512	2592.51
206.586	2612.84
206.661	2620.42
206.735	2601.04
206.81	2600.9
206.884	2618.18
206.958	2605.56
207.033	2626.94
207.107	2635.19
207.181	2667.06
207.256	2659.11
207.33	2676.16
207.405	2689.99
207.479	2710.85
207.553	2717.28
207.628	2698.62
207.702	2710
207.776	2706.81
207.851	2709.57
207.925	2725.63
207.999	2728.45
208.073	2729.68
208.148	2733.02
208.222	2722.39
208.296	2755.16
208.371	2770.28
208.445	2781.43
208.519	2813.4
208.593	2825.6
208.668	2824.98
208.742	2827.93
208.816	2832.7
208.89	2852.62
208.965	2854.58
209.039	2866.79
209.113	2888.66
209.187	2913.14
209.261	2912.62
209.336	2936.07
209.41	2966.34
209.484	2970.49
209.558	2997
209.632	3013.97
209.707	3032.14
209.781	3063.75
209.855	3083.73
209.929	3113.76
210.003	3132.41
210.077	3141.18
210.151	3201.58
210.226	3250.88
210.3	3296.58
210.374	3338.89
210.448	3360.41
210.522	3389.48
210.596	3421.75
210.67	3456.16
210.744	3533.09
210.818	3591.97
210.892	3647.09
210.966	3668.29
211.041	3719.63
211.115	3753.2
211.189	3818.21
211.263	3874.96
211.337	3921.78
211.411	3984.63
211.485	4027.38
211.559	4090.27
211.633	4149.37
211.707	4174.96
211.781	4241.24
211.855	4268.6
211.929	4330.43
212.003	4379.38
212.077	4461.99
212.151	4548.57
212.225	4636.11
212.299	4706.92
212.373	4785.38
212.447	4866.77
212.52	4994.55
212.594	5093.88
212.668	5203.49
212.742	5291.52
212.816	5395.44
212.89	5503.32
212.964	5621.98
213.038	5739.02
213.112	5867.83
213.186	6009.04
213.26	6117.48
213.333	6203.87
213.407	6344.13
213.481	6481.86
213.555	6634.76
213.629	6766.62
213.703	6893.15
213.777	7042.69
213.85	7173.98
213.924	7359.57
213.998	7511.54
214.072	7661.83
214.146	7810.18
214.219	7971.73
214.293	8129.28
214.367	8297.61
214.441	8475.62
214.515	8629.05
214.588	8774.1
214.662	8915.32
214.736	9061.12
214.81	9236.88
214.883	9419.85
214.957	9573.29
215.031	9731.6
215.105	9880.39
215.178	10039.09
215.252	10211.96
215.326	10354.12
215.4	10504.37
215.473	10627.78
215.547	10779.22
215.621	10935.06
215.694	11110.04
215.768	11253.6
215.842	11416.29
215.915	11571.09
215.989	11715.25
216.063	11868.67
216.136	12034.81
216.21	12195.5
216.284	12380.4
216.357	12552.76
216.431	12711.21
216.504	12892.35
216.578	13086.23
216.652	13257.59
216.725	13416.76
216.799	13582.1
216.873	13743.59
216.946	13907.34
217.02	14061.5
217.093	14217.44
217.167	14345.67
217.24	14481.46
217.314	14624
217.387	14762.54
217.461	14895.53
217.535	15047.18
217.608	15181.52
217.682	15321.89
217.755	15471.5
217.829	15586.37
217.902	15720.27
217.976	15848.05
218.049	15965.17
218.123	16069.52
218.196	16198.5
218.27	16317.31
218.343	16423.34
218.417	16544.55
218.49	16668.61
218.563	16806.11
218.637	16921.4
218.71	17056.15
218.784	17176.78
218.857	17304.64
218.931	17416.31
219.004	17538.23
219.077	17650.14
219.151	17750.96
219.224	17858.23
219.298	17957.07
219.371	18077.94
219.444	18160.83
219.518	18260.68
219.591	18364.29
219.665	18488.19
219.738	18590.5
219.811	18676.76
219.885	18781.23
219.958	18883.2
220.031	18962.62
220.105	19045.99
220.178	19134.32
220.251	19219.96
220.325	19301.2
220.398	19379.61
220.471	19475.65
220.544	19557.24
220.618	19620.61
220.691	19701.47
220.764	19775.73
220.838	19852.98
220.911	19920.21
220.984	20000.69
221.057	20073.6
221.131	20130.56
221.204	20157.12
221.277	20230.66
221.35	20325.84
221.424	20371.96
221.497	20420.1
221.57	20473.4
221.643	20532.54
221.716	20598.85
221.79	20632.2
221.863	20685.55
221.936	20735.05
222.009	20771.48
222.082	20817.56
222.155	20863.49
222.229	20924.6
222.302	20970.24
222.375	21005.71
222.448	21046.49
222.521	21085.04
222.594	21121.24
222.667	21153.48
222.74	21208.28
222.814	21240
222.887	21252.33
222.96	21306.03
223.033	21349.89
223.106	21394.47
223.179	21415.68
223.252	21433.17
223.325	21457.61
223.398	21469.42
223.471	21494.68
223.544	21510.72
223.617	21524.75
223.69	21545.81
223.763	21544.61
223.837	21568.32
223.91	21589.97
223.983	21585.58
224.056	21583.6
224.129	21592.66
224.202	21615.22
224.275	21607.61
224.348	21597.05
224.42	21588.33
224.493	21572.18
224.566	21573.53
224.639	21584.95
224.712	21586.16
224.785	21579.17
224.858	21583.27
224.931	21586.21
225.004	21578.35
225.077	21588.23
225.15	21565.72
225.223	21559.74
225.296	21593.77
225.369	21565.38
225.442	21560.85
225.514	21565.63
225.587	21582.3
225.66	21590.01
225.733	21594.11
225.806	21594.3
225.879	21590.35
225.952	21589.44
226.025	21589.39
226.097	21596.09
226.17	21582.16
226.243	21557.53
226.316	21565.24
226.389	21567.22
226.461	21565.58
226.534	21562.93
226.607	21550.54
226.68	21562.64
226.753	21557.77
226.825	21518.77
226.898	21523.83
226.971	21509.18
227.044	21499.3
227.117	21482.72
227.189	21476.5
227.262	21465.9
227.335	21461.08
227.407	21456.84
227.48	21446.23
227.553	21438.86
227.626	21422.18
227.698	21410.18
227.771	21410.61
227.844	21384.39
227.916	21374.32
227.989	21351.71
228.062	21338.99
228.134	21346.51
228.207	21325.64
228.28	21312
228.352	21304.14
228.425	21303.18
228.498	21300.96
228.57	21278.31
228.643	21284.96
228.716	21259.18
228.788	21240.38
228.861	21228.38
228.934	21224.67
229.006	21212.91
229.079	21195.31
229.151	21164.76
229.224	21132.03
229.296	21118.15
229.369	21128.32
229.442	21123.84
229.514	21105.09
229.587	21097.67
229.659	21069.57
229.732	21065.23
229.804	21063.59
229.877	21067.11
229.949	21051.25
230.022	21056.51
230.094	21037.33
230.167	21013.76
230.239	20992.21
230.312	20967.64
230.384	20962.33
230.457	20944.36
230.529	20937.56
230.602	20931.01
230.674	20928.6
230.747	20926.81
230.819	20921.46
230.892	20867.29
230.964	20854.52
231.037	20832.69
231.109	20804.59
231.181	20782.62
231.254	20753.31
231.326	20721.7
231.399	20694.52
231.471	20665.21
231.544	20615.96
231.616	20615.81
231.688	20591.62
231.761	20569.88
231.833	20547.14
231.905	20511.52
231.978	20488.97
232.05	20455.86
232.122	20428.58
232.195	20387.81
232.267	20378.08
232.339	20351.62
232.412	20346.61
232.484	20312.48
232.556	20292.77
232.629	20297.64
232.701	20278.41
232.773	20256.29
232.846	20235.81
232.918	20205.74
232.99	20190.03
233.062	20177.16
233.135	20153.11
233.207	20117.16
233.279	20098.37
233.351	20084.44
233.424	20051.33
233.496	20015.09
233.568	20014.37
233.64	19972.3
233.713	19952.74
233.785	19918.86
233.857	19889.65
233.929	19849.66
234.001	19840.64
234.074	19832.79
234.146	19779.92
234.218	19764.84
234.29	19734.77
234.362	19694.24
234.434	19658.39
234.507	19608.32
234.579	19556.37
234.651	19516.27
234.723	19501.96
234.795	19486.01
234.867	19459.6
234.939	19455.89
235.012	19435.89
235.084	19406.59
235.156	19390.98
235.228	19358.31
235.3	19332.53
235.372	19300.82
235.444	19287.42
235.516	19235.13
235.588	19201.35
235.66	19181.93
235.732	19138.75
235.804	19174.75
235.876	19164.29
235.948	19151.81
236.02	19134.85
236.092	19114.8
236.164	19094.03
236.236	19059.48
236.308	19017.94
236.38	18983.2
236.452	18932.79
236.524	18902.43
236.596	18887.69
236.668	18857.18
236.74	18825.09
236.812	18792.17
236.884	18777.91
236.956	18751.4
237.028	18704.71
237.1	18664.28
237.172	18646.06
237.244	18636.47
237.316	18565.2
237.388	18529.49
237.46	18493.44
237.532	18468.77
237.604	18427.23
237.675	18406.7
237.747	18381.59
237.819	18343.86
237.891	18308.1
237.963	18270.13
238.035	18236.3
238.107	18172.78
238.178	18166.09
238.25	18133.51
238.322	18124.55
238.394	18071.73
238.466	18035.63
238.538	18025.85
238.609	18010.04
238.681	17954.53
238.753	17915.73
238.825	17885.71
238.897	17852.99
238.968	17845.09
239.04	17808.6
239.112	17807.06
239.184	17756.7
239.255	17727.98
239.327	17702
239.399	17672.56
239.471	17652.22
239.542	17625.76
239.614	17608.61
239.686	17549.24
239.758	17535.07
239.829	17494.2
239.901	17483.36
239.973	17448.61
240.044	17423.16
240.116	17385.81
240.188	17354.2
240.259	17313.86
240.331	17276.32
240.403	17253.81
240.474	17193.91
240.546	17159.07
240.618	17112.56
240.689	17080.8
240.761	17046.44
240.833	17036.36
240.904	17002.72
240.976	16973.47
241.048	16945.56
241.119	16919.73
241.191	16896.21
241.262	16884.6
241.334	16845.08
241.405	16805.27
241.477	16775
241.549	16734.52
241.62	16710.28
241.692	16692.73
241.763	16676.59
241.835	16642.37
241.906	16609.26
241.978	16559.95
242.049	16542.31
242.121	16526.31
242.192	16511.32
242.264	16460.57
242.335	16400.42
242.407	16392.66
242.478	16356.66
242.55	16327.02
242.621	16286.67
242.693	16252.45
242.764	16203.87
242.836	16162.08
242.907	16136.59
242.979	16114.61
243.05	16092.58
243.122	16061.35
243.193	16026.41
243.264	15976.66
243.336	15943.94
243.407	15924.03
243.479	15912.85
243.55	15882.29
243.622	15847.35
243.693	15809.56
243.764	15802.96
243.836	15768.35
243.907	15727.62
243.978	15700
244.05	15674.16
244.121	15629.29
244.192	15604.42
244.264	15565.9
244.335	15552.41
244.407	15508.74
244.478	15479.53
244.549	15442.56
244.62	15398.45
244.692	15368.42
244.763	15345.77
244.834	15308.75
244.906	15263.01
244.977	15250.43
245.048	15244.21
245.119	15206.95
245.191	15175.52
245.262	15125.1
245.333	15118.93
245.405	15089.77
245.476	15072.61
245.547	15043.01
245.618	15027.78
245.689	15001.94
245.761	14972.01
245.832	14937.64
245.903	14924.48
245.974	14896.62
246.045	14870.3
246.117	14861.52
246.188	14820.65
246.259	14775.14
246.33	14756
246.401	14733.25
246.473	14678.64
246.544	14634.53
246.615	14617.95
246.686	14593.41
246.757	14576.73
246.828	14537.49
246.899	14523.08
246.97	14473.67
247.042	14440.7
247.113	14413.7
247.184	14411.1
247.255	14383.43
247.326	14355.57
247.397	14317.68
247.468	14293.77
247.539	14269.28
247.61	14223.05
247.681	14204.44
247.752	14195.62
247.823	14158.7
247.894	14135.22
247.965	14103.64
248.037	14073.52
248.108	14037.84
248.179	14003.91
248.25	13977.92
248.321	13954.54
248.392	13919.5
248.463	13916.32
248.534	13889.42
248.605	13876.69
248.675	13837.02
248.746	13813.44
248.817	13793.29
248.888	13774.01
248.959	13730.05
249.03	13710.19
249.101	13689.7
249.172	13658.17
249.243	13617.63
249.314	13610.45
249.385	13583.84
249.456	13571.98
249.527	13539.87
249.598	13512.01
249.669	13488.53
249.739	13476.24
249.81	13461.82
249.881	13418.73
249.952	13395.2
250.023	13379.2
250.094	13338.42
250.165	13310.79
250.235	13295.61
250.306	13273.92
250.377	13242.15
250.448	13226.82
250.519	13180.64
250.59	13180.06
250.66	13164.01
250.731	13159.62
250.802	13129.54
250.873	13113.77
250.944	13089.33
251.014	13060.27
251.085	13065.33
251.156	13049.85
251.227	13036.74
251.297	13027.2
251.368	13020.11
251.439	13005.36
251.51	12988.82
251.58	12961.88
251.651	12932.37
251.722	12915.84
251.792	12878.62
251.863	12854.72
251.934	12845.89
252.005	12858.33
252.075	12832.78
252.146	12820.15
252.217	12811.91
252.287	12799.71
252.358	12782.26
252.429	12777.39
252.499	12753.34
252.57	12740.03
252.641	12731.02
252.711	12706
252.782	12664.16
252.852	12666.04
252.923	12641.02
252.994	12621.55
253.064	12609.01
253.135	12578.74
253.205	12551.41
253.276	12555.7
253.347	12555.7
253.417	12525.38
253.488	12496.02
253.558	12463.68
253.629	12444.73
253.699	12422.27
253.77	12411.47
253.841	12381.87
253.911	12371.9
253.982	12362.35
254.052	12347.6
254.123	12332.22
254.193	12308.7
254.264	12331.69
254.334	12301.28
254.405	12274.62
254.475	12241.12
254.546	12223.24
254.616	12225.12
254.687	12213.26
254.757	12196.34
254.827	12173.68
254.898	12166.41
254.968	12148.57
255.039	12128.33
255.109	12112.13
255.18	12084.9
255.25	12044.75
255.321	12036.74
255.391	11999.24
255.461	12002.62
255.532	11950.27
255.602	11922.51
255.673	11882.4
255.743	11851.7
255.813	11800.56
255.884	11791.26
255.954	11780.75
256.024	11778.1
256.095	11760.36
256.165	11731.92
256.235	11720.84
256.306	11700.26
256.376	11693.75
256.446	11680.88
256.517	11667.24
256.587	11667.1
256.657	11651.87
256.728	11637.02
256.798	11610.9
256.868	11586.66
256.938	11553.21
257.009	11550.17
257.079	11542.84
257.149	11558.31
257.219	11519.37
257.29	11523.23
257.36	11485.78
257.43	11483.42
257.5	11450.74
257.571	11431.08
257.641	11423.17
257.711	11390.59
257.781	11379.46
257.852	11365.72
257.922	11328.56
257.992	11311.5
258.062	11284.37
258.132	11277.43
258.202	11259.6
258.273	11252.46
258.343	11260.13
258.413	11236.9
258.483	11217.57
258.553	11186.78
258.623	11160.85
258.693	11149.04
258.764	11150.39
258.834	11149.28
258.904	11125.67
258.974	11097
259.044	11070.64
259.114	11053.87
259.184	11038.44
259.254	11015.65
259.324	10973.19
259.394	10970.01
259.464	10977.58
259.535	10964.28
259.605	10940.91
259.675	10920.67
259.745	10914.02
259.815	10890.02
259.885	10874.98
259.955	10886.6
260.025	10862.56
260.095	10846.27
260.165	10838.89
260.235	10838.41
260.305	10817.6
260.375	10791.09
260.445	10796.3
260.515	10804.01
260.585	10802.08
260.655	10791.58
260.725	10790.47
260.795	10784.44
260.865	10785.46
260.934	10750.47
261.004	10730.81
261.074	10711.06
261.144	10711.25
261.214	10696.46
261.284	10677.76
261.354	10670.39
261.424	10638.25
261.494	10644.65
261.564	10625.91
261.634	10615.5
261.703	10568.57
261.773	10562.26
261.843	10563.03
261.913	10552.53
261.983	10513.93
262.053	10501.07
262.123	10479.48
262.192	10444.46
262.262	10439.11
