Data from 20250704_urea_2M_MAYP1162681_11-59-43-531.txt Node
Date: Fri Jul 04 11:59:43 BST 2025
User: adleo
Spectrometer: MAYP116268
Trigger mode: 0
Integration Time (sec): 1.000000E0
Scans to average: 1
Electric dark correction enabled: true
Nonlinearity correction enabled: true
Boxcar width: 10
XAxis mode: Wavelengths
Number of Pixels in Spectrum: 2068
>>>>>Begin Spectral Data<<<<<
179.565	1273.16
179.642	1334.31
179.718	1381.3
179.795	1424.49
179.871	1458.67
179.948	1477.77
180.024	1497.98
180.101	1522.38
180.177	1535.64
180.254	1560.81
180.33	1583.24
180.407	1641.55
180.483	1742.94
180.56	1838.54
180.636	1927.89
180.712	1915.48
180.789	1928.08
180.865	1939.39
180.942	1947.38
181.018	1957.03
181.095	1971.02
181.171	1974.2
181.248	1976.58
181.324	1992.23
181.4	1997.08
181.477	2008.92
181.553	2021.61
181.63	2043.68
181.706	2057.62
181.782	2067.08
181.859	2064.89
181.935	2069.74
182.011	2066.89
182.088	2083.87
182.164	2104.28
182.24	2117.93
182.317	2127.59
182.393	2125.59
182.469	2142.71
182.546	2155.75
182.622	2159.84
182.698	2153.89
182.775	2165.78
182.851	2178.91
182.927	2168.45
183.003	2164.5
183.08	2159.6
183.156	2170.26
183.232	2168.07
183.308	2155.99
183.385	2164.31
183.461	2183.44
183.537	2186
183.613	2202.13
183.69	2192.19
183.766	2179.29
183.842	2185.24
183.918	2192.33
183.995	2203.75
184.071	2206.08
184.147	2200.7
184.223	2190.05
184.299	2206.85
184.375	2197.71
184.452	2205.05
184.528	2260.73
184.604	2273.62
184.68	2284.37
184.756	2293.18
184.832	2297.03
184.908	2304.5
184.985	2303.88
185.061	2287.13
185.137	2298.99
185.213	2281.81
185.289	2285.42
185.365	2277.2
185.441	2275.58
185.517	2290.29
185.593	2286.01
185.669	2285.48
185.745	2294.09
185.822	2314.26
185.898	2303.36
185.974	2312.93
186.05	2304.79
186.126	2267.23
186.202	2259.19
186.278	2254.81
186.354	2242.2
186.43	2248.53
186.506	2247.72
186.582	2249.72
186.658	2258.05
186.734	2235.97
186.81	2241.25
186.886	2243.68
186.962	2258.42
187.038	2255.38
187.114	2245.76
187.19	2253.52
187.266	2242.24
187.341	2246.19
187.417	2234.82
187.493	2233.54
187.569	2235.77
187.645	2228.97
187.721	2215.98
187.797	2224.25
187.873	2229.63
187.949	2225.06
188.025	2220.59
188.101	2224.73
188.176	2228.92
188.252	2223.83
188.328	2231.01
188.404	2231.44
188.48	2224.01
188.556	2216.78
188.632	2214.88
188.707	2215.21
188.783	2211.88
188.859	2206.46
188.935	2196.89
189.011	2206.65
189.086	2201.51
189.162	2195.46
189.238	2190.66
189.314	2190.04
189.39	2183.76
189.465	2176.15
189.541	2195.23
189.617	2176.06
189.693	2169.35
189.768	2172.49
189.844	2198.67
189.92	2190.78
189.996	2200.01
190.071	2212.57
190.147	2211.91
190.223	2224.56
190.298	2216.19
190.374	2201.73
190.45	2212.81
190.526	2220.52
190.601	2214.9
190.677	2216.28
190.753	2242.23
190.828	2244.8
190.904	2259.88
190.98	2275.59
191.055	2288.92
191.131	2278.06
191.207	2299.24
191.282	2309.42
191.358	2299.52
191.433	2282.66
191.509	2294.6
191.585	2291.32
191.66	2291.75
191.736	2299.45
191.811	2288.41
191.887	2304.79
191.963	2332.49
192.038	2335.72
192.114	2333.96
192.189	2337.53
192.265	2334.63
192.34	2313.49
192.416	2316.67
192.491	2312.91
192.567	2316.82
192.642	2317.53
192.718	2315.91
192.793	2305.44
192.869	2301.54
192.944	2305.44
193.02	2310.68
193.095	2316.01
193.171	2321.15
193.246	2318.53
193.322	2317.77
193.397	2320.91
193.473	2306.2
193.548	2285.78
193.624	2295.21
193.699	2295.87
193.775	2313.49
193.85	2314.77
193.925	2321.39
194.001	2318.91
194.076	2309.68
194.152	2297.97
194.227	2288.97
194.302	2280.65
194.378	2287.55
194.453	2285.65
194.529	2296.02
194.604	2281.93
194.679	2276.51
194.755	2258.86
194.83	2274.14
194.905	2270.19
194.981	2278.85
195.056	2273.43
195.131	2279.52
195.207	2277.9
195.282	2266.05
195.357	2245.3
195.433	2261.34
195.508	2249.87
195.583	2258.86
195.659	2274.9
195.734	2282.8
195.809	2282.47
195.884	2289.79
195.96	2288.7
196.035	2302.36
196.11	2298.17
196.185	2311.97
196.261	2314.92
196.336	2344
196.411	2328.38
196.486	2332.24
196.561	2323.72
196.637	2329.76
196.712	2347.23
196.787	2350.62
196.862	2367.03
196.937	2377.03
197.013	2383.93
197.088	2398.26
197.163	2419.78
197.238	2436.46
197.313	2435.22
197.388	2450.69
197.464	2485.6
197.539	2498.12
197.614	2494.84
197.689	2509.31
197.764	2527.99
197.839	2547.41
197.914	2542.74
197.989	2568.13
198.065	2582.75
198.14	2636.98
198.215	2668.27
198.29	2679.52
198.365	2692.76
198.44	2707.14
198.515	2737.06
198.59	2752.64
198.665	2776.28
198.74	2786.48
198.815	2786.86
198.89	2809.49
198.965	2839.23
199.04	2832.75
199.115	2848.9
199.19	2889.12
199.265	2889.17
199.34	2897.51
199.415	2934.13
199.49	2955.91
199.565	2964.25
199.64	2989.56
199.715	2983.84
199.79	2990.42
199.865	2995.99
199.94	2994.66
200.015	3024.61
200.09	3032
200.165	3039.05
200.24	3050.07
200.315	3091.55
200.39	3108.57
200.464	3114.29
200.539	3114.01
200.614	3129.69
200.689	3151.73
200.764	3160.55
200.839	3179.86
200.914	3188.2
200.989	3175.51
201.063	3189.05
201.138	3169.85
201.213	3171.33
201.288	3154.49
201.363	3160.36
201.438	3161.17
201.512	3178.43
201.587	3161.35
201.662	3162.73
201.737	3177.81
201.812	3182.53
201.886	3143.44
201.961	3155.46
202.036	3144.64
202.111	3141.35
202.186	3113.19
202.26	3093.44
202.335	3069.16
202.41	3064.01
202.485	3043.32
202.559	3026.16
202.634	2999.79
202.709	3010.94
202.784	2991.39
202.858	2990.15
202.933	2970.61
203.008	2963.03
203.082	2943.29
203.157	2941.58
203.232	2896.69
203.306	2872.08
203.381	2841.33
203.456	2822.12
203.53	2798.41
203.605	2776.84
203.68	2754.91
203.754	2749.82
203.829	2736.33
203.904	2714.51
203.978	2702.74
204.053	2708.55
204.127	2692.69
204.202	2693.45
204.277	2677.07
204.351	2669.2
204.426	2660.96
204.5	2650.58
204.575	2616.58
204.65	2623.34
204.724	2615.52
204.799	2625.09
204.873	2620.52
204.948	2617.66
205.022	2604.66
205.097	2594.27
205.171	2608.6
205.246	2616.75
205.32	2613.23
205.395	2615.18
205.469	2607.23
205.544	2611.76
205.618	2592.51
205.693	2605.71
205.767	2591.71
205.842	2614.43
205.916	2607.77
205.991	2597.91
206.065	2605.19
206.14	2623.04
206.214	2618.85
206.289	2614.51
206.363	2625.18
206.438	2624.61
206.512	2633.47
206.586	2653.71
206.661	2661.1
206.735	2639.96
206.81	2639.63
206.884	2657.82
206.958	2644.1
207.033	2661.1
207.107	2672.73
207.181	2705.56
207.256	2699.08
207.33	2717.19
207.405	2728.87
207.479	2750.26
207.553	2759.88
207.628	2745.12
207.702	2755.88
207.776	2748.21
207.851	2748.74
207.925	2767.95
207.999	2768.52
208.073	2764.9
208.148	2767.14
208.222	2758.8
208.296	2792.61
208.371	2809.35
208.445	2822.12
208.519	2850.62
208.593	2864.77
208.668	2858.67
208.742	2861.96
208.816	2865.96
208.89	2881.6
208.965	2876.92
209.039	2886.84
209.113	2902.66
209.187	2922
209.261	2918.09
209.336	2942.35
209.41	2962.85
209.484	2961.9
209.558	2986.12
209.632	2997.99
209.707	3012.15
209.781	3033.13
209.855	3050.96
209.929	3068
210.003	3073.2
210.077	3073.82
210.151	3125.99
210.226	3162.3
210.3	3190.42
210.374	3215.11
210.448	3220.5
210.522	3234.15
210.596	3246.79
210.67	3258.14
210.744	3308.05
210.818	3339.76
210.892	3362.43
210.966	3360.19
211.041	3380.37
211.115	3378.8
211.189	3406.18
211.263	3424.84
211.337	3434.57
211.411	3451.23
211.485	3452.67
211.559	3470.75
211.633	3475.99
211.707	3449.29
211.781	3464.87
211.855	3435.89
211.929	3431.89
212.003	3419.15
212.077	3440.35
212.151	3458.78
212.225	3477.26
212.299	3478.07
212.373	3483.22
212.447	3491.68
212.52	3540.05
212.594	3557.67
212.668	3585.27
212.742	3596.44
212.816	3614.07
212.89	3631.26
212.964	3659.31
213.038	3687.98
213.112	3729.31
213.186	3784.09
213.26	3796.36
213.333	3783.7
213.407	3830.98
213.481	3879.02
213.555	3944.11
213.629	3975.62
213.703	4010.33
213.777	4066.56
213.85	4104.05
213.924	4195.22
213.998	4258.08
214.072	4316.67
214.146	4375.23
214.219	4444.56
214.293	4510.34
214.367	4589.36
214.441	4680.5
214.515	4748.16
214.588	4810.26
214.662	4864.27
214.736	4933
214.81	5032.85
214.883	5143.16
214.957	5231.44
215.031	5319.28
215.105	5395.98
215.178	5493.96
215.252	5598.47
215.326	5682.2
215.4	5772.52
215.473	5840.75
215.547	5940.75
215.621	6045.79
215.694	6174.01
215.768	6276.15
215.842	6392.98
215.915	6506.85
215.989	6609.58
216.063	6728.85
216.136	6870.86
216.21	7002.32
216.284	7150.39
216.357	7289.8
216.431	7428.14
216.504	7574.23
216.578	7748.1
216.652	7904.05
216.725	8048.54
216.799	8206
216.873	8358.2
216.946	8516.85
217.02	8666.33
217.093	8815.57
217.167	8933.54
217.24	9065.36
217.314	9214.34
217.387	9358.81
217.461	9505.91
217.535	9678.55
217.608	9821.34
217.682	9964.25
217.755	10129.84
217.829	10271.24
217.902	10427.27
217.976	10568.05
218.049	10709.69
218.123	10838.36
218.196	10991.48
218.27	11134.56
218.343	11261.5
218.417	11411.33
218.49	11558.17
218.563	11719.62
218.637	11866.53
218.71	12043.75
218.784	12190.37
218.857	12346.73
218.931	12494.42
219.004	12636.71
219.077	12774.09
219.151	12913.16
219.224	13049.67
219.298	13188.6
219.371	13330.95
219.444	13451.22
219.518	13587.64
219.591	13718.57
219.665	13880.15
219.738	14013.25
219.811	14132.12
219.885	14270.81
219.958	14400.72
220.031	14523.26
220.105	14651.53
220.178	14773.05
220.251	14881.56
220.325	15011.13
220.398	15131.44
220.471	15253.3
220.544	15375.05
220.618	15478.64
220.691	15602.42
220.764	15718.01
220.838	15825.64
220.911	15923.48
220.984	16044.8
221.057	16155.9
221.131	16271.86
221.204	16331.29
221.277	16445.33
221.35	16575.94
221.424	16661.34
221.497	16752.1
221.57	16850.75
221.643	16935.05
221.716	17034.04
221.79	17111.44
221.863	17192.02
221.936	17268.36
222.009	17339.74
222.082	17418.63
222.155	17492.51
222.229	17579.4
222.302	17650.87
222.375	17715.54
222.448	17791.01
222.521	17867.78
222.594	17934
222.667	17982.38
222.74	18061.56
222.814	18120.98
222.887	18164.01
222.96	18238.08
223.033	18298.46
223.106	18351.52
223.179	18411.09
223.252	18461.83
223.325	18524.43
223.398	18574.11
223.471	18622.74
223.544	18683.84
223.617	18729.96
223.69	18785.09
223.763	18820.07
223.837	18872.41
223.91	18919.59
223.983	18944.98
224.056	18966.38
224.129	19008.26
224.202	19057.17
224.275	19082.13
224.348	19102.32
224.42	19129.21
224.493	19146.99
224.566	19178.9
224.639	19212.77
224.712	19231.71
224.785	19261.2
224.858	19293.06
224.931	19318.26
225.004	19337.05
225.077	19351.75
225.15	19348.14
225.223	19367.75
225.296	19413.87
225.369	19407.61
225.442	19422.11
225.514	19447.36
225.587	19472.57
225.66	19493.72
225.733	19512.85
225.806	19537.57
225.879	19555.45
225.952	19557.72
226.025	19594.87
226.097	19633.86
226.17	19650.29
226.243	19655.3
226.316	19660.8
226.389	19664.75
226.461	19674.87
226.534	19686.05
226.607	19701.85
226.68	19742.58
226.753	19754.43
226.825	19733.66
226.898	19759.73
226.971	19776.79
227.044	19785.9
227.117	19784.5
227.189	19794.38
227.262	19814.62
227.335	19829.7
227.407	19829.94
227.48	19850.96
227.553	19849.12
227.626	19836.98
227.698	19845.12
227.771	19850.71
227.844	19843.05
227.916	19847.63
227.989	19830.14
228.062	19839.1
228.134	19862.42
228.207	19855.34
228.28	19839
228.352	19839.1
228.425	19845.46
228.498	19852.64
228.57	19842.14
228.643	19856.45
228.716	19853.08
228.788	19839.63
228.861	19823
228.934	19835.2
229.006	19835.1
229.079	19826.04
229.151	19814.86
229.224	19792.5
229.296	19799.34
229.369	19818.67
229.442	19829.17
229.514	19830.09
229.587	19838.33
229.659	19812.21
229.732	19822.19
229.804	19834.57
229.877	19858.86
229.949	19864.88
230.022	19872.3
230.094	19870.96
230.167	19867.44
230.239	19848.59
230.312	19841.03
230.384	19865.08
230.457	19859.73
230.529	19855.1
230.602	19856.98
230.674	19851.2
230.747	19862.57
230.819	19864.5
230.892	19831.63
230.964	19823.44
231.037	19825.75
231.109	19808.64
231.181	19809.8
231.254	19783.34
231.326	19782.38
231.399	19763.83
231.471	19745.85
231.544	19709.71
231.616	19712.36
231.688	19705.71
231.761	19685.9
231.833	19675.88
231.905	19637.23
231.978	19623.79
232.05	19611.79
232.122	19598.92
232.195	19583.84
232.267	19576.99
232.339	19556.17
232.412	19565.52
232.484	19549.86
232.556	19525.57
232.629	19532.85
232.701	19527.21
232.773	19512.85
232.846	19477.34
232.918	19462.25
232.99	19449
233.062	19449.39
233.135	19443.22
233.207	19415.22
233.279	19417.63
233.351	19407.22
233.424	19392.81
233.496	19367.56
233.568	19372.09
233.64	19338.69
233.713	19324.57
233.785	19304.67
233.857	19292.43
233.929	19249.93
234.001	19244.58
234.074	19248.96
234.146	19215.28
234.218	19194.32
234.29	19175.72
234.362	19156.87
234.434	19117.7
234.507	19085.36
234.579	19047.77
234.651	19020.88
234.723	19008.98
234.795	18989.51
234.867	18965.51
234.939	18965.46
235.012	18946.72
235.084	18928.65
235.156	18917.42
235.228	18886.24
235.3	18865.33
235.372	18838.97
235.444	18836.36
235.516	18796.9
235.588	18781.14
235.66	18746.01
235.732	18703.41
235.804	18745.28
235.876	18735.6
235.948	18731.79
236.02	18706.15
236.092	18683.07
236.164	18657.05
236.236	18629.68
236.308	18603.27
236.38	18583.94
236.452	18536.43
236.524	18509.11
236.596	18498.12
236.668	18486.75
236.74	18469.35
236.812	18452
236.884	18439.37
236.956	18414.99
237.028	18373.21
237.1	18329.64
237.172	18334.13
237.244	18337.26
237.316	18262.76
237.388	18230.9
237.46	18200.3
237.532	18193.56
237.604	18166.91
237.675	18159.53
237.747	18139
237.819	18105.27
237.891	18073.9
237.963	18051.73
238.035	18026.14
238.107	17947.11
238.178	17924.7
238.25	17901.42
238.322	17892.12
238.394	17843.49
238.466	17810.68
238.538	17801.76
238.609	17779.16
238.681	17731.88
238.753	17696.03
238.825	17678.54
238.897	17662.54
238.968	17653.72
239.04	17618.49
239.112	17616.75
239.184	17572.22
239.255	17548.08
239.327	17534.68
239.399	17513.19
239.471	17492.66
239.542	17468.13
239.614	17466.97
239.686	17417.86
239.758	17393.19
239.829	17349.48
239.901	17338.44
239.973	17312.71
240.044	17285.52
240.116	17261.04
240.188	17229.43
240.259	17195.79
240.331	17154.34
240.403	17127.79
240.474	17078.73
240.546	17047.11
240.618	16999.98
240.689	16969.13
240.761	16938
240.833	16922.48
240.904	16891.49
240.976	16858.53
241.048	16846.14
241.119	16827.1
241.191	16810.23
241.262	16800.4
241.334	16762.04
241.405	16736.83
241.477	16706.71
241.549	16673.84
241.62	16649.26
241.692	16633.98
241.763	16623.81
241.835	16594.27
241.906	16557.59
241.978	16516.67
242.049	16498.5
242.121	16488.38
242.192	16475.37
242.264	16433.73
242.335	16377.91
242.407	16359.31
242.478	16332.65
242.55	16301.71
242.621	16261.08
242.693	16228.6
242.764	16189.27
242.836	16165.89
242.907	16145.75
242.979	16122.8
243.05	16097.4
243.122	16071.09
243.193	16038.07
243.264	15979.17
243.336	15953.67
243.407	15940.71
243.479	15936.66
243.55	15913.96
243.622	15888.61
243.693	15852.46
243.764	15843.06
243.836	15812.11
243.907	15773.5
243.978	15739.04
244.05	15708.14
244.121	15659.27
244.192	15640.13
244.264	15597.23
244.335	15567.35
244.407	15516.11
244.478	15497.99
244.549	15470.42
244.62	15430.6
244.692	15398.84
244.763	15386.88
244.834	15352.81
244.906	15313.18
244.977	15280.21
245.048	15262.19
245.119	15216.25
245.191	15187.67
245.262	15138.74
245.333	15132.19
245.405	15105.29
245.476	15087.45
245.547	15064.41
245.618	15060.07
245.689	15033.76
245.761	15006.86
245.832	14979.48
245.903	14959.33
245.974	14929.54
246.045	14902.74
246.117	14887.7
246.188	14846
246.259	14807.25
246.33	14776.3
246.401	14742.75
246.473	14702.16
246.544	14667.07
246.615	14649.14
246.686	14616.89
246.757	14596.59
246.828	14557.31
246.899	14553.45
246.97	14503.85
247.042	14463.11
247.113	14442.05
247.184	14434.96
247.255	14411.24
247.326	14383.24
247.397	14358.94
247.468	14329.73
247.539	14305.1
247.61	14264.7
247.681	14250.24
247.752	14237.9
247.823	14204.25
247.894	14186.99
247.965	14156.24
248.037	14127.02
248.108	14088.94
248.179	14059.92
248.25	14038.32
248.321	14013.31
248.392	13969.53
248.463	13973.87
248.534	13949.19
248.605	13930.78
248.675	13897.23
248.746	13872.01
248.817	13855.48
248.888	13833.84
248.959	13791.8
249.03	13774.97
249.101	13762.15
249.172	13731.25
249.243	13685.21
249.314	13678.18
249.385	13655.52
249.456	13640.96
249.527	13608.71
249.598	13592.66
249.669	13575.69
249.739	13549.9
249.81	13533.75
249.881	13491.62
249.952	13467.61
250.023	13444.62
250.094	13399.64
250.165	13360.83
250.235	13341.69
250.306	13320.63
250.377	13285.92
250.448	13272.95
250.519	13227.2
250.59	13212.5
250.66	13189.8
250.731	13185.22
250.802	13162.12
250.873	13139.85
250.944	13117.1
251.014	13088.95
251.085	13091.65
251.156	13070.44
251.227	13063.88
251.297	13059.06
251.368	13048.36
251.439	13036.93
251.51	13022.76
251.58	12991.43
251.651	12964.82
251.722	12950.89
251.792	12912.9
251.863	12886.72
251.934	12875.64
252.005	12884.55
252.075	12863.2
252.146	12856.35
252.217	12852.4
252.287	12844.74
252.358	12820.63
252.429	12815.86
252.499	12787.32
252.57	12760.71
252.641	12744.57
252.711	12721.33
252.782	12679.73
252.852	12686.67
252.923	12659.1
252.994	12641.26
253.064	12635.43
253.135	12601.11
253.205	12571.65
253.276	12565.34
253.347	12563.56
253.417	12534.78
253.488	12509.62
253.558	12482.38
253.629	12462.91
253.699	12439.77
253.77	12421.88
253.841	12400.72
253.911	12385.87
253.982	12376.09
254.052	12360.86
254.123	12346.93
254.193	12329.04
254.264	12351.65
254.334	12317.91
254.405	12289.52
254.475	12264.5
254.546	12238.9
254.616	12245.31
254.687	12236.54
254.757	12221.89
254.827	12195.38
254.898	12183.37
254.968	12160.81
255.039	12134.79
255.109	12121.53
255.18	12094.34
255.25	12053.76
255.321	12038.72
255.391	12000.69
255.461	12004.11
255.532	11963.09
255.602	11933.59
255.673	11893.01
255.743	11861.72
255.813	11819.89
255.884	11811.89
255.954	11804.61
256.024	11809.14
256.095	11789.62
256.165	11754.19
256.235	11743.15
256.306	11721.13
256.376	11715.2
256.446	11706.81
256.517	11699.49
256.587	11687.82
256.657	11674.28
256.728	11657.75
256.798	11646.13
256.868	11625.74
256.938	11600.58
257.009	11589.93
257.079	11586.32
257.149	11597.84
257.219	11556.82
257.29	11548.82
257.36	11509.93
257.43	11493.54
257.5	11450.93
257.571	11428.23
257.641	11422.74
257.711	11386.74
257.781	11382.54
257.852	11371.22
257.922	11332.85
257.992	11309.67
258.062	11292.27
258.132	11277.04
258.202	11259.26
258.273	11245.81
258.343	11251.93
258.413	11219.26
258.483	11206.54
258.553	11178.15
258.623	11155.07
258.693	11142.34
258.764	11136.51
258.834	11142.54
258.904	11131.4
258.974	11112.08
259.044	11088.56
259.114	11073.91
259.184	11061.67
259.254	11038.59
259.324	10992.95
259.394	10984.9
259.464	10992.23
259.535	10972.57
259.605	10952.47
259.675	10931.66
259.745	10909.25
259.815	10874.74
259.885	10861.2
259.955	10871.23
260.025	10848.29
260.095	10832.49
260.165	10822.41
260.235	10825.21
260.305	10795.09
260.375	10764.45
260.445	10770.81
260.515	10779.87
260.585	10780.01
260.655	10771.96
260.725	10769.89
260.795	10770.95
260.865	10777.36
260.934	10748.16
261.004	10740.5
261.074	10720.5
261.144	10716.89
261.214	10718.14
261.284	10707.54
261.354	10701.42
261.424	10674.58
261.494	10678.43
261.564	10658.53
261.634	10652.75
261.703	10616.76
261.773	10609.77
261.843	10606.78
261.913	10591.56
261.983	10553.49
262.053	10543.37
262.123	10517.65
262.192	10487.77
262.262	10482.47
262.332	10449.95
