Data from 20250704_urea_1M_MAYP1162681_11-32-23-655.txt Node
Date: Fri Jul 04 11:32:23 BST 2025
User: adleo
Spectrometer: MAYP116268
Trigger mode: 0
Integration Time (sec): 1.000000E0
Scans to average: 1
Electric dark correction enabled: true
Nonlinearity correction enabled: true
Boxcar width: 10
XAxis mode: Wavelengths
Number of Pixels in Spectrum: 2068
>>>>>Begin Spectral Data<<<<<
179.565	1257.62
179.642	1312.69
179.718	1359.82
179.795	1402.29
179.871	1439.97
179.948	1461.51
180.024	1482.93
180.101	1503.74
180.177	1516.59
180.254	1537.78
180.33	1561.95
180.407	1618.16
180.483	1718.93
180.56	1812.96
180.636	1897.85
180.712	1883.68
180.789	1896.47
180.865	1908.78
180.942	1920.09
181.018	1930.93
181.095	1942.3
181.171	1946.34
181.248	1946.34
181.324	1961.89
181.4	1967.03
181.477	1976.97
181.553	1989.85
181.63	2012.06
181.706	2030.8
181.782	2043.21
181.859	2045.68
181.935	2052.2
182.011	2048.53
182.088	2063.09
182.164	2083.5
182.24	2098.72
182.317	2107.51
182.393	2104.61
182.469	2120.31
182.546	2133.1
182.622	2138.76
182.698	2134.1
182.775	2143.09
182.851	2160.07
182.927	2153.7
183.003	2150.23
183.08	2144.61
183.156	2152.46
183.232	2145.09
183.308	2131.67
183.385	2138
183.461	2156.55
183.537	2154.6
183.613	2166.83
183.69	2157.6
183.766	2146.18
183.842	2154.26
183.918	2161.12
183.995	2172.82
184.071	2176.15
184.147	2170.3
184.223	2159.74
184.299	2171.16
184.375	2161.74
184.452	2170.93
184.528	2220.37
184.604	2232.36
184.68	2240.87
184.756	2249.15
184.832	2256.43
184.908	2261.38
184.985	2262.43
185.061	2243.87
185.137	2253.44
185.213	2244.78
185.289	2249.25
185.365	2239.78
185.441	2239.4
185.517	2252.73
185.593	2252.06
185.669	2247.11
185.745	2258.92
185.822	2276.09
185.898	2267.9
185.974	2278.84
186.05	2269.18
186.126	2234.68
186.202	2225.74
186.278	2225.16
186.354	2216.41
186.43	2222.6
186.506	2221.22
186.582	2220.5
186.658	2225.88
186.734	2207.47
186.81	2208.47
186.886	2209.46
186.962	2223.78
187.038	2219.26
187.114	2210.98
187.19	2216.64
187.266	2207.51
187.341	2207.27
187.417	2198.66
187.493	2198.9
187.569	2200.99
187.645	2194.09
187.721	2180.53
187.797	2188.52
187.873	2192.52
187.949	2186.34
188.025	2179.43
188.101	2183.76
188.176	2189.04
188.252	2186.43
188.328	2192.42
188.404	2191.75
188.48	2186.81
188.556	2179.34
188.632	2179.48
188.707	2182.62
188.783	2178.1
188.859	2172.92
188.935	2162.49
189.011	2171.44
189.086	2166.82
189.162	2158.26
189.238	2156.17
189.314	2150.94
189.39	2145.85
189.465	2136.95
189.541	2151.08
189.617	2134.95
189.693	2129.25
189.768	2130.06
189.844	2155.33
189.92	2150.91
189.996	2159.52
190.071	2173.08
190.147	2173.08
190.223	2182.64
190.298	2175.69
190.374	2166.08
190.45	2176.78
190.526	2185.02
190.601	2179.64
190.677	2180.4
190.753	2208.3
190.828	2211.91
190.904	2229.85
190.98	2245.84
191.055	2256.59
191.131	2248.03
191.207	2269.48
191.282	2279.19
191.358	2272.95
191.433	2259.1
191.509	2270.14
191.585	2267.18
191.66	2265.95
191.736	2274.04
191.811	2266.61
191.887	2281.7
191.963	2305.02
192.038	2314.02
192.114	2312.16
192.189	2316.01
192.265	2314.35
192.34	2293.92
192.416	2293.11
192.491	2289.07
192.567	2291.16
192.642	2292.4
192.718	2290.31
192.793	2274.46
192.869	2269.37
192.944	2268.8
193.02	2274.94
193.095	2276.56
193.171	2284.32
193.246	2284.27
193.322	2280.27
193.397	2277.8
193.473	2262.37
193.548	2245
193.624	2248.48
193.699	2249.57
193.775	2264.85
193.85	2264.33
193.925	2270.61
194.001	2270.8
194.076	2263.24
194.152	2252.81
194.227	2247.1
194.302	2240.92
194.378	2251.24
194.453	2249.05
194.529	2259.66
194.604	2245.34
194.679	2240.25
194.755	2219.6
194.83	2231.74
194.905	2231.32
194.981	2240.93
195.056	2233.7
195.131	2238.5
195.207	2235.93
195.282	2224.7
195.357	2204.85
195.433	2223.41
195.508	2213.66
195.583	2222.32
195.659	2237.93
195.734	2245.11
195.809	2245.07
195.884	2251.49
195.96	2250.77
196.035	2266.86
196.11	2263.62
196.185	2275.04
196.261	2278.66
196.336	2311.87
196.411	2297.54
196.486	2301.35
196.561	2298.06
196.637	2306.58
196.712	2323.24
196.787	2328.62
196.862	2344.42
196.937	2351.27
197.013	2355.37
197.088	2364.22
197.163	2385.51
197.238	2403.75
197.313	2401.47
197.388	2415.04
197.464	2449.32
197.539	2460.65
197.614	2454.27
197.689	2472.27
197.764	2489.42
197.839	2512.36
197.914	2506.03
197.989	2529.6
198.065	2544.41
198.14	2595.98
198.215	2624.36
198.29	2637.46
198.365	2653.04
198.44	2663.99
198.515	2696.96
198.59	2712.68
198.665	2736.78
198.74	2744.88
198.815	2743.69
198.89	2767.65
198.965	2796.82
199.04	2791.58
199.115	2808.39
199.19	2851.8
199.265	2850.85
199.34	2861.81
199.415	2894.19
199.49	2916.63
199.565	2925.92
199.64	2948.23
199.715	2941.78
199.79	2949.17
199.865	2955.56
199.94	2953.42
200.015	2988.51
200.09	2993.99
200.165	3001.38
200.24	3010.39
200.315	3049.95
200.39	3066.21
200.464	3073.98
200.539	3079.09
200.614	3096.82
200.689	3121
200.764	3128.88
200.839	3146.37
200.914	3152.61
200.989	3145.36
201.063	3158.62
201.138	3139.65
201.213	3146.23
201.288	3126.45
201.363	3131.41
201.438	3133.84
201.512	3148.47
201.587	3130.3
201.662	3131.78
201.737	3145.13
201.812	3153.19
201.886	3120.78
201.961	3131.66
202.036	3119.98
202.111	3115.74
202.186	3085.19
202.26	3066.35
202.335	3043.79
202.41	3037.07
202.485	3018.72
202.559	2996.02
202.634	2969.9
202.709	2980.09
202.784	2956.87
202.858	2960.59
202.933	2937.95
203.008	2929.51
203.082	2909.16
203.157	2905.73
203.232	2864.04
203.306	2839.48
203.381	2809.5
203.456	2787.38
203.53	2763.25
203.605	2744.29
203.68	2719.31
203.754	2711.98
203.829	2695.07
203.904	2674.63
203.978	2665.15
204.053	2670.39
204.127	2658.38
204.202	2655.05
204.277	2637.95
204.351	2632.14
204.426	2621.99
204.5	2616.7
204.575	2579.32
204.65	2587.9
204.724	2581.18
204.799	2588.22
204.873	2580.36
204.948	2578.17
205.022	2562.65
205.097	2552.4
205.171	2564.83
205.246	2575.93
205.32	2579.17
205.395	2583.12
205.469	2573.18
205.544	2581.37
205.618	2560.51
205.693	2569.28
205.767	2556.32
205.842	2578.24
205.916	2572.48
205.991	2563.33
206.065	2568.05
206.14	2585.61
206.214	2583.37
206.289	2576.32
206.363	2590.17
206.438	2598.18
206.512	2605.18
206.586	2626.94
206.661	2636.67
206.735	2616.67
206.81	2615.38
206.884	2627.53
206.958	2611.1
207.033	2630.66
207.107	2636.91
207.181	2672.45
207.256	2669.02
207.33	2689.93
207.405	2700.28
207.479	2719.43
207.553	2726.38
207.628	2710.67
207.702	2722.29
207.776	2717.34
207.851	2725.01
207.925	2742.07
207.999	2736.83
208.073	2734.4
208.148	2738.6
208.222	2726.54
208.296	2758.16
208.371	2776.14
208.445	2792.06
208.519	2820.45
208.593	2836.17
208.668	2828.17
208.742	2829.17
208.816	2831.6
208.89	2850.29
208.965	2853.01
209.039	2861.49
209.113	2882.08
209.187	2903.37
209.261	2904.51
209.336	2928.3
209.41	2948.52
209.484	2953.05
209.558	2983.99
209.632	3006.68
209.707	3023.75
209.781	3057.22
209.855	3083.88
209.929	3108.66
210.003	3122.83
210.077	3136.66
210.151	3190.56
210.226	3245.77
210.3	3289.61
210.374	3333.67
210.448	3354.1
210.522	3382.22
210.596	3415.67
210.67	3445.79
210.744	3523.66
210.818	3583.12
210.892	3631.02
210.966	3657.09
211.041	3708.76
211.115	3742.76
211.189	3805.2
211.263	3863.58
211.337	3908.24
211.411	3964.02
211.485	4006.48
211.559	4073.97
211.633	4132.11
211.707	4161.67
211.781	4228.1
211.855	4258.95
211.929	4314.36
212.003	4366.28
212.077	4449.94
212.151	4538.24
212.225	4630.03
212.299	4700.5
212.373	4777
212.447	4864.41
212.52	4989.32
212.594	5089.8
212.668	5204.02
212.742	5293.4
212.816	5395.93
212.89	5508.08
212.964	5624.34
213.038	5745.84
213.112	5875.86
213.186	6016.78
213.26	6116.48
213.333	6197.78
213.407	6338.32
213.481	6476.95
213.555	6629.86
213.629	6760.75
213.703	6884.11
213.777	7031.28
213.85	7156.22
213.924	7336.9
213.998	7491.27
214.072	7638.09
214.146	7783.51
214.219	7936.6
214.293	8095.4
214.367	8256.46
214.441	8420.52
214.515	8574.76
214.588	8721.35
214.662	8852.94
214.736	9003.36
214.81	9187.59
214.883	9367.51
214.957	9526.1
215.031	9687.92
215.105	9839.36
215.178	9998.11
215.252	10167.66
215.326	10318.29
215.4	10478.41
215.473	10610.87
215.547	10763.9
215.621	10918.78
215.694	11090
215.768	11238.85
215.842	11394.9
215.915	11559.05
215.989	11713.61
216.063	11863.75
216.136	12028.39
216.21	12187.59
216.284	12362.7
216.357	12529
216.431	12692.79
216.504	12857.79
216.578	13045.83
216.652	13212.76
216.725	13375.45
216.799	13544.02
216.873	13709.99
216.946	13874.27
217.02	14021.92
217.093	14169.04
217.167	14295.73
217.24	14432.48
217.314	14569.92
217.387	14708.17
217.461	14836.68
217.535	14986.06
217.608	15123.05
217.682	15268.67
217.755	15427.64
217.829	15550.07
217.902	15688.26
217.976	15812.71
218.049	15933.84
218.123	16043.59
218.196	16175.46
218.27	16298.36
218.343	16410.52
218.417	16527.97
218.49	16642.97
218.563	16767.94
218.637	16891.66
218.71	17037.55
218.784	17162.03
218.857	17294.95
218.931	17407.29
219.004	17521.22
219.077	17623.01
219.151	17738.57
219.224	17837.56
219.298	17937.12
219.371	18055.48
219.444	18136.3
219.518	18240.05
219.591	18342.89
219.665	18471.8
219.738	18564.67
219.811	18649.77
219.885	18752.13
219.958	18846.67
220.031	18930.14
220.105	19021.94
220.178	19105.79
220.251	19172.44
220.325	19253.4
220.398	19330.55
220.471	19419.99
220.544	19507.36
220.618	19583.5
220.691	19652.32
220.764	19724.46
220.838	19797.71
220.911	19852.21
220.984	19945.13
221.057	20016.45
221.131	20083.34
221.204	20113.12
221.277	20198.76
221.35	20280.83
221.424	20322.08
221.497	20377.41
221.57	20435.62
221.643	20494.18
221.716	20559.67
221.79	20620.06
221.863	20667.92
221.936	20714.81
222.009	20761.56
222.082	20805.36
222.155	20850.62
222.229	20909.56
222.302	20946.62
222.375	20976.12
222.448	21024.02
222.521	21053.71
222.594	21094.92
222.667	21116.08
222.74	21153.86
222.814	21180.52
222.887	21199.46
222.96	21233.63
223.033	21267.18
223.106	21297.3
223.179	21330.65
223.252	21347.19
223.325	21353.74
223.398	21371.48
223.471	21394.95
223.544	21416.59
223.617	21435.73
223.69	21460.55
223.763	21468.74
223.837	21496.17
223.91	21517.38
223.983	21518.1
224.056	21526.78
224.129	21534.44
224.202	21568.47
224.275	21573.24
224.348	21563.41
224.42	21567.21
224.493	21573.29
224.566	21581.1
224.639	21595.94
224.712	21589.58
224.785	21588.66
224.858	21607.03
224.931	21608.62
225.004	21604.13
225.077	21605.77
225.15	21587.26
225.223	21586.35
225.296	21617.25
225.369	21600.14
225.442	21604.57
225.514	21611.99
225.587	21611.51
225.66	21615.37
225.733	21612.14
225.806	21615.32
225.879	21612.86
225.952	21596.67
226.025	21599.9
226.097	21600.67
226.17	21598.06
226.243	21576.62
226.316	21573
226.389	21564.9
226.461	21566.64
226.534	21568.9
226.607	21560.76
226.68	21573.19
226.753	21566.06
226.825	21526
226.898	21533.86
226.971	21512.22
227.044	21505.52
227.117	21500.07
227.189	21491.59
227.262	21483.97
227.335	21475.35
227.407	21463.97
227.48	21463.05
227.553	21461.56
227.626	21445.32
227.698	21434.52
227.771	21432.4
227.844	21404.73
227.916	21388.73
227.989	21359.48
228.062	21329.4
228.134	21333.4
228.207	21311.9
228.28	21281.83
228.352	21263.18
228.425	21247.51
228.498	21247.03
228.57	21212.38
228.643	21206.83
228.716	21185.05
228.788	21167.6
228.861	21143.7
228.934	21147.98
229.006	21131.41
229.079	21111.98
229.151	21094
229.224	21061.13
229.296	21057.57
229.369	21080.85
229.442	21090.53
229.514	21072.22
229.587	21084.03
229.659	21044.7
229.732	21037.04
229.804	21036.75
229.877	21054.73
229.949	21048.07
230.022	21058.68
230.094	21052.8
230.167	21031.78
230.239	21015.01
230.312	20997.28
230.384	21007.3
230.457	20987.93
230.529	20971.83
230.602	20952.36
230.674	20930.86
230.747	20923.1
230.819	20905.75
230.892	20852.84
230.964	20832.98
231.037	20818.38
231.109	20792.74
231.181	20784.11
231.254	20753.7
231.326	20729.99
231.399	20697.74
231.471	20666.9
231.544	20611.76
231.616	20600.68
231.688	20587.04
231.761	20556.05
231.833	20529.74
231.905	20484.39
231.978	20458.9
232.05	20440.34
232.122	20425.3
232.195	20402.51
232.267	20387.96
232.339	20358.36
232.412	20351.18
232.484	20318.17
232.556	20292.82
232.629	20289.88
232.701	20279.62
232.773	20259.67
232.846	20233.6
232.918	20214.94
232.99	20202.41
233.062	20193.84
233.135	20175.72
233.207	20128.83
233.279	20116.68
233.351	20092.1
233.424	20067.58
233.496	20033.41
233.568	20028.59
233.64	19984.93
233.713	19956.74
233.785	19937.7
233.857	19910.04
233.929	19870.72
234.001	19861.13
234.074	19851.58
234.146	19803.3
234.218	19772.41
234.29	19745.47
234.362	19714.43
234.434	19662.39
234.507	19610.44
234.579	19570.1
234.651	19542.73
234.723	19534.59
234.795	19510.92
234.867	19484.76
234.939	19468.28
235.012	19446.25
235.084	19417
235.156	19399.65
235.228	19369.39
235.3	19330.36
235.372	19316
235.444	19304.19
235.516	19252.29
235.588	19222.99
235.66	19188.44
235.732	19150.27
235.804	19178.61
235.876	19161.07
235.948	19149.84
236.02	19122.32
236.092	19085.7
236.164	19054.61
236.236	19024.35
236.308	18989.66
236.38	18972.64
236.452	18936.6
236.524	18909.9
236.596	18896.02
236.668	18877.81
236.74	18850.63
236.812	18825.33
236.884	18799.4
236.956	18767.55
237.028	18731.74
237.1	18698.59
237.172	18691.75
237.244	18682.25
237.316	18606.4
237.388	18570.98
237.46	18533.49
237.532	18525.15
237.604	18487.37
237.675	18468.77
237.747	18441.98
237.819	18400.68
237.891	18364.78
237.963	18323.57
238.035	18286.51
238.107	18221.5
238.178	18194.33
238.25	18152.45
238.322	18146.76
238.394	18099.58
238.466	18065.27
238.538	18043.97
238.609	18014.67
238.681	17963.39
238.753	17912.31
238.825	17895.83
238.897	17868.12
238.968	17856.75
239.04	17821.95
239.112	17825.91
239.184	17780.17
239.255	17749.67
239.327	17732.75
239.399	17699.74
239.471	17675.55
239.542	17651.88
239.614	17636.61
239.686	17577.81
239.758	17563.84
239.829	17519.89
239.901	17502.83
239.973	17478.01
240.044	17454.59
240.116	17428.51
240.188	17398.2
240.259	17368.95
240.331	17332.18
240.403	17301.57
240.474	17254.15
240.546	17212.66
240.618	17158
240.689	17119.45
240.761	17088.22
240.833	17071.64
240.904	17030.29
240.976	17000.12
241.048	16965.37
241.119	16937.9
241.191	16928.46
241.262	16920.41
241.334	16883.78
241.405	16843.54
241.477	16805.75
241.549	16762.47
241.62	16718.81
241.692	16695.43
241.763	16678.03
241.835	16631.43
241.906	16607.23
241.978	16556.1
242.049	16538.55
242.121	16520.86
242.192	16506.5
242.264	16454.69
242.335	16400.56
242.407	16380.27
242.478	16348.66
242.55	16321.38
242.621	16280.41
242.693	16231.83
242.764	16183.34
242.836	16149.7
242.907	16123.86
242.979	16093.6
243.05	16067.23
243.122	16051.81
243.193	16021.78
243.264	15982.84
243.336	15957.15
243.407	15929.86
243.479	15926.97
243.55	15903.16
243.622	15872.46
243.693	15842
243.764	15834.19
243.836	15799.58
243.907	15773.89
243.978	15748.2
244.05	15725.11
244.121	15683.56
244.192	15663.17
244.264	15623.65
244.335	15594.3
244.407	15549.08
244.478	15524.21
244.549	15494.04
244.62	15446.46
244.692	15410.99
244.763	15376.91
244.834	15349.09
244.906	15316.22
244.977	15287.83
245.048	15267.15
245.119	15233.27
245.191	15186.27
245.262	15133.25
245.333	15119.6
245.405	15085.09
245.476	15055.83
245.547	15024.89
245.618	15003.44
245.689	14973.65
245.761	14946.65
245.832	14915.75
245.903	14897.92
245.974	14872.56
246.045	14843.25
246.117	14833.28
246.188	14790.37
246.259	14755.81
246.33	14718.4
246.401	14685.96
246.473	14644.27
246.544	14601.7
246.615	14586.81
246.686	14557.89
246.757	14545.45
246.828	14499.32
246.899	14491.55
246.97	14439.78
247.042	14406.28
247.113	14389.36
247.184	14385.36
247.255	14347.18
247.326	14321.2
247.397	14290.83
247.468	14264.94
247.539	14238.81
247.61	14195.62
247.681	14189.98
247.752	14175.95
247.823	14147.08
247.894	14116.95
247.965	14076.75
248.037	14052.02
248.108	14009.55
248.179	13988.29
248.25	13962.98
248.321	13957
248.392	13920.41
248.463	13934.44
248.534	13904.07
248.605	13880.84
248.675	13847.77
248.746	13834.46
248.817	13814.7
248.888	13796.76
248.959	13755.79
249.03	13738.68
249.101	13718.14
249.172	13680.54
249.243	13634.5
249.314	13628.81
249.385	13609.39
249.456	13593.77
249.527	13566.29
249.598	13540.16
249.669	13516.78
249.739	13492.97
249.81	13474.26
249.881	13436.18
249.952	13401.95
250.023	13379.1
250.094	13338.42
250.165	13311.85
250.235	13292.86
250.306	13267.55
250.377	13232.51
250.448	13211.68
250.519	13167.96
250.59	13165.5
250.66	13146.7
250.731	13148.1
250.802	13120.62
250.873	13106.69
250.944	13090.01
251.014	13058.58
251.085	13064.17
251.156	13042.43
251.227	13036.07
251.297	13024.83
251.368	13015.58
251.439	13004.01
251.51	12996.68
251.58	12969.3
251.651	12933.58
251.722	12924.28
251.792	12888.27
251.863	12865.51
251.934	12862.04
252.005	12867.3
252.075	12832.25
252.146	12817.36
252.217	12811.09
252.287	12799.38
252.358	12771.99
252.429	12771.46
252.499	12746.69
252.57	12735.07
252.641	12726.01
252.711	12703.69
252.782	12668.98
252.852	12668.45
252.923	12652.73
252.994	12634.75
253.064	12631.57
253.135	12602.84
253.205	12570.11
253.276	12572.33
253.347	12570.69
253.417	12539.21
253.488	12518.29
253.558	12501.52
253.629	12485.13
253.699	12459.1
253.77	12443.53
253.841	12421.93
253.911	12403.28
253.982	12388.67
254.052	12369.24
254.123	12356.71
254.193	12334.59
254.264	12348.85
254.334	12307.69
254.405	12269.37
254.475	12236.78
254.546	12212.78
254.616	12219.28
254.687	12205.88
254.757	12189.21
254.827	12163.8
254.898	12151.13
254.968	12130.01
255.039	12102.83
255.109	12091.07
255.18	12064.6
255.25	12024.07
255.321	12012.98
255.391	11981.07
255.461	11981.94
255.532	11930.12
255.602	11905.44
255.673	11865.97
255.743	11832.03
255.813	11793.72
255.884	11783.55
255.954	11773.86
256.024	11769.18
256.095	11743.39
256.165	11706.38
256.235	11694.42
256.306	11671.96
256.376	11665.7
256.446	11659.63
256.517	11651.34
256.587	11636.54
256.657	11615.86
256.728	11603.19
256.798	11585.4
256.868	11562.41
256.938	11540.34
257.009	11538.5
257.079	11524
257.149	11539.71
257.219	11503.61
257.29	11496.04
257.36	11465.29
257.43	11456.04
257.5	11420.91
257.571	11404.04
257.641	11400.76
257.711	11371.55
257.781	11363.46
257.852	11352.32
257.922	11310.01
257.992	11285.77
258.062	11263.02
258.132	11262.39
258.202	11243.74
258.273	11225.81
258.343	11227.55
258.413	11199.69
258.483	11177.33
258.553	11149.14
258.623	11120.27
258.693	11103.89
258.764	11098.68
258.834	11096.66
258.904	11079.93
258.974	11058.59
259.044	11041.48
259.114	11031.79
259.184	11017.87
259.254	10992.23
259.324	10953.39
259.394	10946.93
259.464	10954.16
259.535	10945.34
259.605	10919.22
259.675	10895.9
259.745	10885.2
259.815	10853.68
259.885	10832.63
259.955	10855.47
260.025	10827.91
260.095	10808.01
260.165	10804.88
260.235	10810.8
260.305	10786.42
260.375	10757.03
260.445	10762.62
260.515	10757.99
260.585	10752.16
260.655	10737.03
260.725	10741.9
260.795	10732.36
260.865	10734.81
260.934	10706.82
261.004	10694.63
261.074	10683.3
261.144	10683.21
261.214	10683.59
261.284	10671.02
261.354	10666.34
261.424	10631.93
261.494	10642.39
261.564	10628.22
261.634	10619.79
261.703	10583.17
261.773	10573.53
261.843	10569.1
261.913	10553.49
261.983	10524.05
262.053	10517.88
262.123	10495.96
262.192	10459.06
262.262	10458.48
262.332	10432.37
