Data from 20250704_urea_0.1M_MAYP1162681_11-18-41-695.txt Node
Date: Fri Jul 04 11:18:41 BST 2025
User: adleo
Spectrometer: MAYP116268
Trigger mode: 0
Integration Time (sec): 1.000000E0
Scans to average: 1
Electric dark correction enabled: true
Nonlinearity correction enabled: true
Boxcar width: 10
XAxis mode: Wavelengths
Number of Pixels in Spectrum: 2068
>>>>>Begin Spectral Data<<<<<
179.565	1240.13
179.642	1297.88
179.718	1343.75
179.795	1384.56
179.871	1418.4
179.948	1438.16
180.024	1459.64
180.101	1483.39
180.177	1499.07
180.254	1523.02
180.33	1546.92
180.407	1603.05
180.483	1700.63
180.56	1793.85
180.636	1881.21
180.712	1871.89
180.789	1884.39
180.865	1894.61
180.942	1905.45
181.018	1917.43
181.095	1932.36
181.171	1937.4
181.248	1939.3
181.324	1955.14
181.4	1961.61
181.477	1973.49
181.553	1987.04
181.63	2007.4
181.706	2022.85
181.782	2031.69
181.859	2030.98
181.935	2036.21
182.011	2031.5
182.088	2050.15
182.164	2070.51
182.24	2083.78
182.317	2094.1
182.393	2090.63
182.469	2108.22
182.546	2121.69
182.622	2127.35
182.698	2122.73
182.775	2132.2
182.851	2147.13
182.927	2139.24
183.003	2135.15
183.08	2128.49
183.156	2136.53
183.232	2130.58
183.308	2120.16
183.385	2127.25
183.461	2143.28
183.537	2142.19
183.613	2155.7
183.69	2147.99
183.766	2135.81
183.842	2144.65
183.918	2146.75
183.995	2162.54
184.071	2165.73
184.147	2158.07
184.223	2144.61
184.299	2156.84
184.375	2147.04
184.452	2155.52
184.528	2206.24
184.604	2217.75
184.68	2229.26
184.756	2237.83
184.832	2241.97
184.908	2246.1
184.985	2245.49
185.061	2231.36
185.137	2244.25
185.213	2234.07
185.289	2234.55
185.365	2227.75
185.441	2224.99
185.517	2236.5
185.593	2231.41
185.669	2225.89
185.745	2238.45
185.822	2256.38
185.898	2245.44
185.974	2254.81
186.05	2242.67
186.126	2208.7
186.202	2200.94
186.278	2197.71
186.354	2187.67
186.43	2194.9
186.506	2193.81
186.582	2192.86
186.658	2197.61
186.734	2173.21
186.81	2174.49
186.886	2177.44
186.962	2191.57
187.038	2188.48
187.114	2182.39
187.19	2188.48
187.266	2180.11
187.341	2178.3
187.417	2172.68
187.493	2173.97
187.569	2177.39
187.645	2172.59
187.721	2157.93
187.797	2165.45
187.873	2170.49
187.949	2162.64
188.025	2159.69
188.101	2163.83
188.176	2171.54
188.252	2167.97
188.328	2180.1
188.404	2181.86
188.48	2175.01
188.556	2168.01
188.632	2167.87
188.707	2170.92
188.783	2171.39
188.859	2165.64
188.935	2155.88
189.011	2161.88
189.086	2155.74
189.162	2149.7
189.238	2147.27
189.314	2147.7
189.39	2142.18
189.465	2133.95
189.541	2152.56
189.617	2136.34
189.693	2128.87
189.768	2130.44
189.844	2154.99
189.92	2143.63
189.996	2152.53
190.071	2164.13
190.147	2162.47
190.223	2169.75
190.298	2162.33
190.374	2148.48
190.45	2160.42
190.526	2170.7
190.601	2164.94
190.677	2166.13
190.753	2194.36
190.828	2197.97
190.904	2213.68
190.98	2229.24
191.055	2240.9
191.131	2233.85
191.207	2254.79
191.282	2264.82
191.358	2257.3
191.433	2241.45
191.509	2255.39
191.585	2249.3
191.66	2251.11
191.736	2259
191.811	2249.96
191.887	2264.39
191.963	2287.99
192.038	2295.13
192.114	2290.13
192.189	2295.22
192.265	2291.84
192.34	2269.08
192.416	2268.7
192.491	2262.56
192.567	2264.94
192.642	2265.94
192.718	2264.52
192.793	2253.67
192.869	2252.57
192.944	2254.85
193.02	2263.42
193.095	2268.27
193.171	2274.65
193.246	2275.46
193.322	2271.99
193.397	2275.55
193.473	2264.22
193.548	2245.71
193.624	2253.23
193.699	2255.23
193.775	2272.08
193.85	2275.84
193.925	2285.79
194.001	2285.07
194.076	2280.31
194.152	2268.23
194.227	2260.52
194.302	2251.24
194.378	2252.52
194.453	2247.67
194.529	2259.95
194.604	2244.44
194.679	2236.87
194.755	2220.04
194.83	2228.22
194.905	2229.03
194.981	2237.41
195.056	2227.94
195.131	2230.7
195.207	2227.42
195.282	2219.42
195.357	2195.67
195.433	2209.71
195.508	2194.95
195.583	2201.19
195.659	2213.56
195.734	2223.8
195.809	2224.18
195.884	2234.21
195.96	2236.78
196.035	2253.72
196.11	2248.39
196.185	2262.62
196.261	2268.42
196.336	2300.69
196.411	2288.45
196.486	2291.12
196.561	2283.65
196.637	2292.78
196.712	2309.2
196.787	2311.68
196.862	2324.48
196.937	2339.52
197.013	2344.47
197.088	2356.22
197.163	2378.08
197.238	2393.75
197.313	2393.6
197.388	2405.22
197.464	2435.27
197.539	2444.98
197.614	2435.98
197.689	2448.41
197.764	2463.27
197.839	2486.84
197.914	2482.12
197.989	2502.64
198.065	2517.26
198.14	2567.91
198.215	2593.34
198.29	2609.44
198.365	2623.83
198.44	2638.11
198.515	2666.51
198.59	2684.18
198.665	2711.72
198.74	2720.49
198.815	2720.77
198.89	2745.07
198.965	2776.52
199.04	2773.9
199.115	2793.33
199.19	2840.93
199.265	2842.74
199.34	2855.23
199.415	2885.13
199.49	2903.33
199.565	2917.29
199.64	2941.36
199.715	2939.45
199.79	2948.65
199.865	2952.8
199.94	2952.61
200.015	2981.45
200.09	2984.12
200.165	2991.84
200.24	2997.52
200.315	3039.37
200.39	3056.1
200.464	3061.58
200.539	3066.16
200.614	3082.47
200.689	3105.79
200.764	3109.03
200.839	3128.33
200.914	3135.11
200.989	3123.89
201.063	3137.29
201.138	3118.95
201.213	3121.62
201.288	3104.21
201.363	3112.51
201.438	3114.37
201.512	3128.24
201.587	3115.03
201.662	3120.99
201.737	3132.87
201.812	3144.03
201.886	3114.1
201.961	3130.14
202.036	3119.03
202.111	3116.26
202.186	3084.76
202.26	3066.4
202.335	3046.94
202.41	3046.18
202.485	3031.59
202.559	3015.67
202.634	2996.31
202.709	3010.27
202.784	2996.44
202.858	2999.78
202.933	2984.85
203.008	2984.66
203.082	2973.84
203.157	2977.28
203.232	2945.34
203.306	2935.47
203.381	2912.05
203.456	2898.99
203.53	2884.87
203.605	2879
203.68	2871.56
203.754	2885.38
203.829	2891.24
203.904	2889.77
203.978	2897.49
204.053	2922.76
204.127	2935.92
204.202	2960.72
204.277	2969.39
204.351	2994.15
204.426	3021.96
204.5	3047.76
204.575	3053.3
204.65	3099.91
204.724	3137.96
204.799	3190.89
204.873	3235.76
204.948	3288.36
205.022	3331.49
205.097	3384.56
205.171	3460.32
205.246	3535.41
205.32	3603.72
205.395	3673.94
205.469	3742.65
205.544	3825.24
205.618	3893.39
205.693	3992.44
205.767	4068.78
205.842	4185.41
205.916	4269.29
205.991	4356.73
206.065	4468.99
206.14	4589.9
206.214	4702.96
206.289	4809.03
206.363	4937.75
206.438	5061.41
206.512	5191.89
206.586	5338.94
206.661	5475.36
206.735	5584.92
206.81	5717.65
206.884	5871.35
206.958	5996.81
207.033	6155.78
207.107	6315.75
207.181	6498.73
207.256	6650.2
207.33	6826.58
207.405	6996.6
207.479	7186.52
207.553	7358.1
207.628	7505.73
207.702	7688.88
207.776	7848.09
207.851	8023.04
207.925	8208.72
207.999	8374.98
208.073	8556.58
208.148	8745
208.222	8915.73
208.296	9136.78
208.371	9334.04
208.445	9525.96
208.519	9747
208.593	9947.91
208.668	10132.06
208.742	10323.23
208.816	10512.54
208.89	10721.16
208.965	10914.34
209.039	11110.03
209.113	11322.25
209.187	11538.36
209.261	11725.44
209.336	11944.04
209.41	12156.01
209.484	12351.55
209.558	12571.97
209.632	12770.99
209.707	12963.51
209.781	13183.36
209.855	13393.77
209.929	13608.27
210.003	13809.86
210.077	13995.88
210.151	14239.69
210.226	14456.46
210.3	14670.29
210.374	14874.48
210.448	15059.05
210.522	15247.32
210.596	15434.83
210.67	15623.63
210.744	15851.47
210.818	16066.39
210.892	16258.27
210.966	16435.55
211.041	16630.41
211.115	16794.47
211.189	16977.81
211.263	17159.41
211.337	17330.69
211.411	17503.85
211.485	17665.49
211.559	17842.65
211.633	18003.33
211.707	18120.72
211.781	18288.04
211.855	18400.42
211.929	18552.03
212.003	18690.77
212.077	18849.52
212.151	19007.82
212.225	19168.83
212.299	19301.93
212.373	19426.17
212.447	19573.49
212.52	19735.8
212.594	19871.65
212.668	20033.87
212.742	20175.99
212.816	20314.73
212.89	20444.9
212.964	20573.44
213.038	20709.84
213.112	20852.74
213.186	21001.37
213.26	21112.8
213.333	21197.87
213.407	21340.43
213.481	21463.96
213.555	21589.86
213.629	21701.34
213.703	21813.46
213.777	21932.24
213.85	22032.61
213.924	22183.54
213.998	22285.07
214.072	22400.54
214.146	22508.19
214.219	22603.84
214.293	22697.9
214.367	22796.68
214.441	22900.73
214.515	22994.61
214.588	23057.58
214.662	23110.76
214.736	23189.74
214.81	23290.94
214.883	23390.13
214.957	23464.82
215.031	23544.19
215.105	23606.63
215.178	23679.26
215.252	23758.88
215.326	23804.27
215.4	23856.74
215.473	23892.14
215.547	23956.34
215.621	24010.94
215.694	24077.51
215.768	24122.66
215.842	24179.72
215.915	24241.36
215.989	24281.74
216.063	24337.56
216.136	24411.94
216.21	24488.93
216.284	24565.45
216.357	24624.54
216.431	24671.44
216.504	24736.61
216.578	24808.12
216.652	24877.25
216.725	24924.34
216.799	24973.99
216.873	25032.03
216.946	25098.85
217.02	25135.96
217.093	25176.3
217.167	25200.47
217.24	25235.36
217.314	25288.25
217.387	25321.35
217.461	25366.86
217.535	25432.64
217.608	25470.04
217.682	25506
217.755	25551.61
217.829	25571.59
217.902	25608.75
217.976	25660.4
218.049	25693.94
218.123	25724.01
218.196	25776.87
218.27	25816.49
218.343	25839.57
218.417	25874.03
218.49	25904.92
218.563	25949.96
218.637	25992.97
218.71	26051.86
218.784	26090.58
218.857	26134.22
218.931	26179.5
219.004	26205.33
219.077	26228.74
219.151	26256.45
219.224	26289.72
219.298	26320.38
219.371	26363.06
219.444	26391.45
219.518	26414.77
219.591	26438.14
219.665	26490.87
219.738	26508.49
219.811	26531.86
219.885	26576.67
219.958	26607.14
220.031	26630.07
220.105	26666
220.178	26691.59
220.251	26702.36
220.325	26720.81
220.398	26735.49
220.471	26756.06
220.544	26786.77
220.618	26801.84
220.691	26823.23
220.764	26848.64
220.838	26856.22
220.911	26869.74
220.984	26904.03
221.057	26926.73
221.131	26952.9
221.204	26937.35
221.277	26967.97
221.35	26999.07
221.424	27001.59
221.497	27017.91
221.57	27019.02
221.643	27027.86
221.716	27031.96
221.79	27036.17
221.863	27046.26
221.936	27047.95
222.009	27054.28
222.082	27060.51
222.155	27059.2
222.229	27081.62
222.302	27081.76
222.375	27084.22
222.448	27084.85
222.521	27070.41
222.594	27064.08
222.667	27042.88
222.74	27059.3
222.814	27046.55
222.887	27043.75
222.96	27057.37
223.033	27057.03
223.106	27070.99
223.179	27072.59
223.252	27075.44
223.325	27067.76
223.398	27060.51
223.471	27047.52
223.544	27047.62
223.617	27029.07
223.69	27021.97
223.763	26987.49
223.837	26975.12
223.91	26964.26
223.983	26939.58
224.056	26917.32
224.129	26906.31
224.202	26899.3
224.275	26869.46
224.348	26845.89
224.42	26812.23
224.493	26761.18
224.566	26733.85
224.639	26710.62
224.712	26684.83
224.785	26664.88
224.858	26649.67
224.931	26627.36
225.004	26622.44
225.077	26595.73
225.15	26558.7
225.223	26537.45
225.296	26543.64
225.369	26501.87
225.442	26476.76
225.514	26462.9
225.587	26453.25
225.66	26435.19
225.733	26426.06
225.806	26401.2
225.879	26377.97
225.952	26339.31
226.025	26338.2
226.097	26332.4
226.17	26307.44
226.243	26254.1
226.316	26225.47
226.389	26206.1
226.461	26184.81
226.534	26156.38
226.607	26130.89
226.68	26130.99
226.753	26105.64
226.825	26054.13
226.898	26042.83
226.971	26012.13
227.044	25988.91
227.117	25958.55
227.189	25929.39
227.262	25903.76
227.335	25885.8
227.407	25848.1
227.48	25841.06
227.553	25807.56
227.626	25764.26
227.698	25736.02
227.771	25720.58
227.844	25671.78
227.916	25635.29
227.989	25597.36
228.062	25559.86
228.134	25547.65
228.207	25503.05
228.28	25467.14
228.352	25435
228.425	25406.34
228.498	25394.9
228.57	25347.22
228.643	25323.43
228.716	25290.08
228.788	25245.44
228.861	25200.42
228.934	25189.75
229.006	25158.68
229.079	25129.58
229.151	25103.52
229.224	25047.07
229.296	25028.97
229.369	25025.89
229.442	25005.38
229.514	24965.82
229.587	24948.11
229.659	24891.17
229.732	24859.43
229.804	24843.12
229.877	24842.15
229.949	24824.3
230.022	24803.79
230.094	24782.86
230.167	24754.05
230.239	24712.85
230.312	24686.94
230.384	24678.02
230.457	24649.51
230.529	24615.64
230.602	24572.56
230.674	24536.67
230.747	24529.58
230.819	24499.28
230.892	24439.99
230.964	24413.85
231.037	24387.61
231.109	24350.99
231.181	24333.29
231.254	24296.01
231.326	24249.12
231.399	24203.73
231.471	24153.61
231.544	24098.86
231.616	24070.93
231.688	24038.52
231.761	23991.06
231.833	23944.28
231.905	23888.42
231.978	23844.92
232.05	23800.69
232.122	23773.25
232.195	23735.59
232.267	23706.26
232.339	23661.22
232.412	23645.59
232.484	23601.56
232.556	23553.53
232.629	23534.96
232.701	23500.67
232.773	23466.34
232.846	23426.03
232.918	23400.27
232.99	23370.62
233.062	23337.97
233.135	23298.09
233.207	23247.46
233.279	23224.03
233.351	23194.9
233.424	23153.68
233.496	23107.92
233.568	23095.96
233.64	23046.93
233.713	23003.19
233.785	22970.74
233.857	22943.45
233.929	22889.6
234.001	22873.49
234.074	22848.9
234.146	22789.21
234.218	22747.12
234.29	22703.78
234.362	22665.79
234.434	22602.1
234.507	22551.28
234.579	22498.93
234.651	22452.26
234.723	22414.37
234.795	22378.36
234.867	22339.41
234.939	22304.46
235.012	22270.28
235.084	22230.41
235.156	22200.62
235.228	22148.6
235.3	22091.48
235.372	22041.78
235.444	22014.88
235.516	21940.45
235.588	21914.9
235.66	21868.67
235.732	21816.9
235.804	21832.66
235.876	21800.8
235.948	21773.71
236.02	21724.6
236.092	21680.16
236.164	21642.37
236.236	21605.11
236.308	21560.48
236.38	21515.12
236.452	21473.04
236.524	21423.54
236.596	21384.84
236.668	21351.72
236.74	21319.14
236.812	21279.48
236.884	21242.32
236.956	21190.75
237.028	21136.86
237.1	21075.8
237.172	21053.24
237.244	21032.32
237.316	20955.59
237.388	20901.27
237.46	20844.45
237.532	20823.29
237.604	20770.52
237.675	20740.59
237.747	20699.24
237.819	20652.06
237.891	20605.41
237.963	20550.08
238.035	20504.11
238.107	20421.84
238.178	20380.97
238.25	20334.51
238.322	20315.14
238.394	20271.38
238.466	20222.13
238.538	20187.14
238.609	20152.3
238.681	20087.53
238.753	20028.98
238.825	19988.78
238.897	19951.63
238.968	19929.99
239.04	19880.98
239.112	19875.25
239.184	19822.38
239.255	19779.3
239.327	19741.32
239.399	19707.59
239.471	19678.15
239.542	19649.86
239.614	19639.74
239.686	19577.19
239.758	19549.77
239.829	19491.02
239.901	19449.77
239.973	19410.45
240.044	19380.96
240.116	19334.02
240.188	19293.2
240.259	19253.64
240.331	19204.63
240.403	19167.33
240.474	19105.02
240.546	19052.06
240.618	18989.41
240.689	18944.36
240.761	18910.19
240.833	18882.34
240.904	18831.59
240.976	18791.79
241.048	18749.28
241.119	18707.36
241.191	18668.13
241.262	18642.01
241.334	18601.58
241.405	18550.07
241.477	18511.27
241.549	18459.66
241.62	18419.71
241.692	18393.26
241.763	18369.31
241.835	18322.99
241.906	18281.21
241.978	18222.23
242.049	18191.1
242.121	18156.11
242.192	18125.94
242.264	18061.13
242.335	17996.79
242.407	17976.12
242.478	17923.78
242.55	17888.02
242.621	17846.58
242.693	17808.36
242.764	17758.73
242.836	17711.11
242.907	17692.03
242.979	17661.04
243.05	17624.8
243.122	17594.34
243.193	17542.73
243.264	17473.19
243.336	17433.72
243.407	17403.69
243.479	17393.62
243.55	17365.72
243.622	17331.36
243.693	17288.51
243.764	17269.19
243.836	17226.39
243.907	17174.15
243.978	17139.01
244.05	17096.31
244.121	17039.4
244.192	17009.13
244.264	16955.73
244.335	16917.71
244.407	16857.94
244.478	16815.24
244.549	16777.94
244.62	16727.62
244.692	16697.65
244.763	16679.19
244.834	16640.05
244.906	16597.59
244.977	16556.87
245.048	16524.38
245.119	16472.81
245.191	16425.2
245.262	16368.27
245.333	16349.72
245.405	16317.47
245.476	16285.86
245.547	16250.67
245.618	16223.68
245.689	16185.8
245.761	16160.83
245.832	16127.86
245.903	16101.35
245.974	16079.04
246.045	16035.76
246.117	16014.4
246.188	15956.85
246.259	15908.22
246.33	15868.02
246.401	15825.9
246.473	15776.73
246.544	15738.03
246.615	15720.34
246.686	15678.45
246.757	15662.84
246.828	15613.86
246.899	15595.6
246.97	15548.36
247.042	15511.34
247.113	15484.49
247.184	15472.97
247.255	15419.71
247.326	15384.71
247.397	15344.56
247.468	15307.54
247.539	15278.53
247.61	15235
247.681	15211.48
247.752	15191.81
247.823	15152.48
247.894	15125.19
247.965	15092.99
248.037	15052.99
248.108	15005.89
248.179	14978.42
248.25	14938.46
248.321	14923.03
248.392	14875.74
248.463	14863.11
248.534	14825.51
248.605	14788.45
248.675	14752.34
248.746	14739.95
248.817	14719.18
248.888	14701.44
248.959	14646.15
249.03	14625.52
249.101	14597.32
249.172	14562.46
249.243	14504.38
249.314	14486.54
249.385	14459.93
249.456	14432.26
249.527	14397.65
249.598	14376.92
249.669	14351.13
249.739	14326.98
249.81	14302.35
249.881	14261.76
249.952	14232.45
250.023	14201.89
250.094	14165.4
250.165	14130.4
250.235	14093.38
250.306	14057.13
250.377	14016.49
250.448	13997.3
250.519	13942.83
250.59	13925.91
250.66	13901.61
250.731	13893.51
250.802	13869.6
250.873	13835.57
250.944	13810.07
251.014	13770.73
251.085	13767.31
251.156	13745.95
251.227	13734.24
251.297	13718.09
251.368	13704.79
251.439	13692.93
251.51	13683.14
251.58	13651.33
251.651	13619.51
251.722	13608.57
251.792	13565.95
251.863	13538.04
251.934	13525.94
252.005	13535.73
252.075	13506.42
252.146	13493.74
252.217	13481.01
252.287	13461.15
252.358	13437.58
252.429	13433.43
252.499	13413.57
252.57	13385.9
252.641	13365.41
252.711	13334.75
252.782	13298.4
252.852	13292.19
252.923	13262.68
252.994	13240.12
253.064	13228.75
253.135	13192.25
253.205	13153.83
253.276	13157.4
253.347	13146.94
253.417	13113.58
253.488	13081.96
253.558	13058.14
253.629	13024.16
253.699	13002.51
253.77	12992.15
253.841	12969.93
253.911	12944.52
253.982	12917.33
254.052	12898.92
254.123	12879.59
254.193	12848.4
254.264	12859.92
254.334	12826.47
254.405	12789.93
254.475	12754.5
254.546	12733.29
254.616	12728.08
254.687	12717.33
254.757	12700.02
254.827	12670.33
254.898	12654.33
254.968	12633.5
255.039	12606.51
255.109	12601.25
255.18	12570.02
255.25	12515.59
255.321	12497.42
255.391	12455.63
255.461	12464.59
255.532	12415.71
255.602	12395.18
255.673	12362.21
255.743	12323.74
255.813	12273.61
255.884	12263.29
255.954	12252.98
256.024	12243.48
256.095	12214.66
256.165	12169.68
256.235	12149.01
256.306	12127.51
256.376	12115.84
256.446	12103.69
256.517	12085.47
256.587	12072.75
256.657	12048.46
256.728	12040.94
256.798	12021.46
256.868	12007.87
256.938	11978.71
257.009	11972.15
257.079	11957.6
257.149	11962.8
257.219	11922.6
257.29	11911.8
257.36	11875.61
257.43	11862.01
257.5	11816.76
257.571	11788.41
257.641	11784.56
257.711	11749.23
257.781	11734.72
257.852	11721.66
257.922	11677.51
257.992	11654.61
258.062	11629.79
258.132	11626.03
258.202	11596.92
258.273	11582.8
258.343	11576.44
258.413	11543.66
258.483	11519.71
258.553	11480.81
258.623	11454.26
258.693	11446.16
258.764	11449.34
258.834	11449.24
258.904	11425.43
258.974	11402.4
259.044	11387.8
259.114	11374.73
259.184	11358.83
259.254	11338.54
259.324	11292.76
259.394	11289.77
259.464	11287.65
259.535	11264.61
259.605	11230.97
259.675	11204.32
259.745	11185.09
259.815	11159.16
259.885	11141.19
259.955	11148.61
260.025	11121.63
260.095	11104.85
260.165	11084.23
260.235	11075.7
260.305	11040.18
260.375	11013.39
260.445	11027.75
260.515	11029.48
260.585	11018.11
260.655	11003.07
260.725	10998.78
260.795	10993.2
260.865	10985.1
260.934	10958.45
261.004	10955.85
261.074	10945.87
261.144	10945.34
261.214	10941.82
261.284	10928.28
261.354	10915.66
261.424	10890.79
261.494	10899.75
261.564	10881.73
261.634	10875.18
261.703	10841.54
261.773	10834.55
