Data from 20250704_urea_0.1M_MAYP1162681_11-18-34-696.txt Node
Date: Fri Jul 04 11:18:34 BST 2025
User: adleo
Spectrometer: MAYP116268
Trigger mode: 0
Integration Time (sec): 1.000000E0
Scans to average: 1
Electric dark correction enabled: true
Nonlinearity correction enabled: true
Boxcar width: 10
XAxis mode: Wavelengths
Number of Pixels in Spectrum: 2068
>>>>>Begin Spectral Data<<<<<
179.565	1239.13
179.642	1298.55
179.718	1343.61
179.795	1385.8
179.871	1418.71
179.948	1439.45
180.024	1461.69
180.101	1484.17
180.177	1498.14
180.254	1521.15
180.33	1545.62
180.407	1602.27
180.483	1700.8
180.56	1794.3
180.636	1881.33
180.712	1868.73
180.789	1882.7
180.865	1897.53
180.942	1904.95
181.018	1913.98
181.095	1925.2
181.171	1931.1
181.248	1932.1
181.324	1947.46
181.4	1954.35
181.477	1966.29
181.553	1979.36
181.63	1998.38
181.706	2016.79
181.782	2026.49
181.859	2025.92
181.935	2029.82
182.011	2025.2
182.088	2042.61
182.164	2061.69
182.24	2074.91
182.317	2083.85
182.393	2081.99
182.469	2095.69
182.546	2110.72
182.622	2115.81
182.698	2111
182.775	2123.8
182.851	2139.59
182.927	2133.41
183.003	2128.23
183.08	2122.09
183.156	2130.27
183.232	2126.7
183.308	2114.05
183.385	2121.28
183.461	2140.83
183.537	2139.5
183.613	2153.1
183.69	2142.73
183.766	2132.79
183.842	2141.97
183.918	2147.15
183.995	2160.09
184.071	2164.42
184.147	2156.76
184.223	2145.11
184.299	2157.72
184.375	2143.22
184.452	2148.31
184.528	2199.8
184.604	2211.45
184.68	2220.35
184.756	2227.96
184.832	2234.76
184.908	2239.71
184.985	2241.8
185.061	2226.29
185.137	2238.24
185.213	2227.44
185.289	2228.91
185.365	2220.21
185.441	2216.59
185.517	2230.06
185.593	2227.44
185.669	2224.78
185.745	2237.15
185.822	2253.51
185.898	2245.89
185.974	2258.12
186.05	2248.84
186.126	2214.86
186.202	2208.29
186.278	2208.06
186.354	2198.02
186.43	2204.44
186.506	2202.63
186.582	2203.82
186.658	2209.1
186.734	2188.27
186.81	2190.55
186.886	2194.88
186.962	2208.2
187.038	2204.63
187.114	2198.4
187.19	2204.72
187.266	2193.36
187.341	2193.31
187.417	2189.88
187.493	2191.36
187.569	2194.21
187.645	2190.07
187.721	2175.23
187.797	2180.74
187.873	2186.93
187.949	2180.94
188.025	2174.32
188.101	2177.22
188.176	2180.65
188.252	2175.7
188.328	2184.4
188.404	2185.26
188.48	2178.74
188.556	2172.41
188.632	2172.18
188.707	2172.65
188.783	2170.18
188.859	2164.42
188.935	2155.05
189.011	2161.28
189.086	2152.39
189.162	2144.87
189.238	2139.88
189.314	2135.93
189.39	2130.08
189.465	2120.8
189.541	2135.41
189.617	2121.47
189.693	2116.85
189.768	2116.47
189.844	2142.74
189.92	2135.94
189.996	2141.8
190.071	2153.78
190.147	2152.02
190.223	2161.49
190.298	2152.88
190.374	2141.08
190.45	2154.35
190.526	2163.58
190.601	2158.25
190.677	2164.63
190.753	2191.28
190.828	2198.8
190.904	2215.41
190.98	2230.68
191.055	2240.72
191.131	2234.87
191.207	2255.66
191.282	2266.22
191.358	2260.89
191.433	2244.18
191.509	2254.98
191.585	2251.31
191.66	2252.22
191.736	2259.97
191.811	2253.88
191.887	2268.64
191.963	2290.81
192.038	2295.05
192.114	2293.9
192.189	2295.52
192.265	2286.91
192.34	2263.73
192.416	2261.11
192.491	2258.49
192.567	2260.59
192.642	2263.78
192.718	2261.49
192.793	2247.93
192.869	2242.41
192.944	2244.36
193.02	2254.36
193.095	2262.21
193.171	2273.11
193.246	2272.06
193.322	2268.92
193.397	2268.54
193.473	2254.83
193.548	2237.22
193.624	2245.31
193.699	2243.03
193.775	2262.02
193.85	2264.4
193.925	2274.77
194.001	2272.4
194.076	2262.07
194.152	2254.03
194.227	2245.03
194.302	2238.47
194.378	2243.56
194.453	2241.7
194.529	2250.7
194.604	2233.23
194.679	2224.95
194.755	2204.16
194.83	2216.16
194.905	2211.74
194.981	2218.4
195.056	2215.5
195.131	2221.78
195.207	2220.11
195.282	2213.12
195.357	2189.37
195.433	2204.07
195.508	2192.17
195.583	2201.73
195.659	2217.72
195.734	2225.05
195.809	2229.38
195.884	2235.66
195.96	2237.23
196.035	2251.17
196.11	2247.94
196.185	2261.97
196.261	2265.21
196.336	2298
196.411	2286.95
196.486	2296.75
196.561	2292
196.637	2296.85
196.712	2315.66
196.787	2319.7
196.862	2334.22
196.937	2349.3
197.013	2356.73
197.088	2367.34
197.163	2387.91
197.238	2405.15
197.313	2402.82
197.388	2415.06
197.464	2450.96
197.539	2459.39
197.614	2454.68
197.689	2470.72
197.764	2487.01
197.839	2506.38
197.914	2499.34
197.989	2519.57
198.065	2533.52
198.14	2582.89
198.215	2611.7
198.29	2621.52
198.365	2633.9
198.44	2644.42
198.515	2673.39
198.59	2688.54
198.665	2714.41
198.74	2725.89
198.815	2729.13
198.89	2753.62
198.965	2783.12
199.04	2778.35
199.115	2798.03
199.19	2838.86
199.265	2837.86
199.34	2848.34
199.415	2883.1
199.49	2903.35
199.565	2915.64
199.64	2938.57
199.715	2935.23
199.79	2944.62
199.865	2951.06
199.94	2950.39
200.015	2983.91
200.09	2985.24
200.165	2993.11
200.24	3000.54
200.315	3042.26
200.39	3059.28
200.464	3065.76
200.539	3065
200.614	3083.21
200.689	3101.86
200.764	3112.26
200.839	3131.99
200.914	3138.95
200.989	3129.12
201.063	3145.34
201.138	3126.9
201.213	3127.13
201.288	3110.68
201.363	3117.98
201.438	3119.08
201.512	3134.66
201.587	3116.92
201.662	3125.03
201.737	3139.05
201.812	3148.97
201.886	3115.94
201.961	3123.67
202.036	3113.23
202.111	3113.9
202.186	3081.11
202.26	3069.04
202.335	3047.58
202.41	3043.29
202.485	3025.94
202.559	3008.44
202.634	2987.08
202.709	3002.56
202.784	2990.93
202.858	2993.74
202.933	2976.86
203.008	2974.39
203.082	2961.13
203.157	2969.05
203.232	2935.83
203.306	2923.24
203.381	2902.25
203.456	2887.9
203.53	2880.22
203.605	2874.84
203.68	2866.4
203.754	2877.68
203.829	2879.5
203.904	2880.78
203.978	2893.75
204.053	2922.79
204.127	2937.24
204.202	2964.28
204.277	2974.05
204.351	2998.52
204.426	3027.67
204.5	3054.42
204.575	3062.77
204.65	3116.07
204.724	3151.11
204.799	3201.22
204.873	3242.65
204.948	3294.24
205.022	3337.57
205.097	3384.52
205.171	3458.84
205.246	3529.34
205.32	3598.41
205.395	3670.83
205.469	3735.05
205.544	3817.88
205.618	3883.46
205.693	3985.38
205.767	4061.06
205.842	4172.53
205.916	4258.23
205.991	4345.62
206.065	4455.53
206.14	4574.29
206.214	4674.03
206.289	4780.72
206.363	4913.79
206.438	5039.26
206.512	5170.11
206.586	5319.36
206.661	5462.4
206.735	5575.22
206.81	5715.04
206.884	5872.67
206.958	6004.83
207.033	6171.81
207.107	6327.66
207.181	6513.81
207.256	6650.81
207.33	6824.79
207.405	7004
207.479	7188.97
207.553	7365.21
207.628	7515.58
207.702	7704.5
207.776	7875.72
207.851	8054.24
207.925	8242.63
207.999	8416.1
208.073	8584.74
208.148	8763.62
208.222	8930.17
208.296	9144.62
208.371	9350.75
208.445	9549.91
208.519	9767.65
208.593	9963.13
208.668	10143.42
208.742	10332.03
208.816	10534.34
208.89	10739.35
208.965	10929.69
209.039	11131.74
209.113	11338.56
209.187	11555.2
209.261	11739
209.336	11947.3
209.41	12162.06
209.484	12358.33
209.558	12571.66
209.632	12783.16
209.707	12982.48
209.781	13189.79
209.855	13395
209.929	13602.56
210.003	13790.85
210.077	13984.44
210.151	14218.27
210.226	14439.42
210.3	14659.95
210.374	14871.85
210.448	15061.91
210.522	15244.89
210.596	15437.79
210.67	15624.57
210.744	15847.06
210.818	16053.16
210.892	16259.16
210.966	16428.68
211.041	16615.39
211.115	16796.32
211.189	16990.17
211.263	17180.01
211.337	17359.01
211.411	17544.17
211.485	17700.75
211.559	17877.13
211.633	18028.7
211.707	18153.85
211.781	18326.43
211.855	18444.01
211.929	18587.24
212.003	18720.34
212.077	18894.98
212.151	19045.29
212.225	19210.44
212.299	19350.92
212.373	19497.42
212.447	19627.3
212.52	19801.03
212.594	19946.71
212.668	20082.76
212.742	20214.37
212.816	20351.77
212.89	20474.76
212.964	20605.32
213.038	20740.08
213.112	20882.78
213.186	21029.4
213.26	21141.16
213.333	21216.97
213.407	21349.23
213.481	21473.24
213.555	21621.21
213.629	21719.78
213.703	21828
213.777	21947.74
213.85	22042.85
213.924	22180.63
213.998	22301.97
214.072	22404.04
214.146	22504.8
214.219	22612.64
214.293	22707.13
214.367	22805.68
214.441	22926.41
214.515	23010.3
214.588	23077.18
214.662	23143.48
214.736	23217.3
214.81	23317.44
214.883	23416.28
214.957	23499.47
215.031	23582.26
215.105	23630.48
215.178	23706.82
215.252	23785.19
215.326	23833.42
215.4	23894.04
215.473	23920.38
215.547	23978.21
215.621	24031.75
215.694	24101.84
215.768	24139.51
215.842	24191.17
215.915	24241.91
215.989	24278.53
216.063	24335.84
216.136	24394.64
216.21	24446.2
216.284	24509.54
216.357	24577.95
216.431	24641.97
216.504	24704.12
216.578	24778.03
216.652	24833.32
216.725	24886.1
216.799	24946.9
216.873	25005.72
216.946	25064.87
217.02	25108.87
217.093	25155.3
217.167	25179.23
217.24	25202.73
217.314	25258.85
217.387	25304.54
217.461	25346.09
217.535	25402.55
217.608	25439.13
217.682	25486.52
217.755	25553.99
217.829	25605.74
217.902	25642.13
217.976	25678.71
218.049	25699.32
218.123	25708.3
218.196	25762.69
218.27	25788.18
218.343	25809.71
218.417	25845.14
218.49	25865.85
218.563	25917.69
218.637	25952.01
218.71	26017.23
218.784	26059.76
218.857	26104.51
218.931	26139.12
219.004	26177.74
219.077	26219.69
219.151	26253.49
219.224	26281.59
219.298	26307.18
219.371	26340.69
219.444	26347.88
219.518	26370.62
219.591	26404.66
219.665	26471.87
219.738	26501.57
219.811	26518.9
219.885	26547.15
219.958	26577.67
220.031	26611.08
220.105	26642.8
220.178	26658.83
220.251	26661.2
220.325	26698.43
220.398	26722.82
220.471	26762.9
220.544	26783.62
220.618	26789.51
220.691	26797.77
220.764	26815.83
220.838	26832.78
220.911	26830.32
220.984	26867.4
221.057	26892.17
221.131	26913.09
221.204	26884.35
221.277	26908.69
221.35	26955.34
221.424	26969.69
221.497	26976.11
221.57	26988.09
221.643	27005.91
221.716	27025.86
221.79	27040.01
221.863	27037.21
221.936	27031.46
222.009	27022.72
222.082	27036.53
222.155	27038.71
222.229	27075.46
222.302	27085.56
222.375	27082.03
222.448	27093.04
222.521	27089.71
222.594	27085.7
222.667	27066.86
222.74	27091.16
222.814	27089.42
222.887	27079.37
222.96	27087.82
223.033	27088.4
223.106	27088.36
223.179	27081.11
223.252	27064.78
223.325	27058.31
223.398	27048.27
223.471	27045.76
223.544	27044.07
223.617	27028.42
223.69	27024.17
223.763	26991.71
223.837	26985.91
223.91	26973.31
223.983	26945.25
224.056	26933.22
224.129	26930.71
224.202	26930.86
224.275	26906.42
224.348	26874.84
224.42	26847.93
224.493	26811.71
224.566	26790.37
224.639	26769.65
224.712	26736.52
224.785	26717.35
224.858	26688.86
224.931	26665.25
225.004	26643.95
225.077	26609.53
225.15	26563.27
225.223	26549.65
225.296	26554.67
225.369	26504.7
225.442	26477.57
225.514	26453.86
225.587	26430.39
225.66	26398.33
225.733	26378.25
225.806	26351.83
225.879	26320.21
225.952	26281.98
226.025	26272.71
226.097	26263.53
226.17	26232.44
226.243	26191.36
226.316	26179.34
226.389	26159.49
226.461	26140.81
226.534	26114.4
226.607	26083.32
226.68	26090.46
226.753	26055.61
226.825	26000.23
226.898	25995.11
226.971	25964.99
227.044	25956.69
227.117	25932.65
227.189	25909.33
227.262	25899.39
227.335	25876.17
227.407	25854.45
227.48	25832.92
227.553	25805.31
227.626	25766.64
227.698	25743.82
227.771	25715.39
227.844	25673.11
227.916	25642.36
227.989	25593.96
228.062	25556.99
228.134	25562.06
228.207	25516.25
228.28	25481.41
228.352	25452.5
228.425	25425.62
228.498	25410.42
228.57	25369.64
228.643	25346.81
228.716	25314.43
228.788	25264.62
228.861	25235.04
228.934	25213.52
229.006	25191.03
229.079	25157.25
229.151	25125.3
229.224	25081.93
229.296	25061.81
229.369	25054.18
229.442	25042.02
229.514	25014.76
229.587	24990.54
229.659	24934.04
229.732	24911.32
229.804	24885.65
229.877	24873.39
229.949	24848.45
230.022	24837.78
230.094	24803
230.167	24784.57
230.239	24739.51
230.312	24717.27
230.384	24690.68
230.457	24666.56
230.529	24631.97
230.602	24598.3
230.674	24554.54
230.747	24529.41
230.819	24505.39
230.892	24443.3
230.964	24411.51
231.037	24385.85
231.109	24358.16
231.181	24331.92
231.254	24283.78
231.326	24246.64
231.399	24207.56
231.471	24171.92
231.544	24113.35
231.616	24095.99
231.688	24050.6
231.761	24011.15
231.833	23964.89
231.905	23916.95
231.978	23878.07
232.05	23839.1
232.122	23807.85
232.195	23775.83
232.267	23761.84
232.339	23733.39
232.412	23705.51
232.484	23659.6
232.556	23609.73
232.629	23594.78
232.701	23571.64
232.773	23547.43
232.846	23504.75
232.918	23471.43
232.99	23424.17
233.062	23392.63
233.135	23354
233.207	23299.27
233.279	23272.32
233.351	23233.46
233.424	23191.84
233.496	23140.3
233.568	23121.4
233.64	23055.82
233.713	23020.14
233.785	22971.15
233.857	22920.19
233.929	22858.43
234.001	22832.2
234.074	22816.29
234.146	22753.03
234.218	22705.63
234.29	22654.39
234.362	22612.92
234.434	22558.49
234.507	22513.71
234.579	22458.21
234.651	22395.16
234.723	22367.87
234.795	22337.26
234.867	22298.84
234.939	22272.61
235.012	22240.07
235.084	22205.46
235.156	22181.84
235.228	22129.77
235.3	22084.12
235.372	22040.35
235.444	22019.05
235.516	21956.43
235.588	21905.38
235.66	21868.5
235.732	21824.35
235.804	21843.29
235.876	21807.87
235.948	21784.78
236.02	21742.94
236.092	21691.32
236.164	21670.35
236.236	21625.57
236.308	21578.14
236.38	21541.22
236.452	21481.94
236.524	21438.51
236.596	21406.79
236.668	21366.64
236.74	21330.35
236.812	21284.85
236.884	21253.81
236.956	21222.72
237.028	21171.11
237.1	21125.9
237.172	21096.55
237.244	21061.46
237.316	20971.9
237.388	20922.41
237.46	20870.98
237.532	20850.59
237.604	20816.23
237.675	20788.18
237.747	20755.8
237.819	20699.22
237.891	20646.44
237.963	20607.17
238.035	20550.11
238.107	20468.47
238.178	20444.03
238.25	20391.16
238.322	20375.26
238.394	20317.48
238.466	20257.91
238.538	20223.79
238.609	20189.05
238.681	20129.96
238.753	20085.87
238.825	20053.96
238.897	20017.58
238.968	19992.18
239.04	19936.86
239.112	19914.3
239.184	19851.22
239.255	19802.74
239.327	19777.44
239.399	19740.62
239.471	19706.07
239.542	19676.82
239.614	19650.56
239.686	19569.98
239.758	19544.44
239.829	19490.47
239.901	19461.12
239.973	19432.78
240.044	19400.45
240.116	19353.22
240.188	19310.72
240.259	19262.72
240.331	19208.8
240.403	19169.52
240.474	19105
240.546	19053.92
240.618	18988.62
240.689	18939.32
240.761	18899.76
240.833	18864.82
240.904	18819.18
240.976	18774.27
241.048	18732.49
241.119	18692.06
241.191	18667.58
241.262	18639.15
241.334	18596.11
241.405	18558.28
241.477	18505.9
241.549	18465.18
241.62	18431.98
241.692	18398.34
241.763	18367.74
241.835	18330.83
241.906	18288.66
241.978	18233.72
242.049	18207.55
242.121	18182.5
242.192	18162.74
242.264	18103.56
242.335	18042.93
242.407	18016.38
242.478	17968.38
242.55	17929.54
242.621	17881.25
242.693	17841.59
242.764	17801.3
242.836	17750.94
242.907	17713.31
242.979	17684.39
243.05	17639.19
243.122	17603.14
243.193	17554.42
243.264	17494.71
243.336	17454.61
243.407	17427.48
243.479	17408.63
243.55	17364.68
243.622	17330.61
243.693	17287.14
243.764	17271.91
243.836	17220.34
243.907	17170.99
243.978	17136
244.05	17102.46
244.121	17055.57
244.192	17022.94
244.264	16963.9
244.335	16930.02
244.407	16876.52
244.478	16830.98
244.549	16794.45
244.62	16743.26
244.692	16711.74
244.763	16687.74
244.834	16639.93
244.906	16593.66
244.977	16559.16
245.048	16544.75
245.119	16497.9
245.191	16448.02
245.262	16383.48
245.333	16373.36
245.405	16339.14
245.476	16305.5
245.547	16270.51
245.618	16242.21
245.689	16208.33
245.761	16185.34
245.832	16149.87
245.903	16122.92
245.974	16092.8
246.045	16056.89
246.117	16035.01
246.188	15981.56
246.259	15930.37
246.33	15898.8
246.401	15853.39
246.473	15807.6
246.544	15754.1
246.615	15725.28
246.686	15694.62
246.757	15671.34
246.828	15622.32
246.899	15604.39
246.97	15557.73
247.042	15512.91
247.113	15488.9
247.184	15472.9
247.255	15433.86
247.326	15394.57
247.397	15350.56
247.468	15314.85
247.539	15279.23
247.61	15239.75
247.681	15213.14
247.752	15193.43
247.823	15153.03
247.894	15127.44
247.965	15081.4
248.037	15052.96
248.108	15010.78
248.179	14973.48
248.25	14942.38
248.321	14918.47
248.392	14866.22
248.463	14854.65
248.534	14824.09
248.605	14800.04
248.675	14763.65
248.746	14734.43
248.817	14721.03
248.888	14693.94
248.959	14648
249.03	14624.48
249.101	14587.8
249.172	14561.77
249.243	14512.35
249.314	14493.75
249.385	14467.86
249.456	14448.05
249.527	14409.73
249.598	14383.12
249.669	14346.53
249.739	14317.17
249.81	14289.16
249.881	14252.33
249.952	14229.15
250.023	14198.01
250.094	14144.84
250.165	14107.24
250.235	14077.35
250.306	14045.44
250.377	14011.98
250.448	13990.34
250.519	13937.79
250.59	13929.93
250.66	13900.53
250.731	13888.62
250.802	13859.12
250.873	13836.61
250.944	13811.01
251.014	13774.95
251.085	13776.69
251.156	13762.03
251.227	13754.8
251.297	13743.52
251.368	13734.84
251.439	13712.62
251.51	13705
251.58	13674.83
251.651	13642.14
251.722	13625.9
251.792	13572.63
251.863	13546.07
251.934	13536.42
252.005	13548.14
252.075	13520.61
252.146	13508.95
252.217	13495.35
252.287	13481.85
252.358	13451
252.429	13441.07
252.499	13412.97
252.57	13382.4
252.641	13369.97
252.711	13334.25
252.782	13295.15
252.852	13288.45
252.923	13257.21
252.994	13230.8
253.064	13224.24
253.135	13193.48
253.205	13156.94
253.276	13158.53
253.347	13147.54
253.417	13115.39
253.488	13072.44
253.558	13030.21
253.629	13003.55
253.699	12983.35
253.77	12963.64
253.841	12935.53
253.911	12924.97
253.982	12909.26
254.052	12893.79
254.123	12869.25
254.193	12847.7
254.264	12863.37
254.334	12824.51
254.405	12793.04
254.475	12754.62
254.546	12723.62
254.616	12712.34
254.687	12692.62
254.757	12670.11
254.827	12643.7
254.898	12627.6
254.968	12611.25
255.039	12590.96
255.109	12568.16
255.18	12534.8
255.25	12497.64
255.321	12484.53
255.391	12435.41
255.461	12439.36
255.532	12386.09
255.602	12354.95
255.673	12317.79
255.743	12279.37
255.813	12231.55
255.884	12226.78
255.954	12209.76
256.024	12209.33
256.095	12189.18
256.165	12159.63
256.235	12155.54
256.306	12136.79
256.376	12124.35
256.446	12109.41
256.517	12099.77
256.587	12097.11
256.657	12081.79
256.728	12051.66
256.798	12031.32
256.868	12006.3
256.938	11969
257.009	11958.25
257.079	11953.14
257.149	11964.47
257.219	11926.1
257.29	11913.81
257.36	11872.79
257.43	11868.5
257.5	11819.34
257.571	11796.1
257.641	11786.66
257.711	11749.4
257.781	11728.77
257.852	11720.38
257.922	11682.59
257.992	11655.84
258.062	11631.94
258.132	11622.87
258.202	11609.81
258.273	11591.31
258.343	11599.64
258.413	11570.68
258.483	11553.42
258.553	11518.58
258.623	11483.39
258.693	11469.12
258.764	11467.63
258.834	11461.32
258.904	11437.6
258.974	11415.48
259.044	11393.89
259.114	11381.17
259.184	11366.37
259.254	11350.08
259.324	11302.51
259.394	11293.36
259.464	11297.65
259.535	11273.65
259.605	11243.19
259.675	11216.15
259.745	11204.59
259.815	11165.84
259.885	11147.96
259.955	11161.36
260.025	11132.3
260.095	11114.9
260.165	11103.38
260.235	11099.14
260.305	11072.98
260.375	11048.45
260.445	11060.4
260.515	11055.43
260.585	11043.39
260.655	11024.74
260.725	11013.07
260.795	11003.92
260.865	11002.28
260.934	10968.74
261.004	10956.74
261.074	10948.31
261.144	10954.62
261.214	10947.68
261.284	10936.16
261.354	10923.73
261.424	10895.49
261.494	10904.35
261.564	10888.45
261.634	10876.64
261.703	10838.38
261.773	10828.02
261.843	10819.59
261.913	10798
