Data from 20250704_urea_0.1M_MAYP1162681_11-18-58-694.txt Node
Date: Fri Jul 04 11:18:58 BST 2025
User: adleo
Spectrometer: MAYP116268
Trigger mode: 0
Integration Time (sec): 1.000000E0
Scans to average: 1
Electric dark correction enabled: true
Nonlinearity correction enabled: true
Boxcar width: 10
XAxis mode: Wavelengths
Number of Pixels in Spectrum: 2068
>>>>>Begin Spectral Data<<<<<
179.565	1253.2
179.642	1314.27
179.718	1360.18
179.795	1401.11
179.871	1433.71
179.948	1453.01
180.024	1477.9
180.101	1499.7
180.177	1512.37
180.254	1535.3
180.33	1559.19
180.407	1616.26
180.483	1713.99
180.56	1809.44
180.636	1897.56
180.712	1883.25
180.789	1896.18
180.865	1906.97
180.942	1914.72
181.018	1923.7
181.095	1935.07
181.171	1939.97
181.248	1939.49
181.324	1953.95
181.4	1956.95
181.477	1965.84
181.553	1979.29
181.63	1996.03
181.706	2014.1
181.782	2024.66
181.859	2023.75
181.935	2026.27
182.011	2023.51
182.088	2042.64
182.164	2060.19
182.24	2073.79
182.317	2084.73
182.393	2081.26
182.469	2096.1
182.546	2109.18
182.622	2113.36
182.698	2106.99
182.775	2122.97
182.851	2137.14
182.927	2126.73
183.003	2127.87
183.08	2123.49
183.156	2131.96
183.232	2130.91
183.308	2116.74
183.385	2124.63
183.461	2143.04
183.537	2146.09
183.613	2159.84
183.69	2149.13
183.766	2137.85
183.842	2143.66
183.918	2149.13
183.995	2164.02
184.071	2168.87
184.147	2161.93
184.223	2153.04
184.299	2165.31
184.375	2152.94
184.452	2161.42
184.528	2214.18
184.604	2221.94
184.68	2237.16
184.756	2245.39
184.832	2249.44
184.908	2256.28
184.985	2254.86
185.061	2241.73
185.137	2249.77
185.213	2235.73
185.289	2237.21
185.365	2228.84
185.441	2228.41
185.517	2241.31
185.593	2237.88
185.669	2230.74
185.745	2242.68
185.822	2258.38
185.898	2249.34
185.974	2259.33
186.05	2250.85
186.126	2217.31
186.202	2211.89
186.278	2205.13
186.354	2194.04
186.43	2201.9
186.506	2200.66
186.582	2199.23
186.658	2204.47
186.734	2182.3
186.81	2186.53
186.886	2190.39
186.962	2205.28
187.038	2201.99
187.114	2193.43
187.19	2196.95
187.266	2187.43
187.341	2190.62
187.417	2181.92
187.493	2182.39
187.569	2185.82
187.645	2180.02
187.721	2167.88
187.797	2174.59
187.873	2181.11
187.949	2176.21
188.025	2168.12
188.101	2170.11
188.176	2174.3
188.252	2167.54
188.328	2177.48
188.404	2176.34
188.48	2170.11
188.556	2163.4
188.632	2162.5
188.707	2161.26
188.783	2161.64
188.859	2158.98
188.935	2146.51
189.011	2157.93
189.086	2153.79
189.162	2144.08
189.238	2139.18
189.314	2136.9
189.39	2130.38
189.465	2122.77
189.541	2139.9
189.617	2125.39
189.693	2123.01
189.768	2130.53
189.844	2157.13
189.92	2148.96
189.996	2157.09
190.071	2170.6
190.147	2168.61
190.223	2178.74
190.298	2174.79
190.374	2162.14
190.45	2174.74
190.526	2182.88
190.601	2175.93
190.677	2176.93
190.753	2205.73
190.828	2208.92
190.904	2223.86
190.98	2237.47
191.055	2248.7
191.131	2237.56
191.207	2255.02
191.282	2260.54
191.358	2248.22
191.433	2233.5
191.509	2247.3
191.585	2243.58
191.66	2241.3
191.736	2253.58
191.811	2239.4
191.887	2256.63
191.963	2280.19
192.038	2287.09
192.114	2287.28
192.189	2292.94
192.265	2291.37
192.34	2265.95
192.416	2266.8
192.491	2260.14
192.567	2264.66
192.642	2266.28
192.718	2269.47
192.793	2257.29
192.869	2256.29
192.944	2260.43
193.02	2266.19
193.095	2270.71
193.171	2277.51
193.246	2279.7
193.322	2270.85
193.397	2273.27
193.473	2256.37
193.548	2238.43
193.624	2241.05
193.699	2241.67
193.775	2255.33
193.85	2256.04
193.925	2269.66
194.001	2267.99
194.076	2262.47
194.152	2253.71
194.227	2245.24
194.302	2235.35
194.378	2240.25
194.453	2235.49
194.529	2247.62
194.604	2233.59
194.679	2229.07
194.755	2210.23
194.83	2221.08
194.905	2221.85
194.981	2232.88
195.056	2226.8
195.131	2231.79
195.207	2229.98
195.282	2221.32
195.357	2202.66
195.433	2218.08
195.508	2205.33
195.583	2210.75
195.659	2224.88
195.734	2232.12
195.809	2235.26
195.884	2241.82
195.96	2244.35
196.035	2262.71
196.11	2261.29
196.185	2273.32
196.261	2277.8
196.336	2309.97
196.411	2297.73
196.486	2305.11
196.561	2298.82
196.637	2309.05
196.712	2326.34
196.787	2330.76
196.862	2343.23
196.937	2355.03
197.013	2360.08
197.088	2369.07
197.163	2394.26
197.238	2412.27
197.313	2413.46
197.388	2423.36
197.464	2455.26
197.539	2464.21
197.614	2456.12
197.689	2466.31
197.764	2483.88
197.839	2502.12
197.914	2494.83
197.989	2516.07
198.065	2528.02
198.14	2579.05
198.215	2606.1
198.29	2618.3
198.365	2631.83
198.44	2642.16
198.515	2666.6
198.59	2679.32
198.665	2707.76
198.74	2716.34
198.815	2717.96
198.89	2738.92
198.965	2768.37
199.04	2764.7
199.115	2782.85
199.19	2825.87
199.265	2832.02
199.34	2840.21
199.415	2873.45
199.49	2897.08
199.565	2909.28
199.64	2933.11
199.715	2933.35
199.79	2941.36
199.865	2949.51
199.94	2948.65
200.015	2981.69
200.09	2988.7
200.165	2998.61
200.24	3006.01
200.315	3049.24
200.39	3064.41
200.464	3072.22
200.539	3075.28
200.614	3093.54
200.689	3117.33
200.764	3126.01
200.839	3142.79
200.914	3149.66
200.989	3140.5
201.063	3158.72
201.138	3138.37
201.213	3136.84
201.288	3116.53
201.363	3120.82
201.438	3120.63
201.512	3134.21
201.587	3117.52
201.662	3123.34
201.737	3138.03
201.812	3146.66
201.886	3107.95
201.961	3118.26
202.036	3107.68
202.111	3105.82
202.186	3076.56
202.26	3059
202.335	3036.16
202.41	3030.53
202.485	3015.76
202.559	2998.02
202.634	2970.79
202.709	2985.51
202.784	2974.84
202.858	2978.22
202.933	2964.78
203.008	2964.54
203.082	2952.38
203.157	2959.15
203.232	2923.7
203.306	2909.96
203.381	2888.79
203.456	2879.44
203.53	2868.57
203.605	2860.61
203.68	2853.69
203.754	2866.46
203.829	2873.37
203.904	2874.09
203.978	2887.39
204.053	2914.95
204.127	2926.11
204.202	2951.09
204.277	2961.44
204.351	2983.52
204.426	3011.19
204.5	3037.85
204.575	3041.24
204.65	3094.49
204.724	3128.71
204.799	3181.44
204.873	3226.69
204.948	3276.33
205.022	3320.56
205.097	3370.75
205.171	3447.55
205.246	3518.58
205.32	3585.07
205.395	3656.26
205.469	3723.34
205.544	3801.68
205.618	3864.96
205.693	3960.35
205.767	4035.59
205.842	4150.41
205.916	4241.26
205.991	4326.94
206.065	4438.9
206.14	4561.01
206.214	4663
206.289	4769.68
206.363	4900.49
206.438	5023.91
206.512	5150.91
206.586	5296.18
206.661	5436.13
206.735	5542.96
206.81	5682.3
206.884	5834.22
206.958	5965.84
207.033	6125.48
207.107	6289.58
207.181	6476.92
207.256	6630.57
207.33	6806.65
207.405	6977.4
207.479	7159.68
207.553	7333.32
207.628	7477.34
207.702	7653.02
207.776	7817.7
207.851	7998.9
207.925	8186.17
207.999	8357.62
208.073	8536.12
208.148	8723.42
208.222	8892.08
208.296	9107.28
208.371	9302.19
208.445	9500.32
208.519	9718.35
208.593	9924.95
208.668	10101.01
208.742	10287.79
208.816	10476.18
208.89	10679.97
208.965	10867.71
209.039	11057.65
209.113	11260.47
209.187	11479.7
209.261	11672.42
209.336	11890.25
209.41	12097.64
209.484	12290.44
209.558	12508.39
209.632	12713.97
209.707	12909.47
209.781	13121.03
209.855	13336.31
209.929	13554.62
210.003	13745.17
210.077	13922.52
210.151	14151.29
210.226	14375.38
210.3	14588.3
210.374	14792.44
210.448	14985.59
210.522	15183.98
210.596	15380.5
210.67	15569.41
210.744	15796.09
210.818	16005.76
210.892	16203.04
210.966	16375.59
211.041	16564.23
211.115	16732.78
211.189	16926.05
211.263	17118.78
211.337	17295.9
211.411	17467.66
211.485	17622.12
211.559	17808.96
211.633	17980.72
211.707	18114.94
211.781	18277.82
211.855	18408.13
211.929	18560.37
212.003	18699.93
212.077	18863.54
212.151	19024.74
212.225	19193.02
212.299	19329.79
212.373	19465.93
212.447	19605.05
212.52	19771.32
212.594	19917.29
212.668	20067.79
212.742	20192.27
212.816	20324.37
212.89	20456.52
212.964	20589.73
213.038	20720
213.112	20863.29
213.186	21002.38
213.26	21104.31
213.333	21180.99
213.407	21311.65
213.481	21441.88
213.555	21561.46
213.629	21667.31
213.703	21772.01
213.777	21879.6
213.85	21968.44
213.924	22113.98
213.998	22226.55
214.072	22337.91
214.146	22434.43
214.219	22539.14
214.293	22642.36
214.367	22743.65
214.441	22853.39
214.515	22941.91
214.588	23020.99
214.662	23071.81
214.736	23150.64
214.81	23253.72
214.883	23361.39
214.957	23433.43
215.031	23498.14
215.105	23561.98
215.178	23630.6
215.252	23710.32
215.326	23777.31
215.4	23838.89
215.473	23861.32
215.547	23911.96
215.621	23961.64
215.694	24037.42
215.768	24076.83
215.842	24136.35
215.915	24191.92
215.989	24226.99
216.063	24282.46
216.136	24338.52
216.21	24396.3
216.284	24467.61
216.357	24529.65
216.431	24587.01
216.504	24648.33
216.578	24733.04
216.652	24809.22
216.725	24865.76
216.799	24917.2
216.873	24966.03
216.946	25028.75
217.02	25088.58
217.093	25136.2
217.167	25171.52
217.24	25205.06
217.314	25258.48
217.387	25300.89
217.461	25345.44
217.535	25407.55
217.608	25436.21
217.682	25491.76
217.755	25557.59
217.829	25591.62
217.902	25632.74
217.976	25677.24
218.049	25707.5
218.123	25741.24
218.196	25781.06
218.27	25811.23
218.343	25839.32
218.417	25874.12
218.49	25893.57
218.563	25940.59
218.637	25977.08
218.71	26025.21
218.784	26068.61
218.857	26113.51
218.931	26141.89
219.004	26173.9
219.077	26217.79
219.151	26257.04
219.224	26275.29
219.298	26294.45
219.371	26330.57
219.444	26343.07
219.518	26369.68
219.591	26409.85
219.665	26457.17
219.738	26481.84
219.811	26500.77
219.885	26543.02
219.958	26579.24
220.031	26619.07
220.105	26642.25
220.178	26670.45
220.251	26695.85
220.325	26721.06
220.398	26742.64
220.471	26770.5
220.544	26794.89
220.618	26792.23
220.691	26810.05
220.764	26823.91
220.838	26846.51
220.911	26843.23
220.984	26874.37
221.057	26886.16
221.131	26879.45
221.204	26866.5
221.277	26899.49
221.35	26949.48
221.424	26950.3
221.497	26963.29
221.57	26967.06
221.643	26977.01
221.716	26984.88
221.79	26972.71
221.863	26983.48
221.936	26973.68
222.009	26973.48
222.082	26974.11
222.155	26973.39
222.229	26997.68
222.302	27008.93
222.375	27006.86
222.448	27020.57
222.521	27013.38
222.594	27009.42
222.667	27013.81
222.74	27023.13
222.814	27016.95
222.887	26995.45
222.96	27001.88
223.033	27003.09
223.106	26993.81
223.179	26990.14
223.252	26988.26
223.325	26999.37
223.398	26984.59
223.471	26984.92
223.544	26981.45
223.617	26972.66
223.69	26976.67
223.763	26949.23
223.837	26941.89
223.91	26930.93
223.983	26905.14
224.056	26877.71
224.129	26874.53
224.202	26875.01
224.275	26845.12
224.348	26811.07
224.42	26780.84
224.493	26746.16
224.566	26719.41
224.639	26716.99
224.712	26693.67
224.785	26676.04
224.858	26658.8
224.931	26630.89
225.004	26601.34
225.077	26580.72
225.15	26533.89
225.223	26508.97
225.296	26508.25
225.369	26473.91
225.442	26450.11
225.514	26433.07
225.587	26417.52
225.66	26403.62
225.733	26374.74
225.806	26351.28
225.879	26320.67
225.952	26292.04
226.025	26283.3
226.097	26271.81
226.17	26248.59
226.243	26201.62
226.316	26165.21
226.389	26134.85
226.461	26117.56
226.534	26106.89
226.607	26075.61
226.68	26068.18
226.753	26035.16
226.825	25986.3
226.898	25970.52
226.971	25943.73
227.044	25921.62
227.117	25905.16
227.189	25880.34
227.262	25866.68
227.335	25846.8
227.407	25813.83
227.48	25782.56
227.553	25758.13
227.626	25717.53
227.698	25692.43
227.771	25671.15
227.844	25641.37
227.916	25608.07
227.989	25554.12
228.062	25509.62
228.134	25512.22
228.207	25481.77
228.28	25455.23
228.352	25436.99
228.425	25412.61
228.498	25385.3
228.57	25340.52
228.643	25320.54
228.716	25281.88
228.788	25240.76
228.861	25203.65
228.934	25197.48
229.006	25171.81
229.079	25138.56
229.151	25102.9
229.224	25045.82
229.296	25019.96
229.369	25009.68
229.442	24980.68
229.514	24947.05
229.587	24932.14
229.659	24870.19
229.732	24845.82
229.804	24816.87
229.877	24801.77
229.949	24767.71
230.022	24755.11
230.094	24727.62
230.167	24700.55
230.239	24657.8
230.312	24628.28
230.384	24624.85
230.457	24594.8
230.529	24567.44
230.602	24531.74
230.674	24511.82
230.747	24499.76
230.819	24483.65
230.892	24425.95
230.964	24401.21
231.037	24384.13
231.109	24349.74
231.181	24330.68
231.254	24287.8
231.326	24249.46
231.399	24207.58
231.471	24174.16
231.544	24118.92
231.616	24092.25
231.688	24040.11
231.761	23990.78
231.833	23949.73
231.905	23882.83
231.978	23845.31
232.05	23801.52
232.122	23769.1
232.195	23729.99
232.267	23704.67
232.339	23655.91
232.412	23629.87
232.484	23596.83
232.556	23561.29
232.629	23543.64
232.701	23512.68
232.773	23480.08
232.846	23440.35
232.918	23405.86
232.99	23369.21
233.062	23336.13
233.135	23302.91
233.207	23266.36
233.279	23243.17
233.351	23215.3
233.424	23177.4
233.496	23131.83
233.568	23126.72
233.64	23066.84
233.713	23026.91
233.785	22980.87
233.857	22950.35
233.929	22901.07
234.001	22880.43
234.074	22848.13
234.146	22779.81
234.218	22735.45
234.29	22692.79
234.362	22651.81
234.434	22592.12
234.507	22542.94
234.579	22498.16
234.651	22447.83
234.723	22413.07
234.795	22376.09
234.867	22326.49
234.939	22298.19
235.012	22254.95
235.084	22206.35
235.156	22174.34
235.228	22123.53
235.3	22076.2
235.372	22029.48
235.444	22013.48
235.516	21954.52
235.588	21909.84
235.66	21877.88
235.732	21828.85
235.804	21844.43
235.876	21815.02
235.948	21801.28
236.02	21751.3
236.092	21699.97
236.164	21667.05
236.236	21618.7
236.308	21571.52
236.38	21528.28
236.452	21480.8
236.524	21445.43
236.596	21422
236.668	21392.12
236.74	21347.29
236.812	21308.06
236.884	21276.15
236.956	21224.39
237.028	21162.55
237.1	21120.28
237.172	21094.45
237.244	21069.1
237.316	20989.13
237.388	20924.12
237.46	20849.17
237.532	20827
237.604	20779.53
237.675	20758.33
237.747	20732.64
237.819	20686.9
237.891	20649.8
237.963	20590.13
238.035	20535.92
238.107	20448.15
238.178	20417.65
238.25	20373.7
238.322	20356.49
238.394	20292.88
238.466	20256.97
238.538	20218.95
238.609	20177.99
238.681	20113.17
238.753	20048.54
238.825	20004.45
238.897	19980.21
238.968	19972.45
239.04	19924.35
239.112	19910.96
239.184	19852.6
239.255	19808.02
239.327	19774.14
239.399	19734.24
239.471	19704.6
239.542	19670.44
239.614	19647.35
239.686	19579.79
239.758	19553.33
239.829	19499.65
239.901	19476.81
239.973	19420.42
240.044	19382.02
240.116	19344.72
240.188	19309.01
240.259	19277.11
240.331	19229.3
240.403	19184.34
240.474	19117.65
240.546	19059.24
240.618	18990.52
240.689	18939.59
240.761	18895.15
240.833	18859.16
240.904	18810.49
240.976	18772.99
241.048	18728.51
241.119	18700.08
241.191	18661.58
241.262	18629.48
241.334	18582.5
241.405	18538.84
241.477	18494.5
241.549	18457.64
241.62	18411.09
241.692	18366.41
241.763	18331.38
241.835	18297.02
241.906	18261.07
241.978	18208.4
242.049	18188.59
242.121	18169.85
242.192	18142.76
242.264	18085.75
242.335	18027.05
242.407	17997.03
242.478	17946.19
242.55	17915.78
242.621	17856.46
242.693	17810.19
242.764	17772.46
242.836	17721.91
242.907	17690.53
242.979	17657.14
243.05	17618.44
243.122	17590.01
243.193	17547.98
243.264	17490.83
243.336	17439.31
243.407	17415.69
243.479	17391.12
243.55	17354.3
243.622	17321.72
243.693	17285.77
243.764	17267.07
243.836	17221.33
243.907	17177.04
243.978	17142.1
244.05	17108.6
244.121	17054.53
244.192	17026.38
244.264	16962.14
244.335	16926.14
244.407	16861.37
244.478	16830.23
244.549	16789.55
244.62	16736.49
244.692	16706.03
244.763	16681.26
244.834	16639.91
244.906	16586.22
244.977	16553.01
245.048	16523.47
245.119	16467.46
245.191	16418.74
245.262	16353.38
245.333	16339.5
245.405	16304.36
245.476	16268.75
245.547	16232.94
245.618	16210.67
245.689	16186.67
245.761	16159.43
245.832	16123.24
245.903	16103.43
245.974	16065.74
246.045	16027.51
246.117	16008.19
246.188	15957.24
246.259	15910.25
246.33	15873.76
246.401	15837.7
246.473	15797.75
246.544	15759.53
246.615	15739.72
246.686	15699.95
246.757	15676.86
246.828	15628.52
246.899	15612.66
246.97	15569.76
247.042	15523.78
247.113	15501.07
247.184	15482.85
247.255	15441.64
247.326	15406.74
247.397	15366.64
247.468	15337.43
247.539	15307.01
247.61	15247.53
247.681	15228.2
247.752	15204.54
247.823	15167.52
247.894	15136.52
247.965	15083.74
248.037	15046.57
248.108	14994.76
248.179	14956.24
248.25	14929.15
248.321	14903.27
248.392	14850.68
248.463	14837.23
248.534	14809.32
248.605	14781.02
248.675	14733.98
248.746	14708.57
248.817	14687.27
248.888	14665.29
248.959	14612.94
249.03	14589.8
249.101	14565.5
249.172	14524.09
249.243	14473.67
249.314	14460.12
249.385	14432.41
249.456	14414.67
249.527	14378.08
249.598	14355.76
249.669	14332.53
249.739	14310.54
249.81	14288.22
249.881	14252.36
249.952	14220.16
250.023	14183.47
250.094	14141.34
250.165	14099.6
250.235	14063.15
250.306	14032.78
250.377	13988.87
250.448	13967.7
250.519	13914.58
250.59	13902.53
250.66	13874.95
250.731	13865.51
250.802	13831.95
250.873	13805.1
250.944	13783.03
251.014	13747.74
251.085	13741.57
251.156	13718.96
251.227	13700.35
251.297	13679.72
251.368	13660.24
251.439	13647.81
251.51	13637.83
251.58	13599.74
251.651	13575.74
251.722	13570.19
251.792	13524.25
251.863	13493.98
251.934	13485.93
252.005	13492.24
252.075	13462.21
252.146	13455.41
252.217	13440.76
252.287	13425.28
252.358	13396.46
252.429	13384.5
252.499	13351.87
252.57	13329.26
252.641	13310.22
252.711	13280.95
252.782	13244.22
252.852	13240.8
252.923	13214.72
252.994	13180.78
253.064	13176.44
253.135	13141.11
253.205	13109.63
253.276	13119.75
253.347	13115.12
253.417	13081.09
253.488	13046.38
253.558	13023.97
253.629	12991.62
253.699	12969.44
253.77	12958.79
253.841	12931.07
253.911	12914.01
253.982	12904.37
254.052	12889.95
254.123	12873.08
254.193	12857.94
254.264	12873.56
254.334	12834.32
254.405	12800.34
254.475	12771.66
254.546	12738.4
254.616	12735.74
254.687	12714.97
254.757	12688.45
254.827	12667.63
254.898	12644.49
254.968	12628.15
255.039	12599.28
255.109	12585.92
255.18	12555.94
255.25	12497.23
255.321	12489.95
255.391	12449.31
255.461	12448.11
255.532	12398.84
255.602	12369
255.673	12323.55
255.743	12291.44
255.813	12254.23
255.884	12245.02
255.954	12236.88
256.024	12236.88
256.095	12211.96
256.165	12179.57
256.235	12163.03
256.306	12140.38
256.376	12142.88
256.446	12126.83
256.517	12115.99
256.587	12105.14
256.657	12092.27
256.728	12086
256.798	12063.49
256.868	12048.02
256.938	12016.79
257.009	12003.82
257.079	11989.36
257.149	11991.19
257.219	11947.52
257.29	11933.45
257.36	11892.09
257.43	11881.39
257.5	11840.18
257.571	11819.12
257.641	11805.48
257.711	11772.56
257.781	11749.81
257.852	11724.6
257.922	11680.78
257.992	11659.24
258.062	11633.55
258.132	11614.99
258.202	11591.57
258.273	11567.28
258.343	11557.78
258.413	11527.27
258.483	11513.39
258.553	11481.25
258.623	11460.18
258.693	11447.27
258.764	11444.62
258.834	11443.46
258.904	11423.75
258.974	11400.08
259.044	11383.89
259.114	11371.99
259.184	11348.47
259.254	11327.07
259.324	11287.98
259.394	11275.94
259.464	11273.43
259.535	11254.39
259.605	11233.09
259.675	11203.74
259.745	11195.07
259.815	11167.5
259.885	11145.91
259.955	11150.49
260.025	11129.19
260.095	11110.4
260.165	11098.83
260.235	11098.11
260.305	11070.88
260.375	11047.12
260.445	11048.71
260.515	11045.34
260.585	11033.14
260.655	11023.89
260.725	11022.88
260.795	11011.75
260.865	11022.64
260.934	10995.94
261.004	10986.78
261.074	10965.15
261.144	10969.68
261.214	10965.73
261.284	10947.9
261.354	10942.16
261.424	10916.33
261.494	10919.08
261.564	10900.67
261.634	10887.75
261.703	10849.59
261.773	10837.73
