Data from 20250704_urea_0.1M_MAYP1162681_11-18-52-694.txt Node
Date: Fri Jul 04 11:18:52 BST 2025
User: adleo
Spectrometer: MAYP116268
Trigger mode: 0
Integration Time (sec): 1.000000E0
Scans to average: 1
Electric dark correction enabled: true
Nonlinearity correction enabled: true
Boxcar width: 10
XAxis mode: Wavelengths
Number of Pixels in Spectrum: 2068
>>>>>Begin Spectral Data<<<<<
179.565	1234.78
179.642	1291.72
179.718	1340.6
179.795	1378.57
179.871	1410.08
179.948	1430.79
180.024	1453.24
180.101	1477.29
180.177	1493.82
180.254	1517.83
180.33	1543.88
180.407	1600.2
180.483	1697.64
180.56	1793.33
180.636	1879.98
180.712	1869.56
180.789	1880.97
180.865	1892.76
180.942	1899.27
181.018	1909.82
181.095	1924.04
181.171	1930.41
181.248	1932.41
181.324	1944.96
181.4	1954.52
181.477	1966.36
181.553	1977.96
181.63	1996.08
181.706	2012.67
181.782	2020.23
181.859	2019.42
181.935	2021.37
182.011	2017.67
182.088	2035.74
182.164	2053.49
182.24	2068.32
182.317	2076.26
182.393	2076.17
182.469	2092.43
182.546	2107.27
182.622	2114.5
182.698	2107.32
182.775	2118.35
182.851	2134.53
182.927	2130.34
183.003	2125.35
183.08	2122.4
183.156	2132.2
183.232	2131.2
183.308	2118.97
183.385	2127.77
183.461	2146.75
183.537	2148.8
183.613	2162.93
183.69	2156.55
183.766	2145.65
183.842	2153.17
183.918	2161.12
183.995	2173.67
184.071	2177.58
184.147	2173.82
184.223	2161.31
184.299	2175.54
184.375	2161.27
184.452	2167.46
184.528	2215.94
184.604	2227.36
184.68	2238.68
184.756	2247.87
184.832	2252.48
184.908	2257.71
184.985	2258.33
185.061	2238.88
185.137	2246.82
185.213	2236.78
185.289	2233.83
185.365	2224.99
185.441	2221.04
185.517	2231.18
185.593	2227.42
185.669	2223.99
185.745	2232.08
185.822	2247.15
185.898	2240.11
185.974	2250.24
186.05	2240.72
186.126	2205.99
186.202	2199.14
186.278	2195.28
186.354	2184.43
186.43	2190.57
186.506	2189.67
186.582	2187.48
186.658	2198.37
186.734	2178.25
186.81	2177.49
186.886	2180.72
186.962	2194.8
187.038	2194.09
187.114	2189.38
187.19	2196.09
187.266	2186.19
187.341	2189.72
187.417	2185.77
187.493	2183.63
187.569	2188.43
187.645	2183.01
187.721	2170.45
187.797	2178.68
187.873	2182.77
187.949	2177.15
188.025	2172.06
188.101	2173.49
188.176	2178.53
188.252	2172.44
188.328	2183.43
188.404	2185.57
188.48	2185.04
188.556	2178.81
188.632	2176.91
188.707	2176.15
188.783	2172.2
188.859	2167.2
188.935	2156.21
189.011	2164.92
189.086	2159.16
189.162	2154.55
189.238	2151.08
189.314	2148.03
189.39	2141.37
189.465	2131.52
189.541	2147.13
189.617	2132.95
189.693	2124.77
189.768	2127.77
189.844	2155.23
189.92	2144.49
189.996	2153
190.071	2159.62
190.147	2158.24
190.223	2167.37
190.298	2158.81
190.374	2146.96
190.45	2159.71
190.526	2166.7
190.601	2159.14
190.677	2158.81
190.753	2183.94
190.828	2189.6
190.904	2206.5
190.98	2222.1
191.055	2235.28
191.131	2224.91
191.207	2244.8
191.282	2258.97
191.358	2248.98
191.433	2232.32
191.509	2247.35
191.585	2243.06
191.66	2245.02
191.736	2251.53
191.811	2245.97
191.887	2262.62
191.963	2284.56
192.038	2290.17
192.114	2287.89
192.189	2292.7
192.265	2293.6
192.34	2270.27
192.416	2267.51
192.491	2261.61
192.567	2263.8
192.642	2265.89
192.718	2268.89
192.793	2255.47
192.869	2251.19
192.944	2254.8
193.02	2262.42
193.095	2266.32
193.171	2272.36
193.246	2272.94
193.322	2271.08
193.397	2268.46
193.473	2253.99
193.548	2238.72
193.624	2241.76
193.699	2243.1
193.775	2259.23
193.85	2258.09
193.925	2268.09
194.001	2267.52
194.076	2260.24
194.152	2247.57
194.227	2239.15
194.302	2229.92
194.378	2234.44
194.453	2232.92
194.529	2246.01
194.604	2226.88
194.679	2218.36
194.755	2199.05
194.83	2210.62
194.905	2208.62
194.981	2219.52
195.056	2217.28
195.131	2225.47
195.207	2225.42
195.282	2217.19
195.357	2198.96
195.433	2216.47
195.508	2202.95
195.583	2209.94
195.659	2223.98
195.734	2235.74
195.809	2237.17
195.884	2244.06
195.96	2243.68
196.035	2258.24
196.11	2256.2
196.185	2271.56
196.261	2275.09
196.336	2306.92
196.411	2293.54
196.486	2298.78
196.561	2292.45
196.637	2297.59
196.712	2313.25
196.787	2320.58
196.862	2339.62
196.937	2348.9
197.013	2352.52
197.088	2364.13
197.163	2386.36
197.238	2406.04
197.313	2401.99
197.388	2414.41
197.464	2447.84
197.539	2460.46
197.614	2455.31
197.689	2463.84
197.764	2482.17
197.839	2504.98
197.914	2499.6
197.989	2523.69
198.065	2541.45
198.14	2588.1
198.215	2614.62
198.29	2627.82
198.365	2635.54
198.44	2639.83
198.515	2666.98
198.59	2682.32
198.665	2708.57
198.74	2716.67
198.815	2715.9
198.89	2741.2
198.965	2774.75
199.04	2768.7
199.115	2785.99
199.19	2828.88
199.265	2832.97
199.34	2844.36
199.415	2881.22
199.49	2901.76
199.565	2909.76
199.64	2933.31
199.715	2933.69
199.79	2941.8
199.865	2943.85
199.94	2950.33
200.015	2983.79
200.09	2991.04
200.165	3001.39
200.24	3009.68
200.315	3052.77
200.39	3070.7
200.464	3076.85
200.539	3075.85
200.614	3094.87
200.689	3117.33
200.764	3122.34
200.839	3144.07
200.914	3145.74
200.989	3132.38
201.063	3147.74
201.138	3128.44
201.213	3129.54
201.288	3111.23
201.363	3116.52
201.438	3119.47
201.512	3131.77
201.587	3116.32
201.662	3121.43
201.737	3133.35
201.812	3142.7
201.886	3110.48
201.961	3121.5
202.036	3112.11
202.111	3111.16
202.186	3080.99
202.26	3063.11
202.335	3045.41
202.41	3041.22
202.485	3028.54
202.559	3012.52
202.634	2989.39
202.709	3007.74
202.784	2990.86
202.858	2996.24
202.933	2985.95
203.008	2986.52
203.082	2971.93
203.157	2979.7
203.232	2944.67
203.306	2931.56
203.381	2906.38
203.456	2892.84
203.53	2880.63
203.605	2876.15
203.68	2867.61
203.754	2877.71
203.829	2884.57
203.904	2884.43
203.978	2893.83
204.053	2921.77
204.127	2933.5
204.202	2960.06
204.277	2970.88
204.351	2997.06
204.426	3023.3
204.5	3053.07
204.575	3056.12
204.65	3109.57
204.724	3145.28
204.799	3198.92
204.873	3240.06
204.948	3294.84
205.022	3339.84
205.097	3390.13
205.171	3462.88
205.246	3539.79
205.32	3609.9
205.395	3681.47
205.469	3746.12
205.544	3824.55
205.618	3887.68
205.693	3986.01
205.767	4057.52
205.842	4174.22
205.916	4262.46
205.991	4353.88
206.065	4455.13
206.14	4581.26
206.214	4687.48
206.289	4791.34
206.363	4920.24
206.438	5049.69
206.512	5177.23
206.586	5326.87
206.661	5468.7
206.735	5578.36
206.81	5713.98
206.884	5863.54
206.958	5991.46
207.033	6157.83
207.107	6318.46
207.181	6504.17
207.256	6648.7
207.33	6829.63
207.405	6998.46
207.479	7180.8
207.553	7350.27
207.628	7504.34
207.702	7679.5
207.776	7842.08
207.851	8024.15
207.925	8218.69
207.999	8397.43
208.073	8580.03
208.148	8758.19
208.222	8919.43
208.296	9140.52
208.371	9336.54
208.445	9534.91
208.519	9748.2
208.593	9943.78
208.668	10132.17
208.742	10323.48
208.816	10518.85
208.89	10723.9
208.965	10911.98
209.039	11111.71
209.113	11317.95
209.187	11528.03
209.261	11725.04
209.336	11941.82
209.41	12146.9
209.484	12342.44
209.558	12539.39
209.632	12736.96
209.707	12938.3
209.781	13155.69
209.855	13363.3
209.929	13571.98
210.003	13771.45
210.077	13963.25
210.151	14199.2
210.226	14411.59
210.3	14622.96
210.374	14829.27
210.448	15018.22
210.522	15207.99
210.596	15397.86
210.67	15594.61
210.744	15827.03
210.818	16032.41
210.892	16224.63
210.966	16398.67
211.041	16583.85
211.115	16767.38
211.189	16960.6
211.263	17155.41
211.337	17331.22
211.411	17502.45
211.485	17660.09
211.559	17838.46
211.633	18006.36
211.707	18140.62
211.781	18317.1
211.855	18440.37
211.929	18591.84
212.003	18724.65
212.077	18891.39
212.151	19056.88
212.225	19216.3
212.299	19348.53
212.373	19481.2
212.447	19621.54
212.52	19791.8
212.594	19937.1
212.668	20087.36
212.742	20216.47
212.816	20342.97
212.89	20481.43
212.964	20614.02
213.038	20750.75
213.112	20893.7
213.186	21029.51
213.26	21137.28
213.333	21213.38
213.407	21337.25
213.481	21451.28
213.555	21579.1
213.629	21684.23
213.703	21788.25
213.777	21897.34
213.85	21988.54
213.924	22136.44
213.998	22245.15
214.072	22347.02
214.146	22440.4
214.219	22538.46
214.293	22640.71
214.367	22741.67
214.441	22844.75
214.515	22938.15
214.588	23012.45
214.662	23069.54
214.736	23140.37
214.81	23231.69
214.883	23327.64
214.957	23414.48
215.031	23508.41
215.105	23580.55
215.178	23649.31
215.252	23717.6
215.326	23769.93
215.4	23827.75
215.473	23846.41
215.547	23904.48
215.621	23967.63
215.694	24042.25
215.768	24093.42
215.842	24151.16
215.915	24205.14
215.989	24242.18
216.063	24287.19
216.136	24359.07
216.21	24419.7
216.284	24503.64
216.357	24570.7
216.431	24626.71
216.504	24689.91
216.578	24763.59
216.652	24835.18
216.725	24894.82
216.799	24962.18
216.873	25020.95
216.946	25089.46
217.02	25144.94
217.093	25188.75
217.167	25214.62
217.24	25255.4
217.314	25302.97
217.387	25341.14
217.461	25376.13
217.535	25437.18
217.608	25480.13
217.682	25514.68
217.755	25571.82
217.829	25596.63
217.902	25623.56
217.976	25665.41
218.049	25684.86
218.123	25691.37
218.196	25725.74
218.27	25752.67
218.343	25773
218.417	25818.42
218.49	25855.35
218.563	25902.46
218.637	25946.68
218.71	26002.29
218.784	26042.79
218.857	26080.35
218.931	26121.19
219.004	26170.82
219.077	26199.16
219.151	26231.79
219.224	26260.95
219.298	26283.45
219.371	26324.97
219.444	26349.01
219.518	26370.3
219.591	26407.62
219.665	26472.52
219.738	26496.85
219.811	26505.83
219.885	26536.98
219.958	26570.1
220.031	26585.8
220.105	26623.8
220.178	26645.29
220.251	26659.78
220.325	26672.14
220.398	26695.9
220.471	26714.92
220.544	26731.24
220.618	26745.88
220.691	26775.14
220.764	26791.8
220.838	26810.3
220.911	26813.48
220.984	26846.66
221.057	26868.97
221.131	26882.44
221.204	26871.48
221.277	26904.08
221.35	26954.69
221.424	26962.27
221.497	26968.89
221.57	26977.15
221.643	26982.75
221.716	27000.43
221.79	26995.84
221.863	27006.61
221.936	27012.5
222.009	27009.56
222.082	27009.31
222.155	27003.86
222.229	27012.07
222.302	27016.03
222.375	27008.88
222.448	27014.92
222.521	27014.58
222.594	27013.23
222.667	27005.31
222.74	27013.52
222.814	27004.92
222.887	26998.83
222.96	27006.85
223.033	27014.24
223.106	27019.6
223.179	27017.43
223.252	26996.47
223.325	26994.78
223.398	26985.31
223.471	26975.75
223.544	26980.92
223.617	26978.89
223.69	26982.32
223.763	26963.38
223.837	26952.81
223.91	26955.75
223.983	26935.9
224.056	26908.23
224.129	26886.12
224.202	26883.99
224.275	26864.24
224.348	26843.76
224.42	26816.23
224.493	26778.13
224.566	26740.46
224.639	26724.19
224.712	26699.07
224.785	26694.29
224.858	26679.37
224.931	26649.38
225.004	26625.53
225.077	26599.26
225.15	26560.1
225.223	26538.76
225.296	26531.08
225.369	26495.79
225.442	26463
225.514	26445.57
225.587	26431.23
225.66	26420.42
225.733	26399.27
225.806	26372.28
225.879	26336.74
225.952	26300.78
226.025	26294.02
226.097	26292.42
226.17	26260.22
226.243	26218.32
226.316	26190.55
226.389	26172.21
226.461	26161.78
226.534	26136.39
226.607	26111.57
226.68	26093.76
226.753	26067.02
226.825	26021.93
226.898	26013.57
226.971	25988.57
227.044	25961.59
227.117	25939.19
227.189	25924.46
227.262	25910.66
227.335	25888.4
227.407	25861.38
227.48	25845.83
227.553	25819.48
227.626	25778.2
227.698	25756.63
227.771	25734.81
227.844	25694.22
227.916	25660.05
227.989	25612.56
228.062	25583.94
228.134	25578.05
228.207	25554.54
228.28	25511.88
228.352	25483.7
228.425	25452.57
228.498	25431.62
228.57	25385.4
228.643	25359.96
228.716	25315.9
228.788	25265.42
228.861	25238.49
228.934	25215.48
229.006	25160.42
229.079	25120.52
229.151	25078.24
229.224	25029.51
229.296	24995.88
229.369	24987.53
229.442	24960.7
229.514	24927.32
229.587	24904.59
229.659	24848.96
229.732	24826.04
229.804	24814.46
229.877	24807.51
229.949	24794.1
230.022	24778.8
230.094	24751.4
230.167	24731.76
230.239	24697.41
230.312	24666.59
230.384	24650.04
230.457	24618.68
230.529	24603
230.602	24566.82
230.674	24545.21
230.747	24532.62
230.819	24510.96
230.892	24450.22
230.964	24428.13
231.037	24407.48
231.109	24374.34
231.181	24343.72
231.254	24296.88
231.326	24251.82
231.399	24207.1
231.471	24145.07
231.544	24087.19
231.616	24066.64
231.688	24021.11
231.761	23976.06
231.833	23938.49
231.905	23872.8
231.978	23835.42
232.05	23798.38
232.122	23765.97
232.195	23718.56
232.267	23686.73
232.339	23648.58
232.412	23624.76
232.484	23573.01
232.556	23518.86
232.629	23497.97
232.701	23473.91
232.773	23433.59
232.846	23395.31
232.918	23363.04
232.99	23344.04
233.062	23316.22
233.135	23282.46
233.207	23224.26
233.279	23200.4
233.351	23161.73
233.424	23122.09
233.496	23077.93
233.568	23055.46
233.64	23004.69
233.713	22962.5
233.785	22920.02
233.857	22878.02
233.929	22828.56
234.001	22811.39
234.074	22790.52
234.146	22725.28
234.218	22681.21
234.29	22644.67
234.362	22611.02
234.434	22548.78
234.507	22488.8
234.579	22431.33
234.651	22383.56
234.723	22354.97
234.795	22317.27
234.867	22287.38
234.939	22264.58
235.012	22229.92
235.084	22195.65
235.156	22159.35
235.228	22116.4
235.3	22075.23
235.372	22039.99
235.444	22003.98
235.516	21933.22
235.588	21893.16
235.66	21859.71
235.732	21808.61
235.804	21827.8
235.876	21781.62
235.948	21760.99
236.02	21724.65
236.092	21680.11
236.164	21639.04
236.236	21592.05
236.308	21541.1
236.38	21505.39
236.452	21449.38
236.524	21416.31
236.596	21383.49
236.668	21354.76
236.74	21321.41
236.812	21276.87
236.884	21239.71
236.956	21202.02
237.028	21153.25
237.1	21095.08
237.172	21071.7
237.244	21044.09
237.316	20957.32
237.388	20909.47
237.46	20854.18
237.532	20827.44
237.604	20788.64
237.675	20763.58
237.747	20736.25
237.819	20690.9
237.891	20625.26
237.963	20577.02
238.035	20517.12
238.107	20436.25
238.178	20402.18
238.25	20341.84
238.322	20325.98
238.394	20263.09
238.466	20218.61
238.538	20189.89
238.609	20151.96
238.681	20080.11
238.753	20024.11
238.825	19978.86
238.897	19936.98
238.968	19905.94
239.04	19845.42
239.112	19823.92
239.184	19766.29
239.255	19721.47
239.327	19687.49
239.399	19656.32
239.471	19628.03
239.542	19593.62
239.614	19580.95
239.686	19512.52
239.758	19489.38
239.829	19427.89
239.901	19398.3
239.973	19358.07
240.044	19310.31
240.116	19275.66
240.188	19234.89
240.259	19203.71
240.331	19156.15
240.403	19123.77
240.474	19065.79
240.546	19019.2
240.618	18955.15
240.689	18908.89
240.761	18867.06
240.833	18837.81
240.904	18793.57
240.976	18748.37
241.048	18704.95
241.119	18659.6
241.191	18638.93
241.262	18614.35
241.334	18564.52
241.405	18528.91
241.477	18480.34
241.549	18446.07
241.62	18405.26
241.692	18386.08
241.763	18343.57
241.835	18300.3
241.906	18259.67
241.978	18205.51
242.049	18186.66
242.121	18161.27
242.192	18137.46
242.264	18084.35
242.335	18019.87
242.407	17983.2
242.478	17937.95
242.55	17904.36
242.621	17858.92
242.693	17805.71
242.764	17754.82
242.836	17710.63
242.907	17673.33
242.979	17638.87
243.05	17593.33
243.122	17563.26
243.193	17513.14
243.264	17462.73
243.336	17426.25
243.407	17393
243.479	17380.03
243.55	17343.65
243.622	17313.14
243.693	17271.65
243.764	17256.75
243.836	17210.73
243.907	17171.55
243.978	17130.48
244.05	17092.56
244.121	17037.37
244.192	17012.94
244.264	16962.77
244.335	16925.95
244.407	16871.25
244.478	16833.7
244.549	16801.46
244.62	16744.3
244.692	16698.18
244.763	16670.03
244.834	16623.81
244.906	16580.53
244.977	16548.43
245.048	16524.77
245.119	16476.19
245.191	16428.71
245.262	16358.73
245.333	16347.21
245.405	16317.09
245.476	16297.09
245.547	16264.22
245.618	16239.78
245.689	16202.47
245.761	16167.48
245.832	16145.5
245.903	16116.63
245.974	16090.94
246.045	16049.25
246.117	16032.38
246.188	15989.39
246.259	15939.84
246.33	15904.46
246.401	15863.06
246.473	15805.41
246.544	15760.63
246.615	15733.64
246.686	15699.32
246.757	15677.15
246.828	15629.09
246.899	15611.5
246.97	15542.81
247.042	15512.93
247.113	15485.46
247.184	15472.83
247.255	15437.78
247.326	15394.02
247.397	15358.93
247.468	15319.88
247.539	15294.58
247.61	15247.39
247.681	15221.84
247.752	15204.49
247.823	15168
247.894	15139.75
247.965	15103.74
248.037	15057.9
248.108	15009.22
248.179	14969.4
248.25	14942.79
248.321	14918.11
248.392	14872.37
248.463	14870.92
248.534	14825.03
248.605	14803.63
248.675	14761.16
248.746	14739.18
248.817	14714.45
248.888	14686.54
248.959	14640.17
249.03	14616.26
249.101	14588.16
249.172	14549.5
249.243	14496.38
249.314	14484.23
249.385	14460.85
249.456	14438.14
249.527	14399.63
249.598	14376.34
249.669	14349.54
249.739	14322.02
249.81	14295.12
249.881	14251.97
249.952	14221.56
250.023	14191.86
250.094	14136.86
250.165	14100.42
250.235	14066.67
250.306	14046.14
250.377	14008.15
250.448	13979.47
250.519	13927.64
250.59	13920.61
250.66	13895.73
250.731	13887.83
250.802	13850.47
250.873	13820.58
250.944	13795.9
251.014	13770.15
251.085	13765.86
251.156	13743.79
251.227	13734.43
251.297	13713.7
251.368	13695.92
251.439	13681.55
251.51	13670.95
251.58	13643.13
251.651	13610.25
251.722	13593.86
251.792	13547.58
251.863	13522.52
251.934	13521.7
252.005	13525.12
252.075	13491.91
252.146	13475.71
252.217	13462.74
252.287	13446.78
252.358	13417.23
252.429	13407.45
252.499	13383.39
252.57	13354.47
252.641	13339.43
252.711	13310.41
252.782	13272.57
252.852	13268.66
252.923	13237.23
252.994	13213.71
253.064	13205.03
253.135	13166.13
253.205	13140.72
253.276	13134.17
253.347	13117.34
253.417	13078.05
253.488	13047.01
253.558	13012.35
253.629	12989.79
253.699	12963.08
253.77	12949.01
253.841	12923.12
253.911	12894.44
253.982	12865.18
254.052	12853.61
254.123	12831.24
254.193	12801.45
254.264	12816.44
254.334	12780.04
254.405	12751.46
254.475	12712.89
254.546	12689.18
254.616	12688.65
254.687	12659.97
254.757	12641.89
254.827	12625.55
254.898	12611.28
254.968	12585.78
255.039	12567.99
255.109	12553.53
255.18	12514.73
255.25	12469.12
255.321	12459.87
255.391	12434.37
255.461	12445.31
255.532	12392.29
255.602	12367.56
255.673	12325.91
255.743	12299.78
255.813	12251.63
255.884	12238.33
255.954	12224.59
256.024	12217.74
256.095	12198.27
256.165	12173.25
256.235	12155.27
256.306	12134.01
256.376	12123.31
256.446	12112.42
256.517	12087.4
256.587	12080.46
256.657	12072.94
256.728	12055.73
256.798	12032.16
256.868	12003.1
256.938	11965.65
257.009	11958.42
257.079	11946.7
257.149	11960.34
257.219	11910.74
257.29	11901.97
257.36	11856.57
257.43	11853.58
257.5	11816.32
257.571	11789.19
257.641	11774.2
257.711	11736.31
257.781	11716.4
257.852	11696.11
257.922	11661.31
257.992	11648.49
258.062	11620.83
258.132	11612.97
258.202	11594.9
258.273	11579.47
258.343	11585.06
258.413	11557.98
258.483	11541.11
258.553	11510.02
258.623	11479.9
258.693	11467.65
258.764	11466.74
258.834	11470.93
258.904	11452.18
258.974	11418.69
259.044	11397.43
259.114	11391.84
259.184	11379.41
259.254	11363.07
259.324	11327.07
259.394	11309.62
259.464	11308.23
259.535	11286.44
259.605	11262.54
259.675	11229.91
259.745	11215.02
259.815	11177
259.885	11156.27
259.955	11163.02
260.025	11137.48
260.095	11118.11
260.165	11106.73
260.235	11107.75
260.305	11079.02
260.375	11041.29
260.445	11049.53
260.515	11050.69
260.585	11039.94
260.655	11026.35
260.725	11013.19
260.795	11004.14
260.865	11009.63
260.934	10982.55
261.004	10972.81
261.074	10947.27
261.144	10954.11
261.214	10948.67
261.284	10932.19
261.354	10923.85
261.424	10896.52
261.494	10903.51
261.564	10886.31
261.634	10879.37
261.703	10838.51
261.773	10835.57
261.843	10832.34
