Data from 20250704_urea_2M_MAYP1162681_11-59-40-532.txt Node
Date: Fri Jul 04 11:59:40 BST 2025
User: adleo
Spectrometer: MAYP116268
Trigger mode: 0
Integration Time (sec): 1.000000E0
Scans to average: 1
Electric dark correction enabled: true
Nonlinearity correction enabled: true
Boxcar width: 10
XAxis mode: Wavelengths
Number of Pixels in Spectrum: 2068
>>>>>Begin Spectral Data<<<<<
179.565	1279.86
179.642	1338.14
179.718	1389.45
179.795	1430.36
179.871	1464.69
179.948	1483
180.024	1504.96
180.101	1528.65
180.177	1542.95
180.254	1566.01
180.33	1590.3
180.407	1649.99
180.483	1749.43
180.56	1845.69
180.636	1933.24
180.712	1919.59
180.789	1930.2
180.865	1941.84
180.942	1952.87
181.018	1963.76
181.095	1976.94
181.171	1981.83
181.248	1983.5
181.324	1997.48
181.4	2004.52
181.477	2017.17
181.553	2031.63
181.63	2051.65
181.706	2068.92
181.782	2079.61
181.859	2079.47
181.935	2082.04
182.011	2077.23
182.088	2096.26
182.164	2114.34
182.24	2129.85
182.317	2137.22
182.393	2136.79
182.469	2151.49
182.546	2164.48
182.622	2168.66
182.698	2163.38
182.775	2172.8
182.851	2188.36
182.927	2176.89
183.003	2173.85
183.08	2167.04
183.156	2176.13
183.232	2172.47
183.308	2160.62
183.385	2167.71
183.461	2185.79
183.537	2187.55
183.613	2201.25
183.69	2194.25
183.766	2182.74
183.842	2189.64
183.918	2197.49
183.995	2212
184.071	2214.09
184.147	2205.29
184.223	2191.45
184.299	2207.87
184.375	2198.78
184.452	2204.21
184.528	2253.26
184.604	2262.21
184.68	2276.01
184.756	2283.48
184.832	2289.38
184.908	2293.47
184.985	2292.99
185.061	2276.86
185.137	2287.81
185.213	2276.06
185.289	2275.68
185.365	2269.3
185.441	2269.54
185.517	2282.58
185.593	2276.97
185.669	2275.49
185.745	2285.44
185.822	2304.03
185.898	2292.56
185.974	2303.74
186.05	2293.7
186.126	2265.35
186.202	2259.54
186.278	2254.59
186.354	2241.13
186.43	2250.7
186.506	2249.51
186.582	2248.32
186.658	2256.07
186.734	2231.57
186.81	2234.57
186.886	2237.95
186.962	2251.51
187.038	2247.7
187.114	2238.18
187.19	2241.46
187.266	2231.28
187.341	2233.66
187.417	2225.52
187.493	2226.33
187.569	2225.95
187.645	2220.67
187.721	2206.44
187.797	2213.24
187.873	2213.81
187.949	2213.48
188.025	2202.72
188.101	2206
188.176	2212.62
188.252	2207.86
188.328	2220.18
188.404	2222.56
188.48	2217.37
188.556	2209.61
188.632	2208.47
188.707	2211.09
188.783	2212.66
188.859	2206
188.935	2194.39
189.011	2205.86
189.086	2198.39
189.162	2192.01
189.238	2190.87
189.314	2186.35
189.39	2182.31
189.465	2179.03
189.541	2192.68
189.617	2177.22
189.693	2172.75
189.768	2174.51
189.844	2200.07
189.92	2188.71
189.996	2194.37
190.071	2206.17
190.147	2205.13
190.223	2213.17
190.298	2203.7
190.374	2189.33
190.45	2199.98
190.526	2208.41
190.601	2202.84
190.677	2206.83
190.753	2234.21
190.828	2236.35
190.904	2254.53
190.98	2269.04
191.055	2277.04
191.131	2272.09
191.207	2294.12
191.282	2304.44
191.358	2294.45
191.433	2278.69
191.509	2294.39
191.585	2291.29
191.66	2291.29
191.736	2301.14
191.811	2294.38
191.887	2314.04
191.963	2339.79
192.038	2349.83
192.114	2353.45
192.189	2353.26
192.265	2347.93
192.34	2324.98
192.416	2324.6
192.491	2319.94
192.567	2323.56
192.642	2329.17
192.718	2326.65
192.793	2313.37
192.869	2309.57
192.944	2312.23
193.02	2320.42
193.095	2328.7
193.171	2334.03
193.246	2334.31
193.322	2332.79
193.397	2333.27
193.473	2316.7
193.548	2300.8
193.624	2306.13
193.699	2304.89
193.775	2324.94
193.85	2325.94
193.925	2337.65
194.001	2337.5
194.076	2330.17
194.152	2319.22
194.227	2310.18
194.302	2300.67
194.378	2305.99
194.453	2301.57
194.529	2317.23
194.604	2302.33
194.679	2294.05
194.755	2276.21
194.83	2286.45
194.905	2283.69
194.981	2290.59
195.056	2283.59
195.131	2287.4
195.207	2283.93
195.282	2272.32
195.357	2250.08
195.433	2268.88
195.508	2253.55
195.583	2264.21
195.659	2279.16
195.734	2286.16
195.809	2286.49
195.884	2296.72
195.96	2296.39
196.035	2313.28
196.11	2307.62
196.185	2319.99
196.261	2322.61
196.336	2354.78
196.411	2337.5
196.486	2345.54
196.561	2339.02
196.637	2348.44
196.712	2365.44
196.787	2370.2
196.862	2386.39
196.937	2397.38
197.013	2400.05
197.088	2414.18
197.163	2433.52
197.238	2448.38
197.313	2447
197.388	2460.9
197.464	2488.95
197.539	2502.62
197.614	2495.29
197.689	2509.71
197.764	2526.58
197.839	2546.15
197.914	2538.62
197.989	2564.1
198.065	2573.43
198.14	2624.94
198.215	2650.56
198.29	2663.24
198.365	2673.63
198.44	2684.77
198.515	2715.07
198.59	2732.46
198.665	2758.52
198.74	2767.68
198.815	2769.25
198.89	2793.88
198.965	2823.53
199.04	2823.34
199.115	2837.44
199.19	2881.04
199.265	2882.95
199.34	2890.38
199.415	2925.58
199.49	2948.54
199.565	2958.74
199.64	2982.77
199.715	2981.76
199.79	2990.92
199.865	2997.16
199.94	2998.26
200.015	3030.06
200.09	3035.64
200.165	3043.61
200.24	3050.71
200.315	3092.66
200.39	3107.78
200.464	3111.69
200.539	3114.89
200.614	3128.47
200.689	3152.51
200.764	3159.05
200.839	3178.4
200.914	3187.08
200.989	3176.68
201.063	3191.41
201.138	3174.45
201.213	3176.26
201.288	3158.33
201.363	3166.15
201.438	3163.29
201.512	3179.21
201.587	3163.61
201.662	3164.8
201.737	3177.92
201.812	3188.04
201.886	3151.04
201.961	3164.93
202.036	3156.3
202.111	3150.91
202.186	3121.12
202.26	3105.76
202.335	3082.78
202.41	3073.29
202.485	3051.65
202.559	3033.53
202.634	3004.35
202.709	3013.78
202.784	2993.76
202.858	2989.47
202.933	2967.54
203.008	2962.96
203.082	2941.66
203.157	2935.94
203.232	2894.39
203.306	2872.45
203.381	2838.26
203.456	2817.53
203.53	2791.43
203.605	2770.14
203.68	2745.97
203.754	2741.93
203.829	2726.77
203.904	2707.24
203.978	2698.23
204.053	2707.95
204.127	2694.09
204.202	2694.37
204.277	2679.94
204.351	2674.65
204.426	2667.17
204.5	2662.93
204.575	2628.31
204.65	2637.45
204.724	2632.35
204.799	2641.92
204.873	2637.59
204.948	2636.68
205.022	2624.2
205.097	2615.34
205.171	2628.53
205.246	2639.44
205.32	2636.02
205.395	2632.73
205.469	2624.64
205.544	2627.97
205.618	2609.15
205.693	2617.49
205.767	2602.25
205.842	2620.26
205.916	2613.93
205.991	2606.31
206.065	2608.69
206.14	2622.44
206.214	2622.54
206.289	2615.2
206.363	2626.63
206.438	2628.02
206.512	2634.73
206.586	2651.88
206.661	2661.93
206.735	2640.22
206.81	2641.41
206.884	2657.8
206.958	2645.65
207.033	2661.03
207.107	2670.8
207.181	2703.55
207.256	2699.31
207.33	2722.69
207.405	2734.66
207.479	2751.72
207.553	2759.15
207.628	2744.24
207.702	2757.82
207.776	2749.38
207.851	2753.91
207.925	2769.93
207.999	2766.97
208.073	2764.64
208.148	2768.5
208.222	2755.77
208.296	2789.92
208.371	2806.99
208.445	2818.1
208.519	2847.3
208.593	2858.55
208.668	2853.4
208.742	2853.92
208.816	2858.21
208.89	2874.9
208.965	2875.66
209.039	2884.87
209.113	2903.98
209.187	2923.41
209.261	2920.17
209.336	2943.48
209.41	2961.69
209.484	2961.45
209.558	2986.53
209.632	2999.3
209.707	3011.46
209.781	3033.53
209.855	3050.51
209.929	3066.84
210.003	3074.7
210.077	3076.75
210.151	3131.98
210.226	3167.05
210.3	3197.22
210.374	3222.06
210.448	3221.58
210.522	3228.12
210.596	3240.33
210.67	3247.48
210.744	3298.06
210.818	3331.73
210.892	3350.19
210.966	3347.19
211.041	3362.5
211.115	3358.54
211.189	3388.08
211.263	3409.65
211.337	3419.67
211.411	3432.7
211.485	3431.22
211.559	3449.11
211.633	3453.07
211.707	3424.31
211.781	3438.84
211.855	3409.72
211.929	3408.38
212.003	3396.27
212.077	3418.61
212.151	3442.15
212.225	3468.55
212.299	3469.98
212.373	3474.04
212.447	3486.84
212.52	3534.39
212.594	3559.13
212.668	3591.31
212.742	3597.95
212.816	3619.3
212.89	3640.55
212.964	3671.84
213.038	3704.48
213.112	3747.2
213.186	3802.94
213.26	3814.78
213.333	3805.13
213.407	3852.31
213.481	3900.41
213.555	3964.01
213.629	4001.21
213.703	4033.14
213.777	4087.05
213.85	4125.26
213.924	4218.02
213.998	4284.52
214.072	4339.17
214.146	4389.5
214.219	4459.89
214.293	4528.54
214.367	4604.51
214.441	4690.86
214.515	4760.44
214.588	4822.59
214.662	4878.81
214.736	4943.7
214.81	5044.17
214.883	5149.78
214.957	5231.15
215.031	5316.75
215.105	5397.66
215.178	5494.07
215.252	5605.2
215.326	5682.51
215.4	5778.21
215.473	5849.57
215.547	5945.07
215.621	6055.57
215.694	6188.24
215.768	6291.45
215.842	6410.26
215.915	6522.2
215.989	6628.01
216.063	6745.55
216.136	6881.94
216.21	7016.3
216.284	7172.58
216.357	7311.03
216.431	7449.21
216.504	7604.38
216.578	7775.22
216.652	7933.53
216.725	8082.02
216.799	8233.87
216.873	8390.34
216.946	8546.6
217.02	8682.57
217.093	8831.86
217.167	8958.79
217.24	9089.93
217.314	9232.8
217.387	9373.9
217.461	9517.1
217.535	9682.9
217.608	9828.29
217.682	9976.98
217.755	10142.15
217.829	10274.97
217.902	10429.51
217.976	10583.19
218.049	10723.11
218.123	10855.77
218.196	11004.04
218.27	11140.8
218.343	11264.94
218.417	11417.95
218.49	11559.35
218.563	11725.09
218.637	11874.36
218.71	12045.75
218.784	12206.88
218.857	12360.45
218.931	12510.59
219.004	12655.82
219.077	12799.42
219.151	12944.47
219.224	13082.57
219.298	13212.87
219.371	13362.16
219.444	13485.76
219.518	13620.16
219.591	13754.12
219.665	13910.4
219.738	14049.23
219.811	14163.77
219.885	14310.12
219.958	14431.45
220.031	14560.5
220.105	14694.17
220.178	14812.7
220.251	14920.58
220.325	15032.26
220.398	15153.45
220.471	15279.69
220.544	15405.59
220.618	15512.6
220.691	15621.63
220.764	15718.71
220.838	15829.9
220.911	15919.65
220.984	16040.78
221.057	16149.56
221.131	16258.1
221.204	16325.97
221.277	16424.29
221.35	16565.46
221.424	16655.92
221.497	16753.71
221.57	16841.81
221.643	16921.67
221.716	17011.41
221.79	17090.89
221.863	17175.8
221.936	17256.72
222.009	17331.42
222.082	17410.94
222.155	17481.54
222.229	17580.05
222.302	17667.28
222.375	17736.05
222.448	17826.21
222.521	17894.89
222.594	17952.57
222.667	18004.91
222.74	18079.41
222.814	18145.68
222.887	18191.02
222.96	18248.71
223.033	18314.73
223.106	18372.46
223.179	18434
223.252	18489.08
223.325	18548.93
223.398	18594.71
223.471	18647.34
223.544	18691.96
223.617	18745.65
223.69	18804.92
223.763	18834.46
223.837	18891.52
223.91	18938.65
223.983	18962.36
224.056	18988.47
224.129	19033.72
224.202	19081.19
224.275	19105.05
224.348	19123.84
224.42	19151.21
224.493	19169.43
224.566	19187.5
224.639	19222.53
224.712	19241.04
224.785	19270.19
224.858	19292.07
224.931	19319.44
225.004	19341.95
225.077	19364.21
225.15	19355.87
225.223	19359.92
225.296	19404.69
225.369	19399.58
225.442	19410.28
225.514	19435.29
225.587	19464.45
225.66	19494.95
225.733	19518.85
225.806	19545.6
225.879	19568.44
225.952	19570.27
226.025	19596.44
226.097	19633.88
226.17	19648.82
226.243	19655.9
226.316	19668.82
226.389	19682.8
226.461	19696.48
226.534	19712.77
226.607	19722.65
226.68	19760.29
226.753	19780.57
226.825	19771.22
226.898	19795.99
226.971	19804.48
227.044	19817.87
227.117	19828.14
227.189	19830.31
227.262	19841.39
227.335	19849.87
227.407	19840.67
227.48	19852.28
227.553	19865.29
227.626	19865.73
227.698	19867.32
227.771	19874.16
227.844	19864.81
227.916	19869.44
227.989	19864.09
228.062	19856.62
228.134	19881.15
228.207	19872.47
228.28	19868.47
228.352	19862.3
228.425	19863.22
228.498	19877.34
228.57	19861
228.643	19867.17
228.716	19856.71
228.788	19853.15
228.861	19850.16
228.934	19872.57
229.006	19864.67
229.079	19853.39
229.151	19831.03
229.224	19815.56
229.296	19819.37
229.369	19851.56
229.442	19858.98
229.514	19843.27
229.587	19851.41
229.659	19824.62
229.732	19824.52
229.804	19833.34
229.877	19850.31
229.949	19857.24
230.022	19866.06
230.094	19864.04
230.167	19860.57
230.239	19851.32
230.312	19835.22
230.384	19848.86
230.457	19843.41
230.529	19843.32
230.602	19843.03
230.674	19853.92
230.747	19870.5
230.819	19868.18
230.892	19824.91
230.964	19822.31
231.037	19826.88
231.109	19815.9
231.181	19819.13
231.254	19805.05
231.326	19781.15
231.399	19763.95
231.471	19749.35
231.544	19716.87
231.616	19714.36
231.688	19699.03
231.761	19677.11
231.833	19662.75
231.905	19620.58
231.978	19605.21
232.05	19602.17
232.122	19593.84
232.195	19569.98
232.267	19560.73
232.339	19540.59
232.412	19540.01
232.484	19516.68
232.556	19494.52
232.629	19497.36
232.701	19486.08
232.773	19474.76
232.846	19462.61
232.918	19451.77
232.99	19445.46
233.062	19450.13
233.135	19451.48
233.207	19422.09
233.279	19422.76
233.351	19412.74
233.424	19395.68
233.496	19373.61
233.568	19373.66
233.64	19339.83
233.713	19324.98
233.785	19307.35
233.857	19290.14
233.929	19262.24
234.001	19268.89
234.074	19272.6
234.146	19240.99
234.218	19233.23
234.29	19204.75
234.362	19180.46
234.434	19143.55
234.507	19097.48
234.579	19051.8
234.651	19011.36
234.723	19007.51
234.795	18992.28
234.867	18978.79
234.939	18979.03
235.012	18960.62
235.084	18947.99
235.156	18946.31
235.228	18918.6
235.3	18886.26
235.372	18867.23
235.444	18857.45
235.516	18801.35
235.588	18780.1
235.66	18756.68
235.732	18722.71
235.804	18766.42
235.876	18756.83
235.948	18749.6
236.02	18726.23
236.092	18702.42
236.164	18682.81
236.236	18655
236.308	18622.81
236.38	18600.5
236.452	18563.05
236.524	18550.38
236.596	18527.44
236.668	18505.27
236.74	18482.53
236.812	18464.75
236.884	18461.95
236.956	18442
237.028	18413.57
237.1	18373.43
237.172	18364.12
237.244	18351.35
237.316	18280.95
237.388	18241.34
237.46	18207.55
237.532	18197.24
237.604	18164.47
237.675	18153.73
237.747	18132.14
237.819	18105
237.891	18077.25
237.963	18053.44
238.035	18012.86
238.107	17951.47
238.178	17934.5
238.25	17901.88
238.322	17889.98
238.394	17834.03
238.466	17794.7
238.538	17775.86
238.609	17761.16
238.681	17713.11
238.753	17675.04
238.825	17652.34
238.897	17634.08
238.968	17621.98
239.04	17586.51
239.112	17595.91
239.184	17565.31
239.255	17537.55
239.327	17518.66
239.399	17489.84
239.471	17470.51
239.542	17458.71
239.614	17449.12
239.686	17393.94
239.758	17385.69
239.829	17357.12
239.901	17346.18
239.973	17326.18
240.044	17302.9
240.116	17265.26
240.188	17231.38
240.259	17204.92
240.331	17174.75
240.403	17161.69
240.474	17123.33
240.546	17093.21
240.618	17035.23
240.689	16995.9
240.761	16970.51
240.833	16951.52
240.904	16924.82
240.976	16892.96
241.048	16860.28
241.119	16839.27
241.191	16822.88
241.262	16802.55
241.334	16757.82
241.405	16727.46
241.477	16689.43
241.549	16659.98
241.62	16639.69
241.692	16629.38
241.763	16613.33
241.835	16582.34
241.906	16541.86
241.978	16493.03
242.049	16473.85
242.121	16460.64
242.192	16448.11
242.264	16406.08
242.335	16361.98
242.407	16345.4
242.478	16317.74
242.55	16288.43
242.621	16253.01
242.693	16218.11
242.764	16189.82
242.836	16162.83
242.907	16142.73
242.979	16126.3
243.05	16108.03
243.122	16085.04
243.193	16050.53
243.264	15990.52
243.336	15954.23
243.407	15939.34
243.479	15931.48
243.55	15914.51
243.622	15891.67
243.693	15855.66
243.764	15840.77
243.836	15800.42
243.907	15756.71
243.978	15721.42
244.05	15703.16
244.121	15656.35
244.192	15635.92
244.264	15585.98
244.335	15564.19
244.407	15513.39
244.478	15481.96
244.549	15443.55
244.62	15400.5
244.692	15377.8
244.763	15367.48
244.834	15335.33
244.906	15302.94
244.977	15278.41
245.048	15260.48
245.119	15222.59
245.191	15185.43
245.262	15134.28
245.333	15126.91
245.405	15101.94
245.476	15084.2
245.547	15051.13
245.618	15034.98
245.689	15011.46
245.761	14989.96
245.832	14959.06
245.903	14935.97
245.974	14920.45
246.045	14890.61
246.117	14880.01
246.188	14826.89
246.259	14785.82
246.33	14765.77
246.401	14728.17
246.473	14686.95
246.544	14647.04
246.615	14624.58
246.686	14598.16
246.757	14594.69
246.828	14553.62
246.899	14539.88
246.97	14495.68
247.042	14466.03
247.113	14446.8
247.184	14441.4
247.255	14414.88
247.326	14392.52
247.397	14367.88
247.468	14331.49
247.539	14309.36
247.61	14273.02
247.681	14266.41
247.752	14262.7
247.823	14221.19
247.894	14195.45
247.965	14157.51
248.037	14127.96
248.108	14086.94
248.179	14065.25
248.25	14031.79
248.321	14022.97
248.392	13993.18
248.463	13992.6
248.534	13966.14
248.605	13944.97
248.675	13919.86
248.746	13896.82
248.817	13874.21
248.888	13865.77
248.959	13824.51
249.03	13805.27
249.101	13778.37
249.172	13752.58
249.243	13698.3
249.314	13695.75
249.385	13681.48
249.456	13670.39
249.527	13643.78
249.598	13629.8
249.669	13603.53
249.739	13587.04
249.81	13564.58
249.881	13522.11
249.952	13492.36
250.023	13467.78
250.094	13425.84
250.165	13378.07
250.235	13348.85
250.306	13327.5
250.377	13285.7
250.448	13273.84
250.519	13232.05
250.59	13229.11
250.66	13203.03
250.731	13205.68
250.802	13176.71
250.873	13151.69
250.944	13133.9
251.014	13102.61
251.085	13104.54
251.156	13089.07
251.227	13078.46
251.297	13067.57
251.368	13061.88
251.439	13054.89
251.51	13040.23
251.58	13016.18
251.651	12992.46
251.722	12986.87
251.792	12942.52
251.863	12916.3
251.934	12909.6
252.005	12917.21
252.075	12896.53
252.146	12880.14
252.217	12867.95
252.287	12859.37
252.358	12834.25
252.429	12830.97
252.499	12804.03
252.57	12783.4
252.641	12766.62
252.711	12745.99
252.782	12704.05
252.852	12702.84
252.923	12670.4
252.994	12649.34
253.064	12645.48
253.135	12614.29
253.205	12585.42
253.276	12587.97
253.347	12588.74
253.417	12556.11
253.488	12532.63
253.558	12495.61
253.629	12475.61
253.699	12454.59
253.77	12445.82
253.841	12427.6
253.911	12411.16
253.982	12399.69
254.052	12388.41
254.123	12368.5
254.193	12348.44
254.264	12370.86
254.334	12341.02
254.405	12318.37
254.475	12289.93
254.546	12260.91
254.616	12260.96
254.687	12247.56
254.757	12223.89
254.827	12200.37
254.898	12185.09
254.968	12160.98
255.039	12140.98
255.109	12123.92
255.18	12097.65
255.25	12046.79
255.321	12031.18
255.391	11993.58
255.461	12001.1
255.532	11951.93
255.602	11929.04
255.673	11888.4
255.743	11861.31
255.813	11812.87
255.884	11810.22
255.954	11797.31
256.024	11799.72
256.095	11784.44
256.165	11749.01
256.235	11742.99
256.306	11720.62
256.376	11719.37
256.446	11712.09
256.517	11702.98
256.587	11701.92
256.657	11684.47
256.728	11672.66
256.798	11654.01
256.868	11636.47
256.938	11604.66
257.009	11598.44
257.079	11589.67
257.149	11594.1
257.219	11543.35
257.29	11536.02
257.36	11492.36
257.43	11491.3
257.5	11453.27
257.571	11429.65
257.641	11422.86
257.711	11391.05
257.781	11383.24
257.852	11367.38
257.922	11328.68
257.992	11309.69
258.062	11286.95
258.132	11282.56
258.202	11267.43
258.273	11249.36
258.343	11250.08
258.413	11218.13
258.483	11200.49
258.553	11171.72
258.623	11150.08
258.693	11149.55
258.764	11150.8
258.834	11151.28
258.904	11132.29
258.974	11100.68
259.044	11080.3
259.114	11067.96
259.184	11053.6
259.254	11030.08
259.324	10992.06
259.394	10983.15
259.464	10984.01
259.535	10965.41
259.605	10940.06
259.675	10913.95
259.745	10909.95
259.815	10878.86
259.885	10858.72
259.955	10871.01
260.025	10851.06
260.095	10832.75
260.165	10817.09
260.235	10817.57
260.305	10791.07
260.375	10760.57
260.445	10779.41
260.515	10784.71
260.585	10781
260.655	10759.51
260.725	10752.91
260.795	10746.74
260.865	10753.2
260.934	10721.1
261.004	10711.8
261.074	10699.52
261.144	10700.82
261.214	10689.98
261.284	10675.81
261.354	10672.29
261.424	10645.11
261.494	10651.28
261.564	10640
261.634	10640.58
261.703	10604.01
261.773	10599.53
261.843	10590.42
261.913	10564.98
261.983	10526.68
262.053	10516.17
262.123	10510.73
262.192	10481.29
262.262	10479.75
262.332	10448
