Data from 20250702_background_lightoff_MAYP1162681_12-13-06-631.txt Node
Date: Fri Jul 04 12:13:06 BST 2025
User: adleo
Spectrometer: MAYP116268
Trigger mode: 0
Integration Time (sec): 1.000000E0
Scans to average: 1
Electric dark correction enabled: true
Nonlinearity correction enabled: true
Boxcar width: 10
XAxis mode: Wavelengths
Number of Pixels in Spectrum: 2068
>>>>>Begin Spectral Data<<<<<
179.565	1265.77
179.642	1324.59
179.718	1372.05
179.795	1409.95
179.871	1442.33
179.948	1461.87
180.024	1485.39
180.101	1507.85
180.177	1523.8
180.254	1546.88
180.33	1570.01
180.407	1628.22
180.483	1729.94
180.56	1824.49
180.636	1912.47
180.712	1900.86
180.789	1912.61
180.865	1924.3
180.942	1932.71
181.018	1942.51
181.095	1954.78
181.171	1959.53
181.248	1962.29
181.324	1979.08
181.4	1987.45
181.477	1999.34
181.553	2015.07
181.63	2037.43
181.706	2053.89
181.782	2060.02
181.859	2061.82
181.935	2066.44
182.011	2061.73
182.088	2075.29
182.164	2094.7
182.24	2108.3
182.317	2117.05
182.393	2113.1
182.469	2128.65
182.546	2144.02
182.622	2148.87
182.698	2147.11
182.775	2161.33
182.851	2176.04
182.927	2167.9
183.003	2163.71
183.08	2160.15
183.156	2166.33
183.232	2161.53
183.308	2150.54
183.385	2158.72
183.461	2174.46
183.537	2176.56
183.613	2192.97
183.69	2188.83
183.766	2177.7
183.842	2188.12
183.918	2193.02
183.995	2208.29
184.071	2215.81
184.147	2208.86
184.223	2199.21
184.299	2214.1
184.375	2201.88
184.452	2205.49
184.528	2259.33
184.604	2270.41
184.68	2281.92
184.756	2288.78
184.832	2289.92
184.908	2294.67
184.985	2296.01
185.061	2282.87
185.137	2293.72
185.213	2279.26
185.289	2276.93
185.365	2270.89
185.441	2267.27
185.517	2281.08
185.593	2277.51
185.669	2271.41
185.745	2284.55
185.822	2300.34
185.898	2287.4
185.974	2296.34
186.05	2289.77
186.126	2250.21
186.202	2243.32
186.278	2240.56
186.354	2230.61
186.43	2240.03
186.506	2239.08
186.582	2238.7
186.658	2243.75
186.734	2222.19
186.81	2224.57
186.886	2229.52
186.962	2242.94
187.038	2238.94
187.114	2230.47
187.19	2236.37
187.266	2227.95
187.341	2229.09
187.417	2223.62
187.493	2222.81
187.569	2225.09
187.645	2218.67
187.721	2205.25
187.797	2210.67
187.873	2213.24
187.949	2208.34
188.025	2199.35
188.101	2200.2
188.176	2206.39
188.252	2201.87
188.328	2211.43
188.404	2212.52
188.48	2204.58
188.556	2197.15
188.632	2196.58
188.707	2198.49
188.783	2193.06
188.859	2184.5
188.935	2170.94
189.011	2175.74
189.086	2170.65
189.162	2163.95
189.238	2161.19
189.314	2159.43
189.39	2156.86
189.465	2149.58
189.541	2166.33
189.617	2153.81
189.693	2152.2
189.768	2152.86
189.844	2179.04
189.92	2169.15
189.996	2178.62
190.071	2194.37
190.147	2191.99
190.223	2201.37
190.298	2192.51
190.374	2183.52
190.45	2197.08
190.526	2206.45
190.601	2200.27
190.677	2202.12
190.753	2228.35
190.828	2231.3
190.904	2248.58
190.98	2262.76
191.055	2275.32
191.131	2267.23
191.207	2287.93
191.282	2295.35
191.358	2288.74
191.433	2272.4
191.509	2284.3
191.585	2280.96
191.66	2277.92
191.736	2286.86
191.811	2277.63
191.887	2297.43
191.963	2319.04
192.038	2328.89
192.114	2326.85
192.189	2331.22
192.265	2329.94
192.34	2306.99
192.416	2308.08
192.491	2302.37
192.567	2303.56
192.642	2304.23
192.718	2302.09
192.793	2292.05
192.869	2291.43
192.944	2293.28
193.02	2300.42
193.095	2305.75
193.171	2314.22
193.246	2316.89
193.322	2312.37
193.397	2314.99
193.473	2298.51
193.548	2279.52
193.624	2280.62
193.699	2281.66
193.775	2297.66
193.85	2297.61
193.925	2307.18
194.001	2306.94
194.076	2298.66
194.152	2292.52
194.227	2284
194.302	2277.2
194.378	2277.39
194.453	2271.01
194.529	2284.91
194.604	2269.35
194.679	2262.69
194.755	2240.23
194.83	2250.9
194.905	2249.94
194.981	2259.13
195.056	2249.66
195.131	2258.66
195.207	2256.85
195.282	2245.71
195.357	2225.72
195.433	2242
195.508	2230.15
195.583	2236.9
195.659	2252.47
195.734	2257.66
195.809	2257.04
195.884	2266.46
195.96	2267.93
196.035	2287.39
196.11	2282.11
196.185	2296.05
196.261	2299.53
196.336	2335.56
196.411	2319.32
196.486	2324.46
196.561	2317.61
196.637	2328.69
196.712	2342.64
196.787	2347.83
196.862	2365.16
196.937	2375.39
197.013	2378.86
197.088	2389.62
197.163	2411.91
197.238	2429.82
197.313	2429.82
197.388	2444.15
197.464	2475.15
197.539	2488.53
197.614	2479.2
197.689	2491.39
197.764	2506.87
197.839	2529.15
197.914	2519
197.989	2544.48
198.065	2560.15
198.14	2611.28
198.215	2639.57
198.29	2653.34
198.365	2664.77
198.44	2673.82
198.515	2708.03
198.59	2725.99
198.665	2754.15
198.74	2761.87
198.815	2761.73
198.89	2784.26
198.965	2818.82
199.04	2813.86
199.115	2826.63
199.19	2870.61
199.265	2873.85
199.34	2885.86
199.415	2918.48
199.49	2940.73
199.565	2951.5
199.64	2972.33
199.715	2974.14
199.79	2980.67
199.865	2986.59
199.94	2990.68
200.015	3026.11
200.09	3027.88
200.165	3035.74
200.24	3042.89
200.315	3085.66
200.39	3103.01
200.464	3109.35
200.539	3108.92
200.614	3127.04
200.689	3156.13
200.764	3162.86
200.839	3180.69
200.914	3186.22
200.989	3176.96
201.063	3195.47
201.138	3179.5
201.213	3186.47
201.288	3161.33
201.363	3168.58
201.438	3167.06
201.512	3180.41
201.587	3162.85
201.662	3167.57
201.737	3178.88
201.812	3189.13
201.886	3152.43
201.961	3161.16
202.036	3152.77
202.111	3150.62
202.186	3120.69
202.26	3099.46
202.335	3077.14
202.41	3070.9
202.485	3054.74
202.559	3035.19
202.634	3004.81
202.709	3013.15
202.784	2991.03
202.858	2992.94
202.933	2970.91
203.008	2967.34
203.082	2950.41
203.157	2946.7
203.232	2904.95
203.306	2882.25
203.381	2847.35
203.456	2825.19
203.53	2803.73
203.605	2782.62
203.68	2758.74
203.754	2751.31
203.829	2737.92
203.904	2717.43
203.978	2706.24
204.053	2708.71
204.127	2695.95
204.202	2695.99
204.277	2677.27
204.351	2670.17
204.426	2662.45
204.5	2654.59
204.575	2618.21
204.65	2624.5
204.724	2619.02
204.799	2622.97
204.873	2619.83
204.948	2617.64
205.022	2605.4
205.097	2595.96
205.171	2610.01
205.246	2618.3
205.32	2617.49
205.395	2615.26
205.469	2607.21
205.544	2614.26
205.618	2593.97
205.693	2604.88
205.767	2589.74
205.842	2610.27
205.916	2603.89
205.991	2593.12
206.065	2598.5
206.14	2613.07
206.214	2606.3
206.289	2601.82
206.363	2615.63
206.438	2616.4
206.512	2625.64
206.586	2644.4
206.661	2653.5
206.735	2629.27
206.81	2626.46
206.884	2641.74
206.958	2630.69
207.033	2645.64
207.107	2650.84
207.181	2686.82
207.256	2680.72
207.33	2702.58
207.405	2715.55
207.479	2735.75
207.553	2742.66
207.628	2725.09
207.702	2736.57
207.776	2735.33
207.851	2731.09
207.925	2743.43
207.999	2740.81
208.073	2736.86
208.148	2739.53
208.222	2725.23
208.296	2759
208.371	2777.59
208.445	2785.93
208.519	2810.42
208.593	2826.76
208.668	2821.33
208.742	2824.71
208.816	2827.57
208.89	2839.78
208.965	2836.77
209.039	2842.4
209.113	2862.18
209.187	2884.32
209.261	2882.65
209.336	2901.24
209.41	2923.31
209.484	2926.94
209.558	2952.92
209.632	2967.93
209.707	2981
209.781	3003.21
209.855	3017.8
209.929	3034.7
210.003	3046.33
210.077	3048.52
210.151	3096.11
210.226	3132.22
210.3	3156.52
210.374	3179.69
210.448	3183.55
210.522	3195.86
210.596	3207.31
210.67	3211.55
210.744	3260.45
210.818	3290.2
210.892	3311.15
210.966	3305.43
211.041	3320.41
211.115	3314.26
211.189	3337.54
211.263	3354.95
211.337	3360.05
211.411	3373.85
211.485	3367.02
211.559	3375.84
211.633	3376.99
211.707	3343.23
211.781	3350.73
211.855	3312.79
211.929	3303.45
212.003	3282.56
212.077	3292.68
212.151	3304.42
212.225	3315.21
212.299	3304.41
212.373	3294.59
212.447	3288.19
212.52	3317.73
212.594	3321.64
212.668	3329.85
212.742	3314.43
212.816	3305.46
212.89	3299.74
212.964	3294.87
213.038	3295.97
213.112	3307.33
213.186	3325.98
213.26	3301.14
213.333	3251.19
213.407	3258.58
213.481	3259.34
213.555	3271.74
213.629	3256.13
213.703	3237.19
213.777	3235.56
213.85	3206.75
213.924	3237.58
213.998	3237.1
214.072	3228.18
214.146	3207.71
214.219	3204.13
214.293	3195.69
214.367	3194.64
214.441	3199.74
214.515	3186.38
214.588	3159.43
214.662	3120.37
214.736	3089.95
214.81	3093.05
214.883	3098.19
214.957	3078.41
215.031	3060.73
215.105	3030.72
215.178	3007.83
215.252	2990.95
215.326	2957.01
215.4	2933.47
215.473	2875.24
215.547	2845.05
215.621	2820.06
215.694	2819.82
215.768	2786.65
215.842	2762.25
215.915	2735.27
215.989	2699.43
216.063	2680.36
216.136	2669.54
216.21	2659.11
216.284	2663.26
216.357	2653.35
216.431	2637.96
216.504	2637.49
216.578	2650.49
216.652	2651.97
216.725	2643.39
216.799	2645.87
216.873	2640.49
216.946	2642.4
217.02	2629.4
217.093	2616.49
217.167	2587.2
217.24	2558.66
217.314	2547
217.387	2533.39
217.461	2521.1
217.535	2527.1
217.608	2505.43
217.682	2493.77
217.755	2494.1
217.829	2472.24
217.902	2467.09
217.976	2460.76
218.049	2443.05
218.123	2421.57
218.196	2413.43
218.27	2399.9
218.343	2373.19
218.417	2367.9
218.49	2355.81
218.563	2368.76
218.637	2367.43
218.71	2386.19
218.784	2390.19
218.857	2399.66
218.931	2405.75
219.004	2404.7
219.077	2406.61
219.151	2410.65
219.224	2406.28
219.298	2401.28
219.371	2413.61
219.444	2400.24
219.518	2402.23
219.591	2403
219.665	2431.01
219.738	2440.29
219.811	2434.01
219.885	2448.82
219.958	2454.48
220.031	2453.96
220.105	2457.82
220.178	2456.87
220.251	2444.86
220.325	2451.58
220.398	2453.2
220.471	2456.44
220.544	2464.58
220.618	2453.67
220.691	2455.81
220.764	2464.05
220.838	2471
220.911	2465.24
220.984	2487.09
221.057	2494.28
221.131	2503.18
221.204	2471.41
221.277	2487.89
221.35	2522.41
221.424	2518.32
221.497	2520.79
221.57	2524.36
221.643	2533.18
221.716	2546.7
221.79	2549.08
221.863	2551.75
221.936	2551.37
222.009	2552.27
222.082	2558.23
222.155	2559.04
222.229	2581.38
222.302	2586.95
222.375	2589.43
222.448	2599.38
222.521	2599.24
222.594	2596.1
222.667	2584.67
222.74	2599.19
222.814	2593.52
222.887	2587.42
222.96	2600.95
223.033	2610.96
223.106	2620.57
223.179	2627.39
223.252	2633.11
223.325	2636.35
223.398	2635.2
223.471	2639.92
223.544	2643.58
223.617	2644.11
223.69	2652.73
223.763	2637.43
223.837	2641.29
223.91	2647.53
223.983	2627.86
224.056	2614.72
224.129	2619.39
224.202	2634.24
224.275	2628.05
224.348	2618.05
224.42	2602.62
224.493	2581.71
224.566	2572.8
224.639	2575.75
224.712	2561.5
224.785	2552.69
224.858	2550.83
224.931	2544.02
225.004	2532.45
225.077	2531.31
225.15	2502.65
225.223	2496.41
225.296	2517.91
225.369	2496.43
225.442	2483.71
225.514	2489.28
225.587	2491.28
225.66	2492.14
225.733	2485.52
225.806	2485.66
225.879	2481.09
225.952	2472.34
226.025	2483.52
226.097	2495.87
226.17	2489.06
226.243	2466.3
226.316	2459.21
226.389	2452.92
226.461	2457.87
226.534	2461.92
226.607	2455.83
226.68	2477.62
226.753	2474.58
226.825	2444.94
226.898	2457.75
226.971	2454.51
227.044	2457.18
227.117	2460.37
227.189	2460.84
227.262	2472.99
227.335	2474.8
227.407	2467.37
227.48	2471.66
227.553	2473.85
227.626	2464.65
227.698	2465.94
227.771	2471.27
227.844	2464.46
227.916	2468.27
227.989	2450.46
228.062	2438.8
228.134	2458.75
228.207	2456.13
228.28	2447.52
228.352	2447.57
228.425	2445.52
228.498	2453.38
228.57	2439
228.643	2448.91
228.716	2441.43
228.788	2431.57
228.861	2424.95
228.934	2440
229.006	2435.81
229.079	2429.19
229.151	2420.47
229.224	2402.06
229.296	2405.91
229.369	2429.25
229.442	2443.83
229.514	2436.4
229.587	2451.97
229.659	2430.49
229.732	2430.87
229.804	2443.25
229.877	2466.3
229.949	2472.97
230.022	2488.69
230.094	2486.79
230.167	2481.03
230.239	2471.6
230.312	2468.84
230.384	2486.75
230.457	2486.42
230.529	2490.27
230.602	2491.18
230.674	2490.84
230.747	2505.64
230.819	2516.5
230.892	2481.78
230.964	2477.16
231.037	2485.01
231.109	2479.11
231.181	2487.11
231.254	2472.26
231.326	2465.78
231.399	2458.87
231.471	2450.73
231.544	2425.91
231.616	2441.14
231.688	2444.19
231.761	2436.25
231.833	2428.53
231.905	2403.63
231.978	2402.82
232.05	2396.01
232.122	2393.16
232.195	2388.92
232.267	2397.87
232.339	2389.82
232.412	2405.72
232.484	2397.62
232.556	2385.78
232.629	2403.3
232.701	2404.83
232.773	2410.54
232.846	2404.97
232.918	2404.16
232.99	2408.73
233.062	2419.59
233.135	2419.4
233.207	2403.64
233.279	2416.96
233.351	2424.24
233.424	2423
233.496	2412.25
233.568	2437.39
233.64	2428.2
233.713	2427.15
233.785	2424.06
233.857	2424.77
233.929	2407.4
234.001	2422.17
234.074	2441.53
234.146	2419.39
234.218	2419.3
234.29	2416.63
234.362	2409.92
234.434	2389.16
234.507	2374.02
234.579	2353.51
234.651	2346.32
234.723	2351.84
234.795	2356.22
234.867	2352.51
234.939	2365.74
235.012	2367.55
235.084	2366.98
235.156	2373.36
235.228	2365.22
235.3	2357.22
235.372	2358.7
235.444	2373.59
235.516	2346.88
235.588	2349.64
235.66	2350.4
235.732	2338.88
235.804	2398.03
235.876	2411.21
235.948	2429.92
236.02	2432.82
236.092	2433.49
236.164	2436.44
236.236	2435.68
236.308	2429.25
236.38	2434.92
236.452	2427.2
236.524	2430.68
236.596	2445.31
236.668	2452.64
236.74	2458.88
236.812	2464.88
236.884	2474.97
236.956	2478.49
237.028	2475.02
237.1	2465.64
237.172	2486.45
237.244	2509.07
237.316	2469.01
237.388	2459.73
237.46	2450.21
237.532	2465.25
237.604	2461.78
237.675	2475.26
237.747	2482.59
237.819	2475.4
237.891	2474.17
237.963	2467.84
238.035	2467.08
238.107	2428.54
238.178	2445.22
238.25	2446.26
238.322	2469.04
238.394	2449.94
238.466	2446.52
238.538	2462.41
238.609	2471.89
238.681	2452.79
238.753	2442.55
238.825	2446.88
238.897	2455.83
238.968	2480.13
239.04	2474.32
239.112	2507.74
239.184	2497.6
239.255	2497.84
239.327	2506.88
239.399	2511.5
239.471	2522.78
239.542	2528.35
239.614	2549.15
239.686	2522.58
239.758	2535.43
239.829	2524.71
239.901	2539.9
239.973	2542.09
240.044	2543.7
240.116	2545.8
240.188	2548.8
240.259	2546.75
240.331	2539.89
240.403	2547.99
240.474	2527.78
240.546	2521.5
240.618	2499.11
240.689	2494.35
240.761	2496.93
240.833	2513.59
240.904	2509.16
240.976	2507.26
241.048	2509.83
241.119	2518.41
241.191	2529.41
241.262	2545.85
241.334	2542.08
241.405	2543.8
241.477	2541.42
241.549	2543.94
241.62	2548.66
241.692	2558.09
241.763	2577.47
241.835	2578.24
241.906	2579.14
241.978	2567.71
242.049	2585.76
242.121	2600.52
242.192	2619
242.264	2606.67
242.335	2590.86
242.407	2602.43
242.478	2597.48
242.55	2602.96
242.621	2594.24
242.693	2589.81
242.764	2584.61
242.836	2584.04
242.907	2593.28
242.979	2601.24
243.05	2606.81
243.122	2609.38
243.193	2606.14
243.264	2581.66
243.336	2581.95
243.407	2590.9
243.479	2616.57
243.55	2620.81
243.622	2623.67
243.693	2623.01
243.764	2643.15
243.836	2633.59
243.907	2628.78
243.978	2633.73
244.05	2637.68
244.121	2621.3
244.192	2636.26
244.264	2617.68
244.335	2620.77
244.407	2602.01
244.478	2602.96
244.549	2597.24
244.62	2583.43
244.692	2580.86
244.763	2591.62
244.834	2585.34
244.906	2578.38
244.977	2577.43
245.048	2589.01
245.119	2580.34
245.191	2568.72
245.262	2545.58
245.333	2564.81
245.405	2567.76
245.476	2575
245.547	2576.81
245.618	2591.05
245.689	2587.24
245.761	2597.47
245.832	2595.47
245.903	2605.24
245.974	2611.57
246.045	2609.67
246.117	2631.58
246.188	2621.15
246.259	2613.49
246.33	2616.15
246.401	2614.3
246.473	2600.43
246.544	2587.66
246.615	2600.38
246.686	2599.04
246.757	2614.47
246.828	2604.37
246.899	2620.53
246.97	2603.15
247.042	2594.91
247.113	2603.68
247.184	2627.04
247.255	2620.94
247.326	2620.46
247.397	2617.41
247.468	2617.61
247.539	2619.37
247.61	2601.6
247.681	2616.45
247.752	2630.98
247.823	2622.65
247.894	2624.03
247.965	2614.22
248.037	2611.93
248.108	2599.02
248.179	2600.74
248.25	2600.31
248.321	2610.4
248.392	2598.44
248.463	2625.58
248.534	2624.39
248.605	2627.82
248.675	2620.05
248.746	2622.86
248.817	2631.72
248.888	2640.2
248.959	2623.15
249.03	2628.92
249.101	2630.82
249.172	2625.49
249.243	2602.44
249.314	2621.06
249.385	2625.06
249.456	2636.2
249.527	2633.54
249.598	2639.11
249.669	2636.78
249.739	2641.16
249.81	2645.68
249.881	2630.59
249.952	2627.35
250.023	2626.11
250.094	2610.53
250.165	2600.8
250.235	2599.47
250.306	2597.28
250.377	2581.56
250.448	2589.32
250.519	2567.99
250.59	2584.52
250.66	2580.76
250.731	2600.43
250.802	2597.95
250.873	2600.14
250.944	2602.33
251.014	2596.33
251.085	2618.49
251.156	2628.54
251.227	2642.55
251.297	2652.56
251.368	2664.32
251.439	2673.61
251.51	2687.29
251.58	2679.1
251.651	2675.81
251.722	2687.48
251.792	2670.53
251.863	2668.48
251.934	2685.01
252.005	2716.64
252.075	2716.07
252.146	2730.5
252.217	2741.74
252.287	2748.7
252.358	2746.79
252.429	2769.77
252.499	2765.43
252.57	2770.97
252.641	2775.87
252.711	2773.73
252.782	2758.91
252.852	2782.79
252.923	2780.07
252.994	2780.5
253.064	2793.88
253.135	2779.07
253.205	2771.64
253.276	2791.98
253.347	2814.93
253.417	2802.07
253.488	2794.78
253.558	2789.73
253.629	2787.92
253.699	2789.87
253.77	2797.02
253.841	2793.78
253.911	2789.82
253.982	2793.92
254.052	2795.11
254.123	2801.16
254.193	2799.73
254.264	2838.78
254.334	2822.76
254.405	2808.75
254.475	2795.18
254.546	2795.08
254.616	2815.09
254.687	2820.14
254.757	2826.14
254.827	2821.14
254.898	2825.43
254.968	2827.33
255.039	2817.71
255.109	2824.43
255.18	2810.66
255.25	2787.88
255.321	2796.46
255.391	2784.16
255.461	2807.79
255.532	2777.67
255.602	2770.52
255.673	2747.56
255.743	2733.53
255.813	2707.86
255.884	2719.06
255.954	2729.06
256.024	2745.89
256.095	2746.46
256.165	2733.36
256.235	2734.41
256.306	2725.59
256.376	2740.27
256.446	2747.19
256.517	2755.43
256.587	2766.49
256.657	2769.96
256.728	2774.34
256.798	2770.96
256.868	2763.72
256.938	2750.56
257.009	2761.81
257.079	2766.62
257.149	2794.21
257.219	2770.23
257.29	2775.85
257.36	2755.37
257.43	2763.71
257.5	2740.03
257.571	2730.69
257.641	2738.12
257.711	2722.3
257.781	2730.11
257.852	2727.2
257.922	2700.9
257.992	2698.14
258.062	2688.37
258.132	2695.76
258.202	2690.75
258.273	2690.37
258.343	2707.39
258.413	2699.1
258.483	2697.24
258.553	2684.14
258.623	2675.7
258.693	2682.08
258.764	2702.99
258.834	2721.81
258.904	2718.09
258.974	2708.8
259.044	2707.14
259.114	2710.47
259.184	2713.85
259.254	2711.28
259.324	2692.32
259.394	2703.37
259.464	2720.52
259.535	2715.81
259.605	2709.66
259.675	2699.19
259.745	2702.14
259.815	2685.7
259.885	2679.51
259.955	2707.5
260.025	2696.89
260.095	2690.79
260.165	2696.03
260.235	2708.81
260.305	2694.37
260.375	2682.51
260.445	2705.94
260.515	2719.33
260.585	2732.1
260.655	2730.1
260.725	2736.01
260.795	2741.34
260.865	2757.79
260.934	2744.34
261.004	2752.21
261.074	2748.06
261.144	2769.35
261.214	2778.31
261.284	2778.12
261.354	2788.07
261.424	2773.04
261.494	2795.95
261.564	2794.62
261.634	2798.86
261.703	2772.27
261.773	2779.22
261.843	2784.98
261.913	2779.7
261.983	2761.73
262.053	2761.64
262.123	2757.68
262.192	2740.92
262.262	2748.83
262.332	2733.82
262.402	2739.82
262.472	2737.63
262.541	2718.58
262.611	2724.35
262.681	2713.43
262.751	2722.15
262.821	2716.15
262.89	2699.28
262.96	2701.23
263.03	2719.96
263.1	2719.63
263.169	2725.63
263.239	2730.87
263.309	2751.32
263.379	2758.71
263.448	2758.28
263.518	2760.24
263.588	2759.95
263.657	2779.24
263.727	2790.25
263.797	2788.25
263.867	2780.96
263.936	2765.34
264.006	2777.43
264.076	2770.28
264.145	2767.85
264.215	2758.51
264.285	2767.13
264.354	2749.28
264.424	2738.17
264.494	2718.01
264.563	2710.58
264.633	2727.98
264.702	2727.55
264.772	2703.33
264.842	2694.71
