Data from 20250704_urea_0.1M_MAYP1162681_11-18-30-697.txt Node
Date: Fri Jul 04 11:18:30 BST 2025
User: adleo
Spectrometer: MAYP116268
Trigger mode: 0
Integration Time (sec): 1.000000E0
Scans to average: 1
Electric dark correction enabled: true
Nonlinearity correction enabled: true
Boxcar width: 10
XAxis mode: Wavelengths
Number of Pixels in Spectrum: 2068
>>>>>Begin Spectral Data<<<<<
179.565	1241.61
179.642	1299.72
179.718	1341.52
179.795	1384.47
179.871	1420.11
179.948	1440.06
180.024	1461.47
180.101	1484.06
180.177	1498.33
180.254	1522.56
180.33	1546.72
180.407	1603.5
180.483	1700.52
180.56	1793.5
180.636	1880.9
180.712	1867.06
180.789	1878.19
180.865	1891.45
180.942	1901.24
181.018	1912.03
181.095	1927.82
181.171	1933.15
181.248	1933.76
181.324	1951.69
181.4	1960.78
181.477	1974.47
181.553	1986.78
181.63	2008.04
181.706	2025.92
181.782	2037.1
181.859	2036
181.935	2038.71
182.011	2035.67
182.088	2053.84
182.164	2070.15
182.24	2085.51
182.317	2094.02
182.393	2094.69
182.469	2110.05
182.546	2125.27
182.622	2130.55
182.698	2123.89
182.775	2136.98
182.851	2150.91
182.927	2142.16
183.003	2133.46
183.08	2124.7
183.156	2134.69
183.232	2129.65
183.308	2115.48
183.385	2121.61
183.461	2140.07
183.537	2143.59
183.613	2155.77
183.69	2147.68
183.766	2141.25
183.842	2148.72
183.918	2154.72
183.995	2164.42
184.071	2165.42
184.147	2153.58
184.223	2142.35
184.299	2154.63
184.375	2142.69
184.452	2154.11
184.528	2205.36
184.604	2215.11
184.68	2225.05
184.756	2232.29
184.832	2239.42
184.908	2247.08
184.985	2247.55
185.061	2230.67
185.137	2242.52
185.213	2232.19
185.289	2233.05
185.365	2223.35
185.441	2220.16
185.517	2235.48
185.593	2231.87
185.669	2231.06
185.745	2246.38
185.822	2260.45
185.898	2252.17
185.974	2262.07
186.05	2248.98
186.126	2214.62
186.202	2210.2
186.278	2206.44
186.354	2197.21
186.43	2206.45
186.506	2204.02
186.582	2204.45
186.658	2211.91
186.734	2188.03
186.81	2188.13
186.886	2191.36
186.962	2205.4
187.038	2200.97
187.114	2191.69
187.19	2199.25
187.266	2188.46
187.341	2185.55
187.417	2179.37
187.493	2179.99
187.569	2181.6
187.645	2177.47
187.721	2166.38
187.797	2173.89
187.873	2181.46
187.949	2178.7
188.025	2167.66
188.101	2169.51
188.176	2171.42
188.252	2165.71
188.328	2174.27
188.404	2176.93
188.48	2170.98
188.556	2163.42
188.632	2165.94
188.707	2168.75
188.783	2164.42
188.859	2159.85
188.935	2151.96
189.011	2162.09
189.086	2155.86
189.162	2147.91
189.238	2144.44
189.314	2140.97
189.39	2133.07
189.465	2125.74
189.541	2140.97
189.617	2127.13
189.693	2123.99
189.768	2128.03
189.844	2155.88
189.92	2146.41
189.996	2154.22
190.071	2166.4
190.147	2167.06
190.223	2173.15
190.298	2161.83
190.374	2153.07
190.45	2163.49
190.526	2171.86
190.601	2165.44
190.677	2166.15
190.753	2194.24
190.828	2199.33
190.904	2212.94
190.98	2227.69
191.055	2237.25
191.131	2224.93
191.207	2246.19
191.282	2258.42
191.358	2251.81
191.433	2232.91
191.509	2247.74
191.585	2244.6
191.66	2244.79
191.736	2253.41
191.811	2245.7
191.887	2264.36
191.963	2284.96
192.038	2292.15
192.114	2292.29
192.189	2297.9
192.265	2297.43
192.34	2273.81
192.416	2272.62
192.491	2270.67
192.567	2274.96
192.642	2276.72
192.718	2277.34
192.793	2263.25
192.869	2252.69
192.944	2254.83
193.02	2262.97
193.095	2268.16
193.171	2274.87
193.246	2274.82
193.322	2271.91
193.397	2272.68
193.473	2258.68
193.548	2244.07
193.624	2248.16
193.699	2249.92
193.775	2264.25
193.85	2262.64
193.925	2270.92
194.001	2272.06
194.076	2265.3
194.152	2255.11
194.227	2248.12
194.302	2238.56
194.378	2244.08
194.453	2246.36
194.529	2257.45
194.604	2243.51
194.679	2237.37
194.755	2218.34
194.83	2230.72
194.905	2226.96
194.981	2235.57
195.056	2225.63
195.131	2230.53
195.207	2229.63
195.282	2218.16
195.357	2199.64
195.433	2216.15
195.508	2204.64
195.583	2209.87
195.659	2222.96
195.734	2229.39
195.809	2230.19
195.884	2241.75
195.96	2240.9
196.035	2253.93
196.11	2249.75
196.185	2263.07
196.261	2264.12
196.336	2297.1
196.411	2282.53
196.486	2287.33
196.561	2281.24
196.637	2291.85
196.712	2307.32
196.787	2308.99
196.862	2322.08
196.937	2332.83
197.013	2338.35
197.088	2355.44
197.163	2375.15
197.238	2392.92
197.313	2395.54
197.388	2407.2
197.464	2437.49
197.539	2449.67
197.614	2445.39
197.689	2458.86
197.764	2473.29
197.839	2497.81
197.914	2491.14
197.989	2512.48
198.065	2528.14
198.14	2579.65
198.215	2604.98
198.29	2616.66
198.365	2630.99
198.44	2646.47
198.515	2676.96
198.59	2689.3
198.665	2712.26
198.74	2725.94
198.815	2726.65
198.89	2749.76
198.965	2781.98
199.04	2775.83
199.115	2792.55
199.19	2834.33
199.265	2834.24
199.34	2847.73
199.415	2879.34
199.49	2899.16
199.565	2910.65
199.64	2931.28
199.715	2928.61
199.79	2938
199.865	2943.48
199.94	2944.67
200.015	2972.99
200.09	2973.99
200.165	2983.67
200.24	2989.11
200.315	3029.53
200.39	3045.55
200.464	3052.37
200.539	3053.56
200.614	3073.01
200.689	3097.38
200.764	3105.01
200.839	3123.36
200.914	3126.31
200.989	3114.53
201.063	3130.17
201.138	3113.88
201.213	3119.12
201.288	3101.62
201.363	3112.87
201.438	3116.64
201.512	3134.99
201.587	3120.59
201.662	3128.56
201.737	3143.72
201.812	3152.5
201.886	3116.94
201.961	3127.34
202.036	3115.85
202.111	3111.99
202.186	3085.06
202.26	3069.8
202.335	3049.1
202.41	3046.33
202.485	3033.46
202.559	3017.82
202.634	2993.37
202.709	3005.18
202.784	2988.07
202.858	2991.55
202.933	2973.95
203.008	2972.76
203.082	2958.6
203.157	2966.42
203.232	2931.01
203.306	2916.84
203.381	2898.15
203.456	2886.33
203.53	2878.6
203.605	2870.78
203.68	2865.63
203.754	2877.31
203.829	2880.22
203.904	2879.98
203.978	2894.47
204.053	2924.95
204.127	2939.77
204.202	2968.91
204.277	2983.74
204.351	3011.92
204.426	3038.45
204.5	3066.11
204.575	3067.73
204.65	3114.06
204.724	3149.82
204.799	3204.51
204.873	3252.92
204.948	3302.93
205.022	3346.92
205.097	3392.1
205.171	3469.53
205.246	3543.52
205.32	3603.66
205.395	3675.18
205.469	3740.16
205.544	3820.18
205.618	3882.69
205.693	3977.34
205.767	4052.73
205.842	4167.18
205.916	4253.5
205.991	4342.62
206.065	4449.61
206.14	4574.58
206.214	4677.75
206.289	4787.33
206.363	4919.02
206.438	5043.7
206.512	5172.92
206.586	5316.98
206.661	5462.45
206.735	5574.99
206.81	5710.08
206.884	5872.25
206.958	6002.1
207.033	6166.82
207.107	6326.74
207.181	6509.14
207.256	6660.5
207.33	6838.09
207.405	7008.75
207.479	7194.39
207.553	7368.14
207.628	7519.51
207.702	7696.74
207.776	7867.96
207.851	8038.06
207.925	8224.9
207.999	8392.81
208.073	8570.11
208.148	8759.38
208.222	8927.18
208.296	9143.32
208.371	9344.11
208.445	9538.25
208.519	9756.04
208.593	9964.76
208.668	10144.14
208.742	10333.95
208.816	10530.06
208.89	10737.33
208.965	10928.98
209.039	11128.04
209.113	11337.51
209.187	11552.41
209.261	11746.52
209.336	11960.41
209.41	12173.68
209.484	12364.21
209.558	12586.6
209.632	12796.18
209.707	12996.36
209.781	13208.3
209.855	13416.59
209.929	13621.51
210.003	13818.81
210.077	13999.81
210.151	14229.02
210.226	14455.91
210.3	14677.35
210.374	14880.53
210.448	15062.64
210.522	15251.35
210.596	15445.55
210.67	15630.88
210.744	15855.11
210.818	16066.61
210.892	16265.62
210.966	16443.81
211.041	16643.88
211.115	16805
211.189	17002.79
211.263	17189.31
211.337	17367.15
211.411	17548.79
211.485	17709.37
211.559	17889.52
211.633	18054.1
211.707	18177.8
211.781	18348.4
211.855	18471
211.929	18616.2
212.003	18761.83
212.077	18931.71
212.151	19088.81
212.225	19256.13
212.299	19404.51
212.373	19536.74
212.447	19680.84
212.52	19846.52
212.594	19979.63
212.668	20142.61
212.742	20257.84
212.816	20383.43
212.89	20506.18
212.964	20628.11
213.038	20763.4
213.112	20909.24
213.186	21065.49
213.26	21182.95
213.333	21260.88
213.407	21387.21
213.481	21509.68
213.555	21631.81
213.629	21733.81
213.703	21849.83
213.777	21958.92
213.85	22044.49
213.924	22193.11
213.998	22297.87
214.072	22400.56
214.146	22495.73
214.219	22578.94
214.293	22686.83
214.367	22784.22
214.441	22904.95
214.515	22999.74
214.588	23073.46
214.662	23125.92
214.736	23194.63
214.81	23290.68
214.883	23397.49
214.957	23477.29
215.031	23550.77
215.105	23617.27
215.178	23698.68
215.252	23762.19
215.326	23822.09
215.4	23891.93
215.473	23912.67
215.547	23966.69
215.621	24018.64
215.694	24099.38
215.768	24160.83
215.842	24206.7
215.915	24274.18
215.989	24309.74
216.063	24367
216.136	24439.17
216.21	24489.29
216.284	24557.11
216.357	24619.4
216.431	24667.16
216.504	24732.97
216.578	24816
216.652	24884.17
216.725	24921.66
216.799	24979.08
216.873	25029.79
216.946	25081.47
217.02	25132.42
217.093	25181.2
217.167	25218.93
217.24	25258.94
217.314	25313.04
217.387	25358.49
217.461	25388.46
217.535	25449.41
217.608	25482.13
217.682	25521.81
217.755	25581.02
217.829	25613.94
217.902	25654.33
217.976	25694.35
218.049	25725.82
218.123	25752.37
218.196	25792.91
218.27	25830.32
218.343	25859.33
218.417	25898.43
218.49	25930.33
218.563	25989.13
218.637	26024.56
218.71	26062.84
218.784	26098.71
218.857	26124.92
218.931	26166.97
219.004	26208.44
219.077	26241.42
219.151	26270.53
219.224	26285.4
219.298	26322.09
219.371	26369.07
219.444	26385.2
219.518	26402.58
219.591	26426.81
219.665	26487.18
219.738	26513.93
219.811	26531.89
219.885	26560.18
219.958	26586.89
220.031	26610.55
220.105	26631.5
220.178	26656.42
220.251	26682.06
220.325	26711.28
220.398	26737.84
220.471	26756.28
220.544	26782.12
220.618	26790.18
220.691	26814.76
220.764	26843.06
220.838	26870.49
220.911	26867.5
220.984	26901.11
221.057	26921.59
221.131	26940.9
221.204	26909.51
221.277	26938.88
221.35	26979.01
221.424	26979.44
221.497	26991.61
221.57	27002.24
221.643	27013.25
221.716	27027.93
221.79	27037.16
221.863	27026.39
221.936	27033.44
222.009	27042.57
222.082	27048.56
222.155	27046.96
222.229	27059.09
222.302	27062.42
222.375	27045.95
222.448	27058.75
222.521	27054.69
222.594	27059.52
222.667	27041.89
222.74	27063.29
222.814	27062.51
222.887	27047.15
222.96	27064.3
223.033	27072.32
223.106	27065.85
223.179	27063.33
223.252	27061.5
223.325	27050.15
223.398	27043.05
223.471	27035.52
223.544	27022.28
223.617	27015.91
223.69	27004.56
223.763	26988.91
223.837	26992.87
223.91	26993.02
223.983	26963.65
224.056	26935.84
224.129	26929.07
224.202	26927.72
224.275	26897.59
224.348	26860.88
224.42	26840.12
224.493	26797.72
224.566	26764.15
224.639	26762.17
224.712	26733.87
224.785	26711.61
224.858	26692.68
224.931	26673.51
225.004	26647.48
225.077	26631.64
225.15	26584.23
225.223	26566.02
225.296	26556.9
225.369	26511.89
225.442	26484.37
225.514	26472.15
225.587	26459.36
225.66	26433.18
225.733	26418.7
225.806	26406.53
225.879	26379.69
225.952	26337.69
226.025	26335.95
226.097	26338.03
226.17	26299.93
226.243	26256.05
226.316	26228.53
226.389	26204.44
226.461	26184.93
226.534	26166.35
226.607	26129.08
226.68	26129.18
226.753	26107.74
226.825	26065.74
226.898	26051.64
226.971	26024.13
227.044	25987.54
227.117	25958.82
227.189	25936.32
227.262	25905.18
227.335	25867.53
227.407	25847.36
227.48	25841.76
227.553	25810.67
227.626	25773.21
227.698	25752.64
227.771	25740.29
227.844	25703.36
227.916	25673.2
227.989	25624.21
228.062	25584.4
228.134	25578.41
228.207	25536.66
228.28	25493.38
228.352	25459.55
228.425	25429.53
228.498	25409.74
228.57	25374.17
228.643	25351.11
228.716	25304.83
228.788	25276.11
228.861	25246.48
228.934	25233.36
229.006	25192.29
229.079	25161.45
229.151	25120.48
229.224	25068.47
229.296	25031.85
229.369	25021.37
229.442	25008.83
229.514	24973.27
229.587	24958.31
229.659	24912.09
229.732	24891.34
229.804	24876.29
229.877	24874.6
229.949	24849.7
230.022	24827.56
230.094	24804.54
230.167	24773.71
230.239	24741.78
230.312	24702.46
230.384	24688.66
230.457	24643.16
230.529	24615.52
230.602	24583.78
230.674	24552.42
230.747	24532.45
230.819	24509.25
230.892	24437.85
230.964	24401.33
231.037	24383.73
231.109	24335.44
231.181	24314.31
231.254	24264.78
231.326	24226.38
231.399	24183.39
231.471	24136.56
231.544	24078.58
231.616	24053.88
231.688	24021.85
231.761	23979.56
231.833	23945.12
231.905	23903.44
231.978	23865.68
232.05	23822.71
232.122	23777.81
232.195	23732.23
232.267	23710.82
232.339	23670.93
232.412	23663.89
232.484	23622.71
232.556	23579.35
232.629	23576.31
232.701	23539.04
232.773	23504.9
232.846	23463.04
232.918	23422.58
232.99	23401.12
233.062	23371.22
233.135	23331.48
233.207	23280.47
233.279	23251.68
233.351	23220.63
233.424	23162.96
233.496	23118.16
233.568	23105.24
233.64	23059.05
233.713	23027.23
233.785	22979.3
233.857	22941.16
233.929	22880.65
234.001	22861.7
234.074	22837.21
234.146	22773.03
234.218	22730.27
234.29	22689.29
234.362	22635.44
234.434	22576.33
234.507	22519.97
234.579	22463.47
234.651	22423.12
234.723	22388.94
234.795	22350.52
234.867	22311.13
234.939	22291.03
235.012	22259.89
235.084	22213.56
235.156	22185.5
235.228	22133.82
235.3	22089.91
235.372	22054.91
235.444	22040.84
235.516	21969.34
235.588	21929.67
235.66	21894.24
235.732	21841.51
235.804	21854.62
235.876	21829.03
235.948	21801.07
236.02	21748.05
236.092	21704.19
236.164	21657.14
236.236	21610.2
236.308	21561.95
236.38	21512.93
236.452	21468.05
236.524	21419.04
236.596	21391.8
236.668	21352.38
236.74	21313.29
236.812	21279.31
236.884	21236.99
236.956	21183.54
237.028	21133.61
237.1	21076.78
237.172	21037.17
237.244	21011.86
237.316	20937.92
237.388	20885.29
237.46	20836.42
237.532	20815.07
237.604	20761.92
237.675	20740.86
237.747	20713
237.819	20674.35
237.891	20638.2
237.963	20583.79
238.035	20530.83
238.107	20457
238.178	20423.84
238.25	20374.3
238.322	20338.78
238.394	20268.85
238.466	20215.89
238.538	20190.2
238.609	20151.99
238.681	20094.16
238.753	20035.89
238.825	19994.25
238.897	19959.94
238.968	19940.57
239.04	19891.75
239.112	19885.49
239.184	19822.21
239.255	19770.17
239.327	19728.38
239.399	19680.15
239.471	19642.56
239.542	19615.28
239.614	19580.58
239.686	19514.52
239.758	19486.37
239.829	19442.52
239.901	19430.57
239.973	19392.21
240.044	19349.61
240.116	19311.78
240.188	19270.53
240.259	19236.89
240.331	19181.62
240.403	19149.91
240.474	19085.09
240.546	19034.5
240.618	18971.8
240.689	18923.47
240.761	18886.46
240.833	18861.74
240.904	18815.81
240.976	18775.72
241.048	18739.77
241.119	18711.24
241.191	18682.18
241.262	18658.95
241.334	18620.26
241.405	18567.39
241.477	18524.41
241.549	18477.52
241.62	18441.52
241.692	18411.74
241.763	18382.39
241.835	18341.57
241.906	18292.71
241.978	18234.88
242.049	18205.63
242.121	18187.12
242.192	18160.71
242.264	18103.22
242.335	18043.13
242.407	18010.12
242.478	17971.95
242.55	17923.56
242.621	17873.25
242.693	17828.1
242.764	17778.94
242.836	17730.08
242.907	17699.43
242.979	17665.64
243.05	17625.26
243.122	17590.46
243.193	17548.25
243.264	17485.6
243.336	17447.04
243.407	17416.15
243.479	17395.33
243.55	17358.75
243.622	17308.25
243.693	17271.77
243.764	17253.07
243.836	17204.44
243.907	17162.41
243.978	17123.18
244.05	17094.41
244.121	17041.88
244.192	17019.37
244.264	16965.73
244.335	16926.89
244.407	16878.55
244.478	16845.1
244.549	16814.55
244.62	16756.66
244.692	16717.77
244.763	16692.95
244.834	16650.3
244.906	16604.7
244.977	16565.23
245.048	16538.87
245.119	16490.86
245.191	16442.76
245.262	16385.07
245.333	16372.59
245.405	16340.73
245.476	16303.28
245.547	16267.85
245.618	16239.03
245.689	16189.58
245.761	16164.28
245.832	16127.45
245.903	16097.28
245.974	16065.52
246.045	16022
246.117	16014.62
246.188	15961.8
246.259	15917.79
246.33	15884.29
246.401	15843.27
246.473	15803.07
246.544	15764.37
246.615	15747.26
246.686	15711.98
246.757	15683.78
246.828	15633.6
246.899	15609.65
246.97	15554.84
247.042	15506.16
247.113	15480.76
247.184	15474.59
247.255	15421.95
247.326	15388.06
247.397	15355.58
247.468	15322.66
247.539	15291.52
247.61	15244.28
247.681	15226.01
247.752	15202.68
247.823	15157.47
247.894	15133.56
247.965	15090.8
248.037	15051.95
248.108	14999.75
248.179	14964.75
248.25	14930.04
248.321	14911.48
248.392	14872.06
248.463	14868.25
248.534	14840.14
248.605	14818.21
248.675	14774.73
248.746	14753.81
248.817	14722.29
248.888	14689.17
248.959	14635.33
249.03	14610.07
249.101	14568.76
249.172	14535.25
249.243	14485.02
249.314	14472.97
249.385	14439.61
249.456	14416.91
249.527	14379.07
249.598	14355.69
249.669	14323
249.739	14306.13
249.81	14279.62
249.881	14233.82
249.952	14200.13
250.023	14162.96
250.094	14114.03
250.165	14078.55
250.235	14047.61
250.306	14025.43
250.377	13985.03
250.448	13960.35
250.519	13905.25
250.59	13900.77
250.66	13860.42
250.731	13848.22
250.802	13820.41
250.873	13801.08
250.944	13781.17
251.014	13748.63
251.085	13744.87
251.156	13726.79
251.227	13708.38
251.297	13686.88
251.368	13669.67
251.439	13653.57
251.51	13641.32
251.58	13606.61
251.651	13567.28
251.722	13556.96
251.792	13514.06
251.863	13490.68
251.934	13486.1
252.005	13501.43
252.075	13474.05
252.146	13462.04
252.217	13450.95
252.287	13433.94
252.358	13409.06
252.429	13398.79
252.499	13369.58
252.57	13349.87
252.641	13332.22
252.711	13309.42
252.782	13266.76
252.852	13262.13
252.923	13236.87
252.994	13222.6
253.064	13211.51
253.135	13185.53
253.205	13155.06
253.276	13155.5
253.347	13150.48
253.417	13110.76
253.488	13075.23
253.558	13043.56
253.629	13014.35
253.699	12991.21
253.77	12970
253.841	12934.81
253.911	12913.55
253.982	12897.26
254.052	12875.71
254.123	12856.76
254.193	12829.19
254.264	12848.76
254.334	12815.31
254.405	12781.85
254.475	12742.9
254.546	12714.03
254.616	12707.23
254.687	12688.62
254.757	12666.69
254.827	12639.12
254.898	12624.61
254.968	12605.95
255.039	12570.43
255.109	12564.59
255.18	12527.96
255.25	12489.44
255.321	12484.96
255.391	12445.09
255.461	12443.99
255.532	12399.35
255.602	12370.43
255.673	12330.85
255.743	12292.05
255.813	12246.16
255.884	12233.72
255.954	12219.02
256.024	12229.43
256.095	12203.45
256.165	12168.41
256.235	12155.49
256.306	12127.77
256.376	12123
256.446	12106.76
256.517	12092.05
256.587	12081.69
256.657	12069.78
256.728	12045.97
256.798	12025.58
256.868	12003.46
256.938	11970.49
257.009	11960.32
257.079	11951.07
257.149	11957.14
257.219	11913.52
257.29	11899.59
257.36	11856.59
257.43	11847.58
257.5	11797.5
257.571	11779.43
257.641	11767.95
257.711	11728.14
257.781	11720.28
257.852	11703.9
257.922	11664.61
257.992	11651.02
258.062	11629.33
258.132	11617.86
258.202	11598.68
258.273	11571.3
258.343	11575.54
258.413	11550.92
258.483	11524.84
258.553	11488.69
258.623	11461.65
258.693	11453.27
258.764	11457.27
258.834	11461.03
258.904	11446.57
258.974	11422.33
259.044	11397.51
259.114	11384.45
259.184	11370.18
259.254	11346.71
259.324	11296.01
259.394	11284.3
259.464	11282.66
259.535	11256.01
259.605	11231.09
259.675	11210.27
259.745	11201.4
259.815	11172.29
259.885	11149.31
259.955	11161.31
260.025	11139.72
260.095	11122.13
260.165	11109.07
260.235	11105.5
260.305	11077.02
260.375	11039.92
260.445	11045.94
260.515	11045.02
260.585	11038.57
260.655	11017.8
260.725	11012.49
260.795	11019.14
260.865	11021.6
260.934	10992.45
261.004	10987.68
261.074	10970.09
261.144	10961.08
261.214	10957.85
261.284	10940.98
261.354	10934.86
261.424	10907.29
261.494	10915.73
261.564	10895.01
261.634	10892.6
261.703	10855.06
261.773	10847.16
