Data from 20250704_urea_1.5M_MAYP1162681_11-45-42-594.txt Node
Date: Fri Jul 04 11:45:42 BST 2025
User: adleo
Spectrometer: MAYP116268
Trigger mode: 0
Integration Time (sec): 1.000000E0
Scans to average: 1
Electric dark correction enabled: true
Nonlinearity correction enabled: true
Boxcar width: 10
XAxis mode: Wavelengths
Number of Pixels in Spectrum: 2068
>>>>>Begin Spectral Data<<<<<
179.565	1268.02
179.642	1329.66
179.718	1377.51
179.795	1415.11
179.871	1446.95
179.948	1466.03
180.024	1488.73
180.101	1509.68
180.177	1525.22
180.254	1547
180.33	1570.84
180.407	1628.1
180.483	1728.44
180.56	1823.7
180.636	1911.68
180.712	1900.93
180.789	1913.2
180.865	1924.75
180.942	1932.45
181.018	1941.53
181.095	1956.42
181.171	1960.6
181.248	1962.17
181.324	1976.87
181.4	1985.57
181.477	1997.89
181.553	2013.1
181.63	2036.5
181.706	2055.48
181.782	2062.8
181.859	2064.75
181.935	2068.41
182.011	2064.75
182.088	2080.97
182.164	2101.24
182.24	2118.27
182.317	2128.92
182.393	2124.88
182.469	2140.81
182.546	2154.89
182.622	2159.79
182.698	2153.7
182.775	2166.78
182.851	2178.25
182.927	2172.49
183.003	2165.31
183.08	2157.27
183.156	2162.84
183.232	2154.94
183.308	2140.57
183.385	2148.99
183.461	2167.55
183.537	2169.55
183.613	2183.72
183.69	2173.87
183.766	2163.93
183.842	2169.35
183.918	2172.78
183.995	2187.76
184.071	2192.19
184.147	2185.29
184.223	2176.92
184.299	2189.39
184.375	2176.92
184.452	2187.06
184.528	2234.69
184.604	2249.11
184.68	2263.09
184.756	2273.51
184.832	2282.18
184.908	2290.17
184.985	2290.64
185.061	2273.7
185.137	2283.46
185.213	2269.95
185.289	2270.52
185.365	2261.38
185.441	2261.29
185.517	2275
185.593	2270.57
185.669	2269.72
185.745	2282.28
185.822	2296.41
185.898	2289.36
185.974	2300.16
186.05	2288.17
186.126	2253.67
186.202	2246.72
186.278	2242.1
186.354	2233.06
186.43	2237.58
186.506	2235.68
186.582	2238.44
186.658	2246.96
186.734	2225.36
186.81	2229.73
186.886	2234.63
186.962	2250.38
187.038	2245.34
187.114	2238.34
187.19	2245.76
187.266	2234.16
187.341	2233.16
187.417	2227.68
187.493	2226.68
187.569	2228.49
187.645	2223.59
187.721	2213.41
187.797	2220.92
187.873	2230.44
187.949	2222.55
188.025	2215.41
188.101	2219.07
188.176	2219.73
188.252	2213.79
188.328	2223.68
188.404	2223.49
188.48	2220.49
188.556	2211.4
188.632	2210.17
188.707	2211.21
188.783	2209.17
188.859	2201.99
188.935	2192.28
189.011	2198.46
189.086	2193.52
189.162	2185.19
189.238	2182.71
189.314	2177.86
189.39	2171.01
189.465	2159.92
189.541	2178.72
189.617	2165.59
189.693	2158.88
189.768	2160.93
189.844	2184.2
189.92	2175.64
189.996	2184.16
190.071	2192.25
190.147	2191.87
190.223	2203.19
190.298	2196.2
190.374	2181.69
190.45	2195.24
190.526	2203.57
190.601	2197.53
190.677	2199.48
190.753	2226.33
190.828	2232.37
190.904	2250.88
190.98	2269.4
191.055	2281.01
191.131	2270.49
191.207	2292.24
191.282	2304.13
191.358	2298.32
191.433	2283.14
191.509	2296.65
191.585	2296.17
191.66	2294.74
191.736	2300.07
191.811	2286.27
191.887	2301.03
191.963	2326.44
192.038	2330.01
192.114	2330.39
192.189	2334.53
192.265	2330.3
192.34	2308.73
192.416	2306.35
192.491	2300.02
192.567	2299.64
192.642	2302.21
192.718	2302.11
192.793	2288.07
192.869	2283.31
192.944	2287.64
193.02	2296.83
193.095	2303.97
193.171	2307.54
193.246	2311.35
193.322	2310.96
193.397	2316.25
193.473	2301.82
193.548	2283.88
193.624	2289.78
193.699	2289.44
193.775	2305.73
193.85	2306.39
193.925	2315.25
194.001	2316.15
194.076	2308.34
194.152	2297.54
194.227	2290.3
194.302	2281.55
194.378	2286.12
194.453	2283.31
194.529	2292.21
194.604	2277.32
194.679	2267.32
194.755	2249.86
194.83	2262.1
194.905	2257.53
194.981	2265.15
195.056	2257.72
195.131	2263.96
195.207	2261.82
195.282	2253.2
195.357	2236.3
195.433	2250.77
195.508	2236.73
195.583	2241.34
195.659	2257.53
195.734	2267.91
195.809	2267.14
195.884	2275.94
195.96	2275.33
196.035	2292.55
196.11	2289.46
196.185	2301.5
196.261	2305.97
196.336	2335.86
196.411	2320.77
196.486	2329.19
196.561	2321.1
196.637	2330.81
196.712	2346.09
196.787	2351.56
196.862	2366.94
196.937	2373.74
197.013	2382.17
197.088	2395.69
197.163	2417.59
197.238	2432.84
197.313	2429.74
197.388	2445.12
197.464	2477.27
197.539	2486.83
197.614	2479.6
197.689	2493.02
197.764	2512.36
197.839	2531.79
197.914	2527.93
197.989	2552.17
198.065	2566.55
198.14	2619.02
198.215	2647.02
198.29	2658.89
198.365	2671.65
198.44	2681.46
198.515	2711.95
198.59	2728.72
198.665	2752.93
198.74	2763.22
198.815	2762.84
198.89	2788.61
198.965	2819.5
199.04	2818.84
199.115	2837.75
199.19	2881.73
199.265	2883.83
199.34	2892.55
199.415	2927.36
199.49	2948.94
199.565	2957.19
199.64	2980.88
199.715	2979.55
199.79	2986.27
199.865	2992.7
199.94	2992.09
200.015	3024.56
200.09	3031.09
200.165	3035.81
200.24	3044.73
200.315	3085.72
200.39	3104.89
200.464	3110.85
200.539	3110.95
200.614	3124.44
200.689	3151.48
200.764	3153.92
200.839	3173.56
200.914	3178.28
200.989	3168.73
201.063	3180.08
201.138	3163.41
201.213	3163.45
201.288	3144.85
201.363	3149.24
201.438	3152.53
201.512	3168.69
201.587	3150.33
201.662	3151.95
201.737	3165.59
201.812	3170.07
201.886	3133.37
201.961	3142.39
202.036	3132.14
202.111	3126.51
202.186	3096.05
202.26	3073.59
202.335	3054.51
202.41	3047.64
202.485	3030.34
202.559	3009.46
202.634	2985.1
202.709	2994.05
202.784	2971.79
202.858	2970.31
202.933	2947.15
203.008	2940.23
203.082	2919.93
203.157	2920.21
203.232	2880.38
203.306	2858.44
203.381	2828.79
203.456	2808.63
203.53	2784.97
203.605	2761.92
203.68	2740.28
203.754	2734.23
203.829	2721.41
203.904	2699.64
203.978	2688.2
204.053	2693.06
204.127	2682.92
204.202	2679.73
204.277	2662.96
204.351	2659.38
204.426	2650.9
204.5	2646.81
204.575	2610.37
204.65	2620.14
204.724	2608.32
204.799	2615.8
204.873	2609.03
204.948	2609.08
205.022	2596.6
205.097	2589.64
205.171	2603.6
205.246	2612.13
205.32	2610.13
205.395	2608.17
205.469	2597.42
205.544	2603.18
205.618	2585.75
205.693	2598.18
205.767	2582.95
205.842	2603.24
205.916	2595.24
205.991	2585.43
206.065	2590.24
206.14	2606.37
206.214	2601.18
206.289	2598.89
206.363	2610.85
206.438	2615.28
206.512	2621.85
206.586	2641.09
206.661	2645.29
206.735	2623.24
206.81	2621.48
206.884	2637.29
206.958	2624.24
207.033	2642.48
207.107	2649.15
207.181	2678.26
207.256	2668.74
207.33	2692.64
207.405	2706.38
207.479	2725.72
207.553	2734.72
207.628	2718.29
207.702	2730.3
207.776	2725.25
207.851	2727.58
207.925	2741.21
207.999	2740.26
208.073	2738.07
208.148	2739.97
208.222	2727.97
208.296	2761.35
208.371	2779.28
208.445	2790.81
208.519	2819.78
208.593	2834.36
208.668	2829.31
208.742	2833.41
208.816	2833.03
208.89	2847.19
208.965	2843.75
209.039	2852.43
209.113	2872.83
209.187	2893.83
209.261	2890.4
209.336	2910.56
209.41	2933.16
209.484	2934.02
209.558	2957.76
209.632	2969.01
209.707	2981.88
209.781	3007.1
209.855	3026.41
209.929	3044.31
210.003	3050.08
210.077	3053.37
210.151	3105.59
210.226	3139.98
210.3	3172.63
210.374	3203.14
210.448	3208.49
210.522	3222.61
210.596	3235.15
210.67	3247.56
210.744	3302.05
210.818	3339.1
210.892	3364.73
210.966	3365.73
211.041	3387.87
211.115	3389.3
211.189	3422.41
211.263	3448.28
211.337	3466.03
211.411	3488.13
211.485	3491.86
211.559	3520.49
211.633	3537.38
211.707	3518.32
211.781	3544.36
211.855	3522.06
211.929	3533.32
212.003	3535.13
212.077	3564.94
212.151	3603.62
212.225	3637.82
212.299	3649.44
212.373	3664.72
212.447	3689.28
212.52	3744.17
212.594	3783.59
212.668	3828.68
212.742	3856.39
212.816	3893.29
212.89	3926.07
212.964	3969.06
213.038	4021.94
213.112	4082.38
213.186	4147.83
213.26	4182.23
213.333	4192.28
213.407	4256.95
213.481	4319.96
213.555	4394.33
213.629	4450.66
213.703	4501.34
213.777	4571.28
213.85	4628.1
213.924	4737.22
213.998	4818.49
214.072	4895.1
214.146	4964.74
214.219	5049.81
214.293	5134.55
214.367	5221.33
214.441	5323.53
214.515	5403.49
214.588	5472.22
214.662	5534.12
214.736	5611.4
214.81	5720.49
214.883	5835.1
214.957	5931.44
215.031	6025.58
215.105	6117.33
215.178	6219.03
215.252	6324.42
215.326	6411.9
215.4	6507.41
215.473	6580.09
215.547	6678.08
215.621	6786.58
215.694	6910.06
215.768	7003.69
215.842	7106.8
215.915	7216.82
215.989	7314.78
216.063	7425.3
216.136	7552.01
216.21	7681.43
216.284	7820.26
216.357	7948.77
216.431	8068.72
216.504	8200.33
216.578	8353.08
216.652	8492.45
216.725	8615.64
216.799	8752.38
216.873	8886.19
216.946	9029.13
217.02	9155.44
217.093	9287.27
217.167	9392.67
217.24	9502.37
217.314	9634.35
217.387	9759.74
217.461	9888.63
217.535	10038.52
217.608	10167.61
217.682	10300.96
217.755	10430.74
217.829	10549.17
217.902	10683.84
217.976	10814.31
218.049	10935.55
218.123	11050
218.196	11179.96
218.27	11300.83
218.343	11414.13
218.417	11534.67
218.49	11654.1
218.563	11784.23
218.637	11912.53
218.71	12059.15
218.784	12191.42
218.857	12323.48
218.931	12455.84
219.004	12573.51
219.077	12691.46
219.151	12811.39
219.224	12932.44
219.298	13043.45
219.371	13169.03
219.444	13258.01
219.518	13375.92
219.591	13495.33
219.665	13633.1
219.738	13743.78
219.811	13846.03
219.885	13965.67
219.958	14088.79
220.031	14193.11
220.105	14307.88
220.178	14405.11
220.251	14495.88
220.325	14602.65
220.398	14704.65
220.471	14803.04
220.544	14907.88
220.618	15001.93
220.691	15106.29
220.764	15195.17
220.838	15300.11
220.911	15385.67
220.984	15506.27
221.057	15600.16
221.131	15693.53
221.204	15743.75
221.277	15845.98
221.35	15966.63
221.424	16042.97
221.497	16118.84
221.57	16197.79
221.643	16280.16
221.716	16366.87
221.79	16439.07
221.863	16513.34
221.936	16583.85
222.009	16661.21
222.082	16739.72
222.155	16807.91
222.229	16886.52
222.302	16960.35
222.375	17025.71
222.448	17100.89
222.521	17156.02
222.594	17209.23
222.667	17251.59
222.74	17328.51
222.814	17382.63
222.887	17424.61
222.96	17489.62
223.033	17555.16
223.106	17615.64
223.179	17676.7
223.252	17731.01
223.325	17794.19
223.398	17843.35
223.471	17894.19
223.544	17927.59
223.617	17971.97
223.69	18019.39
223.763	18056.31
223.837	18097.41
223.91	18143.92
223.983	18167.68
224.056	18197.27
224.129	18253.46
224.202	18306.32
224.275	18341.21
224.348	18368.2
224.42	18396.05
224.493	18414.51
224.566	18439.81
224.639	18478.17
224.712	18507.32
224.785	18528.96
224.858	18549.25
224.931	18573.44
225.004	18600.81
225.077	18642.59
225.15	18643.17
225.223	18657.96
225.296	18705.29
225.369	18719.6
225.442	18739.36
225.514	18769.24
225.587	18800.85
225.66	18817.57
225.733	18841.38
225.806	18860.94
225.879	18874.63
225.952	18880.22
226.025	18912.5
226.097	18942.86
226.17	18961.37
226.243	18949.9
226.316	18956.5
226.389	18968.5
226.461	18986.81
226.534	18995.44
226.607	19003.39
226.68	19036.06
226.753	19050.42
226.825	19033.6
226.898	19049.31
226.971	19057.22
227.044	19066.42
227.117	19074.28
227.189	19085.7
227.262	19108.88
227.335	19120.06
227.407	19129.79
227.48	19147.77
227.553	19161.21
227.626	19166.37
227.698	19170.08
227.771	19183.33
227.844	19189.3
227.916	19206.22
227.989	19203.38
228.062	19209.11
228.134	19234.89
228.207	19245.21
228.28	19244.39
228.352	19242.46
228.425	19250.75
228.498	19266.75
228.57	19261.16
228.643	19271.56
228.716	19272.05
228.788	19253.83
228.861	19242.89
228.934	19251.61
229.006	19253.06
229.079	19243.76
229.151	19227.62
229.224	19205.35
229.296	19208.53
229.369	19237.45
229.442	19242.99
229.514	19234.27
229.587	19245.01
229.659	19220.53
229.732	19215.71
229.804	19221.59
229.877	19246.27
229.949	19250.27
230.022	19263.95
230.094	19263.71
230.167	19265.73
230.239	19249.74
230.312	19252.53
230.384	19279.37
230.457	19274.07
230.529	19272.82
230.602	19265.64
230.674	19272.63
230.747	19283.81
230.819	19289.25
230.892	19248.87
230.964	19240.19
231.037	19232.63
231.109	19213.3
231.181	19219.52
231.254	19201.4
231.326	19192.29
231.399	19173.6
231.471	19155.57
231.544	19108.25
231.616	19102.66
231.688	19097.36
231.761	19083.38
231.833	19077.75
231.905	19035.48
231.978	19031.1
232.05	19016.5
232.122	19007.05
232.195	18981.66
232.267	18984.5
232.339	18968.45
232.412	18974.62
232.484	18955.97
232.556	18943.44
232.629	18963.68
232.701	18944.21
232.773	18939.63
232.846	18921.95
232.918	18909.27
232.99	18902.62
233.062	18914.19
233.135	18908.41
233.207	18873.61
233.279	18864.89
233.351	18846.97
233.424	18837.13
233.496	18805.76
233.568	18806.49
233.64	18776.17
233.713	18764.22
233.785	18743.74
233.857	18733.43
233.929	18698.64
234.001	18702.78
234.074	18698.49
234.146	18654.25
234.218	18641.39
234.29	18614.69
234.362	18592.19
234.434	18557.68
234.507	18531.61
234.579	18490.02
234.651	18470.41
234.723	18457.93
234.795	18445.59
234.867	18419.86
234.939	18414.56
235.012	18397.21
235.084	18382.27
235.156	18380.39
235.228	18355.62
235.3	18332.15
235.372	18312.06
235.444	18307.04
235.516	18265.55
235.588	18255.72
235.66	18236.01
235.732	18204.78
235.804	18248.97
235.876	18237.17
235.948	18237.99
236.02	18214.86
236.092	18197.6
236.164	18171.39
236.236	18147.97
236.308	18119.53
236.38	18098.72
236.452	18067.92
236.524	18059.1
236.596	18063.97
236.668	18045.9
236.74	18029.37
236.812	18006.09
236.884	17990.67
236.956	17971.11
237.028	17935.73
237.1	17897.71
237.172	17891.16
237.244	17900.89
237.316	17840.65
237.388	17811.59
237.46	17781.33
237.532	17776.94
237.604	17748.7
237.675	17736.17
237.747	17727.88
237.819	17705.71
237.891	17689.47
237.963	17662.58
238.035	17631.84
238.107	17553.72
238.178	17539.98
238.25	17509.62
238.322	17518.73
238.394	17473.91
238.466	17443.36
238.538	17432.32
238.609	17416.32
238.681	17379.4
238.753	17339.45
238.825	17317.48
238.897	17300.46
238.968	17294.15
239.04	17256.85
239.112	17266.25
239.184	17233.04
239.255	17201.14
239.327	17184.66
239.399	17162.25
239.471	17142.73
239.542	17122.29
239.614	17121.96
239.686	17072.89
239.758	17059.69
239.829	17020.22
239.901	17009.9
239.973	16988.17
240.044	16967.88
240.116	16944.94
240.188	16913.18
240.259	16886.14
240.331	16850.19
240.403	16832.21
240.474	16784.3
240.546	16750.23
240.618	16694.47
240.689	16665.45
240.761	16641.36
240.833	16619.33
240.904	16589.83
240.976	16562.75
241.048	16539.37
241.119	16520.82
241.191	16503.13
241.262	16496.77
241.334	16464.62
241.405	16440.23
241.477	16407.31
241.549	16380.08
241.62	16351.98
241.692	16337.19
241.763	16319.02
241.835	16282.15
241.906	16252.26
241.978	16207.73
242.049	16197.27
242.121	16185.51
242.192	16175.63
242.264	16130.51
242.335	16087.95
242.407	16068.58
242.478	16038.55
242.55	16014.26
242.621	15972.42
242.693	15949.77
242.764	15914.92
242.836	15883.98
242.907	15858.67
242.979	15846.82
243.05	15824.02
243.122	15804.3
243.193	15774.9
243.264	15723.71
243.336	15705.88
243.407	15688.58
243.479	15692.58
243.55	15667.66
243.622	15645.2
243.693	15616.23
243.764	15610.83
243.836	15578.24
243.907	15543.54
243.978	15516.21
244.05	15493.65
244.121	15459.72
244.192	15439.67
244.264	15387.32
244.335	15360.13
244.407	15314.39
244.478	15283.78
244.549	15251.34
244.62	15211.04
244.692	15183.57
244.763	15170.12
244.834	15137.68
244.906	15105.43
244.977	15083.98
245.048	15074.2
245.119	15037.76
245.191	14999.58
245.262	14952.39
245.333	14945.59
245.405	14934.99
245.476	14913.54
245.547	14888.08
245.618	14871.21
245.689	14836.12
245.761	14824.84
245.832	14793.7
245.903	14776.78
245.974	14756.15
246.045	14733.93
246.117	14723.52
246.188	14686.16
246.259	14655.4
246.33	14632.36
246.401	14600.16
246.473	14549.35
246.544	14515.37
246.615	14499.12
246.686	14469.43
246.757	14455.5
246.828	14416.31
246.899	14398.04
246.97	14353.54
247.042	14317.58
247.113	14297.38
247.184	14297.05
247.255	14260.55
247.326	14240.45
247.397	14213.12
247.468	14187.76
247.539	14163.56
247.61	14117.38
247.681	14097.14
247.752	14077.85
247.823	14030.76
247.894	14007.28
247.965	13977.54
248.037	13944.13
248.108	13908.36
248.179	13887.54
248.25	13860.2
248.321	13843.72
248.392	13806.65
248.463	13811.47
248.534	13780.61
248.605	13752.7
248.675	13723.49
248.746	13709.46
248.817	13691.87
248.888	13676.3
248.959	13636.33
249.03	13610.59
249.101	13594.73
249.172	13567.4
249.243	13522.42
249.314	13529.31
249.385	13509.36
249.456	13490.89
249.527	13468.24
249.598	13456.52
249.669	13435.12
249.739	13419.93
249.81	13402.29
249.881	13359.39
249.952	13325.26
250.023	13300.91
250.094	13264.95
250.165	13228.07
250.235	13210.86
250.306	13180.68
250.377	13149.11
250.448	13130.69
250.519	13088.76
250.59	13083.93
250.66	13059.01
250.731	13054.91
250.802	13020.83
250.873	13001.94
250.944	12983.67
251.014	12944.18
251.085	12938.3
251.156	12912.75
251.227	12899.45
251.297	12895.54
251.368	12893.91
251.439	12888.6
251.51	12893.18
251.58	12865.08
251.651	12837.94
251.722	12818.32
251.792	12786.65
251.863	12759.56
251.934	12747.6
252.005	12766.79
252.075	12744.71
252.146	12737.48
252.217	12733.91
252.287	12725.57
252.358	12697.37
252.429	12690.33
252.499	12672.35
252.57	12646.42
252.641	12641.02
252.711	12620.77
252.782	12580.67
252.852	12572.38
252.923	12551.89
252.994	12521.04
253.064	12518.15
253.135	12492.84
253.205	12468.4
253.276	12461.6
253.347	12456.25
253.417	12431.09
253.488	12397.35
253.558	12372.33
253.629	12351.07
253.699	12328.95
253.77	12315.64
253.841	12296.46
253.911	12283.06
253.982	12267.97
254.052	12262.23
254.123	12243.19
254.193	12223.09
254.264	12242.18
254.334	12216.58
254.405	12185.88
254.475	12162.36
254.546	12139.85
254.616	12130.35
254.687	12116.81
254.757	12113.62
254.827	12096.51
254.898	12080.85
254.968	12056.6
255.039	12028.26
255.109	12023.92
255.18	11990.86
255.25	11944.44
255.321	11936.53
255.391	11902.84
255.461	11906.07
255.532	11848.04
255.602	11826.78
255.673	11791.11
255.743	11766.39
255.813	11720.21
255.884	11713.03
255.954	11703.97
256.024	11706.57
256.095	11694.38
256.165	11652.78
256.235	11634.42
256.306	11606.08
256.376	11598.22
256.446	11593.93
256.517	11585.11
256.587	11576.05
256.657	11560.97
256.728	11553.25
256.798	11538.02
256.868	11519.57
256.938	11489.59
257.009	11486.55
257.079	11474.98
257.149	11476.09
257.219	11429.92
257.29	11422.26
257.36	11384.81
257.43	11372.42
257.5	11333.24
257.571	11308.76
257.641	11307.26
257.711	11278.01
257.781	11275.16
257.852	11264.99
257.922	11227.07
257.992	11210.05
258.062	11186.1
258.132	11182.1
258.202	11163.02
258.273	11143.93
258.343	11149.67
258.413	11127.6
258.483	11114.82
258.553	11086.34
258.623	11066.25
258.693	11052.46
258.764	11048.32
258.834	11044.27
258.904	11031.45
258.974	11005.53
259.044	10985.19
259.114	10979.56
259.184	10958.11
259.254	10931.85
259.324	10889.54
259.394	10880.09
259.464	10876.58
259.535	10858.99
259.605	10837.21
259.675	10815.14
259.745	10800.68
259.815	10768.68
259.885	10743.92
259.955	10757.75
260.025	10726.96
260.095	10709.76
260.165	10700.55
260.235	10706.39
260.305	10679.55
260.375	10648.32
260.445	10659.6
260.515	10664.08
260.585	10649.91
260.655	10638.97
260.725	10639.5
260.795	10637.48
260.865	10642.3
260.934	10620.04
261.004	10610.79
261.074	10595.9
261.144	10599.37
261.214	10599.7
261.284	10583.51
261.354	10583.8
261.424	10553.35
261.494	10563.95
261.564	10552.43
261.634	10541.54
261.703	10499.48
261.773	10495.48
261.843	10486.23
261.913	10469.08
261.983	10435.25
262.053	10430.19
262.123	10412.95
262.192	10382.84
