Data from 20250704_urea_1.5M_MAYP1162681_11-45-43-595.txt Node
Date: Fri Jul 04 11:45:43 BST 2025
User: adleo
Spectrometer: MAYP116268
Trigger mode: 0
Integration Time (sec): 1.000000E0
Scans to average: 1
Electric dark correction enabled: true
Nonlinearity correction enabled: true
Boxcar width: 10
XAxis mode: Wavelengths
Number of Pixels in Spectrum: 2068
>>>>>Begin Spectral Data<<<<<
179.565	1264.05
179.642	1320.68
179.718	1370.44
179.795	1410.31
179.871	1445.46
179.948	1464.3
180.024	1484.63
180.101	1509.79
180.177	1524.74
180.254	1548.08
180.33	1570.48
180.407	1629.27
180.483	1726.47
180.56	1823.97
180.636	1913.23
180.712	1899.58
180.789	1912.37
180.865	1926.58
180.942	1938.37
181.018	1947.59
181.095	1960.82
181.171	1967.24
181.248	1972.51
181.324	1987.88
181.4	1997.3
181.477	2007.71
181.553	2024.26
181.63	2047.94
181.706	2063.26
181.782	2073.24
181.859	2074.62
181.935	2079.71
182.011	2077.85
182.088	2095.64
182.164	2114.34
182.24	2124.66
182.317	2136.31
182.393	2133.74
182.469	2145.54
182.546	2157.57
182.622	2162.14
182.698	2157.34
182.775	2166.18
182.851	2176.98
182.927	2166.71
183.003	2163.19
183.08	2156.53
183.156	2164.38
183.232	2159.67
183.308	2147.82
183.385	2156.62
183.461	2173.08
183.537	2175.22
183.613	2187.74
183.69	2182.89
183.766	2170.18
183.842	2180.5
183.918	2186.16
183.995	2200.53
184.071	2207.53
184.147	2202.29
184.223	2192.59
184.299	2205.63
184.375	2196.59
184.452	2203.97
184.528	2255.08
184.604	2265.35
184.68	2279.34
184.756	2284.95
184.832	2290.9
184.908	2297.23
184.985	2295.99
185.061	2280.2
185.137	2290.43
185.213	2279.29
185.289	2278.2
185.365	2271.02
185.441	2270.02
185.517	2282.77
185.593	2277.59
185.669	2275.11
185.745	2286.39
185.822	2301.09
185.898	2290.9
185.974	2300.18
186.05	2293.95
186.126	2259.92
186.202	2253.21
186.278	2245.98
186.354	2236.03
186.43	2243.27
186.506	2241.22
186.582	2243.7
186.658	2253.16
186.734	2233.85
186.81	2234.94
186.886	2238.56
186.962	2251.74
187.038	2247.36
187.114	2237.03
187.19	2246.55
187.266	2232.56
187.341	2233.89
187.417	2225.62
187.493	2227.04
187.569	2229.42
187.645	2219.95
187.721	2206.44
187.797	2212.2
187.873	2218.1
187.949	2212.58
188.025	2206.25
188.101	2209.81
188.176	2211.53
188.252	2207.15
188.328	2217.09
188.404	2216.85
188.48	2211.19
188.556	2203.2
188.632	2202.15
188.707	2206.39
188.783	2202.72
188.859	2199.01
188.935	2186.07
189.011	2194.44
189.086	2187.73
189.162	2177.6
189.238	2177.03
189.314	2174.56
189.39	2165.99
189.465	2159.85
189.541	2177.65
189.617	2161.14
189.693	2155.29
189.768	2156.62
189.844	2179.57
189.92	2168.06
189.996	2175.2
190.071	2188.04
190.147	2186.76
190.223	2195.94
190.298	2185.95
190.374	2173.91
190.45	2186.94
190.526	2198.08
190.601	2193.13
190.677	2197.93
190.753	2228.35
190.828	2231.97
190.904	2247.05
190.98	2266.18
191.055	2277.46
191.131	2269.28
191.207	2290.02
191.282	2297.87
191.358	2293.87
191.433	2278.83
191.509	2292.1
191.585	2290.53
191.66	2289.05
191.736	2297.66
191.811	2289.72
191.887	2308.76
191.963	2329.41
192.038	2335.27
192.114	2333.03
192.189	2336.69
192.265	2330.65
192.34	2306.18
192.416	2302.47
192.491	2300.56
192.567	2303.61
192.642	2304.8
192.718	2305.28
192.793	2292.14
192.869	2289.19
192.944	2287.29
193.02	2296.91
193.095	2300.33
193.171	2307.14
193.246	2308.61
193.322	2304.85
193.397	2306.76
193.473	2290.95
193.548	2272.15
193.624	2276.25
193.699	2275.15
193.775	2289.91
193.85	2291.76
193.925	2302.9
194.001	2307.18
194.076	2298.57
194.152	2287.05
194.227	2280.95
194.302	2268.68
194.378	2275.15
194.453	2275.06
194.529	2289.24
194.604	2271.11
194.679	2264.45
194.755	2246.94
194.83	2259.74
194.905	2259.89
194.981	2269.84
195.056	2262.98
195.131	2272.83
195.207	2272.5
195.282	2263.51
195.357	2244.52
195.433	2261.6
195.508	2248.61
195.583	2254.7
195.659	2270.17
195.734	2276.93
195.809	2275.5
195.884	2287.68
195.96	2287.58
196.035	2300.95
196.11	2296.86
196.185	2311.09
196.261	2316.85
196.336	2344.83
196.411	2330.12
196.486	2335.5
196.561	2327.12
196.637	2333.88
196.712	2346.97
196.787	2350.92
196.862	2367.77
196.937	2381.62
197.013	2384.04
197.088	2396.75
197.163	2420.04
197.238	2438.43
197.313	2438.43
197.388	2450.47
197.464	2481.38
197.539	2490.86
197.614	2485.62
197.689	2498.95
197.764	2515.58
197.839	2537.34
197.914	2533.1
197.989	2555.67
198.065	2568.77
198.14	2618.99
198.215	2647.66
198.29	2661.24
198.365	2672.58
198.44	2684.34
198.515	2711.07
198.59	2726.89
198.665	2752.52
198.74	2756.76
198.815	2755.33
198.89	2777.91
198.965	2812.18
199.04	2805.75
199.115	2824.57
199.19	2865.79
199.265	2867.6
199.34	2874.65
199.415	2905.45
199.49	2926.18
199.565	2934.52
199.64	2957.4
199.715	2955.21
199.79	2964.07
199.865	2972.85
199.94	2970.65
200.015	3001.46
200.09	3007.56
200.165	3017.14
200.24	3023.2
200.315	3068.63
200.39	3083.46
200.464	3091.99
200.539	3089.04
200.614	3109.16
200.689	3131.81
200.764	3140.59
200.839	3158.32
200.914	3169.1
200.989	3159.22
201.063	3173.72
201.138	3157.8
201.213	3158.71
201.288	3142.68
201.363	3147.21
201.438	3146.83
201.512	3165.14
201.587	3147.73
201.662	3152.59
201.737	3166.28
201.812	3175.82
201.886	3141.6
201.961	3153.72
202.036	3142.32
202.111	3145.09
202.186	3113.44
202.26	3095.55
202.335	3073.61
202.41	3067.37
202.485	3048.11
202.559	3031.47
202.634	3007.01
202.709	3017.97
202.784	3002.81
202.858	2998.75
202.933	2976.02
203.008	2967.72
203.082	2949.42
203.157	2947.18
203.232	2903.91
203.306	2880.73
203.381	2848.17
203.456	2821.81
203.53	2797.58
203.605	2774.86
203.68	2748.4
203.754	2741.21
203.829	2726.58
203.904	2707.91
203.978	2697.99
204.053	2699.47
204.127	2682.85
204.202	2680.03
204.277	2662.65
204.351	2651.21
204.426	2643.97
204.5	2640.73
204.575	2604.87
204.65	2611.5
204.724	2604.21
204.799	2608.68
204.873	2602.82
204.948	2600.29
205.022	2587.68
205.097	2579.58
205.171	2593.58
205.246	2603.01
205.32	2600.44
205.395	2599.53
205.469	2587.49
205.544	2592.11
205.618	2573.78
205.693	2585.59
205.767	2571.83
205.842	2590.45
205.916	2583.83
205.991	2573.74
206.065	2576.12
206.14	2597.01
206.214	2593.73
206.289	2587.72
206.363	2602.25
206.438	2606.2
206.512	2612.16
206.586	2634.21
206.661	2642.31
206.735	2621.41
206.81	2622.55
206.884	2639.98
206.958	2624.22
207.033	2643.65
207.107	2649.46
207.181	2683.77
207.256	2679.19
207.33	2698.82
207.405	2713.12
207.479	2734.18
207.553	2743.32
207.628	2727.37
207.702	2735.95
207.776	2731.66
207.851	2731.9
207.925	2746.48
207.999	2745.43
208.073	2747.82
208.148	2747.34
208.222	2732.47
208.296	2765.33
208.371	2780.55
208.445	2790.84
208.519	2822.85
208.593	2835.43
208.668	2831.91
208.742	2835.1
208.816	2838.15
208.89	2853.88
208.965	2851.45
209.039	2862.75
209.113	2879.86
209.187	2903.86
209.261	2899.53
209.336	2920.22
209.41	2943.29
209.484	2946.43
209.558	2965.46
209.632	2978.99
209.707	2995.25
209.781	3023.66
209.855	3040.69
209.929	3059.11
210.003	3068.02
210.077	3070.7
210.151	3118.86
210.226	3155.11
210.3	3184.81
210.374	3209.12
210.448	3218.09
210.522	3231.5
210.596	3245.09
210.67	3256.11
210.744	3305.98
210.818	3343.7
210.892	3366.27
210.966	3367.99
211.041	3392.61
211.115	3395.85
211.189	3425.15
211.263	3448.34
211.337	3461.71
211.411	3484.1
211.485	3490.69
211.559	3512.68
211.633	3525.99
211.707	3508.89
211.781	3534.6
211.855	3514.64
211.929	3525.14
212.003	3522.13
212.077	3554.71
212.151	3584.89
212.225	3621.04
212.299	3637.34
212.373	3654.53
212.447	3679.19
212.52	3738.52
212.594	3771.97
212.668	3824.18
212.742	3848.6
212.816	3881.52
212.89	3920.13
212.964	3964.41
213.038	4013.13
213.112	4076.15
213.186	4146.33
213.26	4177.15
213.333	4181.11
213.407	4246.5
213.481	4309.94
213.555	4388.62
213.629	4440.3
213.703	4493.04
213.777	4561.63
213.85	4613.28
213.924	4719.19
213.998	4803.77
214.072	4881.29
214.146	4945.22
214.219	5024.12
214.293	5105.87
214.367	5199.35
214.441	5298.12
214.515	5383.98
214.588	5453.91
214.662	5516.95
214.736	5592.56
214.81	5702.79
214.883	5826.94
214.957	5922.56
215.031	6021.5
215.105	6102.02
215.178	6199
215.252	6307.13
215.326	6400.94
215.4	6498.66
215.473	6566.81
215.547	6666.06
215.621	6766.86
215.694	6897.01
215.768	6996.32
215.842	7107.35
215.915	7222.76
215.989	7323.22
216.063	7432.75
216.136	7561.92
216.21	7692.25
216.284	7827.81
216.357	7964.49
216.431	8086.1
216.504	8215.92
216.578	8366.52
216.652	8505.76
216.725	8639.01
216.799	8780.86
216.873	8906.48
216.946	9046.87
217.02	9178.22
217.093	9298.54
217.167	9403.21
217.24	9518.65
217.314	9641.33
217.387	9764.51
217.461	9878.95
217.535	10017.86
217.608	10138.91
217.682	10263.39
217.755	10397.22
217.829	10515.99
217.902	10636.83
217.976	10766.06
218.049	10894.42
218.123	11003.62
218.196	11145.34
218.27	11269.34
218.343	11371.9
218.417	11506.94
218.49	11625.88
218.563	11765.27
218.637	11895.6
218.71	12049.25
218.784	12183.01
218.857	12318.64
218.931	12446.91
219.004	12567.46
219.077	12688.16
219.151	12813.93
219.224	12932.46
219.298	13052.73
219.371	13183.51
219.444	13287.68
219.518	13390.65
219.591	13500.03
219.665	13640.93
219.738	13747.32
219.811	13839.64
219.885	13964.15
219.958	14071.17
220.031	14179.63
220.105	14288.63
220.178	14395.35
220.251	14484.63
220.325	14585.61
220.398	14687.61
220.471	14794.92
220.544	14909.98
220.618	15005.18
220.691	15102.41
220.764	15207.73
220.838	15297.24
220.911	15380.48
220.984	15492.46
221.057	15592.67
221.131	15682.32
221.204	15741.8
221.277	15849.09
221.35	15972.48
221.424	16049.55
221.497	16140.74
221.57	16220.13
221.643	16291.7
221.716	16371.66
221.79	16442.37
221.863	16515.15
221.936	16597.95
222.009	16670.15
222.082	16743.21
222.155	16808.66
222.229	16896.52
222.302	16956.04
222.375	17026.36
222.448	17097.78
222.521	17157.06
222.594	17220.29
222.667	17268.05
222.74	17335.14
222.814	17390.37
222.887	17435.91
222.96	17502.32
223.033	17553.64
223.106	17606.41
223.179	17683.33
223.252	17737.21
223.325	17799.09
223.398	17853.45
223.471	17905.4
223.544	17952
223.617	17995.47
223.69	18052.14
223.763	18077.2
223.837	18129.73
223.91	18174.64
223.983	18206.98
224.056	18237.72
224.129	18285.72
224.202	18341.91
224.275	18375.74
224.348	18396.08
224.42	18421.81
224.493	18432.75
224.566	18467.98
224.639	18512.65
224.712	18522.24
224.785	18555.97
224.858	18587.25
224.931	18606.14
225.004	18623.82
225.077	18650.42
225.15	18654.71
225.223	18677.94
225.296	18734.9
225.369	18736.59
225.442	18750.03
225.514	18773.36
225.587	18808.05
225.66	18829.79
225.733	18855.28
225.806	18878.75
225.879	18896.82
225.952	18903.85
226.025	18941.87
226.097	18971.37
226.17	18981.15
226.243	18986.5
226.316	18994.55
226.389	18999.37
226.461	19023.36
226.534	19036.57
226.607	19045.19
226.68	19076.71
226.753	19084.13
226.825	19059.55
226.898	19095.46
226.971	19112.9
227.044	19125.72
227.117	19127.36
227.189	19136.13
227.262	19152.08
227.335	19164.99
227.407	19168.37
227.48	19191.5
227.553	19211.26
227.626	19213.81
227.698	19227.11
227.771	19233.95
227.844	19222.68
227.916	19233.76
227.989	19216.85
228.062	19209.18
228.134	19231.16
228.207	19234.39
228.28	19220.27
228.352	19227.69
228.425	19221.95
228.498	19225.28
228.57	19216.8
228.643	19230.92
228.716	19226
228.788	19219.25
228.861	19212.8
228.934	19224.89
229.006	19214
229.079	19193.14
229.151	19169.19
229.224	19143.16
229.296	19147.5
229.369	19184.9
229.442	19195.4
229.514	19182.39
229.587	19198.34
229.659	19168.85
229.732	19171.26
229.804	19195.5
229.877	19212.36
229.949	19215.79
230.022	19238.82
230.094	19245.04
230.167	19233.62
230.239	19215.4
230.312	19206.87
230.384	19223.25
230.457	19216.94
230.529	19220.65
230.602	19222.05
230.674	19231.83
230.747	19240.27
230.819	19251.16
230.892	19210.73
230.964	19200.65
231.037	19208.99
231.109	19195.35
231.181	19204.7
231.254	19184.65
231.326	19165.67
231.399	19155.26
231.471	19142.68
231.544	19097.09
231.616	19093.43
231.688	19087.75
231.761	19082.44
231.833	19069
231.905	19041.92
231.978	19030.93
232.05	19003.46
232.122	18990.16
232.195	18977.2
232.267	18979.17
232.339	18946.12
232.412	18949.44
232.484	18936.86
232.556	18919.03
232.629	18931.56
232.701	18926.21
232.773	18913.97
232.846	18900.14
232.918	18879.95
232.99	18868.96
233.062	18868.67
233.135	18853.74
233.207	18833.16
233.279	18826.03
233.351	18821.01
233.424	18797.93
233.496	18771.23
233.568	18782.32
233.64	18753.79
233.713	18733.74
233.785	18718.47
233.857	18715.58
233.929	18691.29
234.001	18690.95
234.074	18690.08
234.146	18648.11
234.218	18638.28
234.29	18622.23
234.362	18599.97
234.434	18578.91
234.507	18547.73
234.579	18516.5
234.651	18495.59
234.723	18489.28
234.795	18483.49
234.867	18460.41
234.939	18462
235.012	18449.09
235.084	18445.52
235.156	18436.56
235.228	18419.01
235.3	18390.1
235.372	18372.41
235.444	18359.84
235.516	18305.96
235.588	18295.65
235.66	18276.85
235.732	18245.1
235.804	18283.84
235.876	18272.76
235.948	18266.44
236.02	18244.61
236.092	18228.66
236.164	18205.72
236.236	18178.06
236.308	18143.32
236.38	18131.89
236.452	18105.15
236.524	18086.98
236.596	18077.44
236.668	18074.69
236.74	18047.71
236.812	18042.74
236.884	18024.53
236.956	18004.82
237.028	17983.61
237.1	17943.85
237.172	17938.36
237.244	17935.23
237.316	17873.83
237.388	17842.7
237.46	17808.82
237.532	17810.46
237.604	17773.83
237.675	17772.48
237.747	17758.12
237.819	17735.33
237.891	17707.28
237.963	17661.4
238.035	17633.02
238.107	17571.09
238.178	17547.62
238.25	17521.36
238.322	17512.73
238.394	17478.56
238.466	17454.66
238.538	17440.97
238.609	17428.92
238.681	17378.51
238.753	17339.24
238.825	17315.96
238.897	17296.01
238.968	17293.55
239.04	17251.14
239.112	17256.44
239.184	17212.44
239.255	17175.76
239.327	17156.53
239.399	17127.33
239.471	17122.46
239.542	17103.71
239.614	17099.91
239.686	17054.8
239.758	17052.19
239.829	17011.47
239.901	16999.66
239.973	16966.84
240.044	16951.28
240.116	16921.97
240.188	16903.8
240.259	16880.04
240.331	16851.66
240.403	16838.16
240.474	16783.85
240.546	16756.28
240.618	16717.48
240.689	16682.3
240.761	16660.08
240.833	16648.85
240.904	16626.82
240.976	16594.34
241.048	16575.11
241.119	16544.84
241.191	16528.65
241.262	16519.97
241.334	16493.95
241.405	16459.15
241.477	16431.97
241.549	16396.4
241.62	16373.21
241.692	16358.95
241.763	16347.53
241.835	16315.09
241.906	16279.23
241.978	16244.43
242.049	16233.06
242.121	16213.15
242.192	16210.07
242.264	16167.51
242.335	16117.48
242.407	16100.46
242.478	16069.81
242.55	16043.39
242.621	16004.64
242.693	15975.19
242.764	15930.08
242.836	15902.03
242.907	15885.69
242.979	15870.6
243.05	15849.64
243.122	15821.05
243.193	15791.99
243.264	15730.44
243.336	15709.76
243.407	15699.11
243.479	15691.49
243.55	15671.97
243.622	15649.37
243.693	15617.79
243.764	15614.61
243.836	15583.43
243.907	15549.83
243.978	15528.24
244.05	15507.85
244.121	15468.66
244.192	15447.64
244.264	15405.47
244.335	15380.06
244.407	15333.16
244.478	15310.22
244.549	15288.67
244.62	15255.03
244.692	15227.6
244.763	15216.42
244.834	15174.14
244.906	15140.89
244.977	15113.02
245.048	15101.5
245.119	15063.33
245.191	15030.31
245.262	14983.41
245.333	14967.07
245.405	14943.45
245.476	14917.22
245.547	14889.55
245.618	14882.23
245.689	14859.28
245.761	14837.54
245.832	14810.69
245.903	14803.85
245.974	14773.43
246.045	14737.81
246.117	14724.55
246.188	14684.74
246.259	14651.04
246.33	14630.84
246.401	14596.09
246.473	14561.57
246.544	14518.43
246.615	14509.27
246.686	14482.03
246.757	14466.61
246.828	14430.21
246.899	14419.37
246.97	14379.26
247.042	14341.95
247.113	14319.34
247.184	14307.97
247.255	14268.63
247.326	14243.8
247.397	14207.02
247.468	14169.33
247.539	14140.35
247.61	14107.91
247.681	14091.81
247.752	14084.15
247.823	14049.73
247.894	14029.58
247.965	13995.35
248.037	13964.79
248.108	13918.94
248.179	13887.32
248.25	13859.41
248.321	13843.64
248.392	13798.76
248.463	13799.49
248.534	13771.09
248.605	13741.74
248.675	13715.51
248.746	13704.95
248.817	13684.76
248.888	13665.09
248.959	13639.2
249.03	13619.97
249.101	13590.9
249.172	13559.66
249.243	13510.78
249.314	13507.31
249.385	13482.34
249.456	13467.92
249.527	13435.19
249.598	13413.06
249.669	13396.38
249.739	13383.08
249.81	13368.52
249.881	13342.49
249.952	13321.62
250.023	13307.73
250.094	13278.71
250.165	13237.74
250.235	13208.43
250.306	13189.77
250.377	13147.06
250.448	13127.39
250.519	13098.61
250.59	13100.88
250.66	13075.62
250.731	13067.62
250.802	13028.47
250.873	13008.27
250.944	12985.28
251.014	12959.54
251.085	12965.32
251.156	12943.53
251.227	12926.04
251.297	12906.66
251.368	12890.12
251.439	12870.6
251.51	12862.26
251.58	12822.68
251.651	12800.65
251.722	12799.11
251.792	12750.71
251.863	12736.97
251.934	12732.92
252.005	12734.76
252.075	12707.47
252.146	12701.49
252.217	12693.83
252.287	12691.85
252.358	12669.05
252.429	12668.86
252.499	12647.75
252.57	12630.58
252.641	12618.2
252.711	12600.7
252.782	12570.81
252.852	12567.58
252.923	12548.11
252.994	12519.86
253.064	12526.08
253.135	12499.27
253.205	12468.33
253.276	12478.31
253.347	12470.83
253.417	12438.63
253.488	12408.94
253.558	12381.42
253.629	12359.87
253.699	12338.23
253.77	12323.38
253.841	12302.31
253.911	12283.37
253.982	12262.35
254.052	12252.33
254.123	12238.25
254.193	12218.58
254.264	12242.3
254.334	12211.21
254.405	12177.61
254.475	12152.4
254.546	12124.59
254.616	12118.61
254.687	12101.16
254.757	12088.54
254.827	12073.01
254.898	12062.27
254.968	12047.03
255.039	12028.81
255.109	12015.75
255.18	11991.17
255.25	11956.85
255.321	11943.26
255.391	11910
255.461	11921.95
255.532	11873.32
255.602	11845.8
255.673	11809.16
255.743	11778.89
255.813	11738.07
255.884	11734.12
255.954	11722.84
256.024	11718.74
256.095	11695.12
256.165	11661.77
256.235	11634.06
256.306	11609.96
256.376	11603.5
256.446	11590.1
256.517	11577.09
256.587	11574.68
256.657	11558.92
256.728	11538.19
256.798	11525.9
256.868	11502.53
256.938	11471.78
257.009	11462.23
257.079	11453.12
257.149	11464.4
257.219	11418.18
257.29	11413.94
257.36	11367.67
257.43	11364.01
257.5	11331.63
257.571	11315.29
257.641	11312.69
257.711	11290.71
257.781	11278.61
257.852	11266.51
257.922	11228.1
257.992	11208.63
258.062	11186.17
258.132	11175.43
258.202	11159.67
258.273	11146.99
258.343	11152.49
258.413	11125.69
258.483	11112.34
258.553	11082.27
258.623	11051.57
258.693	11043.43
258.764	11043.86
258.834	11056.06
258.904	11035.86
258.974	11008.11
259.044	10987.77
259.114	10974.95
259.184	10957.75
259.254	10937.32
259.324	10897.22
259.394	10892.5
259.464	10891.54
259.535	10870.09
259.605	10855.01
259.675	10830.92
259.745	10814.68
259.815	10786.3
259.885	10768.66
259.955	10778.15
260.025	10751.08
260.095	10733.73
260.165	10727.61
260.235	10723.18
260.305	10691.42
260.375	10664.15
260.445	10683.18
260.515	10689.4
260.585	10689.49
260.655	10675.71
260.725	10672.48
260.795	10668.58
260.865	10668.58
260.934	10645.69
261.004	10636.44
261.074	10618.57
261.144	10622.66
261.214	10620.83
261.284	10598.47
261.354	10598.86
261.424	10571.73
261.494	10585.07
261.564	10571.97
261.634	10564.4
261.703	10525.38
261.773	10517.67
261.843	10509.28
261.913	10482.69
261.983	10445.49
262.053	10434.03
262.123	10413.6
262.192	10384.31
