Data from 20250704_urea_1M_MAYP1162681_11-32-15-656.txt Node
Date: Fri Jul 04 11:32:15 BST 2025
User: adleo
Spectrometer: MAYP116268
Trigger mode: 0
Integration Time (sec): 1.000000E0
Scans to average: 1
Electric dark correction enabled: true
Nonlinearity correction enabled: true
Boxcar width: 10
XAxis mode: Wavelengths
Number of Pixels in Spectrum: 2068
>>>>>Begin Spectral Data<<<<<
179.565	1248.28
179.642	1305.13
179.718	1352.38
179.795	1392.89
179.871	1426.4
179.948	1444.24
180.024	1467.14
180.101	1490.11
180.177	1507.4
180.254	1532.25
180.33	1554.82
180.407	1611.61
180.483	1711.66
180.56	1805.45
180.636	1894.05
180.712	1877.4
180.789	1891.86
180.865	1904.4
180.942	1914.62
181.018	1924.79
181.095	1934.73
181.171	1942.39
181.248	1944.2
181.324	1958.7
181.4	1965.41
181.477	1978.87
181.553	1992.65
181.63	2013.91
181.706	2031.51
181.782	2038.4
181.859	2034.98
181.935	2041.16
182.011	2037.16
182.088	2052.2
182.164	2071.32
182.24	2086.06
182.317	2097.62
182.393	2095.57
182.469	2111.41
182.546	2125.06
182.622	2130.72
182.698	2128.82
182.775	2140.95
182.851	2154.98
182.927	2148.66
183.003	2145.8
183.08	2140.33
183.156	2150.99
183.232	2147.18
183.308	2136.91
183.385	2145.47
183.461	2166.11
183.537	2168.11
183.613	2183.95
183.69	2174.68
183.766	2164.73
183.842	2171.11
183.918	2176.96
183.995	2192.09
184.071	2198.42
184.147	2190.38
184.223	2178.15
184.299	2189.86
184.375	2178.06
184.452	2184.44
184.528	2231.11
184.604	2239.34
184.68	2249.14
184.756	2257.71
184.832	2263.66
184.908	2268.51
184.985	2271.7
185.061	2253.86
185.137	2263.9
185.213	2251
185.289	2252.72
185.365	2245.3
185.441	2244.73
185.517	2256.96
185.593	2252.2
185.669	2247.92
185.745	2259
185.822	2277.74
185.898	2268.84
185.974	2278.55
186.05	2271.5
186.126	2238.87
186.202	2231.97
186.278	2229.49
186.354	2218.02
186.43	2225.12
186.506	2224.12
186.582	2220.03
186.658	2228.11
186.734	2206.89
186.81	2210.56
186.886	2214.36
186.962	2228.3
187.038	2225.83
187.114	2218.02
187.19	2225.35
187.266	2214.84
187.341	2217.45
187.417	2210.6
187.493	2211.46
187.569	2214.22
187.645	2209.51
187.721	2199.99
187.797	2209.31
187.873	2212.31
187.949	2206.98
188.025	2199.13
188.101	2199.56
188.176	2203.51
188.252	2197.8
188.328	2205.12
188.404	2202.89
188.48	2197.37
188.556	2191.61
188.632	2187.42
188.707	2186.81
188.783	2186.19
188.859	2180.05
188.935	2168.01
189.011	2176.77
189.086	2170.2
189.162	2161.26
189.238	2159.07
189.314	2156.03
189.39	2151.7
189.465	2145.23
189.541	2162.93
189.617	2146.28
189.693	2141.24
189.768	2146.9
189.844	2173.74
189.92	2167.18
189.996	2179.93
190.071	2189.78
190.147	2186.45
190.223	2199.87
190.298	2193.73
190.374	2179.65
190.45	2190.54
190.526	2201.2
190.601	2194.15
190.677	2196.2
190.753	2225.62
190.828	2229.04
190.904	2242.65
190.98	2254.79
191.055	2265.64
191.131	2254.69
191.207	2277.15
191.282	2289.18
191.358	2277.67
191.433	2262.58
191.509	2274.56
191.585	2271.23
191.66	2277.04
191.736	2286.7
191.811	2273.75
191.887	2290.6
191.963	2314.4
192.038	2321.92
192.114	2317.78
192.189	2320.4
192.265	2317.3
192.34	2293.88
192.416	2291.88
192.491	2287.6
192.567	2292.12
192.642	2294.55
192.718	2296.35
192.793	2281.79
192.869	2276.18
192.944	2278.08
193.02	2285.03
193.095	2290.03
193.171	2291.69
193.246	2287.69
193.322	2282.6
193.397	2286.31
193.473	2270.6
193.548	2251.52
193.624	2255.99
193.699	2260.08
193.775	2278.6
193.85	2281.03
193.925	2289.5
194.001	2290.21
194.076	2284.03
194.152	2272.89
194.227	2266.94
194.302	2257.66
194.378	2263.32
194.453	2260.42
194.529	2275.18
194.604	2260.61
194.679	2253.1
194.755	2236.21
194.83	2250.25
194.905	2248.25
194.981	2255.63
195.056	2251.92
195.131	2257.82
195.207	2259.01
195.282	2246.69
195.357	2223.46
195.433	2236.59
195.508	2224.36
195.583	2229.26
195.659	2243.45
195.734	2252.63
195.809	2250.59
195.884	2260.24
195.96	2260.72
196.035	2276.9
196.11	2271
196.185	2282.51
196.261	2284.41
196.336	2314.44
196.411	2299.87
196.486	2308.53
196.561	2302.59
196.637	2310.58
196.712	2328.15
196.787	2331.15
196.862	2347.99
196.937	2360.94
197.013	2367.41
197.088	2379.02
197.163	2401.93
197.238	2420.98
197.313	2421.22
197.388	2435.31
197.464	2465.6
197.539	2475.26
197.614	2465.94
197.689	2481.41
197.764	2497.27
197.839	2520.5
197.914	2515.5
197.989	2535.41
198.065	2546.69
198.14	2599.54
198.215	2623.54
198.29	2633.65
198.365	2644.74
198.44	2654.65
198.515	2682.8
198.59	2697.29
198.665	2723.63
198.74	2733.3
198.815	2730.49
198.89	2753.88
198.965	2783.1
199.04	2776.19
199.115	2793.86
199.19	2837.6
199.265	2837.88
199.34	2851.99
199.415	2885.8
199.49	2906.62
199.565	2918.82
199.64	2941.79
199.715	2937.55
199.79	2944.98
199.865	2949.99
199.94	2948.8
200.015	2976.59
200.09	2978.97
200.165	2988.56
200.24	2997.19
200.315	3035.46
200.39	3054.29
200.464	3060.25
200.539	3064.4
200.614	3083.33
200.689	3108.22
200.764	3114.52
200.839	3134.25
200.914	3137.35
200.989	3124.56
201.063	3140.44
201.138	3125.1
201.213	3129.15
201.288	3109.79
201.363	3118.52
201.438	3120.76
201.512	3138.11
201.587	3125.52
201.662	3132.53
201.737	3143.74
201.812	3149.84
201.886	3118.72
201.961	3130.37
202.036	3118.59
202.111	3109.05
202.186	3080.89
202.26	3064.19
202.335	3045.31
202.41	3038.06
202.485	3018.61
202.559	3001.79
202.634	2973.75
202.709	2982.09
202.784	2960.45
202.858	2958.78
202.933	2939.09
203.008	2933.32
203.082	2910.87
203.157	2912.64
203.232	2869.66
203.306	2845.2
203.381	2814.6
203.456	2790.86
203.53	2763.72
203.605	2741.24
203.68	2723.66
203.754	2717.99
203.829	2699.55
203.904	2676.92
203.978	2666.53
204.053	2675.15
204.127	2660.44
204.202	2659.63
204.277	2639.48
204.351	2632.19
204.426	2626.14
204.5	2616.18
204.575	2579.18
204.65	2589.67
204.724	2579.7
204.799	2589.65
204.873	2589.89
204.948	2587.79
205.022	2576.41
205.097	2569.65
205.171	2584.65
205.246	2588.79
205.32	2586.84
205.395	2587.36
205.469	2578.75
205.544	2585.47
205.618	2563.7
205.693	2575.94
205.767	2563.18
205.842	2586
205.916	2580.76
205.991	2568.66
206.065	2574.85
206.14	2590.89
206.214	2586.27
206.289	2578.12
206.363	2591.12
206.438	2592.32
206.512	2600.84
206.586	2619.8
206.661	2626.95
206.735	2605.85
206.81	2607.52
206.884	2621.52
206.958	2609.05
207.033	2626.38
207.107	2628.38
207.181	2663.45
207.256	2659.87
207.33	2678.16
207.405	2691.47
207.479	2708.57
207.553	2717.81
207.628	2700.28
207.702	2712.38
207.776	2705.57
207.851	2709.33
207.925	2724.06
207.999	2721.49
208.073	2718.73
208.148	2723.54
208.222	2712.91
208.296	2744.49
208.371	2764.27
208.445	2782.1
208.519	2815.21
208.593	2828.46
208.668	2830.74
208.742	2833.65
208.816	2834.27
208.89	2851.96
208.965	2848.81
209.039	2862.92
209.113	2885.23
209.187	2911.19
209.261	2911.28
209.336	2938.26
209.41	2963.1
209.484	2964.24
209.558	2990.94
209.632	3007.72
209.707	3025.6
209.781	3054.78
209.855	3079.25
209.929	3105.41
210.003	3115.62
210.077	3124.68
210.151	3187.36
210.226	3232.84
210.3	3274.77
210.374	3318.46
210.448	3338.88
210.522	3373.53
210.596	3404.89
210.67	3436.92
210.744	3511.08
210.818	3571.97
210.892	3621.21
210.966	3644.79
211.041	3697.55
211.115	3729.88
211.189	3797.95
211.263	3856.47
211.337	3906.3
211.411	3972.64
211.485	4015.25
211.559	4081.24
211.633	4138.14
211.707	4166.56
211.781	4236.48
211.855	4266.42
211.929	4323.98
212.003	4377.96
212.077	4460.99
212.151	4552.03
212.225	4641.11
212.299	4715.56
212.373	4790.95
212.447	4873.67
212.52	4997.56
212.594	5098.56
212.668	5213.43
212.742	5298.59
212.816	5398.82
212.89	5503.78
212.964	5615.93
213.038	5738.25
213.112	5872.54
213.186	6012.35
213.26	6117.1
213.333	6199.41
213.407	6341.92
213.481	6480.13
213.555	6628.85
213.629	6755.47
213.703	6882.15
213.777	7027.31
213.85	7154.91
213.924	7346.23
213.998	7506.65
214.072	7657.17
214.146	7800.99
214.219	7963.61
214.293	8126.45
214.367	8297.67
214.441	8473.27
214.515	8622.79
214.588	8764.29
214.662	8891.3
214.736	9038.93
214.81	9219.27
214.883	9405.26
214.957	9559.71
215.031	9716.96
215.105	9869.41
215.178	10030.66
215.252	10192.4
215.326	10336.34
215.4	10485.96
215.473	10601.22
215.547	10753.77
215.621	10912.56
215.694	11089.55
215.768	11232.15
215.842	11387.37
215.915	11535.34
215.989	11677.03
216.063	11838.98
216.136	12010.08
216.21	12184.22
216.284	12365.45
216.357	12527.41
216.431	12684.6
216.504	12860.88
216.578	13051.28
216.652	13228.18
216.725	13391.26
216.799	13563.16
216.873	13725.46
216.946	13891.19
217.02	14044.68
217.093	14195.03
217.167	14328.41
217.24	14462.37
217.314	14609.68
217.387	14748.61
217.461	14883.24
217.535	15040.05
217.608	15175.25
217.682	15311.81
217.755	15465.86
217.829	15586.07
217.902	15721.47
217.976	15851.95
218.049	15971.58
218.123	16083.98
218.196	16217.15
218.27	16337.45
218.343	16442.71
218.417	16568.27
218.49	16684.03
218.563	16813.54
218.637	16932.39
218.71	17059.19
218.784	17189.5
218.857	17311.05
218.931	17432.5
219.004	17551.05
219.077	17664.98
219.151	17767.2
219.224	17872.01
219.298	17965.51
219.371	18084.15
219.444	18168.97
219.518	18271.38
219.591	18369.88
219.665	18502.26
219.738	18592.52
219.811	18670.73
219.885	18774.87
219.958	18874.87
220.031	18965.08
220.105	19056.3
220.178	19150.22
220.251	19236.34
220.325	19321.88
220.398	19404.33
220.471	19483.6
220.544	19571.12
220.618	19635.02
220.691	19711.21
220.764	19779.06
220.838	19852.55
220.911	19908.89
220.984	20007.97
221.057	20077.12
221.131	20143.62
221.204	20170.56
221.277	20250.23
221.35	20354.95
221.424	20409.55
221.497	20463.05
221.57	20521.89
221.643	20581.12
221.716	20633.07
221.79	20670.71
221.863	20700.88
221.936	20743.48
222.009	20782.71
222.082	20826.43
222.155	20857.46
222.229	20914.57
222.302	20958.09
222.375	20999.59
222.448	21041.81
222.521	21064.46
222.594	21092.27
222.667	21111.4
222.74	21150.06
222.814	21176.23
222.887	21189.82
222.96	21238.21
223.033	21280.29
223.106	21310.94
223.179	21348.54
223.252	21386.91
223.325	21415.3
223.398	21451.64
223.471	21480.9
223.544	21506.39
223.617	21523.45
223.69	21554.06
223.763	21563.65
223.837	21585.73
223.91	21604.72
223.983	21608.81
224.056	21612.28
224.129	21628.38
224.202	21655.42
224.275	21658.7
224.348	21648.19
224.42	21644.63
224.493	21622.74
224.566	21608.09
224.639	21614.26
224.712	21604.42
224.785	21586.3
224.858	21587.41
224.931	21581.34
225.004	21570.11
225.077	21581.29
225.15	21558.87
225.223	21555.26
225.296	21570.68
225.369	21551.12
225.442	21544.99
225.514	21539.69
225.587	21548.13
225.66	21562.93
225.733	21569.14
225.806	21571.75
225.879	21578.06
225.952	21569.19
226.025	21584.9
226.097	21605.73
226.17	21605.29
226.243	21587.8
226.316	21578.25
226.389	21578.11
226.461	21574.3
226.534	21576.33
226.607	21563.12
226.68	21585
226.753	21583.46
226.825	21561.72
226.898	21575.65
226.971	21564.47
227.044	21575.55
227.117	21567.21
227.189	21559.41
227.262	21550.78
227.335	21544.37
227.407	21522.49
227.48	21515.45
227.553	21498.24
227.626	21475.68
227.698	21464.26
227.771	21456.26
227.844	21441.51
227.916	21426.81
227.989	21401.75
228.062	21385.65
228.134	21401.89
228.207	21381.89
228.28	21355.48
228.352	21337.79
228.425	21321.11
228.498	21313.11
228.57	21283.37
228.643	21281.97
228.716	21262.89
228.788	21242.31
228.861	21220.47
228.934	21218.93
229.006	21204.47
229.079	21188.86
229.151	21166.4
229.224	21124.42
229.296	21114.3
229.369	21127.5
229.442	21128.03
229.514	21104.61
229.587	21100.46
229.659	21056.32
229.732	21036.31
229.804	21037.08
229.877	21047.98
229.949	21042.39
230.022	21042.19
230.094	21032.36
230.167	21012.94
230.239	20976.02
230.312	20964.6
230.384	20977.85
230.457	20968.55
230.529	20950.43
230.602	20938.43
230.674	20926.09
230.747	20942.09
230.819	20938.38
230.892	20884.98
230.964	20857.36
231.037	20843.48
231.109	20814.09
231.181	20802.33
231.254	20777.6
231.326	20762.09
231.399	20725.36
231.471	20698.66
231.544	20654.47
231.616	20640.54
231.688	20623.38
231.761	20600.01
231.833	20563.43
231.905	20502.66
231.978	20476.15
232.05	20456.68
232.122	20428.92
232.195	20402.03
232.267	20378.7
232.339	20344.58
232.412	20340.2
232.484	20313.59
232.556	20286.94
232.629	20289.02
232.701	20272.92
232.773	20252.68
232.846	20220.29
232.918	20203.86
232.99	20180.54
233.062	20173.79
233.135	20153.11
233.207	20108.3
233.279	20095.67
233.351	20093.89
233.424	20078.9
233.496	20039.72
233.568	20028.83
233.64	19986.33
233.713	19959.68
233.785	19926.86
233.857	19904.4
233.929	19863.92
234.001	19865.9
234.074	19856.64
234.146	19807.39
234.218	19777.71
234.29	19755.2
234.362	19726.14
234.434	19689.61
234.507	19643.11
234.579	19594.68
234.651	19554.54
234.723	19541.91
234.795	19512.08
234.867	19460.52
234.939	19441.53
235.012	19420.04
235.084	19397.1
235.156	19388.14
235.228	19351.8
235.3	19324.24
235.372	19296.09
235.444	19280.43
235.516	19225.3
235.588	19198.27
235.66	19171.04
235.732	19130.9
235.804	19156.05
235.876	19137.5
235.948	19116.25
236.02	19099.87
236.092	19069.94
236.164	19050.33
236.236	19015.2
236.308	18990.86
236.38	18972.4
236.452	18929.47
236.524	18905.27
236.596	18886.43
236.668	18857.9
236.74	18830.97
236.812	18804.75
236.884	18784.85
236.956	18753
237.028	18713.86
237.1	18674.25
237.172	18659.75
237.244	18651.84
237.316	18583.56
237.388	18533.92
237.46	18493.83
237.532	18479.03
237.604	18445.25
237.675	18426.22
237.747	18402.03
237.819	18358.27
237.891	18329.31
237.963	18300.97
238.035	18258.9
238.107	18190.52
238.178	18179
238.25	18149.36
238.322	18143
238.394	18094.76
238.466	18057.32
238.538	18034.62
238.609	18012.02
238.681	17962.29
238.753	17918.67
238.825	17885.23
238.897	17867.3
238.968	17851.54
239.04	17807.54
239.112	17800.94
239.184	17756.03
239.255	17718.39
239.327	17697.86
239.399	17668.46
239.471	17641.86
239.542	17621.04
239.614	17614.1
239.686	17551.16
239.758	17526.92
239.829	17479.16
239.901	17453.67
239.973	17427.55
240.044	17395.02
240.116	17366.97
240.188	17336.8
240.259	17302.73
240.331	17273.04
240.403	17249.04
240.474	17206.87
240.546	17165.91
240.618	17119.84
240.689	17091.74
240.761	17064.51
240.833	17050.87
240.904	17015.45
240.976	16986
241.048	16960.55
241.119	16934.96
241.191	16913.61
241.262	16898.33
241.334	16865.95
241.405	16837.56
241.477	16799.87
241.549	16769.07
241.62	16744.06
241.692	16720.98
241.763	16703.48
241.835	16667.86
241.906	16638.46
241.978	16593.16
242.049	16579.62
242.121	16552.05
242.192	16527.85
242.264	16482.16
242.335	16427.89
242.407	16400.37
242.478	16362.39
242.55	16326.92
242.621	16286
242.693	16255.35
242.764	16222.48
242.836	16190.57
242.907	16164.93
242.979	16151.05
243.05	16121.84
243.122	16096.1
243.193	16060.24
243.264	16006.11
243.336	15975.51
243.407	15954.69
243.479	15942.69
243.55	15910.83
243.622	15888.22
243.693	15852.55
243.764	15843.59
243.836	15803.87
243.907	15771.24
243.978	15746.22
244.05	15728.34
244.121	15680.86
244.192	15655.7
244.264	15603.69
244.335	15566.72
244.407	15519.63
244.478	15490.71
244.549	15469.65
244.62	15419.81
244.692	15392.43
244.763	15370.54
244.834	15327.6
244.906	15284.7
244.977	15266.53
245.048	15250.86
245.119	15216.54
245.191	15185.98
245.262	15124.14
245.333	15115.02
245.405	15087.31
245.476	15062.34
245.547	15031.44
245.618	15017.7
245.689	14989.26
245.761	14969.31
245.832	14944.63
245.903	14929.11
245.974	14901.63
246.045	14867.4
246.117	14858.29
246.188	14820.69
246.259	14791.34
246.33	14765.4
246.401	14742.36
246.473	14691.36
246.544	14655.45
246.615	14632.94
246.686	14599.44
246.757	14596.69
246.828	14562.66
246.899	14555.86
246.97	14509.54
247.042	14471.98
247.113	14453.57
247.184	14447.74
247.255	14423.54
247.326	14401.12
247.397	14367.38
247.468	14342.6
247.539	14319.08
247.61	14278.44
247.681	14260.65
247.752	14240.36
247.823	14206.52
247.894	14177.88
247.965	14145.01
248.037	14114.68
248.108	14074.87
248.179	14045.17
248.25	14015.72
248.321	13993.16
248.392	13949.24
248.463	13943.84
248.534	13915.98
248.605	13888.93
248.675	13854.32
248.746	13823.42
248.817	13798.69
248.888	13783.36
248.959	13740.03
249.03	13718.91
249.101	13692.11
249.172	13658.6
249.243	13611.31
249.314	13602.2
249.385	13575.3
249.456	13556.89
249.527	13535.58
249.598	13517.26
249.669	13487.37
249.739	13472.14
249.81	13455.94
249.881	13418.54
249.952	13402.77
250.023	13385.85
250.094	13346.23
250.165	13314.75
250.235	13289.39
250.306	13268.42
250.377	13229.42
250.448	13212.69
250.519	13169.45
250.59	13165.16
250.66	13141.25
250.731	13147.13
250.802	13128.77
250.873	13110.74
250.944	13093.09
251.014	13063.4
251.085	13062.87
251.156	13053.85
251.227	13048.17
251.297	13041.03
251.368	13035.34
251.439	13026.71
251.51	13013.17
251.58	12988.1
251.651	12955.37
251.722	12947.51
251.792	12907.89
251.863	12883.59
251.934	12878.91
252.005	12885.37
252.075	12859.49
252.146	12849.7
252.217	12835.58
252.287	12824.39
252.358	12802.27
252.429	12803.91
252.499	12775.37
252.57	12758.45
252.641	12750.83
252.711	12719.35
252.782	12676.69
252.852	12672.06
252.923	12638.71
252.994	12626.99
253.064	12613.59
253.135	12583.51
253.205	12558.98
253.276	12566.4
253.347	12570.98
253.417	12541.43
253.488	12519.21
253.558	12493.23
253.629	12479.39
253.699	12459.92
253.77	12442.9
253.841	12418.51
253.911	12393.44
253.982	12376.28
254.052	12368.43
254.123	12341.58
254.193	12327.93
254.264	12351.65
254.334	12326.05
254.405	12297.18
254.475	12258.33
254.546	12241.65
254.616	12244.54
254.687	12231.91
254.757	12205.45
254.827	12180.92
254.898	12164.72
254.968	12143.8
255.039	12118.35
255.109	12100.13
255.18	12070.77
255.25	12026.57
255.321	12019.97
255.391	11990.23
255.461	11992.4
255.532	11935.57
255.602	11916.63
255.673	11877.39
255.743	11842.01
255.813	11797.86
255.884	11791.35
255.954	11782.48
256.024	11784.6
256.095	11768.6
256.165	11737.66
256.235	11724.4
256.306	11704.35
256.376	11701.51
256.446	11694.18
256.517	11688.45
256.587	11685.46
256.657	11668.16
256.728	11659.38
256.798	11642.37
256.868	11616.54
256.938	11590.61
257.009	11589.3
257.079	11580.53
257.149	11586.22
257.219	11548.82
257.29	11542.07
257.36	11501.01
257.43	11498.41
257.5	11455.27
257.571	11432.18
257.641	11421
257.711	11394.21
257.781	11379.17
257.852	11364.71
257.922	11322.97
257.992	11299.41
258.062	11282.2
258.132	11274.3
258.202	11250.2
258.273	11228.66
258.343	11234.59
258.413	11214.06
258.483	11197.67
258.553	11165.67
258.623	11141.67
258.693	11135.26
258.764	11132.18
258.834	11135.98
258.904	11111.26
258.974	11089.57
259.044	11070.54
259.114	11058.68
259.184	11043.84
259.254	11022.01
259.324	10981.63
259.394	10975.89
259.464	10982.3
259.535	10961.15
259.605	10943.75
259.675	10922.45
259.745	10918.35
259.815	10889.39
259.885	10868.53
259.955	10879.37
260.025	10857.26
260.095	10840.77
260.165	10823.72
260.235	10827.67
260.305	10804.01
260.375	10779.48
260.445	10785.5
260.515	10787.33
260.585	10784.54
260.655	10767.63
260.725	10766.52
260.795	10756.16
260.865	10756.06
260.934	10727.68
261.004	10717.51
261.074	10697.32
261.144	10703.54
261.214	10693.61
261.284	10673.28
261.354	10667.16
261.424	10639.02
261.494	10648.56
261.564	10631.31
261.634	10627.84
261.703	10582.93
261.773	10574.5
261.843	10570.69
261.913	10554.94
261.983	10519.52
262.053	10512.25
262.123	10499.09
262.192	10469.22
262.262	10470.81
