Data from 20250704_urea_1M_MAYP1162681_11-32-27-655.txt Node
Date: Fri Jul 04 11:32:27 BST 2025
User: adleo
Spectrometer: MAYP116268
Trigger mode: 0
Integration Time (sec): 1.000000E0
Scans to average: 1
Electric dark correction enabled: true
Nonlinearity correction enabled: true
Boxcar width: 10
XAxis mode: Wavelengths
Number of Pixels in Spectrum: 2068
>>>>>Begin Spectral Data<<<<<
179.565	1251.89
179.642	1315.02
179.718	1357.23
179.795	1395.05
179.871	1429.22
179.948	1449.7
180.024	1472.77
180.101	1494.38
180.177	1507.62
180.254	1532.91
180.33	1553.99
180.407	1611.25
180.483	1709.4
180.56	1805.1
180.636	1893.98
180.712	1880.61
180.789	1891.69
180.865	1901.57
180.942	1907.13
181.018	1918.88
181.095	1931.86
181.171	1938.8
181.248	1934.43
181.324	1951.69
181.4	1960.49
181.477	1970.76
181.553	1984.69
181.63	2007.28
181.706	2024.16
181.782	2034.76
181.859	2032.34
181.935	2041.85
182.011	2038.33
182.088	2057.12
182.164	2074.63
182.24	2087.75
182.317	2095.27
182.393	2090.84
182.469	2108.16
182.546	2125.09
182.622	2129.13
182.698	2125.75
182.775	2137.79
182.851	2153.58
182.927	2145.3
183.003	2141.55
183.08	2136.89
183.156	2142.83
183.232	2136.88
183.308	2121.81
183.385	2128.56
183.461	2146.3
183.537	2146.11
183.613	2158.72
183.69	2149.2
183.766	2137.93
183.842	2147.39
183.918	2153.48
183.995	2170.75
184.071	2175.51
184.147	2166.23
184.223	2157.39
184.299	2169.57
184.375	2158.44
184.452	2166.91
184.528	2219.4
184.604	2230.77
184.68	2244.56
184.756	2254.84
184.832	2259.36
184.908	2268.02
184.985	2270.01
185.061	2255.55
185.137	2264.69
185.213	2254.94
185.289	2256.27
185.365	2251.94
185.441	2247.37
185.517	2260.74
185.593	2255.08
185.669	2251.94
185.745	2262.69
185.822	2279.29
185.898	2269.87
185.974	2280.1
186.05	2272.34
186.126	2236.75
186.202	2231.51
186.278	2226.14
186.354	2217.57
186.43	2226.14
186.506	2224.76
186.582	2223.85
186.658	2229.09
186.734	2207.16
186.81	2208.63
186.886	2212.06
186.962	2220.95
187.038	2218.43
187.114	2210
187.19	2219.9
187.266	2207.73
187.341	2208.25
187.417	2200.16
187.493	2204.25
187.569	2206.44
187.645	2199.64
187.721	2188.93
187.797	2194.45
187.873	2199.54
187.949	2192.07
188.025	2184.22
188.101	2189.64
188.176	2196.49
188.252	2193.5
188.328	2202.05
188.404	2205.29
188.48	2199.15
188.556	2194.63
188.632	2191.97
188.707	2194.11
188.783	2188.87
188.859	2184.69
188.935	2174.65
189.011	2180.88
189.086	2172.13
189.162	2163.52
189.238	2162.28
189.314	2157.81
189.39	2152.1
189.465	2144.63
189.541	2160.38
189.617	2144.68
189.693	2138.21
189.768	2140.45
189.844	2164.96
189.92	2157.31
189.996	2164.35
190.071	2176.34
190.147	2173.39
190.223	2182.71
190.298	2175.72
190.374	2163.44
190.45	2179.33
190.526	2190.27
190.601	2186.23
190.677	2188.28
190.753	2215.79
190.828	2216.5
190.904	2232.16
190.98	2246.48
191.055	2256.05
191.131	2249
191.207	2271.13
191.282	2282.59
191.358	2271.41
191.433	2256.27
191.509	2268.49
191.585	2264.78
191.66	2267.21
191.736	2275.3
191.811	2268.3
191.887	2281.54
191.963	2306.57
192.038	2309.28
192.114	2306.47
192.189	2309.8
192.265	2306.9
192.34	2283.67
192.416	2283.81
192.491	2279.53
192.567	2280.05
192.642	2283.81
192.718	2279.96
192.793	2264.35
192.869	2259.07
192.944	2263.92
193.02	2272.35
193.095	2279.53
193.171	2284.29
193.246	2281.43
193.322	2279.53
193.397	2280.15
193.473	2266.54
193.548	2244.83
193.624	2250.5
193.699	2251.54
193.775	2270.3
193.85	2269.63
193.925	2278.87
194.001	2279.01
194.076	2271.78
194.152	2263.35
194.227	2253.31
194.302	2245.89
194.378	2248.41
194.453	2242.23
194.529	2251.46
194.604	2236.33
194.679	2227.95
194.755	2213.11
194.83	2225.63
194.905	2223.11
194.981	2229.25
195.056	2223.49
195.131	2229.87
195.207	2230.96
195.282	2221.54
195.357	2199.97
195.433	2218.01
195.508	2208.49
195.583	2216.77
195.659	2232.81
195.734	2241.81
195.809	2242.09
195.884	2250.75
195.96	2255.46
196.035	2273.78
196.11	2270.16
196.185	2282.39
196.261	2283.96
196.336	2311.37
196.411	2297.85
196.486	2303.28
196.561	2300.9
196.637	2307.7
196.712	2324.31
196.787	2327.55
196.862	2344.07
196.937	2357.11
197.013	2361.01
197.088	2370.2
197.163	2394.53
197.238	2413.68
197.313	2412.92
197.388	2427.54
197.464	2460.44
197.539	2469.91
197.614	2463.54
197.689	2478.49
197.764	2495.49
197.839	2519.91
197.914	2514.39
197.989	2536.39
198.065	2551.96
198.14	2598.65
198.215	2628.08
198.29	2640.28
198.365	2648.85
198.44	2655.71
198.515	2682.54
198.59	2700.5
198.665	2727.03
198.74	2732.7
198.815	2730.37
198.89	2752.57
198.965	2782.35
199.04	2780.64
199.115	2795.88
199.19	2840.05
199.265	2842
199.34	2849.2
199.415	2881.24
199.49	2903.01
199.565	2914.55
199.64	2938.76
199.715	2939.53
199.79	2946.87
199.865	2954.83
199.94	2959.02
200.015	2991.87
200.09	2996.87
200.165	3004.41
200.24	3012.7
200.315	3055.75
200.39	3070.34
200.464	3074.01
200.539	3078.45
200.614	3091.75
200.689	3120.22
200.764	3127.42
200.839	3143.44
200.914	3151.69
200.989	3142.43
201.063	3154.73
201.138	3135.48
201.213	3134.53
201.288	3111.88
201.363	3116.65
201.438	3116.41
201.512	3130.61
201.587	3115.3
201.662	3119.55
201.737	3130.76
201.812	3138.39
201.886	3102.54
201.961	3112.56
202.036	3101.41
202.111	3095.45
202.186	3065.9
202.26	3045.06
202.335	3022.16
202.41	3015.25
202.485	2996.04
202.559	2975.73
202.634	2949.85
202.709	2959.28
202.784	2941.83
202.858	2945.22
202.933	2927.15
203.008	2924.58
203.082	2904.75
203.157	2903.03
203.232	2859.29
203.306	2837.03
203.381	2807.09
203.456	2782.88
203.53	2760.79
203.605	2742.79
203.68	2719.77
203.754	2712.25
203.829	2698.57
203.904	2678.23
203.978	2670.41
204.053	2674.94
204.127	2663.41
204.202	2663.03
204.277	2646.46
204.351	2640.41
204.426	2631.35
204.5	2623.4
204.575	2583.82
204.65	2593.78
204.724	2586.78
204.799	2593.63
204.873	2589.58
204.948	2583.44
205.022	2569.11
205.097	2559.43
205.171	2575.58
205.246	2583.44
205.32	2583.01
205.395	2578.96
205.469	2569.82
205.544	2575.83
205.618	2558.44
205.693	2568.68
205.767	2556.82
205.842	2578.17
205.916	2572.21
205.991	2563.59
206.065	2568.21
206.14	2586.44
206.214	2578.29
206.289	2571
206.363	2585.91
206.438	2589.58
206.512	2597.72
206.586	2622.96
206.661	2633.59
206.735	2610.93
206.81	2612.64
206.884	2627.26
206.958	2618.59
207.033	2634.35
207.107	2639.17
207.181	2672.71
207.256	2667.8
207.33	2687.52
207.405	2697.96
207.479	2715.45
207.553	2722.83
207.628	2708.07
207.702	2716.93
207.776	2717.6
207.851	2721.55
207.925	2735.47
207.999	2732.04
208.073	2733.51
208.148	2732.51
208.222	2717.6
208.296	2751.51
208.371	2767.05
208.445	2781.3
208.519	2809.26
208.593	2823.75
208.668	2822.27
208.742	2825.18
208.816	2828.42
208.89	2844.54
208.965	2849.69
209.039	2860.65
209.113	2884.87
209.187	2907.06
209.261	2906.68
209.336	2929.66
209.41	2952.49
209.484	2956.69
209.558	2982.91
209.632	3000.07
209.707	3019.34
209.781	3052.99
209.855	3076.85
209.929	3106.3
210.003	3123.32
210.077	3133.29
210.151	3191.44
210.226	3241.74
210.3	3288.01
210.374	3327.5
210.448	3351.84
210.522	3378.81
210.596	3410.51
210.67	3439.53
210.744	3513.54
210.818	3574.09
210.892	3625.72
210.966	3652.31
211.041	3705.08
211.115	3739.27
211.189	3803.8
211.263	3866.34
211.337	3911.86
211.411	3971.52
211.485	4008.52
211.559	4073.08
211.633	4132.37
211.707	4161.02
211.781	4228.12
211.855	4253.28
211.929	4310.5
212.003	4356.88
212.077	4440.91
212.151	4529.46
212.225	4617.14
212.299	4693.45
212.373	4772.87
212.447	4852.43
212.52	4975.76
212.594	5072.25
212.668	5184.87
212.742	5272.18
212.816	5372.37
212.89	5484.33
212.964	5600.65
213.038	5724.05
213.112	5853.1
213.186	5994.3
213.26	6100.44
213.333	6177.17
213.407	6311.12
213.481	6449.99
213.555	6603.6
213.629	6732.71
213.703	6863.04
213.777	7016.96
213.85	7141.81
213.924	7327.6
213.998	7482.63
214.072	7635.66
214.146	7780.15
214.219	7939.15
214.293	8101.46
214.367	8265.51
214.441	8434.43
214.515	8585.4
214.588	8729.87
214.662	8870.99
214.736	9017.17
214.81	9194.23
214.883	9380.73
214.957	9544.13
215.031	9708.12
215.105	9862.97
215.178	10022.78
215.252	10188.48
215.326	10328.67
215.4	10482
215.473	10606.65
215.547	10758.57
215.621	10915.67
215.694	11099.41
215.768	11246.54
215.842	11406.82
215.915	11562.88
215.989	11711.57
216.063	11870.52
216.136	12040.18
216.21	12203.38
216.284	12385.05
216.357	12549.37
216.431	12711.37
216.504	12883.6
216.578	13069.14
216.652	13236.16
216.725	13392.83
216.799	13558.89
216.873	13725.63
216.946	13895.26
217.02	14042.53
217.093	14196.83
217.167	14321.98
217.24	14452.85
217.314	14592.64
217.387	14728.48
217.461	14866.92
217.535	15012.74
217.608	15144.53
217.682	15285.28
217.755	15436.48
217.829	15555.88
217.902	15686.26
217.976	15816.59
218.049	15937.77
218.123	16049.93
218.196	16183.92
218.27	16304.56
218.343	16408.62
218.417	16530.75
218.49	16642.42
218.563	16777.27
218.637	16899.54
218.71	17040.7
218.784	17158.68
218.857	17289
218.931	17404.52
219.004	17517
219.077	17639.7
219.151	17749.63
219.224	17848.09
219.298	17947.22
219.371	18065.96
219.444	18155.45
219.518	18255.4
219.591	18349.57
219.665	18467.87
219.738	18560.01
219.811	18647.24
219.885	18749.11
219.958	18837.78
220.031	18921.44
220.105	19008.23
220.178	19091.89
220.251	19163.16
220.325	19252.51
220.398	19332.41
220.471	19415.68
220.544	19497.94
220.618	19563.43
220.691	19642.56
220.764	19712.53
220.838	19788.05
220.911	19847.18
220.984	19938.11
221.057	20010.4
221.131	20081.67
221.204	20112.13
221.277	20188.03
221.35	20276.76
221.424	20335.41
221.497	20402.88
221.57	20459.55
221.643	20512.71
221.716	20571.89
221.79	20620.56
221.863	20666.01
221.936	20708.23
222.009	20748.61
222.082	20785.19
222.155	20822.21
222.229	20875.61
222.302	20926.84
222.375	20955.32
222.448	21001.16
222.521	21036.58
222.594	21065.88
222.667	21101.11
222.74	21154.9
222.814	21185.89
222.887	21207.24
222.96	21241.61
223.033	21274.05
223.106	21309.13
223.179	21355.36
223.252	21387.03
223.325	21407.56
223.398	21433.63
223.471	21459.56
223.544	21486.51
223.617	21509.93
223.69	21537.5
223.763	21539.38
223.837	21562.71
223.91	21586.86
223.983	21580.93
224.056	21585.51
224.129	21607
224.202	21622.38
224.275	21623.44
224.348	21616.02
224.42	21619.83
224.493	21612.31
224.566	21610.47
224.639	21615.63
224.712	21599.34
224.785	21592.69
224.858	21601.89
224.931	21604.16
225.004	21599.58
225.077	21596.54
225.15	21580.25
225.223	21572.35
225.296	21599.92
225.369	21576.35
225.442	21568.54
225.514	21569.31
225.587	21569.7
225.66	21567.87
225.733	21574.23
225.806	21570.32
225.879	21574.81
225.952	21561.7
226.025	21575.63
226.097	21592.35
226.17	21602.81
226.243	21575.24
226.316	21568.3
226.389	21566.95
226.461	21550.71
226.534	21545.36
226.607	21540.25
226.68	21559.92
226.753	21563.34
226.825	21527.33
226.898	21543.67
226.971	21534.32
227.044	21530.61
227.117	21521.88
227.189	21511.14
227.262	21511.23
227.335	21508.39
227.407	21493.88
227.48	21486.12
227.553	21473.25
227.626	21454.16
227.698	21437.39
227.771	21433.77
227.844	21408.86
227.916	21398.4
227.989	21382.68
228.062	21363.02
228.134	21373
228.207	21353.72
228.28	21331.45
228.352	21327.45
228.425	21307.69
228.498	21302.96
228.57	21280.99
228.643	21279.25
228.716	21267.3
228.788	21241.8
228.861	21224.69
228.934	21221.89
229.006	21218.14
229.079	21200.4
229.151	21165.7
229.224	21125.45
229.296	21122.08
229.369	21139.96
229.442	21130.66
229.514	21104.1
229.587	21106.9
229.659	21064.68
229.732	21053.11
229.804	21038.31
229.877	21035.28
229.949	21026.99
230.022	21031.9
230.094	21028.14
230.167	21015.18
230.239	20986.36
230.312	20969.97
230.384	20972.72
230.457	20944.91
230.529	20922.55
230.602	20901.97
230.674	20886.11
230.747	20889.49
230.819	20883.03
230.892	20829.05
230.964	20803.75
231.037	20804.33
231.109	20787.51
231.181	20783.7
231.254	20753.63
231.326	20742.64
231.399	20725.33
231.471	20695.79
231.544	20646.29
231.616	20630.39
231.688	20610.05
231.761	20583.6
231.833	20548.46
231.905	20505.18
231.978	20489.47
232.05	20459.35
232.122	20445.52
232.195	20421.52
232.267	20407.21
232.339	20381.23
232.412	20384.03
232.484	20368.12
232.556	20328.22
232.629	20330.2
232.701	20313.96
232.773	20293.04
232.846	20252.56
232.918	20231.31
232.99	20211.93
233.062	20196.37
233.135	20186.34
233.207	20150.78
233.279	20140.08
233.351	20125.67
233.424	20093
233.496	20057.87
233.568	20052.66
233.64	20009.67
233.713	19990.69
233.785	19965.29
233.857	19941.15
233.929	19887.56
234.001	19875.22
234.074	19876.38
234.146	19814.45
234.218	19781.83
234.29	19752.96
234.362	19724.48
234.434	19662.17
234.507	19620.87
234.579	19573.84
234.651	19523.24
234.723	19510.03
234.795	19483.96
234.867	19456.69
234.939	19451.87
235.012	19431.48
235.084	19411.2
235.156	19392.21
235.228	19357.75
235.3	19317.56
235.372	19282.48
235.444	19277.18
235.516	19225.13
235.588	19195.02
235.66	19172.17
235.732	19134.97
235.804	19167.16
235.876	19151.74
235.948	19148.18
236.02	19120.66
236.092	19102.93
236.164	19079.17
236.236	19030.98
236.308	18998.16
236.38	18964.96
236.452	18920
236.524	18894.84
236.596	18879.52
236.668	18861.59
236.74	18831.14
236.812	18806.61
236.884	18786.08
236.956	18756.44
237.028	18719.33
237.1	18665.55
237.172	18656.45
237.244	18641.65
237.316	18570.62
237.388	18532.36
237.46	18494
237.532	18477.08
237.604	18441.42
237.675	18422.1
237.747	18407.16
237.819	18368.51
237.891	18341.33
237.963	18307.55
238.035	18269.48
238.107	18196.95
238.178	18169.29
238.25	18127.08
238.322	18120.38
238.394	18067.51
238.466	18034.02
238.538	18011.61
238.609	17998.74
238.681	17942.84
238.753	17908.87
238.825	17874.6
238.897	17850.17
238.968	17844.77
239.04	17806.56
239.112	17800.29
239.184	17757.98
239.255	17722.75
239.327	17701.35
239.399	17673.84
239.471	17650.9
239.542	17630.42
239.614	17622.32
239.686	17574.51
239.758	17563.57
239.829	17525.69
239.901	17513.31
239.973	17482.22
240.044	17454.71
240.116	17422.13
240.188	17389.6
240.259	17355.24
240.331	17316.78
240.403	17302.32
240.474	17254.13
240.546	17218.37
240.618	17170.13
240.689	17137.21
240.761	17106.03
240.833	17092.53
240.904	17048.48
240.976	17004.92
241.048	16973.35
241.119	16952.19
241.191	16925.44
241.262	16914.5
241.334	16873.68
241.405	16841.34
241.477	16802.84
241.549	16769.87
241.62	16735.51
241.692	16719.65
241.763	16692.95
241.835	16661.14
241.906	16621.62
241.978	16566.96
242.049	16550.29
242.121	16521.85
242.192	16502.57
242.264	16457.17
242.335	16403
242.407	16392.64
242.478	16369.79
242.55	16334.08
242.621	16283.13
242.693	16250.45
242.764	16203.32
242.836	16166.59
242.907	16140.32
242.979	16117.62
243.05	16097.86
243.122	16080.08
243.193	16040.65
243.264	15994.43
243.336	15968.98
243.407	15945.6
243.479	15939.48
243.55	15916.44
243.622	15901.64
243.693	15868.48
243.764	15856
243.836	15820.33
243.907	15780.81
243.978	15743.84
244.05	15720.27
244.121	15673.37
244.192	15648.45
244.264	15607.77
244.335	15582.17
244.407	15535.08
244.478	15505.39
244.549	15462.01
244.62	15407.68
244.692	15370.33
244.763	15348.49
244.834	15315.38
244.906	15276
244.977	15246.64
245.048	15225.96
245.119	15183.64
245.191	15143.73
245.262	15090.03
245.333	15078.61
245.405	15054.41
245.476	15033.49
245.547	15013.82
245.618	15003.12
245.689	14979.12
245.761	14950.68
245.832	14912.5
245.903	14893.22
245.974	14867.04
246.045	14842.89
246.117	14839.23
246.188	14806.59
246.259	14765.04
246.33	14733.03
246.401	14697.94
246.473	14654.46
246.544	14617.25
246.615	14596.14
246.686	14565.91
246.757	14558.44
246.828	14515.83
246.899	14506.33
246.97	14464.39
247.042	14415.99
247.113	14399.17
247.184	14393
247.255	14363.98
247.326	14351.25
247.397	14331.34
247.468	14305.36
247.539	14283.91
247.61	14248.43
247.681	14231.75
247.752	14226.4
247.823	14190.68
247.894	14163.73
247.965	14132.16
248.037	14097.45
248.108	14055.03
248.179	14034.11
248.25	13999.88
248.321	13983.97
248.392	13936.35
248.463	13939.96
248.534	13920.82
248.605	13899.8
248.675	13869.53
248.746	13853.53
248.817	13828.85
248.888	13804.5
248.959	13767.67
249.03	13740.15
249.101	13711.03
249.172	13681.04
249.243	13630.96
249.314	13626.52
249.385	13606.08
249.456	13590.95
249.527	13566.51
249.598	13553.1
249.669	13528.13
249.739	13511.45
249.81	13491.98
249.881	13460.55
249.952	13423.33
250.023	13397.01
250.094	13354.25
250.165	13316.94
250.235	13293.17
250.306	13270.03
250.377	13237.64
250.448	13220
250.519	13184.03
250.59	13177.62
250.66	13151.5
250.731	13157.09
250.802	13126.86
250.873	13111.39
250.944	13085.89
251.014	13058.89
251.085	13048.82
251.156	13034.84
251.227	13028.18
251.297	13019.75
251.368	13005.86
251.439	12997.04
251.51	12992.7
251.58	12957.66
251.651	12929.27
251.722	12915.77
251.792	12877.06
251.863	12849.92
251.934	12843.94
252.005	12851.32
252.075	12827.45
252.146	12824.56
252.217	12810.97
252.287	12802.68
252.358	12779.49
252.429	12774.43
252.499	12747.24
252.57	12736.2
252.641	12722.66
252.711	12703.18
252.782	12664.91
252.852	12672.62
252.923	12652.42
252.994	12628.08
253.064	12628.7
253.135	12601.42
253.205	12577.75
253.276	12584.02
253.347	12581.99
253.417	12538.71
253.488	12509.74
253.558	12486.6
253.629	12456.57
253.699	12437.38
253.77	12421.23
253.841	12396.7
253.911	12391.78
253.982	12374.28
254.052	12362.47
254.123	12344.93
254.193	12319.76
254.264	12342.03
254.334	12301.88
254.405	12269.01
254.475	12242.83
254.546	12214.59
254.616	12214.59
254.687	12199.88
254.757	12174.53
254.827	12156.93
254.898	12152.55
254.968	12125.94
255.039	12103.62
255.109	12101.65
255.18	12071.04
255.25	12032.24
255.321	12029.63
255.391	11998.4
255.461	12001.97
255.532	11952.56
255.602	11923.98
255.673	11880.79
255.743	11849.99
255.813	11803.14
255.884	11801.31
255.954	11794.46
256.024	11801.69
256.095	11786.65
256.165	11754.75
256.235	11749.2
256.306	11718.02
256.376	11712.04
256.446	11711.22
256.517	11695.7
256.587	11682.83
256.657	11663.51
256.728	11648.42
256.798	11626.59
256.868	11603.69
256.938	11577.86
257.009	11574.73
257.079	11574.15
257.149	11587.55
257.219	11543.73
257.29	11537.28
257.36	11503.06
257.43	11489.18
257.5	11446.72
257.571	11414.23
257.641	11411.48
257.711	11380.83
257.781	11373.99
257.852	11361.6
257.922	11319.67
257.992	11303.57
258.062	11286.46
258.132	11280.49
258.202	11264.25
258.273	11248.97
258.343	11248.1
258.413	11222.85
258.483	11205.21
258.553	11173.98
258.623	11150.46
258.693	11134.46
258.764	11136.63
258.834	11129.55
258.904	11114.22
258.974	11087.09
259.044	11072.4
259.114	11054.37
259.184	11040.88
259.254	11024.35
259.324	10980.01
259.394	10973.85
259.464	10971.92
259.535	10949.89
259.605	10927.05
259.675	10902.38
259.745	10889.42
259.815	10853.9
259.885	10838.77
259.955	10850.53
260.025	10823.36
260.095	10808.37
260.165	10808.13
260.235	10813
260.305	10786.54
260.375	10755.7
260.445	10770.54
260.515	10774.98
260.585	10774.88
260.655	10752.62
260.725	10748.91
260.795	10744.67
260.865	10748.76
260.934	10720.48
261.004	10713.63
261.074	10700.82
261.144	10704.14
261.214	10699.18
261.284	10679.43
261.354	10663.38
261.424	10626.23
261.494	10629.79
261.564	10614.66
261.634	10600.64
261.703	10561.47
261.773	10563.54
261.843	10563.49
261.913	10544.51
261.983	10507.41
262.053	10497.67
262.123	10486.06
262.192	10457.39
