Data from 20250704_urea_1.5M_MAYP1162681_11-45-17-597.txt Node
Date: Fri Jul 04 11:45:17 BST 2025
User: adleo
Spectrometer: MAYP116268
Trigger mode: 0
Integration Time (sec): 1.000000E0
Scans to average: 1
Electric dark correction enabled: true
Nonlinearity correction enabled: true
Boxcar width: 10
XAxis mode: Wavelengths
Number of Pixels in Spectrum: 2068
>>>>>Begin Spectral Data<<<<<
179.565	1270.11
179.642	1328.41
179.718	1373.82
179.795	1414.75
179.871	1447.35
179.948	1463.72
180.024	1487.08
180.101	1510.34
180.177	1523.85
180.254	1545.95
180.33	1568.41
180.407	1625.01
180.483	1724.11
180.56	1819.76
180.636	1908.68
180.712	1897.13
180.789	1908.54
180.865	1919.99
180.942	1926.55
181.018	1936.59
181.095	1950.9
181.171	1954.95
181.248	1954.76
181.324	1968.6
181.4	1975.59
181.477	1986.67
181.553	2002.88
181.63	2024.18
181.706	2040.31
181.782	2050.05
181.859	2048.96
181.935	2054.86
182.011	2052.34
182.088	2071.55
182.164	2091.25
182.24	2103.14
182.317	2114.46
182.393	2111.56
182.469	2125.07
182.546	2137.2
182.622	2141.33
182.698	2135.86
182.775	2149.13
182.851	2165.26
182.927	2159.03
183.003	2155.41
183.08	2151.8
183.156	2158.7
183.232	2155.51
183.308	2143.81
183.385	2149.89
183.461	2170.73
183.537	2171.87
183.613	2186.48
183.69	2176.25
183.766	2164.73
183.842	2175.58
183.918	2181.43
183.995	2194.94
184.071	2198.7
184.147	2194.32
184.223	2180.82
184.299	2194.52
184.375	2183.63
184.452	2192.15
184.528	2244.5
184.604	2254.97
184.68	2264.72
184.756	2274.62
184.832	2279.19
184.908	2282.9
184.985	2283.47
185.061	2266.29
185.137	2278
185.213	2266.15
185.289	2267.15
185.365	2262.34
185.441	2258.96
185.517	2272.63
185.593	2269.92
185.669	2268.3
185.745	2278.43
185.822	2297.03
185.898	2285.99
185.974	2296.55
186.05	2286.31
186.126	2251.48
186.202	2245.53
186.278	2242.72
186.354	2233.49
186.43	2240.35
186.506	2240.87
186.582	2241.96
186.658	2250.33
186.734	2225.74
186.81	2228.64
186.886	2232.78
186.962	2242.77
187.038	2238.54
187.114	2228.63
187.19	2232.11
187.266	2222.26
187.341	2224.35
187.417	2216.12
187.493	2214.84
187.569	2215.89
187.645	2211.32
187.721	2197.66
187.797	2206.22
187.873	2211.41
187.949	2206.61
188.025	2195.9
188.101	2198.56
188.176	2202.65
188.252	2196.7
188.328	2208.78
188.404	2206.79
188.48	2199.6
188.556	2193.56
188.632	2194.8
188.707	2194.46
188.783	2193.51
188.859	2187.76
188.935	2176.86
189.011	2185.47
189.086	2180.38
189.162	2175
189.238	2170.06
189.314	2169.06
189.39	2161.78
189.465	2151.98
189.541	2170.01
189.617	2156.55
189.693	2154.89
189.768	2159.22
189.844	2186.21
189.92	2175.74
189.996	2184.02
190.071	2197.06
190.147	2197.82
190.223	2206.96
190.298	2201.58
190.374	2190.35
190.45	2201.86
190.526	2209.05
190.601	2201.48
190.677	2203.95
190.753	2230.33
190.828	2234.28
190.904	2248.27
190.98	2262.83
191.055	2277.54
191.131	2264.78
191.207	2288.57
191.282	2297.37
191.358	2287.43
191.433	2272.19
191.509	2287.41
191.585	2284.94
191.66	2284.61
191.736	2291.08
191.811	2280.89
191.887	2298.27
191.963	2321.59
192.038	2328.35
192.114	2330.54
192.189	2338.01
192.265	2335.44
192.34	2311.11
192.416	2311.3
192.491	2305.44
192.567	2306.21
192.642	2308.3
192.718	2308.92
192.793	2294.59
192.869	2286.79
192.944	2288.83
193.02	2295.74
193.095	2299.69
193.171	2304.4
193.246	2305.49
193.322	2301.02
193.397	2304.35
193.473	2287.69
193.548	2266.79
193.624	2274.12
193.699	2271.22
193.775	2286.12
193.85	2289.88
193.925	2300.21
194.001	2296.97
194.076	2290.55
194.152	2282.89
194.227	2274.41
194.302	2265.71
194.378	2269.94
194.453	2270.47
194.529	2284.46
194.604	2269.27
194.679	2262.18
194.755	2243.97
194.83	2256.15
194.905	2254.3
194.981	2264.15
195.056	2259.35
195.131	2268.2
195.207	2262.72
195.282	2255.77
195.357	2237.78
195.433	2252.44
195.508	2240.64
195.583	2248.96
195.659	2265.1
195.734	2271.95
195.809	2272.71
195.884	2280.8
195.96	2282.28
196.035	2296.65
196.11	2292.51
196.185	2304.5
196.261	2308.88
196.336	2343.62
196.411	2328.86
196.486	2334
196.561	2326.67
196.637	2332.42
196.712	2348.37
196.787	2354.09
196.862	2368.36
196.937	2381.6
197.013	2385.36
197.088	2397.07
197.163	2421.92
197.238	2437.26
197.313	2437.17
197.388	2450.16
197.464	2482.98
197.539	2491.31
197.614	2486.03
197.689	2499.02
197.764	2514.6
197.839	2536.64
197.914	2530.45
197.989	2553.26
198.065	2570.5
198.14	2621.59
198.215	2648.16
198.29	2662.65
198.365	2673.75
198.44	2686.75
198.515	2710.53
198.59	2728.49
198.665	2751.5
198.74	2762.37
198.815	2764.46
198.89	2788.52
198.965	2819.79
199.04	2814.5
199.115	2832.41
199.19	2877.73
199.265	2881.11
199.34	2891.46
199.415	2922.45
199.49	2943.94
199.565	2954.52
199.64	2974.35
199.715	2967.82
199.79	2979.26
199.865	2981.55
199.94	2983.02
200.015	3016.5
200.09	3022.13
200.165	3029.56
200.24	3040.44
200.315	3080.72
200.39	3097.5
200.464	3102.08
200.539	3100.32
200.614	3118.77
200.689	3141.09
200.764	3142.9
200.839	3161.87
200.914	3167.64
200.989	3153.76
201.063	3169.59
201.138	3152.25
201.213	3154.77
201.288	3135.8
201.363	3139.75
201.438	3141.09
201.512	3155.58
201.587	3134.59
201.662	3137.21
201.737	3145.85
201.812	3155.05
201.886	3117.06
201.961	3128.7
202.036	3117.17
202.111	3118.88
202.186	3086.86
202.26	3070.31
202.335	3052.18
202.41	3043.36
202.485	3026.54
202.559	3010.66
202.634	2980.43
202.709	2989.96
202.784	2969.65
202.858	2971.61
202.933	2950.68
203.008	2945.01
203.082	2926.61
203.157	2927.85
203.232	2887.73
203.306	2865.23
203.381	2829.9
203.456	2806.02
203.53	2779.74
203.605	2759.12
203.68	2735.57
203.754	2729.99
203.829	2715.94
203.904	2693.83
203.978	2683.01
204.053	2685.49
204.127	2672.68
204.202	2669.15
204.277	2653.34
204.351	2647.09
204.426	2638.66
204.5	2631.09
204.575	2596.23
204.65	2604.61
204.724	2594.08
204.799	2598.08
204.873	2597.7
204.948	2599.32
205.022	2587.7
205.097	2580.55
205.171	2593.07
205.246	2598.27
205.32	2596.46
205.395	2594.94
205.469	2585.46
205.544	2589.23
205.618	2571.79
205.693	2584.08
205.767	2574.56
205.842	2593.43
205.916	2589.57
205.991	2579.66
206.065	2583.33
206.14	2599.13
206.214	2597.18
206.289	2590.65
206.363	2606.65
206.438	2609.8
206.512	2614.99
206.586	2639.23
206.661	2645.52
206.735	2624.91
206.81	2624.62
206.884	2639.91
206.958	2628.19
207.033	2643.62
207.107	2652.87
207.181	2687.98
207.256	2683.12
207.33	2699.99
207.405	2713.53
207.479	2731.54
207.553	2739.68
207.628	2724.49
207.702	2738.5
207.776	2729.49
207.851	2735.21
207.925	2749.51
207.999	2744.89
208.073	2742.5
208.148	2742.22
208.222	2728.88
208.296	2763.83
208.371	2781.09
208.445	2791.58
208.519	2820.93
208.593	2835.79
208.668	2832.46
208.742	2835.13
208.816	2838.03
208.89	2854.29
208.965	2849.85
209.039	2856.34
209.113	2873.64
209.187	2896.64
209.261	2888.64
209.336	2908.46
209.41	2928.68
209.484	2932.54
209.558	2955.33
209.632	2971.96
209.707	2983.97
209.781	3011.38
209.855	3028.03
209.929	3048.41
210.003	3057.75
210.077	3060.38
210.151	3111.21
210.226	3147.28
210.3	3175.49
210.374	3199.09
210.448	3206.24
210.522	3222.7
210.596	3238.02
210.67	3252.71
210.744	3303.86
210.818	3345.35
210.892	3374.74
210.966	3372.6
211.041	3393.4
211.115	3398.32
211.189	3432.68
211.263	3458.11
211.337	3474.05
211.411	3497.49
211.485	3500.83
211.559	3527.51
211.633	3540.63
211.707	3520.42
211.781	3542.21
211.855	3524.31
211.929	3534.56
212.003	3537.28
212.077	3571.25
212.151	3608.03
212.225	3643.66
212.299	3655.46
212.373	3673.23
212.447	3696.98
212.52	3761.95
212.594	3797.93
212.668	3844.55
212.742	3863.14
212.816	3902.53
212.89	3936.35
212.964	3978
213.038	4028.3
213.112	4088.08
213.186	4155.86
213.26	4189.35
213.333	4200.64
213.407	4266.8
213.481	4331.33
213.555	4407
213.629	4461.38
213.703	4509.28
213.777	4573.33
213.85	4634.17
213.924	4741.92
213.998	4824.58
214.072	4895.25
214.146	4965.7
214.219	5050.11
214.293	5142.56
214.367	5228.19
214.441	5334.15
214.515	5420.2
214.588	5490.61
214.662	5555.05
214.736	5633.62
214.81	5748.13
214.883	5860.77
214.957	5951.4
215.031	6052.55
215.105	6136.43
215.178	6230.64
215.252	6345.6
215.326	6444.78
215.4	6535.5
215.473	6604.29
215.547	6700.6
215.621	6805.54
215.694	6929.16
215.768	7025.06
215.842	7129
215.915	7243.93
215.989	7333.48
216.063	7445.45
216.136	7576.79
216.21	7702.22
216.284	7838.5
216.357	7964.65
216.431	8090.72
216.504	8231.85
216.578	8382.26
216.652	8531.34
216.725	8668.11
216.799	8799.71
216.873	8925.1
216.946	9062.84
217.02	9187.6
217.093	9315.23
217.167	9423.23
217.24	9538.81
217.314	9672.15
217.387	9788.82
217.461	9910.54
217.535	10060.62
217.608	10180.32
217.682	10307.94
217.755	10446.3
217.829	10567.57
217.902	10696.31
217.976	10817.97
218.049	10931.83
218.123	11037.27
218.196	11162.18
218.27	11274.95
218.343	11388.5
218.417	11519.15
218.49	11647.54
218.563	11796.33
218.637	11925.93
218.71	12068.94
218.784	12197.3
218.857	12325.08
218.931	12459.94
219.004	12580.45
219.077	12707.13
219.151	12827.06
219.224	12936.29
219.298	13053.91
219.371	13184.36
219.444	13283.66
219.518	13404.03
219.591	13520.93
219.665	13664
219.738	13774.54
219.811	13881.7
219.885	13995.85
219.958	14105.18
220.031	14206.46
220.105	14308.85
220.178	14416.25
220.251	14509.19
220.325	14617.21
220.398	14723.69
220.471	14817.12
220.544	14923.93
220.618	15001.01
220.691	15101.37
220.764	15196.91
220.838	15289.7
220.911	15363.21
220.984	15480.43
221.057	15578.23
221.131	15670.68
221.204	15718.35
221.277	15821.5
221.35	15929.85
221.424	16008.18
221.497	16090.69
221.57	16166.85
221.643	16248.54
221.716	16328.84
221.79	16398.97
221.863	16462.54
221.936	16531.12
222.009	16611.27
222.082	16677.16
222.155	16751.19
222.229	16836.59
222.302	16921.08
222.375	16988.45
222.448	17063.49
222.521	17123.83
222.594	17174.39
222.667	17221.62
222.74	17297.23
222.814	17355.21
222.887	17410.63
222.96	17479.55
223.033	17548.56
223.106	17613.14
223.179	17672.94
223.252	17723.54
223.325	17783.06
223.398	17842.87
223.471	17898.77
223.544	17948.84
223.617	17998.57
223.69	18043.3
223.763	18079.49
223.837	18116.06
223.91	18161.46
223.983	18188.74
224.056	18211.77
224.129	18265.12
224.202	18316.97
224.275	18352.97
224.348	18370.27
224.42	18383.86
224.493	18401.11
224.566	18424.15
224.639	18462.89
224.712	18477.35
224.785	18504.29
224.858	18528.48
224.931	18552.72
225.004	18563.03
225.077	18586.16
225.15	18593.97
225.223	18624.62
225.296	18666.54
225.369	18672.23
225.442	18679.75
225.514	18693.58
225.587	18718.2
225.66	18735.55
225.733	18758.87
225.806	18778.82
225.879	18794.1
225.952	18801.47
226.025	18826.44
226.097	18857.76
226.17	18869.18
226.243	18868.65
226.316	18880.51
226.389	18894.87
226.461	18910.67
226.534	18929.71
226.607	18935.78
226.68	18961.85
226.753	18970.52
226.825	18956.07
226.898	18986.43
226.971	18996.26
227.044	19028.64
227.117	19049.6
227.189	19062.66
227.262	19075.63
227.335	19087
227.407	19087.43
227.48	19110.85
227.553	19121.79
227.626	19107.62
227.698	19116.63
227.771	19130.66
227.844	19128.2
227.916	19134.99
227.989	19119.53
228.062	19116.59
228.134	19149.64
228.207	19152.73
228.28	19146.03
228.352	19142.03
228.425	19141.74
228.498	19153.5
228.57	19144.49
228.643	19153.64
228.716	19145.11
228.788	19141.69
228.861	19135.57
228.934	19152.44
229.006	19148.25
229.079	19136.68
229.151	19136.06
229.224	19110.32
229.296	19113.45
229.369	19138.75
229.442	19151.24
229.514	19145.65
229.587	19160.05
229.659	19131.19
229.732	19125.98
229.804	19139.28
229.877	19165.88
229.949	19174.75
230.022	19194.27
230.094	19185.88
230.167	19176.63
230.239	19170.08
230.312	19161.93
230.384	19182.46
230.457	19188.53
230.529	19193.4
230.602	19187.18
230.674	19180.05
230.747	19194.17
230.819	19204.68
230.892	19165.98
230.964	19161.69
231.037	19168.05
231.109	19151.81
231.181	19156.05
231.254	19139.28
231.326	19117.7
231.399	19107
231.471	19085.22
231.544	19049.07
231.616	19060.06
231.688	19048.3
231.761	19029.07
231.833	19005.03
231.905	18967.1
231.978	18948.79
232.05	18924.36
232.122	18925.03
232.195	18914.77
232.267	18918.33
232.339	18891.93
232.412	18896.94
232.484	18881.47
232.556	18860.31
232.629	18871.78
232.701	18861.04
232.773	18851.59
232.846	18839.98
232.918	18822.58
232.99	18815.55
233.062	18808.65
233.135	18791.02
233.207	18768.27
233.279	18767.64
233.351	18773.48
233.424	18753.67
233.496	18726.49
233.568	18737.38
233.64	18708.61
233.713	18687.65
233.785	18663.84
233.857	18651.27
233.929	18615.03
234.001	18610.69
234.074	18611.36
234.146	18567.37
234.218	18555.08
234.29	18545.3
234.362	18533.88
234.434	18498.07
234.507	18463.33
234.579	18430.03
234.651	18406.99
234.723	18401.11
234.795	18388.53
234.867	18364.87
234.939	18363.14
235.012	18354.27
235.084	18336.15
235.156	18328.59
235.228	18310.32
235.3	18285.07
235.372	18267.38
235.444	18266.56
235.516	18228.25
235.588	18211
235.66	18195.15
235.732	18160.59
235.804	18200.64
235.876	18192.4
235.948	18201.27
236.02	18175.15
236.092	18158.13
236.164	18136.98
236.236	18111.73
236.308	18083.97
236.38	18070.43
236.452	18045.75
236.524	18030.24
236.596	18022.19
236.668	18006.04
236.74	17985.18
236.812	17972.84
236.884	17963.35
236.956	17946.72
237.028	17915.97
237.1	17872.31
237.172	17866.53
237.244	17865.23
237.316	17791.88
237.388	17744.51
237.46	17701.23
237.532	17697.81
237.604	17664.08
237.675	17647.84
237.747	17630.82
237.819	17601.86
237.891	17572.22
237.963	17539.89
238.035	17509.33
238.107	17446.83
238.178	17440.46
238.25	17415.26
238.322	17416.99
238.394	17375.98
238.466	17339.69
238.538	17324.03
238.609	17323.5
238.681	17284.32
238.753	17249.04
238.825	17223.5
238.897	17207.74
238.968	17201.57
239.04	17176.99
239.112	17189.96
239.184	17161.14
239.255	17136.46
239.327	17118.78
239.399	17103.26
239.471	17091.45
239.542	17072.27
239.614	17071.11
239.686	17020.36
239.758	17011.3
239.829	16967.45
239.901	16958.05
239.973	16935.98
240.044	16918.29
240.116	16889.76
240.188	16864.45
240.259	16842.91
240.331	16814.47
240.403	16798.57
240.474	16758.67
240.546	16726.18
240.618	16673.7
240.689	16640.63
240.761	16613.31
240.833	16605.64
240.904	16568.63
240.976	16534.75
241.048	16515.52
241.119	16493.97
241.191	16472.19
241.262	16461.2
241.334	16431.65
241.405	16399.84
241.477	16370.25
241.549	16340.47
241.62	16310.44
241.692	16284.31
241.763	16270.05
241.835	16255.2
241.906	16231.54
241.978	16194.04
242.049	16177.12
242.121	16163.43
242.192	16152.44
242.264	16109.55
242.335	16057.01
242.407	16044.91
242.478	16016.86
242.55	15983.75
242.621	15939.21
242.693	15908.9
242.764	15873.52
242.836	15842.48
242.907	15824.69
242.979	15800.83
243.05	15782.57
243.122	15759
243.193	15733.31
243.264	15682.12
243.336	15647.51
243.407	15627.99
243.479	15619.99
243.55	15598.15
243.622	15586.39
243.693	15562.1
243.764	15552.75
243.836	15525.32
243.907	15489.8
243.978	15466.47
244.05	15446.27
244.121	15411.32
244.192	15395.8
244.264	15347.36
244.335	15324.22
244.407	15275.3
244.478	15254.28
244.549	15216.68
244.62	15182.36
244.692	15157.88
244.763	15141.63
244.834	15112.37
244.906	15069.52
244.977	15045.56
245.048	15032.74
245.119	14991.63
245.191	14953.26
245.262	14908.23
245.333	14894.64
245.405	14869.09
245.476	14847.21
245.547	14830.58
245.618	14817.66
245.689	14786.23
245.761	14766.56
245.832	14733.4
245.903	14721.88
245.974	14697.63
246.045	14674.01
246.117	14663.94
246.188	14630.29
246.259	14590.23
246.33	14561.02
246.401	14540.68
246.473	14495.17
246.544	14453.57
246.615	14434.19
246.686	14404.26
246.757	14390.03
246.828	14350.75
246.899	14341.68
246.97	14294.11
247.042	14250.48
247.113	14233.61
247.184	14231.92
247.255	14207.19
247.326	14192.2
247.397	14162.7
247.468	14137.44
247.539	14115.99
247.61	14079.16
247.681	14050.71
247.752	14037.12
247.823	14004.82
247.894	13982.65
247.965	13947.31
248.037	13917.38
248.108	13870.33
248.179	13843.67
248.25	13817.97
248.321	13801.92
248.392	13768.08
248.463	13769.19
248.534	13735.49
248.605	13714.62
248.675	13680.3
248.746	13656.39
248.817	13640.29
248.888	13614.5
248.959	13572.46
249.03	13550.77
249.101	13524.3
249.172	13505.02
249.243	13463.17
249.314	13459.56
249.385	13424.95
249.456	13416.46
249.527	13389.08
249.598	13380.07
249.669	13361.89
249.739	13335.96
249.81	13319.47
249.881	13277.48
249.952	13255.36
250.023	13243.11
250.094	13203.78
250.165	13178.37
250.235	13159.47
250.306	13129.59
250.377	13099.65
250.448	13085.43
250.519	13045.8
250.59	13043.01
250.66	13016.64
250.731	13009.94
250.802	12980.48
250.873	12976.39
250.944	12954.02
251.014	12929.96
251.085	12936.33
251.156	12920.08
251.227	12919.94
251.297	12923.55
251.368	12913.82
251.439	12898
251.51	12887.16
251.58	12856.74
251.651	12828.06
251.722	12816.58
251.792	12774.12
251.863	12751.07
251.934	12744.28
252.005	12751.22
252.075	12729.43
252.146	12723.07
252.217	12718.73
252.287	12708.46
252.358	12686.14
252.429	12683.01
252.499	12654.57
252.57	12633.55
252.641	12622.27
252.711	12599.08
252.782	12549.24
252.852	12546.15
252.923	12524.12
252.994	12498.38
253.064	12488.93
253.135	12458.57
253.205	12429.45
253.276	12433.79
253.347	12430.75
253.417	12405.4
253.488	12375.7
253.558	12343.07
253.629	12324.37
253.699	12306.24
253.77	12295.35
253.841	12263.68
253.911	12241.31
253.982	12225.79
254.052	12208.63
254.123	12192.87
254.193	12165.3
254.264	12184.92
254.334	12155.32
254.405	12125.67
254.475	12105.86
254.546	12088.9
254.616	12083.5
254.687	12068.12
254.757	12051.4
254.827	12035.49
254.898	12024.21
254.968	12012.79
255.039	11992.4
255.109	11975
255.18	11952.49
255.25	11906.36
255.321	11902.6
255.391	11875.85
255.461	11878.69
255.532	11832.76
255.602	11802.39
255.673	11767.93
255.743	11735.06
255.813	11697.8
255.884	11691.44
255.954	11674.04
256.024	11673.51
256.095	11654.76
256.165	11624.54
256.235	11609.55
256.306	11578.8
256.376	11567.09
256.446	11550.99
256.517	11536.62
256.587	11534.26
256.657	11513.92
256.728	11501.39
256.798	11479.85
256.868	11458.26
256.938	11432.71
257.009	11429.24
257.079	11424.09
257.149	11439.12
257.219	11399.17
257.29	11383.99
257.36	11347.65
257.43	11344.23
257.5	11300.61
257.571	11277.77
257.641	11268.85
257.711	11240.08
257.781	11226.44
257.852	11213.43
257.922	11171.98
257.992	11157.57
258.062	11133.53
258.132	11126.3
258.202	11109.09
258.273	11095.12
258.343	11098.63
258.413	11077
258.483	11055.65
258.553	11028.28
258.623	11000.85
258.693	10997.82
258.764	11005.82
258.834	11002.3
258.904	10980.42
258.974	10963.31
259.044	10942.45
259.114	10939.32
259.184	10928.04
259.254	10912.38
259.324	10871.42
259.394	10869.3
259.464	10872.33
259.535	10853.54
259.605	10828.48
259.675	10803.81
259.745	10790.32
259.815	10763.29
259.885	10743.29
259.955	10754.18
260.025	10724.02
260.095	10705.32
260.165	10690.96
260.235	10692.27
260.305	10668.03
260.375	10644.23
260.445	10653.77
260.515	10662.05
260.585	10651.31
260.655	10637.43
260.725	10632.61
260.795	10629
260.865	10634.93
260.934	10609.34
261.004	10599.61
261.074	10586.02
261.144	10587.51
261.214	10581.2
261.284	10566.31
261.354	10564.96
261.424	10539.9
261.494	10546.94
261.564	10532.97
261.634	10530.22
261.703	10488.59
261.773	10480.45
261.843	10471.29
261.913	10450.86
261.983	10412.8
262.053	10399.46
262.123	10380.43
262.192	10355.28
262.262	10353.3
262.332	10321.55
