Data from 20250704_urea_1.5M_MAYP1162681_11-45-22-597.txt Node
Date: Fri Jul 04 11:45:22 BST 2025
User: adleo
Spectrometer: MAYP116268
Trigger mode: 0
Integration Time (sec): 1.000000E0
Scans to average: 1
Electric dark correction enabled: true
Nonlinearity correction enabled: true
Boxcar width: 10
XAxis mode: Wavelengths
Number of Pixels in Spectrum: 2068
>>>>>Begin Spectral Data<<<<<
179.565	1254.15
179.642	1314.19
179.718	1359.4
179.795	1401.85
179.871	1438.64
179.948	1458.17
180.024	1480.51
180.101	1504.75
180.177	1520.87
180.254	1546.1
180.33	1567.13
180.407	1625.35
180.483	1727.02
180.56	1820.43
180.636	1911.35
180.712	1899.65
180.789	1911.82
180.865	1924.51
180.942	1929.74
181.018	1940.86
181.095	1956.7
181.171	1962.83
181.248	1962.45
181.324	1977.72
181.4	1985.66
181.477	1996.79
181.553	2010.53
181.63	2031.84
181.706	2047.34
181.782	2056.28
181.859	2053.29
181.935	2061.94
182.011	2057.38
182.088	2072.17
182.164	2093.44
182.24	2103.95
182.317	2111.6
182.393	2109.89
182.469	2124.92
182.546	2142.24
182.622	2146.75
182.698	2139.57
182.775	2152.6
182.851	2167.78
182.927	2156.93
183.003	2149.85
183.08	2142.95
183.156	2152.32
183.232	2146.76
183.308	2135.05
183.385	2143.04
183.461	2163.98
183.537	2164.6
183.613	2178.53
183.69	2171.26
183.766	2160.12
183.842	2167.16
183.918	2173.01
183.995	2185.05
184.071	2187.86
184.147	2182.38
184.223	2171.83
184.299	2186.77
184.375	2176.4
184.452	2182.39
184.528	2238.21
184.604	2248.63
184.68	2259.09
184.756	2268.19
184.832	2276.47
184.908	2283.36
184.985	2280.56
185.061	2262.33
185.137	2271.52
185.213	2260.76
185.289	2261.14
185.365	2253.77
185.441	2253.58
185.517	2268.48
185.593	2265.72
185.669	2264.53
185.745	2273.86
185.822	2292.89
185.898	2284.6
185.974	2292.79
186.05	2285.41
186.126	2249.95
186.202	2246.24
186.278	2241.44
186.354	2228.92
186.43	2237.59
186.506	2235.92
186.582	2237.02
186.658	2242.53
186.734	2220.98
186.81	2224.65
186.886	2227.79
186.962	2242.01
187.038	2240.3
187.114	2229.35
187.19	2231.25
187.266	2220.07
187.341	2220.41
187.417	2211.32
187.493	2209.32
187.569	2210.89
187.645	2203.52
187.721	2190.52
187.797	2194.52
187.873	2202.04
187.949	2198.33
188.025	2187.9
188.101	2189.52
188.176	2196.75
188.252	2192.28
188.328	2198.6
188.404	2194.99
188.48	2188.47
188.556	2181.62
188.632	2180.24
188.707	2184.62
188.783	2186.38
188.859	2182.86
188.935	2171.87
189.011	2181.29
189.086	2174.44
189.162	2169.4
189.238	2170.06
189.314	2167.92
189.39	2163.5
189.465	2155.98
189.541	2171.21
189.617	2156.89
189.693	2154.41
189.768	2154.41
189.844	2183.21
189.92	2178.36
189.996	2186.11
190.071	2197.96
190.147	2195.58
190.223	2204.62
190.298	2197.01
190.374	2181.17
190.45	2192.72
190.526	2203.57
190.601	2195.58
190.677	2201.05
190.753	2226.66
190.828	2229.18
190.904	2245.75
190.98	2261.4
191.055	2270.44
191.131	2261.73
191.207	2283.95
191.282	2291.47
191.358	2284.19
191.433	2265.39
191.509	2278.23
191.585	2278.08
191.66	2279.85
191.736	2288.89
191.811	2280.99
191.887	2295.03
191.963	2323.58
192.038	2330.96
192.114	2327.82
192.189	2331.77
192.265	2328.39
192.34	2305.68
192.416	2307.39
192.491	2302.97
192.567	2305.06
192.642	2308.2
192.718	2307.58
192.793	2293.11
192.869	2285.17
192.944	2288.69
193.02	2297.78
193.095	2303.06
193.171	2308.16
193.246	2306.25
193.322	2303.63
193.397	2304.25
193.473	2286.97
193.548	2266.55
193.624	2269.27
193.699	2268.93
193.775	2286.88
193.85	2284.65
193.925	2296.5
194.001	2293.07
194.076	2284.84
194.152	2272.7
194.227	2264.04
194.302	2255.86
194.378	2258.76
194.453	2261.04
194.529	2269.28
194.604	2253.67
194.679	2245.1
194.755	2226.93
194.83	2239.55
194.905	2237.4
194.981	2246.45
195.056	2241.55
195.131	2249.54
195.207	2248.02
195.282	2238.36
195.357	2217.23
195.433	2235.59
195.508	2221.17
195.583	2227.59
195.659	2241.68
195.734	2253.11
195.809	2255.77
195.884	2263.81
195.96	2266.24
196.035	2282.18
196.11	2279.42
196.185	2292.41
196.261	2297.36
196.336	2329.63
196.411	2315.25
196.486	2321.44
196.561	2312.82
196.637	2323.57
196.712	2339.19
196.787	2341.48
196.862	2356.56
196.937	2367.6
197.013	2372.36
197.088	2385.59
197.163	2410.02
197.238	2428.32
197.313	2425.17
197.388	2438.17
197.464	2469.08
197.539	2479.22
197.614	2471.17
197.689	2487.65
197.764	2506.22
197.839	2527.93
197.914	2518.93
197.989	2544.36
198.065	2555.22
198.14	2607.26
198.215	2632.26
198.29	2642.74
198.365	2658.56
198.44	2669.13
198.515	2697.43
198.59	2714.24
198.665	2740.26
198.74	2748.84
198.815	2749.69
198.89	2775.18
198.965	2806.93
199.04	2803.69
199.115	2822.17
199.19	2866.63
199.265	2865.34
199.34	2874.59
199.415	2904.58
199.49	2929.69
199.565	2939.08
199.64	2964.15
199.715	2962.43
199.79	2971.58
199.865	2979.59
199.94	2978.12
200.015	3012.54
200.09	3017.69
200.165	3024.51
200.24	3031.42
200.315	3074.47
200.39	3090.06
200.464	3094.21
200.539	3094.07
200.614	3110.42
200.689	3131.93
200.764	3138.18
200.839	3160.82
200.914	3165.4
200.989	3157.67
201.063	3174.22
201.138	3155.4
201.213	3157.59
201.288	3139.37
201.363	3143.52
201.438	3144
201.512	3159.3
201.587	3141.46
201.662	3148.19
201.737	3160.68
201.812	3167.22
201.886	3129.56
201.961	3139.15
202.036	3130.33
202.111	3126.37
202.186	3098.15
202.26	3080.84
202.335	3060.14
202.41	3053.99
202.485	3037.12
202.559	3012.37
202.634	2984.58
202.709	2993.29
202.784	2973.08
202.858	2972.56
202.933	2956.01
203.008	2948.77
203.082	2927.37
203.157	2928.89
203.232	2884.05
203.306	2862.17
203.381	2829.08
203.456	2807.4
203.53	2784.03
203.605	2764.02
203.68	2739.85
203.754	2732.33
203.829	2717.65
203.904	2695.07
203.978	2682.16
204.053	2687.25
204.127	2681.35
204.202	2677.39
204.277	2659.06
204.351	2650.39
204.426	2641.38
204.5	2629.99
204.575	2595.8
204.65	2604.71
204.724	2594.42
204.799	2602.75
204.873	2598.93
204.948	2599.36
205.022	2584.03
205.097	2578.03
205.171	2589.55
205.246	2597.6
205.32	2595.75
205.395	2595.17
205.469	2586.89
205.544	2589.47
205.618	2571.94
205.693	2584.85
205.767	2573.8
205.842	2597.62
205.916	2591.9
205.991	2583.47
206.065	2589.71
206.14	2605.37
206.214	2601.27
206.289	2594.74
206.363	2608.13
206.438	2608.99
206.512	2614.56
206.586	2636.66
206.661	2642.18
206.735	2620
206.81	2625.15
206.884	2639.91
206.958	2627.53
207.033	2644.52
207.107	2652.15
207.181	2682.65
207.256	2673.55
207.33	2690.46
207.405	2704
207.479	2724.15
207.553	2730.86
207.628	2714.48
207.702	2724.82
207.776	2721.87
207.851	2721.25
207.925	2737.36
207.999	2736.55
208.073	2735.98
208.148	2739.03
208.222	2725.26
208.296	2760.07
208.371	2773.47
208.445	2787.1
208.519	2816.02
208.593	2829.45
208.668	2828.31
208.742	2830.17
208.816	2834.51
208.89	2849.43
208.965	2848.81
209.039	2859.06
209.113	2873.31
209.187	2894.45
209.261	2892.45
209.336	2911.99
209.41	2934.54
209.484	2936.25
209.558	2958.95
209.632	2972.15
209.707	2977.87
209.781	3005.61
209.855	3020.82
209.929	3042.21
210.003	3048.12
210.077	3050.6
210.151	3102.77
210.226	3138.46
210.3	3170.54
210.374	3197.24
210.448	3207.97
210.522	3218.28
210.596	3231.06
210.67	3245.99
210.744	3300.15
210.818	3337.39
210.892	3364.78
210.966	3365.59
211.041	3386.59
211.115	3390.17
211.189	3424.38
211.263	3456.35
211.337	3468.9
211.411	3495.01
211.485	3495.82
211.559	3519.21
211.633	3534.33
211.707	3516.51
211.781	3541.98
211.855	3523.88
211.929	3531.8
212.003	3529.22
212.077	3560.89
212.151	3599.1
212.225	3634.63
212.299	3646.77
212.373	3665.73
212.447	3691.25
212.52	3754.31
212.594	3787.32
212.668	3833.23
212.742	3858.08
212.816	3896.79
212.89	3935.78
212.964	3975.47
213.038	4028.21
213.112	4093.24
213.186	4159.87
213.26	4190.45
213.333	4197.77
213.407	4263.74
213.481	4331.82
213.555	4405.9
213.629	4463.19
213.703	4512.01
213.777	4585.3
213.85	4644.52
213.924	4751.83
213.998	4827.45
214.072	4901.66
214.146	4973.6
214.219	5056.08
214.293	5139.38
214.367	5224.53
214.441	5323.38
214.515	5409.67
214.588	5482.01
214.662	5545.67
214.736	5627.52
214.81	5738.13
214.883	5854.43
214.957	5951.55
215.031	6037.39
215.105	6130.09
215.178	6226.66
215.252	6333.83
215.326	6422.07
215.4	6508.18
215.473	6578.12
215.547	6675.14
215.621	6779.26
215.694	6906.78
215.768	7001.03
215.842	7109.96
215.915	7227.15
215.989	7328.62
216.063	7443.33
216.136	7566.93
216.21	7688.89
216.284	7823.84
216.357	7955.57
216.431	8079.09
216.504	8205.36
216.578	8357.62
216.652	8495.92
216.725	8620.46
216.799	8759.52
216.873	8890
216.946	9036.26
217.02	9160.44
217.093	9292.26
217.167	9404.4
217.24	9518.15
217.314	9646.52
217.387	9773.79
217.461	9889.82
217.535	10033.75
217.608	10158.17
217.682	10285.35
217.755	10422.84
217.829	10542.66
217.902	10669.48
217.976	10796.97
218.049	10919.94
218.123	11040.46
218.196	11169.75
218.27	11293.26
218.343	11403.1
218.417	11529.51
218.49	11646.14
218.563	11786.44
218.637	11914.41
218.71	12059.78
218.784	12191.95
218.857	12328.26
218.931	12452.13
219.004	12580.93
219.077	12707.71
219.151	12824.31
219.224	12941.07
219.298	13048.13
219.371	13176.59
219.444	13272.72
219.518	13392.8
219.591	13511.91
219.665	13647.13
219.738	13758.29
219.811	13860.44
219.885	13973.48
219.958	14084.89
220.031	14195.52
220.105	14303.16
220.178	14403.57
220.251	14493.91
220.325	14591.76
220.398	14695.64
220.471	14790.17
220.544	14892.7
220.618	14973.2
220.691	15067.63
220.764	15163.46
220.838	15270.85
220.911	15351.01
220.984	15465.88
221.057	15548.4
221.131	15630.34
221.204	15683.21
221.277	15781.93
221.35	15904.93
221.424	15988.51
221.497	16070.59
221.57	16154.17
221.643	16235.67
221.716	16323.01
221.79	16390.29
221.863	16472.61
221.936	16538.78
222.009	16620.62
222.082	16698.65
222.155	16770.03
222.229	16852.11
222.302	16932.3
222.375	16991.01
222.448	17066.19
222.521	17125.56
222.594	17191.49
222.667	17245.62
222.74	17320.27
222.814	17378.78
222.887	17430.97
222.96	17496.56
223.033	17561.81
223.106	17626.92
223.179	17681.18
223.252	17734.43
223.325	17796.51
223.398	17842.58
223.471	17895.11
223.544	17942.96
223.617	17981.32
223.69	18028.21
223.763	18062.19
223.837	18101.32
223.91	18158.38
223.983	18190.71
224.056	18219.63
224.129	18269.55
224.202	18318.42
224.275	18350.46
224.348	18379.96
224.42	18387.81
224.493	18407.14
224.566	18430.85
224.639	18457.21
224.712	18488.29
224.785	18505.3
224.858	18526.74
224.931	18546.98
225.004	18566.4
225.077	18594.84
225.15	18595.9
225.223	18618.64
225.296	18666.45
225.369	18671.7
225.442	18682.4
225.514	18707.46
225.587	18726.49
225.66	18745.72
225.733	18772.46
225.806	18798.2
225.879	18810.97
225.952	18819.98
226.025	18844.89
226.097	18878.77
226.17	18898.82
226.243	18886.24
226.316	18917.27
226.389	18929.8
226.461	18945.85
226.534	18972.35
226.607	18975.29
226.68	19015.34
226.753	19023.15
226.825	19013.41
226.898	19043.34
226.971	19056.16
227.044	19062.47
227.117	19079.38
227.189	19079.58
227.262	19094.47
227.335	19109.41
227.407	19114.95
227.48	19143.38
227.553	19152.63
227.626	19146.99
227.698	19138.9
227.771	19154.46
227.844	19140.87
227.916	19148.05
227.989	19143.67
228.062	19137.79
228.134	19165.93
228.207	19167.33
228.28	19161.35
228.352	19160.82
228.425	19156.58
228.498	19169.35
228.57	19157.02
228.643	19175.96
228.716	19175.67
228.788	19160.15
228.861	19148.97
228.934	19157.45
229.006	19147.67
229.079	19138.08
229.151	19128.73
229.224	19113.07
229.296	19116.35
229.369	19137.89
229.442	19148.49
229.514	19136.15
229.587	19145.16
229.659	19124.06
229.732	19112.15
229.804	19129.31
229.877	19154.13
229.949	19161.4
230.022	19171.81
230.094	19169.21
230.167	19152.58
230.239	19135.86
230.312	19136.78
230.384	19150.99
230.457	19143.77
230.529	19141.16
230.602	19140.49
230.674	19143.04
230.747	19159.72
230.819	19167.86
230.892	19132.39
230.964	19133.45
231.037	19134.42
231.109	19122.32
231.181	19126.03
231.254	19116.35
231.326	19102.76
231.399	19093.21
231.471	19070.95
231.544	19035.53
231.616	19045.07
231.688	19038.33
231.761	19037.17
231.833	19023.87
231.905	18984.35
231.978	18985.37
232.05	18963.92
232.122	18965.8
232.195	18955.97
232.267	18951.05
232.339	18925.85
232.412	18925.27
232.484	18899.15
232.556	18884.6
232.629	18895.25
232.701	18883.11
232.773	18869.52
232.846	18855.69
232.918	18836.41
232.99	18833.28
233.062	18831.83
233.135	18812.46
233.207	18787.45
233.279	18775.07
233.351	18777.62
233.424	18766.49
233.496	18734.63
233.568	18750.83
233.64	18705.14
233.713	18679.55
233.785	18665.19
233.857	18660.13
233.929	18635.6
234.001	18640.33
234.074	18640.81
234.146	18604.38
234.218	18587.22
234.29	18566.79
234.362	18531.61
234.434	18489.15
234.507	18459.52
234.579	18423.33
234.651	18401.5
234.723	18390.65
234.795	18382.99
234.867	18351.14
234.939	18350.27
235.012	18333.45
235.084	18307.33
235.156	18308.01
235.228	18278.61
235.3	18257.07
235.372	18241.6
235.444	18241.07
235.516	18199.97
235.588	18180.79
235.66	18159.53
235.732	18129.03
235.804	18166.71
235.876	18159.29
235.948	18159.1
236.02	18132.5
236.092	18117.03
236.164	18098.09
236.236	18085.03
236.308	18063.1
236.38	18039.83
236.452	18006.14
236.524	17988.98
236.596	17985.42
236.668	17970.14
236.74	17955.35
236.812	17931.97
236.884	17909.71
236.956	17885.81
237.028	17857.86
237.1	17821.66
237.172	17814.58
237.244	17812.6
237.316	17756.17
237.388	17736.46
237.46	17707.64
237.532	17706.49
237.604	17679.45
237.675	17681.91
237.747	17659.74
237.819	17629.04
237.891	17621.09
237.963	17593.19
238.035	17567.21
238.107	17511.02
238.178	17499.36
238.25	17480.13
238.322	17475.55
238.394	17440.95
238.466	17412.85
238.538	17394.1
238.609	17383.21
238.681	17340.99
238.753	17305.72
238.825	17280.75
238.897	17260.56
238.968	17249.38
239.04	17212.17
239.112	17211.79
239.184	17162.49
239.255	17138.92
239.327	17123.26
239.399	17090.2
239.471	17081.47
239.542	17064.32
239.614	17057.91
239.686	17009.52
239.758	16996.41
239.829	16966.29
239.901	16954.48
239.973	16927.11
240.044	16906.19
240.116	16877.85
240.188	16845.9
240.259	16830.48
240.331	16793.51
240.403	16778.67
240.474	16738.81
240.546	16704.01
240.618	16660.68
240.689	16630.99
240.761	16606.17
240.833	16585.5
240.904	16561.35
240.976	16522.17
241.048	16495.18
241.119	16471.08
241.191	16446.45
241.262	16434.83
241.334	16396.47
241.405	16369.05
241.477	16334.25
241.549	16308.94
241.62	16287.98
241.692	16282.29
241.763	16256.31
241.835	16234.29
241.906	16196.64
241.978	16161.27
242.049	16161.99
242.121	16146.57
242.192	16137.6
242.264	16094.85
242.335	16055.08
242.407	16034.84
242.478	16010.69
242.55	15986.45
242.621	15949.96
242.693	15922.3
242.764	15885.18
242.836	15863.25
242.907	15831.92
242.979	15819.54
243.05	15800.01
243.122	15779
243.193	15746.46
243.264	15701.93
243.336	15674.98
243.407	15665.49
243.479	15662.4
243.55	15632.76
243.622	15606.2
243.693	15576.99
243.764	15574.25
243.836	15542.29
243.907	15507.34
243.978	15481.79
244.05	15463.67
244.121	15419.71
244.192	15401.68
244.264	15366.59
244.335	15340.71
244.407	15306.15
244.478	15285.08
244.549	15248.06
244.62	15200.73
244.692	15167.37
244.763	15150.84
244.834	15118.64
244.906	15076.56
244.977	15047.59
245.048	15032.21
245.119	14995.53
245.191	14964.97
245.262	14908.33
245.333	14892.57
245.405	14873.67
245.476	14849.52
245.547	14822.96
245.618	14813.51
245.689	14792.3
245.761	14765.21
245.832	14741.5
245.903	14720.29
245.974	14695.65
246.045	14669.29
246.117	14662.68
246.188	14632.51
246.259	14591.15
246.33	14562.85
246.401	14534.94
246.473	14491.89
246.544	14448.7
246.615	14439.06
246.686	14404.74
246.757	14396.11
246.828	14355.42
246.899	14343.81
246.97	14300.56
247.042	14267.74
247.113	14250.72
247.184	14240.94
247.255	14205.02
247.326	14173.21
247.397	14146.93
247.468	14124.61
247.539	14100.13
247.61	14060.79
247.681	14043.29
247.752	14030.03
247.823	13998.07
247.894	13978.45
247.965	13945.29
248.037	13918.1
248.108	13868.06
248.179	13842.8
248.25	13813.54
248.321	13803.17
248.392	13769.38
248.463	13773.14
248.534	13744.99
248.605	13720.89
248.675	13691.24
248.746	13677.31
248.817	13657.25
248.888	13637.44
248.959	13594.68
249.03	13574.39
249.101	13554.04
249.172	13521.65
249.243	13487.18
249.314	13476.67
249.385	13449.82
249.456	13439.26
249.527	13421.57
249.598	13415.4
249.669	13398.39
249.739	13387.59
249.81	13362.86
249.881	13325.59
249.952	13301.01
250.023	13277.72
250.094	13235.88
250.165	13203.2
250.235	13176.97
250.306	13159.28
250.377	13130.45
250.448	13107.75
250.519	13077.52
250.59	13070.73
250.66	13049.27
250.731	13038.72
250.802	13025.89
250.873	13007.48
250.944	12984.87
251.014	12953.49
251.085	12951.08
251.156	12929.43
251.227	12917
251.297	12908.27
251.368	12893.66
251.439	12873.76
251.51	12864.02
251.58	12838.61
251.651	12818.9
251.722	12809.3
251.792	12760.96
251.863	12738.01
251.934	12736.56
252.005	12734.01
252.075	12708.75
252.146	12696.55
252.217	12688.6
252.287	12669.94
252.358	12660.93
252.429	12661.31
252.499	12634.66
252.57	12616.58
252.641	12605.06
252.711	12581.39
252.782	12548.23
252.852	12546.97
252.923	12525.91
252.994	12504.99
253.064	12503.3
253.135	12468.59
253.205	12442.37
253.276	12452.59
253.347	12445.17
253.417	12414.17
253.488	12390.07
253.558	12370.02
253.629	12349.58
253.699	12337.09
253.77	12329.52
253.841	12290.43
253.911	12270.81
253.982	12258.71
254.052	12242.08
254.123	12232.15
254.193	12211.96
254.264	12236.4
254.334	12207.28
254.405	12179.13
254.475	12146.6
254.546	12123.46
254.616	12120.33
254.687	12111.31
254.757	12094.39
254.827	12082.63
254.898	12069.09
254.968	12054.92
255.039	12026.48
255.109	12018.77
255.18	11977.84
255.25	11927.23
255.321	11925.79
255.391	11889.49
255.461	11890.94
255.532	11847.56
255.602	11816.13
255.673	11775.69
255.743	11738.43
255.813	11688.64
255.884	11681.46
255.954	11677.41
256.024	11677.7
256.095	11661.12
256.165	11630.18
256.235	11621.26
256.306	11586.9
256.376	11582.99
256.446	11563.42
256.517	11548.34
256.587	11534.55
256.657	11530.31
256.728	11526.7
256.798	11505.92
256.868	11481.25
256.938	11454.02
257.009	11449.15
257.079	11442.3
257.149	11454.26
257.219	11417.39
257.29	11414.4
257.36	11381
257.43	11371.46
257.5	11326.78
257.571	11306.68
257.641	11295.12
257.711	11259.21
257.781	11255.89
257.852	11240.42
257.922	11210.05
257.992	11201.62
258.062	11181.86
258.132	11170.1
258.202	11147.31
258.273	11138.87
258.343	11148.42
258.413	11126.49
258.483	11103.21
258.553	11069.33
258.623	11039.36
258.693	11027.26
258.764	11029.43
258.834	11022.06
258.904	11005.86
258.974	10984.23
259.044	10959.27
259.114	10950.88
259.184	10934.45
259.254	10911.18
259.324	10872.72
259.394	10870.89
259.464	10871.81
259.535	10850.12
259.605	10830.31
259.675	10803.72
259.745	10792.3
259.815	10760.11
259.885	10740.54
259.955	10759
260.025	10739.15
260.095	10720.31
260.165	10707.3
260.235	10702.24
260.305	10677.72
260.375	10648.47
260.445	10656.75
260.515	10661.57
260.585	10649.19
260.655	10641.05
260.725	10634.54
260.795	10626.83
260.865	10622.35
260.934	10589.34
261.004	10594.69
261.074	10574.02
261.144	10574.07
261.214	10559.18
261.284	10549.35
261.354	10543.28
261.424	10516.92
261.494	10525.69
261.564	10516
261.634	10512.34
261.703	10475.44
261.773	10474.23
261.843	10470.14
261.913	10454.67
261.983	10417.96
262.053	10416.27
262.123	10397.24
262.192	10372.62
262.262	10372.96
