Data from 20250704_urea_1.5M_MAYP1162681_11-45-41-595.txt Node
Date: Fri Jul 04 11:45:41 BST 2025
User: adleo
Spectrometer: MAYP116268
Trigger mode: 0
Integration Time (sec): 1.000000E0
Scans to average: 1
Electric dark correction enabled: true
Nonlinearity correction enabled: true
Boxcar width: 10
XAxis mode: Wavelengths
Number of Pixels in Spectrum: 2068
>>>>>Begin Spectral Data<<<<<
179.565	1265.45
179.642	1325.33
179.718	1373.92
179.795	1414.08
179.871	1450.88
179.948	1469.85
180.024	1491.23
180.101	1514.83
180.177	1529.81
180.254	1553.42
180.33	1576.11
180.407	1634.13
180.483	1734.81
180.56	1830.93
180.636	1918.62
180.712	1906.69
180.789	1917.86
180.865	1928.98
180.942	1936.4
181.018	1947.43
181.095	1960.17
181.171	1966.78
181.248	1967.64
181.324	1982.72
181.4	1989.14
181.477	1997.17
181.553	2011.53
181.63	2034.5
181.706	2050.1
181.782	2056.66
181.859	2057.04
181.935	2064.89
182.011	2060.14
182.088	2078.21
182.164	2097.15
182.24	2110.89
182.317	2120.83
182.393	2119.26
182.469	2133.06
182.546	2147.04
182.622	2151.51
182.698	2148.52
182.775	2157.79
182.851	2172.02
182.927	2163.79
183.003	2161.12
183.08	2157.84
183.156	2166.21
183.232	2160.6
183.308	2148.23
183.385	2158.5
183.461	2179.73
183.537	2177.11
183.613	2189.24
183.69	2178.06
183.766	2167.16
183.842	2176.53
183.918	2182.81
183.995	2197.75
184.071	2202.37
184.147	2194.13
184.223	2181.34
184.299	2196.71
184.375	2190.86
184.452	2196.72
184.528	2247.11
184.604	2256.96
184.68	2265.71
184.756	2271.9
184.832	2277.09
184.908	2284.17
184.985	2285.7
185.061	2265.28
185.137	2276.99
185.213	2269
185.289	2269.95
185.365	2263.86
185.441	2261.24
185.517	2271.57
185.593	2267.14
185.669	2263.38
185.745	2275.9
185.822	2296.78
185.898	2283.74
185.974	2287.93
186.05	2280.6
186.126	2246.24
186.202	2239.24
186.278	2236.82
186.354	2228.11
186.43	2236.15
186.506	2235.82
186.582	2235.35
186.658	2242.96
186.734	2222.69
186.81	2226.02
186.886	2231.16
186.962	2241.81
187.038	2238.06
187.114	2232.3
187.19	2237.77
187.266	2227.68
187.341	2228.3
187.417	2218.41
187.493	2220.17
187.569	2229.02
187.645	2223.59
187.721	2210.65
187.797	2219.4
187.873	2224.87
187.949	2220.31
188.025	2210.69
188.101	2211.74
188.176	2217.31
188.252	2211.98
188.328	2217.54
188.404	2215.78
188.48	2208.5
188.556	2201.6
188.632	2201.13
188.707	2201.18
188.783	2197.03
188.859	2193.47
188.935	2180.62
189.011	2189.42
189.086	2181.57
189.162	2170.44
189.238	2168.77
189.314	2165.63
189.39	2159.45
189.465	2151.84
189.541	2166.68
189.617	2151.36
189.693	2145.94
189.768	2148.46
189.844	2175.07
189.92	2168.8
189.996	2180.41
190.071	2191.87
190.147	2189.97
190.223	2200.63
190.298	2192.44
190.374	2182.12
190.45	2194.06
190.526	2204.67
190.601	2198.87
190.677	2201.29
190.753	2227.86
190.828	2230.9
190.904	2248.84
190.98	2264.45
191.055	2276.92
191.131	2269.4
191.207	2295.86
191.282	2307.51
191.358	2296.42
191.433	2279.95
191.509	2292.79
191.585	2284.99
191.66	2286.8
191.736	2294.93
191.811	2283.65
191.887	2299.79
191.963	2323.82
192.038	2330.39
192.114	2330.82
192.189	2336.2
192.265	2332.72
192.34	2309.01
192.416	2306.87
192.491	2302.45
192.567	2303.16
192.642	2304.64
192.718	2304.02
192.793	2286.03
192.869	2280.98
192.944	2283.93
193.02	2292.55
193.095	2297.26
193.171	2304.97
193.246	2306.4
193.322	2304.73
193.397	2304.4
193.473	2291.02
193.548	2273.12
193.624	2277.03
193.699	2276.41
193.775	2292.36
193.85	2294.45
193.925	2307.26
194.001	2307.73
194.076	2299.55
194.152	2289.98
194.227	2279.7
194.302	2270.52
194.378	2275.13
194.453	2270.37
194.529	2283.8
194.604	2266.71
194.679	2259.19
194.755	2241.59
194.83	2253.02
194.905	2253.02
194.981	2266.15
195.056	2260.73
195.131	2266.82
195.207	2269.2
195.282	2258.45
195.357	2238.17
195.433	2254.44
195.508	2242.26
195.583	2248.82
195.659	2262.82
195.734	2272.95
195.809	2275.1
195.884	2284.52
195.96	2286.51
196.035	2304.6
196.11	2299.5
196.185	2310.54
196.261	2314.68
196.336	2345.14
196.411	2331.1
196.486	2333.52
196.561	2324.62
196.637	2333.61
196.712	2347.28
196.787	2346.37
196.862	2362.46
196.937	2372.74
197.013	2377.98
197.088	2386.97
197.163	2409.78
197.238	2428.74
197.313	2427.32
197.388	2440.79
197.464	2470.08
197.539	2482.83
197.614	2476.26
197.689	2489.07
197.764	2508.26
197.839	2531.22
197.914	2526.07
197.989	2549.12
198.065	2565.84
198.14	2615.77
198.215	2639.73
198.29	2654.83
198.365	2668.46
198.44	2679.36
198.515	2707.18
198.59	2721.57
198.665	2748.01
198.74	2756.02
198.815	2754.45
198.89	2777.7
198.965	2811.92
199.04	2808.82
199.115	2825.21
199.19	2866.62
199.265	2869.86
199.34	2878.82
199.415	2912.96
199.49	2932.6
199.565	2941.99
199.64	2966.3
199.715	2965.96
199.79	2975.93
199.865	2981.41
199.94	2980.69
200.015	3014.88
200.09	3019.6
200.165	3026.52
200.24	3036.1
200.315	3079.2
200.39	3097.03
200.464	3102.32
200.539	3099.79
200.614	3116.19
200.689	3138.99
200.764	3146.86
200.839	3163.93
200.914	3174.99
200.989	3163.3
201.063	3180.42
201.138	3161.17
201.213	3163.12
201.288	3144.67
201.363	3150.34
201.438	3152.35
201.512	3168.36
201.587	3147.09
201.662	3151.52
201.737	3164.12
201.812	3172.27
201.886	3134.14
201.961	3141.39
202.036	3130.52
202.111	3128.28
202.186	3099.11
202.26	3080.7
202.335	3058.38
202.41	3053.61
202.485	3030.25
202.559	3009.66
202.634	2979.19
202.709	2987.86
202.784	2966.5
202.858	2967.31
202.933	2945.62
203.008	2936.42
203.082	2916.55
203.157	2916.45
203.232	2875.38
203.306	2854.11
203.381	2821.31
203.456	2799.82
203.53	2777.4
203.605	2756.01
203.68	2734.51
203.754	2729.37
203.829	2714.22
203.904	2693.83
203.978	2683.49
204.053	2689.06
204.127	2676.44
204.202	2678.53
204.277	2662.39
204.351	2653.24
204.426	2640.75
204.5	2634.94
204.575	2601.47
204.65	2610.38
204.724	2600.99
204.799	2604.75
204.873	2602.08
204.948	2598.89
205.022	2586.75
205.097	2577.17
205.171	2590.26
205.246	2595.55
205.32	2591.65
205.395	2591.13
205.469	2579.37
205.544	2583.47
205.618	2566.13
205.693	2576.8
205.767	2562.23
205.842	2582.95
205.916	2577.95
205.991	2570.8
206.065	2575.52
206.14	2593.13
206.214	2588.56
206.289	2584.08
206.363	2598.08
206.438	2599.99
206.512	2607.42
206.586	2624.94
206.661	2632.71
206.735	2611.71
206.81	2613.33
206.884	2632.43
206.958	2620.71
207.033	2640.9
207.107	2648.96
207.181	2681.17
207.256	2676.55
207.33	2695.26
207.405	2706.76
207.479	2727.34
207.553	2735
207.628	2716.53
207.702	2726.25
207.776	2723.91
207.851	2726.06
207.925	2741.69
207.999	2740.21
208.073	2736.97
208.148	2740.64
208.222	2727.97
208.296	2763.12
208.371	2776.99
208.445	2787.29
208.519	2815.39
208.593	2831.22
208.668	2826.5
208.742	2831.98
208.816	2833.41
208.89	2848.43
208.965	2847.28
209.039	2855.53
209.113	2875.6
209.187	2897.5
209.261	2894.41
209.336	2912.85
209.41	2934.16
209.484	2936.83
209.558	2961.58
209.632	2976.3
209.707	2990.27
209.781	3019.68
209.855	3035.14
209.929	3058.09
210.003	3063.43
210.077	3066.67
210.151	3111.3
210.226	3150.04
210.3	3176.73
210.374	3200.99
210.448	3207.62
210.522	3220.98
210.596	3237.68
210.67	3249.13
210.744	3303.43
210.818	3342.53
210.892	3368.3
210.966	3369.54
211.041	3392.83
211.115	3393.69
211.189	3427.85
211.263	3456.34
211.337	3468.42
211.411	3491.67
211.485	3497.69
211.559	3524.22
211.633	3539.1
211.707	3525.92
211.781	3547.52
211.855	3527.75
211.929	3538.05
212.003	3536.38
212.077	3569.96
212.151	3599.82
212.225	3633.1
212.299	3648.64
212.373	3662.44
212.447	3690.15
212.52	3749.1
212.594	3782.74
212.668	3831.95
212.742	3853.59
212.816	3887.1
212.89	3924.27
212.964	3969.36
213.038	4015.65
213.112	4075.42
213.186	4145.45
213.26	4177.09
213.333	4183.54
213.407	4247.83
213.481	4314.61
213.555	4395.29
213.629	4443.04
213.703	4496.55
213.777	4565.91
213.85	4617.37
213.924	4729.94
213.998	4805.99
214.072	4882.79
214.146	4956.6
214.219	5036.22
214.293	5115.43
214.367	5208.06
214.441	5315.12
214.515	5400.46
214.588	5469.38
214.662	5534.05
214.736	5606.21
214.81	5713.75
214.883	5833.83
214.957	5929.45
215.031	6025.55
215.105	6109.14
215.178	6210.39
215.252	6313.77
215.326	6402.72
215.4	6495.16
215.473	6562.41
215.547	6661.21
215.621	6766.58
215.694	6885.69
215.768	6982.4
215.842	7093.57
215.915	7195.85
215.989	7289.88
216.063	7400.08
216.136	7538.35
216.21	7663
216.284	7806.59
216.357	7933.83
216.431	8055.77
216.504	8192.09
216.578	8345.28
216.652	8489.64
216.725	8622.6
216.799	8768.88
216.873	8901.9
216.946	9043.29
217.02	9166.56
217.093	9295.16
217.167	9403.16
217.24	9522.69
217.314	9650.96
217.387	9777.36
217.461	9902.87
217.535	10043.08
217.608	10158.45
217.682	10279.56
217.755	10416.37
217.829	10532.54
217.902	10663.16
217.976	10790.6
218.049	10906.1
218.123	11018.91
218.196	11151
218.27	11272.64
218.343	11379.44
218.417	11510.87
218.49	11638.15
218.563	11775.99
218.637	11909.64
218.71	12058.87
218.784	12186.22
218.857	12326.96
218.931	12458.5
219.004	12586.57
219.077	12711.81
219.151	12843.89
219.224	12957.94
219.298	13071.32
219.371	13198.1
219.444	13302.41
219.518	13417.09
219.591	13534.76
219.665	13668.2
219.738	13772.51
219.811	13868.39
219.885	13988.76
219.958	14102.19
220.031	14212.29
220.105	14327.7
220.178	14432.06
220.251	14518.49
220.325	14624.11
220.398	14719.6
220.471	14814.66
220.544	14918.63
220.618	15003.71
220.691	15096.16
220.764	15193.2
220.838	15296.4
220.911	15380.08
220.984	15485.88
221.057	15584.74
221.131	15677.58
221.204	15732.72
221.277	15840.68
221.35	15959.54
221.424	16032.61
221.497	16110.84
221.57	16186.8
221.643	16270.28
221.716	16354.48
221.79	16427.4
221.863	16500.32
221.936	16569.87
222.009	16649.16
222.082	16720.34
222.155	16784.39
222.229	16871.58
222.302	16944.88
222.375	17005.27
222.448	17084.7
222.521	17156.07
222.594	17208.31
222.667	17259.06
222.74	17335.88
222.814	17396.7
222.887	17443.16
222.96	17515.02
223.033	17571.11
223.106	17629.18
223.179	17679.88
223.252	17722.63
223.325	17779.35
223.398	17829.9
223.471	17886.96
223.544	17935.59
223.617	17983.59
223.69	18046.28
223.763	18080.98
223.837	18131.82
223.91	18193.27
223.983	18212.98
224.056	18237.46
224.129	18285.98
224.202	18340.05
224.275	18371.28
224.348	18398.36
224.42	18433.98
224.493	18449.01
224.566	18482.22
224.639	18520.96
224.712	18549.78
224.785	18585.39
224.858	18619.56
224.931	18641.63
225.004	18655.84
225.077	18682.83
225.15	18683.36
225.223	18703.17
225.296	18748.18
225.369	18751.26
225.442	18757.62
225.514	18792.9
225.587	18821.67
225.66	18851.54
225.733	18869.66
225.806	18890.77
225.879	18894.87
225.952	18887.35
226.025	18911.49
226.097	18946.04
226.17	18961.61
226.243	18951.01
226.316	18957.66
226.389	18968.89
226.461	18997.27
226.534	19023.05
226.607	19029.27
226.68	19067.34
226.753	19082.85
226.825	19063.43
226.898	19090.47
226.971	19097.74
227.044	19104.49
227.117	19114.51
227.189	19112.15
227.262	19136.44
227.335	19149.6
227.407	19165.69
227.48	19185.69
227.553	19202.61
227.626	19194.03
227.698	19189.93
227.771	19210.6
227.844	19211.62
227.916	19219.42
227.989	19199.23
228.062	19201.35
228.134	19234.07
228.207	19233.3
228.28	19221.4
228.352	19226.41
228.425	19225.5
228.498	19236.87
228.57	19229.93
228.643	19249.49
228.716	19250.41
228.788	19230.36
228.861	19216.97
228.934	19220.05
229.006	19222.7
229.079	19211.09
229.151	19202.65
229.224	19189.35
229.296	19185.84
229.369	19202.03
229.442	19203.33
229.514	19198.41
229.587	19201.02
229.659	19176.15
229.732	19179.96
229.804	19187.47
229.877	19210.75
229.949	19220.19
230.022	19238.7
230.094	19232.58
230.167	19223.33
230.239	19201.74
230.312	19202.56
230.384	19230.12
230.457	19224.58
230.529	19224.1
230.602	19221.45
230.674	19230.27
230.747	19235.62
230.819	19242.99
230.892	19209.93
230.964	19213.59
231.037	19211.28
231.109	19200.73
231.181	19201.35
231.254	19176.73
231.326	19165.74
231.399	19147.48
231.471	19125.94
231.544	19086.85
231.616	19089.41
231.688	19077.07
231.761	19070.32
231.833	19050.76
231.905	19013.08
231.978	19004.83
232.05	18982.23
232.122	18977.85
232.195	18952.16
232.267	18964.5
232.339	18946.04
232.412	18953.32
232.484	18929.66
232.556	18919.06
232.629	18923.68
232.701	18918.33
232.773	18914.82
232.846	18901.76
232.918	18894.38
232.99	18878.87
233.062	18879.45
233.135	18872.51
233.207	18852.22
233.279	18852.03
233.351	18845.47
233.424	18822.77
233.496	18794.1
233.568	18809.18
233.64	18781.28
233.713	18770.1
233.785	18745.38
233.857	18729.57
233.929	18691.5
234.001	18683.36
234.074	18681.87
234.146	18647.56
234.218	18633.48
234.29	18617
234.362	18604.43
234.434	18567.51
234.507	18555.32
234.579	18521.54
234.651	18491.76
234.723	18476.92
234.795	18465.01
234.867	18448.34
234.939	18451.76
235.012	18443.42
235.084	18423.23
235.156	18415.76
235.228	18396.1
235.3	18381.5
235.372	18372.73
235.444	18379.57
235.516	18350.42
235.588	18334.47
235.66	18311.33
235.732	18277.02
235.804	18317.84
235.876	18294.47
235.948	18285.89
236.02	18254.32
236.092	18234.76
236.164	18214.33
236.236	18189.41
236.308	18159
236.38	18148.45
236.452	18119.44
236.524	18102.14
236.596	18096.26
236.668	18078.62
236.74	18054.67
236.812	18027.01
236.884	18007.97
236.956	17973.03
237.028	17942.87
237.1	17908.99
237.172	17911.54
237.244	17908.31
237.316	17834.29
237.388	17812.12
237.46	17787.5
237.532	17778
237.604	17741.23
237.675	17741.76
237.747	17725.52
237.819	17695.35
237.891	17668.9
237.963	17642.68
238.035	17611.79
238.107	17542.63
238.178	17533.38
238.25	17505.14
238.322	17508.46
238.394	17465.43
238.466	17446.39
238.538	17434.1
238.609	17420.22
238.681	17371.93
238.753	17330.97
238.825	17310.78
238.897	17294.73
238.968	17289.33
239.04	17262.34
239.112	17273.33
239.184	17232.22
239.255	17202.73
239.327	17189.48
239.399	17161.76
239.471	17144.22
239.542	17132.99
239.614	17138.68
239.686	17086.73
239.758	17086.05
239.829	17044.7
239.901	17039.69
239.973	17013.33
240.044	16992.12
240.116	16958.72
240.188	16931.44
240.259	16904.36
240.331	16877.13
240.403	16851.83
240.474	16808.64
240.546	16774.18
240.618	16725.75
240.689	16690.76
240.761	16665.41
240.833	16660.83
240.904	16629.16
240.976	16601.5
241.048	16568.24
241.119	16548.05
241.191	16535.76
241.262	16515.32
241.334	16481.83
241.405	16452.52
241.477	16420.04
241.549	16388.18
241.62	16367.6
241.692	16349.53
241.763	16342.39
241.835	16314.82
241.906	16295.59
241.978	16250.53
242.049	16242.29
242.121	16230.19
242.192	16227.2
242.264	16182.95
242.335	16127.53
242.407	16111.86
242.478	16075.23
242.55	16053.64
242.621	16011.85
242.693	15974.35
242.764	15934.44
242.836	15907.88
242.907	15888.65
242.979	15868.17
243.05	15843.49
243.122	15826.14
243.193	15799.44
243.264	15742.9
243.336	15711.76
243.407	15684.67
243.479	15686.79
243.55	15659.08
243.622	15641.73
243.693	15612.13
243.764	15611.07
243.836	15572.85
243.907	15551.2
243.978	15523.25
244.05	15503.39
244.121	15459.81
244.192	15439.28
244.264	15400.62
244.335	15367.89
244.407	15317.23
244.478	15295.69
244.549	15255.15
244.62	15209.93
244.692	15181.01
244.763	15170.79
244.834	15138.16
244.906	15100.66
244.977	15071.69
245.048	15051.49
245.119	15008.45
245.191	14966.66
245.262	14916.77
245.333	14922.74
245.405	14885.34
245.476	14870.15
245.547	14839.16
245.618	14825.95
245.689	14803.15
245.761	14779.82
245.832	14759.53
245.903	14742.99
245.974	14721.97
246.045	14704.72
246.117	14691.36
246.188	14657.52
246.259	14620.26
246.33	14592.54
246.401	14567.24
246.473	14520.48
246.544	14489.87
246.615	14472.66
246.686	14447.54
246.757	14435.35
246.828	14387.82
246.899	14380.68
246.97	14336.09
247.042	14301.82
247.113	14276.8
247.184	14273.38
247.255	14250
247.326	14228.31
247.397	14204.54
247.468	14172.97
247.539	14143.99
247.61	14110.35
247.681	14087.79
247.752	14069.32
247.823	14032.73
247.894	14003.76
247.965	13977.73
248.037	13946.64
248.108	13901.47
248.179	13877.36
248.25	13854.42
248.321	13835.47
248.392	13798.69
248.463	13798.64
248.534	13773.38
248.605	13762.73
248.675	13733.37
248.746	13710.47
248.817	13689.12
248.888	13672.1
248.959	13640.43
249.03	13629.92
249.101	13603.46
249.172	13577.14
249.243	13536.69
249.314	13533.17
249.385	13510.66
249.456	13485.98
249.527	13462.98
249.598	13455.32
249.669	13428.32
249.739	13405.33
249.81	13386.53
249.881	13349.99
249.952	13326.8
250.023	13306.12
250.094	13266.25
250.165	13224.46
250.235	13197.94
250.306	13168.63
250.377	13127.42
250.448	13104.13
250.519	13056.41
250.59	13047.83
250.66	13027.2
250.731	13025.22
250.802	12998.8
250.873	12979.23
250.944	12972.24
251.014	12937
251.085	12934.25
251.156	12920.32
251.227	12911.84
251.297	12904.94
251.368	12893.13
251.439	12877.95
251.51	12865.71
251.58	12834.85
251.651	12806.75
251.722	12796.39
251.792	12766.69
251.863	12744.9
251.934	12741.09
252.005	12751.27
252.075	12728.85
252.146	12717.43
252.217	12701.95
252.287	12693.37
252.358	12677.99
252.429	12668.79
252.499	12646.66
252.57	12627.28
252.641	12617.35
252.711	12590.55
252.782	12553.53
252.852	12549.09
252.923	12528.61
252.994	12511.16
253.064	12503.35
253.135	12477.9
253.205	12458.95
253.276	12451.77
253.347	12453.41
253.417	12425.5
253.488	12395.47
253.558	12373.92
253.629	12349.14
253.699	12337.53
253.77	12325.38
253.841	12303.98
253.911	12290.14
253.982	12272.79
254.052	12256.01
254.123	12231.67
254.193	12214.8
254.264	12242.66
254.334	12218.66
254.405	12185.25
254.475	12151.03
254.546	12130.21
254.616	12131.46
254.687	12114.01
254.757	12103.26
254.827	12083.84
254.898	12064.51
254.968	12052.31
255.039	12027.88
255.109	12022.48
255.18	11990.13
255.25	11944.68
255.321	11926.27
255.391	11888.19
255.461	11903.18
255.532	11856.76
255.602	11833.1
255.673	11795.21
255.743	11761.23
255.813	11713.95
255.884	11707.49
255.954	11701.56
256.024	11695.82
256.095	11677.07
256.165	11639.67
256.235	11625.16
256.306	11597.88
256.376	11594.94
256.446	11583.81
256.517	11570.94
256.587	11565.5
256.657	11553.01
256.728	11542.07
256.798	11529.98
256.868	11511.85
256.938	11476.38
257.009	11475.85
257.079	11472.91
257.149	11488.48
257.219	11442.93
257.29	11437.15
257.36	11405.92
257.43	11401.48
257.5	11365.43
257.571	11334.78
257.641	11335.07
257.711	11305.62
257.781	11297.86
257.852	11283.55
257.922	11242.54
257.992	11221.29
258.062	11197.14
258.132	11191.93
258.202	11173.81
258.273	11157
258.343	11158.25
258.413	11132.42
258.483	11114.39
258.553	11081.53
258.623	11050.2
258.693	11035.21
258.764	11036.03
258.834	11028.03
258.904	11003.65
258.974	10983.84
259.044	10972.52
259.114	10955.17
259.184	10943.32
259.254	10921.1
259.324	10883.51
259.394	10876.24
259.464	10882.79
259.535	10862.55
259.605	10832.63
259.675	10810.75
259.745	10803.04
259.815	10774.03
259.885	10754.03
259.955	10767
260.025	10742.38
260.095	10727.1
260.165	10725.08
260.235	10721.18
260.305	10698.48
260.375	10674.92
260.445	10678.87
260.515	10678.29
260.585	10677.62
260.655	10659.31
260.725	10650.54
260.795	10645.91
260.865	10655.98
260.934	10630.06
261.004	10623.46
261.074	10609.48
261.144	10613.1
261.214	10607.22
261.284	10590.26
261.354	10581.88
261.424	10555.95
261.494	10558.6
261.564	10542.6
261.634	10529.74
261.703	10498.37
261.773	10493.41
261.843	10487
261.913	10475.68
261.983	10442.39
262.053	10426.34
262.123	10410.15
262.192	10384.96
262.262	10380.24
262.332	10347.23
