Data from 20250704_urea_0.5M_MAYP1162681_11-05-08-767.txt Node
Date: Fri Jul 04 11:05:08 BST 2025
User: adleo
Spectrometer: MAYP116268
Trigger mode: 0
Integration Time (sec): 1.000000E0
Scans to average: 1
Electric dark correction enabled: true
Nonlinearity correction enabled: true
Boxcar width: 10
XAxis mode: Wavelengths
Number of Pixels in Spectrum: 2068
>>>>>Begin Spectral Data<<<<<
179.565	1236.37
179.642	1292.98
179.718	1342.71
179.795	1383.92
179.871	1420.1
179.948	1438.16
180.024	1462.02
180.101	1485.22
180.177	1499.68
180.254	1520.93
180.33	1543.67
180.407	1600.84
180.483	1696.71
180.56	1789.98
180.636	1876.2
180.712	1863.74
180.789	1877.19
180.865	1891.31
180.942	1903.57
181.018	1913.55
181.095	1927.34
181.171	1928.96
181.248	1932.19
181.324	1943.18
181.4	1950.07
181.477	1960.2
181.553	1972.7
181.63	1992.3
181.706	2008.42
181.782	2015.26
181.859	2016.07
181.935	2020.73
182.011	2015.22
182.088	2033.81
182.164	2053.32
182.24	2068.3
182.317	2077.76
182.393	2074.53
182.469	2087.37
182.546	2099.64
182.622	2105.92
182.698	2101.26
182.775	2116.14
182.851	2133.79
182.927	2128.42
183.003	2125.33
183.08	2120.24
183.156	2130.08
183.232	2121.47
183.308	2109.68
183.385	2121.42
183.461	2139.21
183.537	2139.88
183.613	2155.29
183.69	2146.63
183.766	2133.07
183.842	2136.31
183.918	2142.82
183.995	2155.57
184.071	2158.67
184.147	2151.81
184.223	2138.64
184.299	2152.06
184.375	2137.93
184.452	2139.93
184.528	2187.99
184.604	2197.02
184.68	2206.92
184.756	2214.91
184.832	2225.09
184.908	2231.04
184.985	2230.23
185.061	2212.91
185.137	2222.67
185.213	2209.82
185.289	2210.96
185.365	2206.21
185.441	2209.44
185.517	2219.77
185.593	2217.87
185.669	2214.3
185.745	2226.34
185.822	2242.56
185.898	2232.99
185.974	2245.07
186.05	2236.7
186.126	2202.96
186.202	2197.4
186.278	2193.02
186.354	2183.69
186.43	2188.74
186.506	2187.27
186.582	2184.32
186.658	2192.97
186.734	2171.76
186.81	2173.99
186.886	2176.66
186.962	2189.12
187.038	2187.69
187.114	2181.22
187.19	2187.26
187.266	2176.51
187.341	2176.42
187.417	2168.33
187.493	2169.05
187.569	2173.71
187.645	2168.05
187.721	2155.87
187.797	2160.62
187.873	2166.71
187.949	2159.58
188.025	2154.06
188.101	2156.58
188.176	2163.62
188.252	2159.48
188.328	2169.85
188.404	2169.04
188.48	2166.23
188.556	2159.09
188.632	2152.77
188.707	2154.05
188.783	2152.67
188.859	2149.92
188.935	2137.73
189.011	2147.06
189.086	2142.35
189.162	2131.03
189.238	2126.94
189.314	2124.03
189.39	2121.7
189.465	2111.71
189.541	2129.27
189.617	2113.48
189.693	2107.34
189.768	2107.29
189.844	2132.71
189.92	2124.39
189.996	2133.9
190.071	2145.32
190.147	2145.51
190.223	2157.69
190.298	2152.17
190.374	2138.8
190.45	2149.93
190.526	2159.35
190.601	2155.02
190.677	2157.54
190.753	2187.63
190.828	2192.43
190.904	2208.56
190.98	2222.55
191.055	2237.01
191.131	2227.93
191.207	2247.76
191.282	2259.42
191.358	2252.61
191.433	2237.48
191.509	2254.08
191.585	2250.65
191.66	2253.08
191.736	2261.21
191.811	2252.51
191.887	2267.21
191.963	2291.39
192.038	2300.1
192.114	2297.53
192.189	2300.62
192.265	2295.29
192.34	2268.97
192.416	2268.4
192.491	2264.59
192.567	2267.73
192.642	2267.4
192.718	2268.16
192.793	2256.07
192.869	2251.17
192.944	2254.07
193.02	2263.69
193.095	2263.97
193.171	2269.49
193.246	2264.54
193.322	2259.5
193.397	2261.88
193.473	2247.26
193.548	2227.75
193.624	2230.7
193.699	2234.51
193.775	2251.88
193.85	2253.88
193.925	2267.3
194.001	2267.3
194.076	2260.74
194.152	2247.93
194.227	2241.98
194.302	2231.42
194.378	2237.47
194.453	2233.04
194.529	2246.32
194.604	2228.09
194.679	2222.19
194.755	2205.21
194.83	2221.49
194.905	2220.07
194.981	2226.25
195.056	2218.88
195.131	2223.21
195.207	2221.64
195.282	2208.79
195.357	2187.61
195.433	2203.26
195.508	2190.99
195.583	2199.41
195.659	2212.4
195.734	2220.82
195.809	2219.78
195.884	2230.43
195.96	2230.24
196.035	2247.56
196.11	2242.8
196.185	2255.03
196.261	2260.69
196.336	2293.19
196.411	2275.39
196.486	2281.48
196.561	2275.91
196.637	2284.95
196.712	2300.09
196.787	2302.8
196.862	2322.17
196.937	2334.83
197.013	2339.25
197.088	2348.25
197.163	2369.87
197.238	2385.87
197.313	2386.25
197.388	2400.15
197.464	2429.67
197.539	2437.34
197.614	2430.1
197.689	2443.34
197.764	2459.05
197.839	2479.05
197.914	2469.24
197.989	2494.05
198.065	2508.95
198.14	2560.03
198.215	2586.22
198.29	2601.85
198.365	2615.37
198.44	2622.66
198.515	2649.29
198.59	2665.77
198.665	2694.4
198.74	2701.6
198.815	2706.98
198.89	2726.89
198.965	2758.35
199.04	2752.82
199.115	2772.35
199.19	2816.32
199.265	2818.99
199.34	2832.33
199.415	2865.14
199.49	2890.58
199.565	2899.68
199.64	2922.7
199.715	2920.6
199.79	2928.09
199.865	2935.86
199.94	2936.81
200.015	2969.75
200.09	2977.19
200.165	2985.63
200.24	2994.16
200.315	3039.59
200.39	3052.8
200.464	3063.76
200.539	3066.82
200.614	3086.41
200.689	3109.01
200.764	3115.69
200.839	3135.04
200.914	3138.76
200.989	3127.69
201.063	3139.71
201.138	3121.6
201.213	3122.22
201.288	3102.39
201.363	3109.25
201.438	3104.91
201.512	3122.55
201.587	3107.15
201.662	3112.44
201.737	3123.22
201.812	3126.94
201.886	3090.09
201.961	3100.59
202.036	3086.52
202.111	3079.04
202.186	3051.39
202.26	3034.13
202.335	3010.14
202.41	3000.42
202.485	2983.5
202.559	2961.76
202.634	2935.4
202.709	2945.4
202.784	2922.57
202.858	2922.43
202.933	2901.27
203.008	2899.46
203.082	2876.15
203.157	2872.72
203.232	2827.4
203.306	2807.76
203.381	2774.73
203.456	2751.9
203.53	2728.67
203.605	2708.96
203.68	2689.99
203.754	2683.66
203.829	2669.22
203.904	2650.21
203.978	2641.45
204.053	2645.73
204.127	2635.49
204.202	2633.73
204.277	2615.16
204.351	2613.78
204.426	2608.39
204.5	2602.91
204.575	2566.68
204.65	2577.63
204.724	2571.63
204.799	2579.67
204.873	2573.62
204.948	2575.86
205.022	2562.48
205.097	2555.38
205.171	2571.05
205.246	2576.72
205.32	2572.34
205.395	2570.15
205.469	2561.58
205.544	2564.2
205.618	2547.91
205.693	2559.96
205.767	2547.25
205.842	2569.78
205.916	2561.45
205.991	2552.21
206.065	2555.06
206.14	2570.24
206.214	2565.29
206.289	2557.81
206.363	2572
206.438	2577.91
206.512	2586.1
206.586	2609.01
206.661	2614.73
206.735	2594.64
206.81	2596.3
206.884	2614.3
206.958	2608.02
207.033	2630.4
207.107	2644.6
207.181	2679.24
207.256	2677.1
207.33	2701.3
207.405	2720.47
207.479	2747.72
207.553	2759.82
207.628	2751.15
207.702	2775.4
207.776	2777.35
207.851	2792.46
207.925	2818.83
207.999	2828.88
208.073	2840.47
208.148	2856.06
208.222	2862.44
208.296	2914.15
208.371	2951.36
208.445	2988.55
208.519	3040.52
208.593	3078.58
208.668	3102.29
208.742	3135.51
208.816	3170.66
208.89	3222.63
208.965	3258.45
209.039	3304.46
209.113	3364.84
209.187	3434.71
209.261	3477.38
209.336	3552.96
209.41	3627.9
209.484	3686.29
209.558	3770.23
209.632	3851.21
209.707	3929.62
209.781	4029.09
209.855	4119.85
209.929	4218.62
210.003	4304.86
210.077	4390.34
210.151	4531.55
210.226	4658.04
210.3	4785.84
210.374	4909.18
210.448	5016.13
210.522	5133.9
210.596	5261.4
210.67	5390.07
210.744	5553.92
210.818	5710.55
210.892	5856.5
210.966	5981.29
211.041	6133.96
211.115	6266.2
211.189	6424.73
211.263	6585.48
211.337	6736.12
211.411	6899.58
211.485	7046.96
211.559	7216.35
211.633	7381.42
211.707	7510.05
211.781	7688.19
211.855	7817.51
211.929	7977.08
212.003	8132.39
212.077	8317.43
212.151	8507.02
212.225	8697.63
212.299	8871.04
212.373	9039.74
212.447	9217.2
212.52	9431.29
212.594	9613.56
212.668	9811.47
212.742	9989.86
212.816	10172.02
212.89	10355.06
212.964	10546
213.038	10742.24
213.112	10947.02
213.186	11155.17
213.26	11323.91
213.333	11462.08
213.407	11662.02
213.481	11867.31
213.555	12075.8
213.629	12264.69
213.703	12439.18
213.777	12625.24
213.85	12802.29
213.924	13035.59
213.998	13228.54
214.072	13413.99
214.146	13593.98
214.219	13778.89
214.293	13962.74
214.367	14155.95
214.441	14347.85
214.515	14527.45
214.588	14681.27
214.662	14825.93
214.736	14986.69
214.81	15175.84
214.883	15365.37
214.957	15534.18
215.031	15690.35
215.105	15829.22
215.178	15973.24
215.252	16129.36
215.326	16271.93
215.4	16411.94
215.473	16518.16
215.547	16658.17
215.621	16800.25
215.694	16962.67
215.768	17093.86
215.842	17231.26
215.915	17360.18
215.989	17476.37
216.063	17604.85
216.136	17744.95
216.21	17879.89
216.284	18015.21
216.357	18144.07
216.431	18268.94
216.504	18389.17
216.578	18537.99
216.652	18684.68
216.725	18812.68
216.799	18945.83
216.873	19062.11
216.946	19188.51
217.02	19287.59
217.093	19404.36
217.167	19487.2
217.24	19574.13
217.314	19672.2
217.387	19758.51
217.461	19847.28
217.535	19966.84
217.608	20046.5
217.682	20140.71
217.755	20248.04
217.829	20325.72
217.902	20419.17
217.976	20504.66
218.049	20586.98
218.123	20657.83
218.196	20735.76
218.27	20798.12
218.343	20850.7
218.417	20932.63
218.49	21008.06
218.563	21098.19
218.637	21161.13
218.71	21250.25
218.784	21328
218.857	21406.03
218.931	21480.69
219.004	21555.39
219.077	21623.36
219.151	21695.56
219.224	21751.09
219.298	21811.49
219.371	21896.62
219.444	21931.76
219.518	21988.97
219.591	22044.26
219.665	22115.18
219.738	22169.46
219.811	22226.05
219.885	22286.5
219.958	22345.65
220.031	22387.64
220.105	22444.91
220.178	22499.87
220.251	22543.4
220.325	22594.08
220.398	22638.57
220.471	22686.01
220.544	22728.82
220.618	22753.17
220.691	22788.75
220.764	22834.31
220.838	22868.35
220.911	22884.55
220.984	22942.5
221.057	22980.5
221.131	23022.25
221.204	23030.5
221.277	23083.2
221.35	23142.03
221.424	23157.02
221.497	23176.21
221.57	23197.43
221.643	23223.03
221.716	23244.2
221.79	23258.33
221.863	23268.84
221.936	23286.2
222.009	23309.35
222.082	23333.22
222.155	23349.75
222.229	23381.39
222.302	23407.91
222.375	23410.61
222.448	23433.28
222.521	23443.16
222.594	23460.14
222.667	23454.93
222.74	23470.55
222.814	23467.51
222.887	23454.78
222.96	23478.27
223.033	23491.29
223.106	23495.24
223.179	23501.46
223.252	23510
223.325	23511.49
223.398	23504.07
223.471	23508.5
223.544	23505.46
223.617	23503.39
223.69	23500.79
223.763	23476.96
223.837	23459.41
223.91	23467.95
223.983	23447.36
224.056	23434.05
224.129	23420.59
224.202	23431.3
224.275	23414.76
224.348	23385.15
224.42	23369.57
224.493	23347.78
224.566	23328.25
224.639	23326.27
224.712	23308.38
224.785	23272.12
224.858	23265.32
224.931	23252.11
225.004	23227.42
225.077	23217.19
225.15	23175.2
225.223	23159.09
225.296	23174.48
225.369	23146.46
225.442	23117.19
225.514	23095.49
225.587	23078.76
225.66	23062.47
225.733	23041.2
225.806	23025.92
225.879	23006.68
225.952	22975.92
226.025	22968.44
226.097	22967.48
226.17	22948.19
226.243	22914.1
226.316	22904.08
226.389	22884.02
226.461	22870.08
226.534	22854.85
226.607	22826.64
226.68	22837.93
226.753	22822.3
226.825	22777.99
226.898	22768.54
226.971	22744.63
227.044	22731.37
227.117	22716.09
227.189	22702.88
227.262	22697.86
227.335	22683.25
227.407	22662.77
227.48	22646.52
227.553	22623.38
227.626	22583.26
227.698	22558.77
227.771	22542.14
227.844	22515.58
227.916	22496.73
227.989	22464.62
228.062	22448.71
228.134	22450.2
228.207	22415.2
228.28	22374.85
228.352	22339.08
228.425	22313.73
228.498	22299.41
228.57	22262.73
228.643	22246.43
228.716	22225.99
228.788	22177.45
228.861	22141.48
228.934	22130.88
229.006	22106.68
229.079	22076.84
229.151	22052.98
229.224	22003.23
229.296	21982.22
229.369	21988.1
229.442	21969.49
229.514	21939.27
229.587	21906.68
229.659	21851.63
229.732	21833.51
229.804	21828.49
229.877	21837.99
229.949	21824.69
230.022	21829.94
230.094	21808.83
230.167	21782.17
230.239	21730.16
230.312	21705.1
230.384	21707.85
230.457	21687.8
230.529	21664.95
230.602	21637.67
230.674	21609.61
230.747	21604.31
230.819	21585.51
230.892	21523.38
230.964	21489.98
231.037	21459.76
231.109	21442.46
231.181	21434.79
231.254	21392.04
231.326	21362.3
231.399	21326.97
231.471	21293.14
231.544	21232.5
231.616	21216.07
231.688	21182.04
231.761	21156.69
231.833	21128.49
231.905	21070.03
231.978	21040.39
232.05	21002.94
232.122	20977.01
232.195	20947.08
232.267	20933.68
232.339	20906.21
232.412	20892.09
232.484	20858.88
232.556	20832.04
232.629	20821.63
232.701	20791.12
232.773	20767.7
232.846	20730.11
232.918	20697.91
232.99	20670.1
233.062	20651.89
233.135	20622.87
233.207	20582.39
233.279	20567.5
233.351	20541.57
233.424	20510.97
233.496	20465.47
233.568	20460.51
233.64	20420.46
233.713	20390.58
233.785	20346.54
233.857	20315.4
233.929	20266.92
234.001	20247.98
234.074	20235.12
234.146	20170.92
234.218	20136.61
234.29	20097.33
234.362	20058.49
234.434	20008.71
234.507	19959.41
234.579	19904.86
234.651	19872.52
234.723	19853.63
234.795	19821.39
234.867	19798.69
234.939	19773.68
235.012	19741.54
235.084	19708.1
235.156	19684.14
235.228	19649.01
235.3	19616
235.372	19577.02
235.444	19558.56
235.516	19508.49
235.588	19477.17
235.66	19448.06
235.732	19407.39
235.804	19433.89
235.876	19410.47
235.948	19394.47
236.02	19363.05
236.092	19327.83
236.164	19288.07
236.236	19250.53
236.308	19210.77
236.38	19169.33
236.452	19126.1
236.524	19090.59
236.596	19076.42
236.668	19052.9
236.74	19012.62
236.812	18979.27
236.884	18956.14
236.956	18916.67
237.028	18872.19
237.1	18822.12
237.172	18806.32
237.244	18784.63
237.316	18708.01
237.388	18669.31
237.46	18627.87
237.532	18613.94
237.604	18576.93
237.675	18560.6
237.747	18532.26
237.819	18486.34
237.891	18446.24
237.963	18416.36
238.035	18387.98
238.107	18303.55
238.178	18274.73
238.25	18237.82
238.322	18224.61
238.394	18165.82
238.466	18130.54
238.538	18106.11
238.609	18077.49
238.681	18026.93
238.753	17983.56
238.825	17953.4
238.897	17925.59
238.968	17909.59
239.04	17861.74
239.112	17862.46
239.184	17811.47
239.255	17774.12
239.327	17751.76
239.399	17720.44
239.471	17684.78
239.542	17650.46
239.614	17646.85
239.686	17594.7
239.758	17569.69
239.829	17513.79
239.901	17489.79
239.973	17464.68
240.044	17436.63
240.116	17404.1
240.188	17364.49
240.259	17324.97
240.331	17284.25
240.403	17249.45
240.474	17192.39
240.546	17149.11
240.618	17088.39
240.689	17060.77
240.761	17033.01
240.833	17016.63
240.904	16983.18
240.976	16955.66
241.048	16924.53
241.119	16890.12
241.191	16861.34
241.262	16849.2
241.334	16823.08
241.405	16790.21
241.477	16748.95
241.549	16707.55
241.62	16675.74
241.692	16649.53
241.763	16638.15
241.835	16601.62
241.906	16573.81
241.978	16518.82
242.049	16505.47
242.121	16480.5
242.192	16461.94
242.264	16411.53
242.335	16356.78
242.407	16328.15
242.478	16287.28
242.55	16259.08
242.621	16224.62
242.693	16180.57
242.764	16131.6
242.836	16095.26
242.907	16073.28
242.979	16040.84
243.05	16015.1
243.122	15994.72
243.193	15964.74
243.264	15906.9
243.336	15883.42
243.407	15854.84
243.479	15855.47
243.55	15825.34
243.622	15807.75
243.693	15763.6
243.764	15745.91
243.836	15699.73
243.907	15668.64
243.978	15633.84
244.05	15601.55
244.121	15553.83
244.192	15541.25
244.264	15496.81
244.335	15465.38
244.407	15408.16
244.478	15382.57
244.549	15347.62
244.62	15288.86
244.692	15251.7
244.763	15233.14
244.834	15189.28
244.906	15152.36
244.977	15121.84
245.048	15102.42
245.119	15055.57
245.191	15013.77
245.262	14962.82
245.333	14952.07
245.405	14920.89
245.476	14900.06
245.547	14875.24
245.618	14857.02
245.689	14814.94
245.761	14789.77
245.832	14760.32
245.903	14751.74
245.974	14725.37
246.045	14694.67
246.117	14692.4
246.188	14665.12
246.259	14621.73
246.33	14593.53
246.401	14556.41
246.473	14516.55
246.544	14479.14
246.615	14465.16
246.686	14439.47
246.757	14424.91
246.828	14392.66
246.899	14381.29
246.97	14343.64
247.042	14303.34
247.113	14287.38
247.184	14290.13
247.255	14262.7
247.326	14242.94
247.397	14205.14
247.468	14180.22
247.539	14156.26
247.61	14115.38
247.681	14090.85
247.752	14090.8
247.823	14052.96
247.894	14039.17
247.965	13999.74
248.037	13970.76
248.108	13923.47
248.179	13894.21
248.25	13865.96
248.321	13837.28
248.392	13791.92
248.463	13784.16
248.534	13759.91
248.605	13724.24
248.675	13686.49
248.746	13661.23
248.817	13638
248.888	13617.17
248.959	13576.24
249.03	13557.3
249.101	13532.04
249.172	13499.84
249.243	13450.13
249.314	13439.87
249.385	13412.68
249.456	13392.19
249.527	13361.19
249.598	13342.92
249.669	13312.41
249.739	13294.14
249.81	13281.51
249.881	13249.07
249.952	13219.47
250.023	13194.01
250.094	13167.64
250.165	13131.49
250.235	13104.06
250.306	13082.61
250.377	13051.56
250.448	13027.61
250.519	12984.08
250.59	12975.78
250.66	12950.04
250.731	12939.97
250.802	12918.66
250.873	12903.09
250.944	12887.23
251.014	12856.76
251.085	12859.32
251.156	12849.2
251.227	12839.46
251.297	12832.52
251.368	12827.21
251.439	12819.07
251.51	12809.71
251.58	12776.26
251.651	12754.37
251.722	12749.55
251.792	12709.83
251.863	12686.65
251.934	12686.89
252.005	12693.93
252.075	12668.52
252.146	12657.72
252.217	12651.46
252.287	12637.48
252.358	12613.71
252.429	12610.29
252.499	12585.9
252.57	12569.07
252.641	12559.77
252.711	12535.19
252.782	12495.56
252.852	12495.8
252.923	12473.87
252.994	12453.67
253.064	12440.9
253.135	12412.84
253.205	12383.63
253.276	12377.13
253.347	12375.44
253.417	12339.33
253.488	12313.02
253.558	12287.27
253.629	12268.43
253.699	12240.37
253.77	12229.24
253.841	12195.93
253.911	12172.46
253.982	12152.45
254.052	12137.7
254.123	12119.82
254.193	12100.78
254.264	12115.09
254.334	12074.41
254.405	12048.62
254.475	12016.42
254.546	12001.24
254.616	11997.87
254.687	11986.64
254.757	11975.31
254.827	11956.94
254.898	11946.05
254.968	11923.2
255.039	11901.8
255.109	11888.6
255.18	11864.11
255.25	11822.08
255.321	11820.35
255.391	11787.28
255.461	11798.27
255.532	11750.36
255.602	11725.25
255.673	11689.05
255.743	11655.26
255.813	11617.52
255.884	11602.87
255.954	11597.91
256.024	11591.45
256.095	11568.07
256.165	11530.24
256.235	11506.09
256.306	11475.78
256.376	11470.96
256.446	11467.44
256.517	11454.09
256.587	11447.39
256.657	11434.57
256.728	11424.88
256.798	11401.89
256.868	11386.08
256.938	11357.7
257.009	11353.6
257.079	11345.26
257.149	11345.07
257.219	11313.84
257.29	11298.66
257.36	11260.15
257.43	11246.85
257.5	11208.2
257.571	11190.47
257.641	11186.42
257.711	11160.68
257.781	11156.97
257.852	11139.09
257.922	11099.09
257.992	11086.23
258.062	11066.47
258.132	11059.28
258.202	11039.77
258.273	11027.14
258.343	11029.36
258.413	10996.93
258.483	10976.69
258.553	10941.36
258.623	10925.51
258.693	10914.91
258.764	10919.44
258.834	10920.98
258.904	10908.4
258.974	10890
259.044	10870.82
259.114	10856.65
259.184	10847.74
259.254	10824.08
259.324	10786.01
259.394	10773.14
259.464	10774.97
259.535	10755.22
259.605	10729.1
259.675	10705.01
259.745	10691.08
259.815	10664.96
259.885	10641.26
259.955	10657.31
260.025	10644.44
260.095	10624.88
260.165	10614.62
260.235	10615.92
260.305	10596.74
260.375	10568.41
260.445	10576.65
260.515	10582.72
260.585	10588.31
260.655	10572.12
260.725	10570
260.795	10566.53
260.865	10578.82
260.934	10541.28
261.004	10532.18
261.074	10516.61
261.144	10512.81
261.214	10507.41
261.284	10489.25
261.354	10496.86
261.424	10468.33
261.494	10465.2
261.564	10451.08
261.634	10441.06
261.703	10403.09
261.773	10394.57
261.843	10390.47
261.913	10369.76
261.983	10331.94
262.053	10312.37
