Data from 20250704_urea_1.5M_MAYP1162681_11-45-40-595.txt Node
Date: Fri Jul 04 11:45:40 BST 2025
User: adleo
Spectrometer: MAYP116268
Trigger mode: 0
Integration Time (sec): 1.000000E0
Scans to average: 1
Electric dark correction enabled: true
Nonlinearity correction enabled: true
Boxcar width: 10
XAxis mode: Wavelengths
Number of Pixels in Spectrum: 2068
>>>>>Begin Spectral Data<<<<<
179.565	1263.14
179.642	1321.51
179.718	1367.83
179.795	1408.88
179.871	1441.33
179.948	1461.87
180.024	1486.98
180.101	1511.62
180.177	1524.95
180.254	1548.28
180.33	1572.43
180.407	1631.55
180.483	1732.79
180.56	1829.29
180.636	1916.42
180.712	1900.58
180.789	1910.56
180.865	1924.82
180.942	1931.76
181.018	1942.84
181.095	1956.25
181.171	1963.43
181.248	1965
181.324	1980.13
181.4	1988.73
181.477	2001.1
181.553	2012.84
181.63	2032.06
181.706	2048.04
181.782	2057.5
181.859	2060.26
181.935	2064.39
182.011	2056.78
182.088	2072.39
182.164	2091.37
182.24	2104.21
182.317	2116.91
182.393	2115.58
182.469	2131.46
182.546	2142.55
182.622	2147.3
182.698	2137.6
182.775	2147.54
182.851	2160.29
182.927	2152.58
183.003	2145.97
183.08	2140.69
183.156	2152.06
183.232	2148.59
183.308	2137.88
183.385	2145.73
183.461	2163.48
183.537	2166.33
183.613	2183.27
183.69	2172.37
183.766	2159.9
183.842	2170.04
183.918	2174.51
183.995	2190.02
184.071	2192.68
184.147	2188.36
184.223	2176.7
184.299	2193.64
184.375	2183.27
184.452	2191.41
184.528	2241.33
184.604	2252.13
184.68	2263.69
184.756	2270.4
184.832	2276.44
184.908	2280.06
184.985	2281.25
185.061	2260.83
185.137	2269.5
185.213	2257.79
185.289	2261.12
185.365	2253.75
185.441	2251.99
185.517	2266.12
185.593	2261.98
185.669	2257.08
185.745	2270.07
185.822	2284.53
185.898	2273.87
185.974	2285.14
186.05	2276.34
186.126	2245.6
186.202	2242.79
186.278	2242.13
186.354	2233.99
186.43	2237.89
186.506	2237.75
186.582	2236.09
186.658	2243.51
186.734	2224.86
186.81	2229.47
186.886	2230.33
186.962	2242.93
187.038	2240.46
187.114	2232.03
187.19	2238.22
187.266	2229.7
187.341	2230.61
187.417	2229.28
187.493	2230.42
187.569	2231.32
187.645	2226.75
187.721	2212.09
187.797	2217.66
187.873	2219.71
187.949	2212.05
188.025	2207.05
188.101	2209.81
188.176	2216.33
188.252	2212.29
188.328	2217.09
188.404	2214.9
188.48	2212.19
188.556	2206.24
188.632	2204.15
188.707	2206.86
188.783	2203.2
188.859	2198.44
188.935	2185.78
189.011	2193.06
189.086	2187.07
189.162	2178.84
189.238	2176.65
189.314	2174.94
189.39	2166.71
189.465	2159.28
189.541	2176.51
189.617	2160.76
189.693	2155.15
189.768	2159.43
189.844	2184.94
189.92	2176.57
189.996	2185.19
190.071	2196.75
190.147	2195.32
190.223	2205.03
190.298	2193.18
190.374	2182.09
190.45	2192.08
190.526	2202.79
190.601	2195.94
190.677	2197.74
190.753	2226.02
190.828	2228.73
190.904	2244.34
190.98	2261.47
191.055	2272.13
191.131	2264.19
191.207	2284.79
191.282	2294.06
191.358	2282.31
191.433	2267.22
191.509	2281.49
191.585	2278.87
191.66	2280.06
191.736	2289.15
191.811	2282.77
191.887	2303.53
191.963	2327.8
192.038	2337.03
192.114	2334.36
192.189	2337.27
192.265	2334.46
192.34	2312.65
192.416	2311.75
192.491	2305.8
192.567	2307.27
192.642	2309.94
192.718	2308.85
192.793	2295.33
192.869	2291.67
192.944	2293.71
193.02	2303.85
193.095	2308.04
193.171	2315.8
193.246	2315.8
193.322	2312.75
193.397	2311.85
193.473	2296.42
193.548	2276.48
193.624	2277.72
193.699	2275.48
193.775	2291.62
193.85	2292.14
193.925	2301.28
194.001	2300.42
194.076	2292.62
194.152	2284.1
194.227	2275.34
194.302	2263.4
194.378	2270.49
194.453	2267.73
194.529	2281.82
194.604	2266.44
194.679	2258.74
194.755	2236.14
194.83	2245.23
194.905	2243.19
194.981	2251.28
195.056	2243.43
195.131	2250.9
195.207	2252.32
195.282	2245.33
195.357	2225.43
195.433	2242.75
195.508	2230.76
195.583	2241.33
195.659	2255.18
195.734	2262.93
195.809	2264.79
195.884	2275.45
195.96	2274.78
196.035	2289.67
196.11	2285.01
196.185	2296.91
196.261	2301.24
196.336	2334.41
196.411	2322.55
196.486	2327.55
196.561	2321.98
196.637	2329.78
196.712	2344.97
196.787	2346.49
196.862	2360.01
196.937	2372.81
197.013	2376.48
197.088	2389.52
197.163	2409.66
197.238	2427.15
197.313	2424.29
197.388	2436.48
197.464	2466.86
197.539	2477.38
197.614	2469.81
197.689	2483.29
197.764	2500.72
197.839	2520.33
197.914	2514.76
197.989	2536.95
198.065	2551.43
198.14	2600.84
198.215	2629.99
198.29	2642.48
198.365	2656.19
198.44	2670.24
198.515	2699.12
198.59	2714.5
198.665	2738.28
198.74	2746.05
198.815	2747.9
198.89	2773.53
198.965	2804.52
199.04	2800.85
199.115	2818.85
199.19	2863.5
199.265	2867.79
199.34	2876.7
199.415	2911.6
199.49	2932.52
199.565	2945.87
199.64	2971.27
199.715	2968.89
199.79	2979.19
199.865	2988.82
199.94	2986.63
200.015	3016.76
200.09	3020.38
200.165	3029.3
200.24	3037.93
200.315	3080.55
200.39	3095.04
200.464	3102.43
200.539	3102.77
200.614	3121.55
200.689	3143.44
200.764	3153.65
200.839	3171.1
200.914	3177.77
200.989	3166.9
201.063	3180.58
201.138	3161.9
201.213	3161.47
201.288	3144.88
201.363	3150.98
201.438	3148.6
201.512	3167.19
201.587	3149.97
201.662	3153.4
201.737	3165.04
201.812	3171.34
201.886	3136.54
201.961	3150.52
202.036	3136.31
202.111	3136.27
202.186	3108.53
202.26	3091.02
202.335	3064.36
202.41	3056.73
202.485	3038.23
202.559	3020.07
202.634	2992.23
202.709	3000.71
202.784	2981.97
202.858	2979.97
202.933	2956.28
203.008	2949.55
203.082	2929.68
203.157	2925.1
203.232	2886.36
203.306	2866.14
203.381	2834.63
203.456	2812.04
203.53	2786.23
203.605	2767.51
203.68	2743.82
203.754	2733.96
203.829	2717.76
203.904	2699.18
203.978	2689.6
204.053	2695.8
204.127	2682.08
204.202	2682.94
204.277	2664.88
204.351	2657.59
204.426	2650.02
204.5	2642.02
204.575	2605.82
204.65	2614.07
204.724	2611.97
204.799	2615.45
204.873	2609.2
204.948	2610.59
205.022	2597.11
205.097	2586.96
205.171	2601.53
205.246	2604.15
205.32	2605.58
205.395	2607.44
205.469	2599.73
205.544	2605.16
205.618	2585.91
205.693	2598.68
205.767	2583.63
205.842	2605.31
205.916	2596.5
205.991	2586.78
206.065	2590.31
206.14	2607.58
206.214	2605.1
206.289	2596.29
206.363	2610.44
206.438	2614.87
206.512	2621.39
206.586	2644.25
206.661	2654.36
206.735	2630.36
206.81	2630.98
206.884	2643.03
206.958	2629.79
207.033	2645.88
207.107	2651.32
207.181	2685.06
207.256	2681.25
207.33	2704.82
207.405	2718.61
207.479	2740.09
207.553	2746.23
207.628	2732.62
207.702	2741.62
207.776	2737.28
207.851	2740.09
207.925	2756.3
207.999	2756.25
208.073	2752.3
208.148	2751.53
208.222	2741
208.296	2774.53
208.371	2794.56
208.445	2808.23
208.519	2837.58
208.593	2850.45
208.668	2845.2
208.742	2845.3
208.816	2846.06
208.89	2857.36
208.965	2855.45
209.039	2865.27
209.113	2886.44
209.187	2907.39
209.261	2907.96
209.336	2926.07
209.41	2947
209.484	2945.19
209.558	2963.45
209.632	2978.03
209.707	2990.14
209.781	3012.36
209.855	3029
209.929	3048.47
210.003	3055.29
210.077	3055.34
210.151	3106.27
210.226	3144.05
210.3	3173.89
210.374	3200.97
210.448	3207.93
210.522	3221.67
210.596	3233.5
210.67	3245.29
210.744	3298.25
210.818	3334.74
210.892	3360.51
210.966	3360.17
211.041	3385.17
211.115	3390.66
211.189	3424.73
211.263	3450.88
211.337	3464.77
211.411	3489.93
211.485	3493.65
211.559	3515.7
211.633	3528.53
211.707	3508.28
211.781	3530.87
211.855	3514.35
211.929	3524.95
212.003	3528.67
212.077	3560.91
212.151	3596.93
212.225	3631.22
212.299	3643.69
212.373	3659.59
212.447	3684.06
212.52	3746.83
212.594	3782.86
212.668	3831.92
212.742	3854.86
212.816	3890.41
212.89	3927.54
212.964	3969.04
213.038	4019.39
213.112	4084.66
213.186	4159.37
213.26	4192.87
213.333	4202.19
213.407	4264.91
213.481	4330.4
213.555	4404.07
213.629	4458.01
213.703	4514.25
213.777	4580.97
213.85	4639.95
213.924	4754.45
213.998	4836.29
214.072	4905.86
214.146	4976.6
214.219	5062.03
214.293	5148.24
214.367	5239.86
214.441	5344.95
214.515	5430.91
214.588	5500.65
214.662	5562.78
214.736	5638.06
214.81	5751.22
214.883	5865.39
214.957	5958.71
215.031	6048.25
215.105	6133.51
215.178	6230.03
215.252	6334.81
215.326	6428.47
215.4	6519.19
215.473	6586.78
215.547	6681.45
215.621	6788.93
215.694	6917.18
215.768	6999.95
215.842	7103.02
215.915	7210.69
215.989	7306.97
216.063	7418.51
216.136	7544.8
216.21	7671.42
216.284	7807.75
216.357	7936.98
216.431	8059.87
216.504	8196.14
216.578	8354.96
216.652	8492.24
216.725	8615.04
216.799	8751.94
216.873	8882.8
216.946	9025.94
217.02	9148.92
217.093	9282.04
217.167	9393.85
217.24	9497.15
217.314	9629.98
217.387	9754.26
217.461	9880.17
217.535	10021.77
217.608	10144.03
217.682	10272.65
217.755	10412.65
217.829	10530.3
217.902	10653.89
217.976	10784.9
218.049	10901.41
218.123	11009.69
218.196	11146.06
218.27	11274.1
218.343	11381.53
218.417	11507.17
218.49	11624.24
218.563	11768.68
218.637	11885.95
218.71	12033.01
218.784	12168.5
218.857	12307.89
218.931	12435.91
219.004	12550.93
219.077	12680.79
219.151	12797.34
219.224	12910.33
219.298	13019.18
219.371	13150.49
219.444	13255.39
219.518	13368.48
219.591	13485.86
219.665	13622.71
219.738	13732.77
219.811	13834.43
219.885	13954.46
219.958	14073.92
220.031	14177.46
220.105	14274.65
220.178	14381.23
220.251	14467.76
220.325	14570.14
220.398	14671.51
220.471	14779.35
220.544	14890.46
220.618	14973.41
220.691	15070.69
220.764	15173.02
220.838	15274.97
220.911	15354.75
220.984	15471.68
221.057	15562.98
221.131	15655.62
221.204	15708.83
221.277	15810.05
221.35	15919.22
221.424	15998.22
221.497	16073.99
221.57	16152.17
221.643	16242.49
221.716	16332.53
221.79	16412.29
221.863	16488.16
221.936	16557.13
222.009	16620.46
222.082	16688.22
222.155	16747.45
222.229	16838.3
222.302	16910.5
222.375	16974.74
222.448	17056.62
222.521	17108.96
222.594	17178.84
222.667	17231.33
222.74	17309.4
222.814	17365.98
222.887	17418.41
222.96	17488.29
223.033	17553.54
223.106	17617.21
223.179	17676.48
223.252	17729.06
223.325	17789.16
223.398	17841.93
223.471	17895.56
223.544	17946.41
223.617	18000.14
223.69	18057.2
223.763	18090.5
223.837	18144.33
223.91	18196.23
223.983	18215.75
224.056	18242.25
224.129	18283.94
224.202	18329.53
224.275	18353.86
224.348	18376.41
224.42	18404.17
224.493	18408.32
224.566	18430.77
224.639	18469.71
224.712	18505.76
224.785	18534.04
224.858	18549.99
224.931	18573.08
225.004	18592.79
225.077	18627
225.15	18626.28
225.223	18647.97
225.296	18694.76
225.369	18692.06
225.442	18702.18
225.514	18731.24
225.587	18764.25
225.66	18786.37
225.733	18809.88
225.806	18835.23
225.879	18855.57
225.952	18860.39
226.025	18900.77
226.097	18935.37
226.17	18954.16
226.243	18941.63
226.316	18946.45
226.389	18960.52
226.461	18975.94
226.534	18988.96
226.607	18991.8
226.68	19031.8
226.753	19052.52
226.825	19033.39
226.898	19060.08
226.971	19063.89
227.044	19072.47
227.117	19082.73
227.189	19089.91
227.262	19119.07
227.335	19132.75
227.407	19135.07
227.48	19150.92
227.553	19164.66
227.626	19158.15
227.698	19162.44
227.771	19171.6
227.844	19167.69
227.916	19176.99
227.989	19175.59
228.062	19180.7
228.134	19212.51
228.207	19207.21
228.28	19196.85
228.352	19205.76
228.425	19216.41
228.498	19234.53
228.57	19225.28
228.643	19249.18
228.716	19250.1
228.788	19223.98
228.861	19222.92
228.934	19244.65
229.006	19250.82
229.079	19237.76
229.151	19240.31
229.224	19222.53
229.296	19219.98
229.369	19249.52
229.442	19261.95
229.514	19244.27
229.587	19245.66
229.659	19220.75
229.732	19212.56
229.804	19218.29
229.877	19235.49
229.949	19231.25
230.022	19243.83
230.094	19242.29
230.167	19225.18
230.239	19215.54
230.312	19219.74
230.384	19235.49
230.457	19230.63
230.529	19224.22
230.602	19220.12
230.674	19211.11
230.747	19221.62
230.819	19235.35
230.892	19194.68
230.964	19189.23
231.037	19202.2
231.109	19199.5
231.181	19197.09
231.254	19187.88
231.326	19174.68
231.399	19155.31
231.471	19135.12
231.544	19101.43
231.616	19106.3
231.688	19084.76
231.761	19059.55
231.833	19042.88
231.905	18997.92
231.978	18981.82
232.05	18969.73
232.122	18962.5
232.195	18942.93
232.267	18939.85
232.339	18921.83
232.412	18935.56
232.484	18913.15
232.556	18892.72
232.629	18901.35
232.701	18896.29
232.773	18884.48
232.846	18870.46
232.918	18865.11
232.99	18856.68
233.062	18854.36
233.135	18847.13
233.207	18829.93
233.279	18833.01
233.351	18830.12
233.424	18821.83
233.496	18795.28
233.568	18799.52
233.64	18780.01
233.713	18765.69
233.785	18747.09
233.857	18737.65
233.929	18708.59
234.001	18713.55
234.074	18704.11
234.146	18666.95
234.218	18645.12
234.29	18633.99
234.362	18618.23
234.434	18579.25
234.507	18548.21
234.579	18510
234.651	18478.96
234.723	18467.54
234.795	18456.8
234.867	18435.69
234.939	18434
235.012	18422.39
235.084	18404.89
235.156	18391.21
235.228	18364.41
235.3	18340.9
235.372	18321
235.444	18305.57
235.516	18261.29
235.588	18252.13
235.66	18234.49
235.732	18201.92
235.804	18236.47
235.876	18232.04
235.948	18233
236.02	18219.94
236.092	18201.15
236.164	18184.18
236.236	18163.51
236.308	18135.89
236.38	18115.99
236.452	18091.99
236.524	18069.54
236.596	18056.38
236.668	18041.92
236.74	18026.45
236.812	18010.36
236.884	17993.64
236.956	17973.3
237.028	17945.25
237.1	17909.01
237.172	17905.01
237.244	17912.14
237.316	17853.06
237.388	17811.86
237.46	17784.63
237.532	17781.55
237.604	17756.58
237.675	17748.29
237.747	17730.99
237.819	17706.61
237.891	17683.57
237.963	17641.35
238.035	17612.34
238.107	17553.4
238.178	17540.01
238.25	17524.05
238.322	17519.24
238.394	17476.63
238.466	17452.15
238.538	17436.54
238.609	17426.46
238.681	17385.07
238.753	17348.1
238.825	17330.03
238.897	17307.24
238.968	17302.46
239.04	17261.31
239.112	17263.91
239.184	17234.18
239.255	17205.07
239.327	17183.23
239.399	17169.5
239.471	17163.47
239.542	17153.26
239.614	17145.84
239.686	17085.54
239.758	17071.18
239.829	17032.53
239.901	17019.13
239.973	16992.77
240.044	16973.64
240.116	16942.7
240.188	16908.72
240.259	16882.02
240.331	16841.78
240.403	16830.93
240.474	16778.55
240.546	16755.7
240.618	16712.13
240.689	16681.53
240.761	16655.65
240.833	16641.38
240.904	16588.22
240.976	16554.29
241.048	16525.76
241.119	16502.91
241.191	16498.14
241.262	16489.95
241.334	16457.17
241.405	16425.85
241.477	16400.06
241.549	16368.35
241.62	16346.61
241.692	16329.69
241.763	16315.04
241.835	16288.73
241.906	16264.96
241.978	16231.18
242.049	16207.03
242.121	16186.06
242.192	16170.45
242.264	16139.21
242.335	16093.52
242.407	16089.18
242.478	16060.99
242.55	16038.67
242.621	16001.61
242.693	15968.93
242.764	15925.65
242.836	15900.15
242.907	15880.29
242.979	15854.84
243.05	15834.89
243.122	15811.27
243.193	15783.31
243.264	15727.93
243.336	15704.65
243.407	15680.12
243.479	15676.6
243.55	15660.31
243.622	15640.11
243.693	15610.85
243.764	15604.49
243.836	15569.93
243.907	15534.02
243.978	15506.93
244.05	15479.89
244.121	15445.14
244.192	15428.31
244.264	15390.14
244.335	15361.55
244.407	15312.97
244.478	15296.72
244.549	15261.92
244.62	15216.32
244.692	15190.05
244.763	15185.95
244.834	15146.43
244.906	15114.04
244.977	15077.6
245.048	15057.3
245.119	15016.23
245.191	14977.04
245.262	14922
245.333	14910.38
245.405	14890.13
245.476	14867.86
245.547	14844.77
245.618	14831.28
245.689	14804.76
245.761	14785.15
245.832	14761.19
245.903	14754.68
245.974	14721.32
246.045	14693.94
246.117	14686.13
246.188	14644.2
246.259	14592.81
246.33	14572.37
246.401	14539.16
246.473	14506.86
246.544	14476.01
246.615	14469.31
246.686	14440.87
246.757	14435.85
246.828	14403.12
246.899	14394.11
246.97	14356.7
247.042	14321.03
247.113	14303.34
247.184	14293.36
247.255	14247.08
247.326	14223.12
247.397	14187.84
247.468	14170.19
247.539	14152.84
247.61	14116.4
247.681	14104.3
247.752	14103.04
247.823	14064.24
247.894	14047.36
247.965	14010.78
248.037	13981.51
248.108	13935.62
248.179	13915.38
248.25	13881.73
248.321	13859.5
248.392	13816.75
248.463	13812.31
248.534	13785.99
248.605	13765.69
248.675	13734.17
248.746	13720.96
248.817	13706.84
248.888	13688.32
248.959	13637.08
249.03	13615.58
249.101	13586.46
249.172	13559.71
249.243	13510.39
249.314	13507.6
249.385	13480.02
249.456	13460.5
249.527	13426.61
249.598	13409.88
249.669	13382.93
249.739	13367.17
249.81	13351.07
249.881	13316.17
249.952	13294.91
250.023	13274.33
250.094	13229.73
250.165	13194.98
250.235	13174.06
250.306	13144.65
250.377	13110.76
250.448	13100.93
250.519	13051.18
250.59	13049.06
250.66	13020.86
250.731	13022.98
250.802	12990.87
250.873	12970.1
250.944	12949.9
251.014	12929.6
251.085	12928.45
251.156	12912.01
251.227	12901.16
251.297	12890.84
251.368	12879.03
251.439	12858.79
251.51	12852.91
251.58	12827.74
251.651	12803.16
251.722	12799.64
251.792	12759.97
251.863	12735.77
251.934	12737.26
252.005	12752.5
252.075	12732.78
252.146	12728.44
252.217	12719.52
252.287	12713.93
252.358	12693.97
252.429	12690.84
252.499	12664.67
252.57	12646.54
252.641	12632.03
252.711	12608.07
252.782	12569.22
252.852	12575.1
252.923	12561.22
252.994	12536.34
253.064	12530.13
253.135	12503.42
253.205	12470.16
253.276	12470.5
253.347	12465.19
253.417	12427.21
253.488	12399.2
253.558	12371.49
253.629	12345.65
253.699	12321.93
253.77	12309.01
253.841	12284.09
253.911	12270.31
253.982	12254.35
254.052	12244.81
254.123	12228.8
254.193	12209.86
254.264	12231.12
254.334	12196.46
254.405	12156.6
254.475	12121.79
254.546	12103.86
254.616	12103.53
254.687	12088.63
254.757	12073.64
254.827	12054.6
254.898	12046.65
254.968	12030.31
255.039	12004.91
255.109	11998.21
255.18	11970.06
255.25	11925.42
255.321	11918.82
255.391	11886.09
255.461	11890.62
255.532	11840.88
255.602	11817.45
255.673	11782.85
255.743	11762.65
255.813	11716.67
255.884	11715.8
255.954	11713.2
256.024	11711.99
256.095	11683.94
256.165	11656.66
256.235	11646.35
256.306	11622.01
256.376	11613.33
256.446	11602.15
256.517	11592.56
256.587	11573.23
256.657	11559.78
256.728	11549.04
256.798	11529.61
256.868	11510.38
256.938	11481.8
257.009	11479.34
257.079	11472.45
257.149	11482.33
257.219	11431.68
257.29	11428.88
257.36	11382.81
257.43	11369.51
257.5	11331.91
257.571	11313.89
257.641	11302.13
257.711	11270.13
257.781	11263.82
257.852	11248.49
257.922	11208.68
257.992	11189.79
258.062	11175.72
258.132	11169.07
258.202	11151.91
258.273	11131.72
258.343	11132.68
258.413	11108.15
258.483	11092.78
258.553	11058.08
258.623	11031.04
258.693	11025.16
258.764	11020.92
258.834	11026.42
258.904	11009.45
258.974	10981.84
259.044	10964.98
259.114	10953.17
259.184	10940.35
259.254	10926.33
259.324	10882.43
259.394	10879.92
259.464	10882.33
259.535	10867.3
259.605	10839.45
259.675	10813.19
259.745	10813.67
259.815	10784.08
259.885	10762.73
259.955	10777.38
260.025	10759.75
260.095	10739.42
260.165	10730.4
260.235	10731.8
260.305	10709.83
260.375	10684.1
260.445	10696.29
260.515	10698.12
260.585	10698.41
260.655	10681.11
260.725	10673.55
260.795	10672.53
260.865	10673.21
260.934	10647
261.004	10639.91
261.074	10629.79
261.144	10635.48
261.214	10624.06
261.284	10605.61
261.354	10598.09
261.424	10560.55
261.494	10563.54
261.564	10551.49
261.634	10542.72
261.703	10504.8
261.773	10500.42
261.843	10492.52
261.913	10471.12
261.983	10441.59
262.053	10425.21
262.123	10405.36
262.192	10373.08
262.262	10372.55
