Data from 20250704_urea_1.5M_MAYP1162681_11-45-25-597.txt Node
Date: Fri Jul 04 11:45:25 BST 2025
User: adleo
Spectrometer: MAYP116268
Trigger mode: 0
Integration Time (sec): 1.000000E0
Scans to average: 1
Electric dark correction enabled: true
Nonlinearity correction enabled: true
Boxcar width: 10
XAxis mode: Wavelengths
Number of Pixels in Spectrum: 2068
>>>>>Begin Spectral Data<<<<<
179.565	1267.18
179.642	1326.34
179.718	1368.87
179.795	1411.81
179.871	1446.43
179.948	1467.3
180.024	1489.59
180.101	1511.35
180.177	1525.77
180.254	1551.13
180.33	1572.93
180.407	1629.01
180.483	1726.26
180.56	1823.28
180.636	1910.69
180.712	1896.32
180.789	1911.39
180.865	1924.42
180.942	1932.73
181.018	1942.53
181.095	1956.37
181.171	1961.13
181.248	1962.74
181.324	1978.86
181.4	1984.33
181.477	1995.56
181.553	2006.78
181.63	2025.47
181.706	2043.92
181.782	2054.14
181.859	2052.05
181.935	2060.33
182.011	2059.23
182.088	2079.92
182.164	2099.43
182.24	2112.41
182.317	2122.97
182.393	2118.74
182.469	2132.77
182.546	2145.09
182.622	2148.9
182.698	2143.04
182.775	2156.13
182.851	2169.92
182.927	2164.4
183.003	2161.69
183.08	2156.41
183.156	2166.45
183.232	2164.64
183.308	2153.75
183.385	2161.41
183.461	2179.96
183.537	2177.82
183.613	2190.43
183.69	2180.67
183.766	2169.72
183.842	2178.29
183.918	2180.81
183.995	2195.13
184.071	2198.27
184.147	2191.66
184.223	2180.24
184.299	2192.76
184.375	2180.87
184.452	2189.67
184.528	2244.17
184.604	2254.3
184.68	2267.15
184.756	2272.91
184.832	2279.81
184.908	2283.23
184.985	2281.8
185.061	2264.53
185.137	2274.48
185.213	2263.35
185.289	2264.87
185.365	2256.31
185.441	2254.83
185.517	2269.49
185.593	2266.87
185.669	2264.92
185.745	2279.1
185.822	2297.22
185.898	2288.18
185.974	2297.79
186.05	2287.65
186.126	2249.19
186.202	2242.53
186.278	2239.39
186.354	2230.3
186.43	2235.68
186.506	2236.35
186.582	2237.58
186.658	2244.15
186.734	2226.78
186.81	2230.21
186.886	2231.25
186.962	2243.43
187.038	2240.63
187.114	2235.25
187.19	2240.24
187.266	2230.58
187.341	2229.01
187.417	2223.07
187.493	2222.45
187.569	2226.73
187.645	2221.4
187.721	2207.41
187.797	2214.02
187.873	2216.69
187.949	2212.55
188.025	2207.03
188.101	2209.98
188.176	2216.45
188.252	2211.5
188.328	2217.83
188.404	2217.59
188.48	2213.31
188.556	2206.98
188.632	2206.93
188.707	2206.88
188.783	2205.31
188.859	2201.32
188.935	2191.61
189.011	2195.8
189.086	2189.33
189.162	2179.34
189.238	2175.1
189.314	2173.44
189.39	2169.58
189.465	2163.11
189.541	2176.63
189.617	2160.21
189.693	2154.41
189.768	2154.65
189.844	2182.3
189.92	2174.41
189.996	2182.54
190.071	2193.39
190.147	2191.25
190.223	2201.53
190.298	2194.06
190.374	2181.5
190.45	2193.01
190.526	2203.76
190.601	2200.67
190.677	2202.81
190.753	2233.14
190.828	2238.61
190.904	2253.74
190.98	2265.26
191.055	2275.49
191.131	2269.63
191.207	2291.57
191.282	2297.94
191.358	2288.9
191.433	2272.19
191.509	2288.7
191.585	2285.61
191.66	2288.6
191.736	2298.6
191.811	2285.42
191.887	2299.93
191.963	2324.06
192.038	2329.49
192.114	2327.87
192.189	2329.39
192.265	2327.44
192.34	2304.97
192.416	2302.78
192.491	2299.11
192.567	2305.02
192.642	2305.78
192.718	2305.4
192.793	2291.69
192.869	2291.02
192.944	2294.31
193.02	2302.54
193.095	2306.25
193.171	2314.34
193.246	2312.16
193.322	2310.39
193.397	2315.01
193.473	2302.2
193.548	2283.35
193.624	2287.35
193.699	2283.31
193.775	2302.83
193.85	2302.4
193.925	2310.92
194.001	2310.4
194.076	2304.35
194.152	2294.07
194.227	2287.41
194.302	2278.46
194.378	2280.84
194.453	2276.89
194.529	2287.6
194.604	2273.66
194.679	2261.57
194.755	2241.82
194.83	2254.87
194.905	2250.54
194.981	2257.44
195.056	2248.07
195.131	2255.92
195.207	2255.73
195.282	2248.83
195.357	2229.36
195.433	2245.25
195.508	2230.59
195.583	2239.44
195.659	2252.63
195.734	2259.1
195.809	2261.67
195.884	2269.61
195.96	2272.57
196.035	2290.51
196.11	2289.27
196.185	2300.64
196.261	2305.16
196.336	2334.15
196.411	2318.05
196.486	2323.43
196.561	2316.91
196.637	2326.57
196.712	2343
196.787	2345.09
196.862	2361.89
196.937	2369.27
197.013	2375.51
197.088	2386.78
197.163	2409.69
197.238	2429.56
197.313	2429.99
197.388	2441.37
197.464	2472.27
197.539	2483.6
197.614	2474.75
197.689	2488.89
197.764	2508.7
197.839	2532.65
197.914	2526.13
197.989	2548.75
198.065	2565.08
198.14	2617.88
198.215	2644.74
198.29	2655.99
198.365	2670.08
198.44	2679.47
198.515	2709.67
198.59	2725.87
198.665	2751.02
198.74	2759.31
198.815	2758.12
198.89	2783.95
198.965	2812.4
199.04	2810.3
199.115	2823.12
199.19	2868.29
199.265	2868.86
199.34	2875.68
199.415	2909.06
199.49	2931.98
199.565	2944.65
199.64	2967.82
199.715	2965.29
199.79	2975.07
199.865	2982.07
199.94	2980.45
200.015	3013.12
200.09	3017.93
200.165	3023.79
200.24	3031.95
200.315	3071.94
200.39	3085.77
200.464	3090.3
200.539	3094.12
200.614	3109.99
200.689	3137.56
200.764	3142.95
200.839	3162.35
200.914	3167.4
200.989	3158.34
201.063	3174.5
201.138	3157.49
201.213	3160.07
201.288	3142.56
201.363	3146.52
201.438	3146.66
201.512	3165.69
201.587	3148.08
201.662	3152.9
201.737	3167.07
201.812	3178.61
201.886	3144.82
201.961	3153.6
202.036	3142.01
202.111	3136.81
202.186	3110.26
202.26	3089.42
202.335	3068.48
202.41	3059.85
202.485	3045.31
202.559	3025
202.634	2998.11
202.709	3006.21
202.784	2983.61
202.858	2980.84
202.933	2962.68
203.008	2957.06
203.082	2934.08
203.157	2933.56
203.232	2891.62
203.306	2868.78
203.381	2837.41
203.456	2812.72
203.53	2794.6
203.605	2770.21
203.68	2749.62
203.754	2738.71
203.829	2727.28
203.904	2705.22
203.978	2692.74
204.053	2693.69
204.127	2677.06
204.202	2675.63
204.277	2657.58
204.351	2648.39
204.426	2642.81
204.5	2635.81
204.575	2600.38
204.65	2612.67
204.724	2604.33
204.799	2611.47
204.873	2606.94
204.948	2604.32
205.022	2593.33
205.097	2581.93
205.171	2599.55
205.246	2608.27
205.32	2609.56
205.395	2607.37
205.469	2599.04
205.544	2604.95
205.618	2587.51
205.693	2601.76
205.767	2588.37
205.842	2610.95
205.916	2605.62
205.991	2592.9
206.065	2594
206.14	2608.37
206.214	2602.75
206.289	2594.36
206.363	2607.56
206.438	2610.99
206.512	2618.8
206.586	2641.38
206.661	2649.86
206.735	2625.2
206.81	2623.1
206.884	2639.96
206.958	2629.77
207.033	2648.48
207.107	2657.73
207.181	2691.8
207.256	2686.99
207.33	2704.85
207.405	2717.77
207.479	2740.4
207.553	2748.78
207.628	2735.59
207.702	2748.69
207.776	2740.5
207.851	2744.45
207.925	2759.13
207.999	2756.7
208.073	2755.03
208.148	2757.61
208.222	2746.84
208.296	2783.89
208.371	2801.01
208.445	2809.49
208.519	2836.08
208.593	2847.04
208.668	2840.93
208.742	2843.84
208.816	2844.7
208.89	2863.25
208.965	2860.72
209.039	2868.54
209.113	2887.22
209.187	2906.99
209.261	2902.37
209.336	2924.58
209.41	2946.7
209.484	2945.69
209.558	2968.91
209.632	2980.26
209.707	2991.41
209.781	3016.39
209.855	3030.8
209.929	3053.37
210.003	3062.1
210.077	3063.86
210.151	3112.54
210.226	3151.76
210.3	3182.79
210.374	3207.96
210.448	3212.78
210.522	3226.19
210.596	3238.64
210.67	3251.85
210.744	3305.34
210.818	3340.39
210.892	3367.54
210.966	3365.25
211.041	3390.69
211.115	3395.31
211.189	3425.71
211.263	3451.91
211.337	3462.36
211.411	3486.28
211.485	3486.56
211.559	3512.29
211.633	3528.07
211.707	3511.98
211.781	3532.24
211.855	3514.52
211.929	3524.92
212.003	3525.16
212.077	3561.18
212.151	3599.01
212.225	3634.4
212.299	3648.88
212.373	3669.65
212.447	3690.91
212.52	3754.78
212.594	3793.68
212.668	3838.92
212.742	3866.01
212.816	3897.89
212.89	3938.02
212.964	3984.74
213.038	4037.63
213.112	4100.13
213.186	4169.01
213.26	4199.83
213.333	4212.79
213.407	4274.03
213.481	4338.7
213.555	4413.32
213.629	4463.53
213.703	4515.36
213.777	4588.27
213.85	4644.57
213.924	4755
213.998	4838.85
214.072	4914.89
214.146	4977.78
214.219	5058.73
214.293	5143.8
214.367	5236.23
214.441	5337.73
214.515	5420.57
214.588	5490.03
214.662	5552.6
214.736	5628.49
214.81	5743.76
214.883	5854.87
214.957	5949.49
215.031	6043.81
215.105	6130.13
215.178	6228.66
215.252	6335.75
215.326	6421.16
215.4	6520.33
215.473	6590.66
215.547	6686.44
215.621	6788.79
215.694	6918.61
215.768	7019.06
215.842	7127.56
215.915	7240.76
215.989	7336.8
216.063	7453.79
216.136	7578.73
216.21	7704.2
216.284	7845.3
216.357	7976.41
216.431	8106.61
216.504	8240.14
216.578	8391.11
216.652	8531.18
216.725	8664.34
216.799	8801.82
216.873	8937.59
216.946	9076.07
217.02	9193.56
217.093	9323.85
217.167	9429.53
217.24	9536.59
217.314	9667.42
217.387	9787.71
217.461	9905.04
217.535	10049.92
217.608	10165.39
217.682	10295.65
217.755	10444.42
217.829	10562.9
217.902	10687.64
217.976	10815.43
218.049	10937.96
218.123	11048.99
218.196	11182.81
218.27	11299.48
218.343	11404.26
218.417	11524.02
218.49	11638.44
218.563	11778.88
218.637	11908.92
218.71	12059.73
218.784	12194.84
218.857	12324.35
218.931	12449.58
219.004	12568.11
219.077	12690.93
219.151	12803.68
219.224	12921.4
219.298	13026.15
219.371	13152.4
219.444	13252.61
219.518	13362.72
219.591	13469.06
219.665	13615.22
219.738	13722.33
219.811	13818.89
219.885	13947.5
219.958	14068.16
220.031	14172.91
220.105	14288.79
220.178	14392.92
220.251	14481.18
220.325	14583.13
220.398	14686.43
220.471	14796.82
220.544	14910.44
220.618	15005.01
220.691	15113.52
220.764	15203.85
220.838	15302.33
220.911	15382.87
220.984	15496.67
221.057	15596.55
221.131	15696.08
221.204	15743.22
221.277	15851.19
221.35	15970.24
221.424	16044.61
221.497	16132.14
221.57	16219.14
221.643	16303.82
221.716	16386.53
221.79	16454.34
221.863	16535.75
221.936	16603.85
222.009	16668.97
222.082	16738.66
222.155	16799.24
222.229	16885.8
222.302	16963.63
222.375	17026.04
222.448	17099.73
222.521	17153.42
222.594	17205.86
222.667	17251.06
222.74	17328.46
222.814	17379.11
222.887	17421.14
222.96	17485.91
223.033	17538.82
223.106	17594.63
223.179	17646.29
223.252	17700.65
223.325	17762.39
223.398	17806.19
223.471	17862.48
223.544	17919.78
223.617	17963.2
223.69	18021.08
223.763	18043.68
223.837	18083.68
223.91	18124.64
223.983	18152.93
224.056	18185.22
224.129	18233.6
224.202	18283.05
224.275	18323
224.348	18348.1
224.42	18375.91
224.493	18394.37
224.566	18424.58
224.639	18461.78
224.712	18486.7
224.785	18507.08
224.858	18531.18
224.931	18553.3
225.004	18565.39
225.077	18586.88
225.15	18596.28
225.223	18608.71
225.296	18660.33
225.369	18663.17
225.442	18679.75
225.514	18703.55
225.587	18732.76
225.66	18742.92
225.733	18766.15
225.806	18775.74
225.879	18798.58
225.952	18810.68
226.025	18840.65
226.097	18872.26
226.17	18895.44
226.243	18891.35
226.316	18901.9
226.389	18912.84
226.461	18937.51
226.534	18958.24
226.607	18963.92
226.68	18992.35
226.753	19002.14
226.825	18983.34
226.898	19019.97
226.971	19031.19
227.044	19048.45
227.117	19059.63
227.189	19084.01
227.262	19107.86
227.335	19123.09
227.407	19114.47
227.48	19134.9
227.553	19141.26
227.626	19130.8
227.698	19118.42
227.771	19130.47
227.844	19128.2
227.916	19143.57
227.989	19127.91
228.062	19130.85
228.134	19158.66
228.207	19164.87
228.28	19163.67
228.352	19168.25
228.425	19160.1
228.498	19167.04
228.57	19150.42
228.643	19164.01
228.716	19161.21
228.788	19148.05
228.861	19143.19
228.934	19161.6
229.006	19150.61
229.079	19143.28
229.151	19136.78
229.224	19127.09
229.296	19122.51
229.369	19148.2
229.442	19155.09
229.514	19147.86
229.587	19145.84
229.659	19124.01
229.732	19122.75
229.804	19128.49
229.877	19154.95
229.949	19172.68
230.022	19190.12
230.094	19187.23
230.167	19180.39
230.239	19156.87
230.312	19154.17
230.384	19170.13
230.457	19167.43
230.529	19163.72
230.602	19164.97
230.674	19167.72
230.747	19176.82
230.819	19184.44
230.892	19143.57
230.964	19139.86
231.037	19139.96
231.109	19141.36
231.181	19143.48
231.254	19121.36
231.326	19117.26
231.399	19096.2
231.471	19076.4
231.544	19046.28
231.616	19059.77
231.688	19052.16
231.761	19046.9
231.833	19032.3
231.905	18994.71
231.978	18981.22
232.05	18966.43
232.122	18956.79
232.195	18934.53
232.267	18947.2
232.339	18937.66
232.412	18950.14
232.484	18938.96
232.556	18914.14
232.629	18920.84
232.701	18921.27
232.773	18911.39
232.846	18892.12
232.918	18878.24
232.99	18866.67
233.062	18864.46
233.135	18845.66
233.207	18812.41
233.279	18803.69
233.351	18793.38
233.424	18774.63
233.496	18751.31
233.568	18767.11
233.64	18732.76
233.713	18719.79
233.785	18689.1
233.857	18671.89
233.929	18637.19
234.001	18628.76
234.074	18638.16
234.146	18600.04
234.218	18575.8
234.29	18566.4
234.362	18542.6
234.434	18513.11
234.507	18479.85
234.579	18445.98
234.651	18425.54
234.723	18422.22
234.795	18418.17
234.867	18399.09
234.939	18407.33
235.012	18392.39
235.084	18374.03
235.156	18371.28
235.228	18344.15
235.3	18319.62
235.372	18297.31
235.444	18291.86
235.516	18255.19
235.588	18235.53
235.66	18214.9
235.732	18186.71
235.804	18218.95
235.876	18209.36
235.948	18205.31
236.02	18181.6
236.092	18157.22
236.164	18131.77
236.236	18107.78
236.308	18073.95
236.38	18058.19
236.452	18017.8
236.524	18015.01
236.596	18004.79
236.668	17987.35
236.74	17974.91
236.812	17958.09
236.884	17944.65
236.956	17931.25
237.028	17901.32
237.1	17868.41
237.172	17857.95
237.244	17854.29
237.316	17788.85
237.388	17759.88
237.46	17724.75
237.532	17722.05
237.604	17694.29
237.675	17687.16
237.747	17668.32
237.819	17634.44
237.891	17606.44
237.963	17588.95
238.035	17552.51
238.107	17493.04
238.178	17483.74
238.25	17455.98
238.322	17456.03
238.394	17413.14
238.466	17381.04
238.538	17358.92
238.609	17352.18
238.681	17310.2
238.753	17273.28
238.825	17251.74
238.897	17228.46
238.968	17232.27
239.04	17199.69
239.112	17201.28
239.184	17163.74
239.255	17141.18
239.327	17130.34
239.399	17106.24
239.471	17077.04
239.542	17055.54
239.614	17049.81
239.686	16999.16
239.758	16988.89
239.829	16948.79
239.901	16940.79
239.973	16917.56
240.044	16897.42
240.116	16860.31
240.188	16837.99
240.259	16813.94
240.331	16784.59
240.403	16769.94
240.474	16725.56
240.546	16689.46
240.618	16649.36
240.689	16622.13
240.761	16591.76
240.833	16585.98
240.904	16556.68
240.976	16538.79
241.048	16512.72
241.119	16492.77
241.191	16479.08
241.262	16469.63
241.334	16438.98
241.405	16411.27
241.477	16378.54
241.549	16353.72
241.62	16334.25
241.692	16315.31
241.763	16295.79
241.835	16263.06
241.906	16233.76
241.978	16184.16
242.049	16171.19
242.121	16156.98
242.192	16154.57
242.264	16117.64
242.335	16067.37
242.407	16052.72
242.478	16017.3
242.55	15991.7
242.621	15952.37
242.693	15913.19
242.764	15874.58
242.836	15847.93
242.907	15823.92
242.979	15810.62
243.05	15780.35
243.122	15759.29
243.193	15728
243.264	15680.38
243.336	15658.5
243.407	15649.58
243.479	15645.58
243.55	15628.52
243.622	15602.39
243.693	15567.69
243.764	15565.42
243.836	15527.44
243.907	15496.35
243.978	15467.96
244.05	15450.85
244.121	15413.78
244.192	15400.33
244.264	15357.24
244.335	15328.27
244.407	15283.3
244.478	15250.28
244.549	15230.47
244.62	15190.32
244.692	15164.24
244.763	15149.05
244.834	15116.9
244.906	15070.58
244.977	15047.06
245.048	15030.81
245.119	14995.29
245.191	14958.27
245.262	14903.46
245.333	14899.03
245.405	14871.6
245.476	14856.13
245.547	14828.55
245.618	14811.34
245.689	14788.54
245.761	14767.19
245.832	14739.91
245.903	14727.47
245.974	14712.96
246.045	14679.51
246.117	14667.17
246.188	14633.61
246.259	14592.88
246.33	14562.99
246.401	14538.8
246.473	14498.79
246.544	14460.75
246.615	14445.28
246.686	14410.52
246.757	14397.31
246.828	14362.46
246.899	14355.66
246.97	14312.86
247.042	14276.51
247.113	14260.17
247.184	14244.65
247.255	14207.43
247.326	14175.91
247.397	14147.22
247.468	14114.64
247.539	14092.46
247.61	14056.69
247.681	14042.71
247.752	14038.33
247.823	14004.48
247.894	13982.26
247.965	13953.1
248.037	13919.83
248.108	13875.68
248.179	13856.06
248.25	13826.27
248.321	13799.7
248.392	13760.13
248.463	13756.13
248.534	13733.03
248.605	13715.78
248.675	13690.47
248.746	13680.88
248.817	13668.44
248.888	13652.58
248.959	13610.11
249.03	13596.71
249.101	13568.07
249.172	13537.32
249.243	13494.22
249.314	13494.22
249.385	13472.29
249.456	13446.98
249.527	13426.73
249.598	13407.93
249.669	13384.89
249.739	13371.78
249.81	13355.67
249.881	13320.19
249.952	13293.68
250.023	13260.42
250.094	13218.67
250.165	13184.49
250.235	13158.46
250.306	13140.72
250.377	13100.66
250.448	13083.93
250.519	13040.21
250.59	13041.8
250.66	13014.04
250.731	13004.97
250.802	12975.52
250.873	12949.34
250.944	12934.93
251.014	12909.91
251.085	12913.62
251.156	12896.99
251.227	12888.55
251.297	12880.75
251.368	12875.49
251.439	12866.04
251.51	12869.08
251.58	12835.82
251.651	12805.64
251.722	12791.32
251.792	12744.23
251.863	12729.67
251.934	12725.43
252.005	12731.94
252.075	12706.92
252.146	12701.71
252.217	12694.58
252.287	12680.16
252.358	12654.42
252.429	12660.01
252.499	12633.5
252.57	12617.74
252.641	12605.59
252.711	12582.16
252.782	12545.05
252.852	12546.49
252.923	12527.06
252.994	12503.97
253.064	12500.07
253.135	12474.43
253.205	12450.47
253.276	12459.1
253.347	12448.93
253.417	12419.81
253.488	12390.31
253.558	12362.59
253.629	12335.55
253.699	12319.21
253.77	12303.93
253.841	12291.73
253.911	12267.2
253.982	12247.53
254.052	12234.13
254.123	12216.05
254.193	12192.87
254.264	12213.16
254.334	12174.02
254.405	12140.91
254.475	12111.36
254.546	12089.23
254.616	12093.04
254.687	12081.33
254.757	12057.52
254.827	12038.86
254.898	12025.46
254.968	12011.53
255.039	11989.55
255.109	11980.83
255.18	11945.59
255.25	11908.77
255.321	11900.19
255.391	11867.51
255.461	11875.03
255.532	11828.66
255.602	11800.03
255.673	11763.88
255.743	11732.36
255.813	11686.86
255.884	11684.11
255.954	11664.45
256.024	11666.13
256.095	11643.05
256.165	11610.51
256.235	11605.79
256.306	11578.56
256.376	11577.64
256.446	11563.76
256.517	11551.86
256.587	11543.57
256.657	11529.93
256.728	11519.18
256.798	11497.25
256.868	11478.89
256.938	11450.5
257.009	11443.12
257.079	11439.41
257.149	11447.94
257.219	11409.53
257.29	11406.4
257.36	11367.26
257.43	11368.66
257.5	11330.3
257.571	11302.78
257.641	11292.95
257.711	11259.36
257.781	11251.16
257.852	11235.79
257.922	11199.98
257.992	11183.26
258.062	11167.74
258.132	11158.1
258.202	11141.76
258.273	11129.62
258.343	11134.01
258.413	11111.11
258.483	11097.67
258.553	11071.26
258.623	11047.12
258.693	11031.55
258.764	11031.02
258.834	11033.48
258.904	11016.8
258.974	10985.39
259.044	10971.89
259.114	10966.26
259.184	10953.39
259.254	10936.14
259.324	10890.41
259.394	10879.61
259.464	10873.2
259.535	10847.95
259.605	10832.48
259.675	10803.77
259.745	10785.55
259.815	10750.04
259.885	10727.39
259.955	10735.78
260.025	10705.95
260.095	10689.57
260.165	10684.03
260.235	10683.88
260.305	10654.78
260.375	10619.89
260.445	10637.82
260.515	10634.83
260.585	10625.77
260.655	10609.77
260.725	10603.08
260.795	10601.73
260.865	10604.04
260.934	10579.22
261.004	10570.94
261.074	10553.11
261.144	10559.85
261.214	10559.76
261.284	10547.28
261.354	10549.3
261.424	10525.4
261.494	10539.95
261.564	10530.6
261.634	10522.99
261.703	10486.23
261.773	10477.07
261.843	10477.22
261.913	10455.3
261.983	10423.98
262.053	10418.25
262.123	10404.61
262.192	10376.81
262.262	10372.57
