Data from 20250704_urea_0.1M_MAYP1162681_11-18-55-694.txt Node
Date: Fri Jul 04 11:18:55 BST 2025
User: adleo
Spectrometer: MAYP116268
Trigger mode: 0
Integration Time (sec): 1.000000E0
Scans to average: 1
Electric dark correction enabled: true
Nonlinearity correction enabled: true
Boxcar width: 10
XAxis mode: Wavelengths
Number of Pixels in Spectrum: 2068
>>>>>Begin Spectral Data<<<<<
179.565	1250.71
179.642	1304.36
179.718	1351.52
179.795	1392.52
179.871	1426.65
179.948	1445.78
180.024	1468.25
180.101	1490.6
180.177	1507.07
180.254	1529.69
180.33	1551.15
180.407	1607.18
180.483	1704.72
180.56	1800.22
180.636	1887.05
180.712	1873.12
180.789	1884.15
180.865	1894.08
180.942	1904.11
181.018	1912.19
181.095	1926.13
181.171	1931.07
181.248	1932.69
181.324	1944.86
181.4	1952.66
181.477	1964.93
181.553	1978.62
181.63	2000.6
181.706	2015.81
181.782	2022.14
181.859	2021.99
181.935	2029.41
182.011	2026.75
182.088	2044.87
182.164	2061.14
182.24	2072.84
182.317	2081.59
182.393	2078.93
182.469	2094.34
182.546	2105.23
182.622	2110.13
182.698	2104.32
182.775	2114.6
182.851	2132.2
182.927	2126.16
183.003	2120.35
183.08	2111.79
183.156	2120.31
183.232	2116.07
183.308	2103.99
183.385	2112.22
183.461	2129.96
183.537	2129.91
183.613	2143.95
183.69	2132.63
183.766	2123.2
183.842	2133.81
183.918	2142.09
183.995	2159.6
184.071	2162.83
184.147	2156.74
184.223	2145.47
184.299	2157.46
184.375	2150.04
184.452	2154.71
184.528	2206.19
184.604	2218.7
184.68	2229.12
184.756	2235.21
184.832	2238.45
184.908	2244.29
184.985	2244.63
185.061	2230.21
185.137	2243.2
185.213	2228.46
185.289	2231.22
185.365	2224.65
185.441	2220.94
185.517	2232.46
185.593	2225.51
185.669	2220.66
185.745	2233.5
185.822	2252.1
185.898	2244.91
185.974	2252.38
186.05	2244.53
186.126	2210.84
186.202	2202.99
186.278	2201.9
186.354	2194.57
186.43	2200.99
186.506	2200.42
186.582	2200.99
186.658	2206.84
186.734	2183.25
186.81	2187.96
186.886	2190.95
186.962	2204.46
187.038	2202.04
187.114	2196.28
187.19	2204.89
187.266	2197.95
187.341	2200.42
187.417	2190.29
187.493	2191
187.569	2195.14
187.645	2190.57
187.721	2177.44
187.797	2182.91
187.873	2189.81
187.949	2182.58
188.025	2177.63
188.101	2180.48
188.176	2184.77
188.252	2180.48
188.328	2189.71
188.404	2188.95
188.48	2184.24
188.556	2173.82
188.632	2173.53
188.707	2174.25
188.783	2169.97
188.859	2166.26
188.935	2155.03
189.011	2166.01
189.086	2160.02
189.162	2152.5
189.238	2146.65
189.314	2145.89
189.39	2140.47
189.465	2129.67
189.541	2148.32
189.617	2132.29
189.693	2124.82
189.768	2126.44
189.844	2150.24
189.92	2142.53
189.996	2152.05
190.071	2163.99
190.147	2163.7
190.223	2170.98
190.298	2163.47
190.374	2150.48
190.45	2161.42
190.526	2167.79
190.601	2162.13
190.677	2162.66
190.753	2189.22
190.828	2196.31
190.904	2210.06
190.98	2225.24
191.055	2237.37
191.131	2228.57
191.207	2247.74
191.282	2260.06
191.358	2250.59
191.433	2235.83
191.509	2249.82
191.585	2246.06
191.66	2247.3
191.736	2259.95
191.811	2252.39
191.887	2266.9
191.963	2289.7
192.038	2293.93
192.114	2294.93
192.189	2298.26
192.265	2295.93
192.34	2273.27
192.416	2272.17
192.491	2266.27
192.567	2270.6
192.642	2271.94
192.718	2271.51
192.793	2262.75
192.869	2258.38
192.944	2261.47
193.02	2272.18
193.095	2272.84
193.171	2281.84
193.246	2281.03
193.322	2274.03
193.397	2274.41
193.473	2261.37
193.548	2244.24
193.624	2251.71
193.699	2252.19
193.775	2264.37
193.85	2265.99
193.925	2273.46
194.001	2271.75
194.076	2267.13
194.152	2255.66
194.227	2248.29
194.302	2237.77
194.378	2241.44
194.453	2240.53
194.529	2252.48
194.604	2236.2
194.679	2231.92
194.755	2209.94
194.83	2222.27
194.905	2222.13
194.981	2230.88
195.056	2226.89
195.131	2233.6
195.207	2230.03
195.282	2218.51
195.357	2202.66
195.433	2218.65
195.508	2210.89
195.583	2218.65
195.659	2231.59
195.734	2241.02
195.809	2241.73
195.884	2253.2
195.96	2252.01
196.035	2266.76
196.11	2264.95
196.185	2277.32
196.261	2278.99
196.336	2312.2
196.411	2298.16
196.486	2301.87
196.561	2295.3
196.637	2300.49
196.712	2318.58
196.787	2322.87
196.862	2337
196.937	2345.04
197.013	2350.56
197.088	2359.56
197.163	2381.32
197.238	2396.18
197.313	2394.8
197.388	2411.89
197.464	2440.46
197.539	2448.93
197.614	2443.75
197.689	2454.36
197.764	2472.13
197.839	2493.31
197.914	2485.5
197.989	2510.65
198.065	2527.26
198.14	2580.35
198.215	2608.59
198.29	2621.17
198.365	2635.22
198.44	2645.93
198.515	2676.51
198.59	2690.95
198.665	2716.24
198.74	2723.58
198.815	2725.2
198.89	2748.49
198.965	2775.43
199.04	2771.57
199.115	2789.81
199.19	2831.64
199.265	2834.79
199.34	2843.55
199.415	2877.36
199.49	2896.41
199.565	2904.52
199.64	2924.11
199.715	2921.91
199.79	2929.63
199.865	2934.73
199.94	2932.73
200.015	2969.59
200.09	2974.36
200.165	2982.27
200.24	2988.75
200.315	3032.03
200.39	3052.54
200.464	3059.4
200.539	3065.08
200.614	3081.86
200.689	3103.41
200.764	3113.05
200.839	3130.16
200.914	3137.02
200.989	3129.58
201.063	3149.13
201.138	3132.93
201.213	3137.51
201.288	3119.43
201.363	3125.25
201.438	3127.11
201.512	3143.7
201.587	3122.52
201.662	3129.48
201.737	3142.69
201.812	3156.15
201.886	3124.36
201.961	3133.28
202.036	3120.7
202.111	3118.5
202.186	3088.96
202.26	3077.18
202.335	3052.71
202.41	3052.04
202.485	3033.02
202.559	3015.62
202.634	2993.45
202.709	3002.4
202.784	2985.86
202.858	2989.44
202.933	2976.99
203.008	2978.66
203.082	2964.79
203.157	2973.32
203.232	2939.77
203.306	2930.71
203.381	2906.86
203.456	2894.7
203.53	2883.01
203.605	2878.25
203.68	2867.33
203.754	2880.52
203.829	2884.34
203.904	2884.05
203.978	2892.35
204.053	2920.33
204.127	2933.78
204.202	2957.53
204.277	2974.26
204.351	3001.44
204.426	3029.74
204.5	3054.3
204.575	3052.34
204.65	3101.35
204.724	3140.68
204.799	3195.62
204.873	3234.71
204.948	3284.15
205.022	3327.1
205.097	3378.3
205.171	3456.01
205.246	3528.38
205.32	3595.3
205.395	3662.85
205.469	3729.35
205.544	3816.82
205.618	3881.76
205.693	3982.21
205.767	4054.33
205.842	4160.98
205.916	4246.05
205.991	4333.64
206.065	4443.21
206.14	4568.51
206.214	4677.54
206.289	4779.98
206.363	4908.22
206.438	5030.95
206.512	5162.66
206.586	5306.58
206.661	5439.87
206.735	5550.92
206.81	5686.86
206.884	5842.86
206.958	5976.25
207.033	6137.41
207.107	6295.76
207.181	6481.37
207.256	6627.07
207.33	6812
207.405	6988.59
207.479	7173.7
207.553	7347.21
207.628	7495.7
207.702	7671.43
207.776	7836.84
207.851	8010.59
207.925	8199.36
207.999	8373.26
208.073	8549.74
208.148	8737.81
208.222	8907.32
208.296	9123.51
208.371	9329.35
208.445	9526.58
208.519	9745.18
208.593	9946.76
208.668	10127.3
208.742	10320.78
208.816	10509.37
208.89	10712.69
208.965	10903.41
209.039	11105.8
209.113	11312.91
209.187	11527.57
209.261	11724.91
209.336	11936.14
209.41	12153.94
209.484	12348.43
209.558	12563.54
209.632	12765.69
209.707	12971.13
209.781	13190.35
209.855	13393.72
209.929	13594.83
210.003	13788.7
210.077	13978.96
210.151	14213.52
210.226	14436.12
210.3	14646.82
210.374	14855.05
210.448	15039.04
210.522	15223.66
210.596	15414.25
210.67	15604.26
210.744	15832.87
210.818	16038.97
210.892	16232.25
210.966	16408.75
211.041	16594.98
211.115	16764.93
211.189	16963.35
211.263	17146.15
211.337	17325.73
211.411	17508.14
211.485	17664.87
211.559	17833.59
211.633	17989.54
211.707	18127.76
211.781	18300.76
211.855	18425.1
211.929	18571.69
212.003	18708.94
212.077	18877.42
212.151	19035.24
212.225	19195.82
212.299	19331.28
212.373	19465.25
212.447	19605.44
212.52	19767.41
212.594	19915.51
212.668	20059.5
212.742	20179.12
212.816	20309.29
212.89	20435.02
212.964	20568.67
213.038	20704.91
213.112	20860.49
213.186	21010.86
213.26	21113.76
213.333	21183.89
213.407	21315.32
213.481	21435.52
213.555	21564.93
213.629	21676.09
213.703	21789.61
213.777	21908.39
213.85	22002.53
213.924	22153.52
213.998	22263.14
214.072	22366.84
214.146	22454.19
214.219	22565.99
214.293	22672.68
214.367	22771.95
214.441	22882.79
214.515	22956.42
214.588	23032.36
214.662	23088.77
214.736	23154.97
214.81	23244.75
214.883	23335.01
214.957	23409.94
215.031	23492.63
215.105	23560.81
215.178	23627.56
215.252	23694.79
215.326	23736.7
215.4	23792.78
215.473	23816.27
215.547	23878.83
215.621	23938.59
215.694	24022.57
215.768	24069.12
215.842	24121.98
215.915	24177.07
215.989	24208.57
216.063	24268.62
216.136	24338.52
216.21	24390.71
216.284	24462.78
216.357	24526.94
216.431	24591.39
216.504	24657.29
216.578	24738.3
216.652	24804.88
216.725	24863.26
216.799	24916.82
216.873	24975.24
216.946	25034.01
217.02	25075.26
217.093	25128.29
217.167	25152.13
217.24	25179.2
217.314	25225.52
217.387	25263.16
217.461	25301.09
217.535	25359.62
217.608	25391.71
217.682	25428.78
217.755	25494.22
217.829	25524.72
217.902	25562.7
217.976	25592.14
218.049	25616.56
218.123	25629.98
218.196	25665.94
218.27	25695.48
218.343	25719.13
218.417	25769.33
218.49	25809.73
218.563	25874.85
218.637	25901.98
218.71	25960.58
218.784	26005.24
218.857	26046.94
218.931	26085.61
219.004	26126.16
219.077	26167.05
219.151	26207.94
219.224	26229.42
219.298	26257.48
219.371	26291.9
219.444	26312.42
219.518	26352.05
219.591	26393.33
219.665	26454.41
219.738	26485.8
219.811	26496.66
219.885	26533.93
219.958	26557.26
220.031	26567.98
220.105	26587.73
220.178	26619.31
220.251	26641.62
220.325	26655.09
220.398	26680.25
220.471	26709.51
220.544	26731.34
220.618	26734.72
220.691	26760.89
220.764	26785.62
220.838	26795.42
220.911	26808.17
220.984	26837.82
221.057	26860.52
221.131	26866.21
221.204	26847.91
221.277	26877.71
221.35	26926.63
221.424	26933.1
221.497	26945.08
221.57	26951.41
221.643	26960.87
221.716	26968.5
221.79	26956.57
221.863	26980.1
221.936	26979.23
222.009	26974.4
222.082	26987.78
222.155	26990.39
222.229	27017
222.302	27022.31
222.375	27021.2
222.448	27028.78
222.521	27041.1
222.594	27035.89
222.667	27028.88
222.74	27039.46
222.814	27026.23
222.887	27015.4
222.96	27024.44
223.033	27031.34
223.106	27046.51
223.179	27049.45
223.252	27032.02
223.325	27033.47
223.398	27023.81
223.471	27028.4
223.544	27031.34
223.617	27015.31
223.69	27021.68
223.763	26986.61
223.837	26981.88
223.91	26982.75
223.983	26962.71
224.056	26922.63
224.129	26906.01
224.202	26904.85
224.275	26881.48
224.348	26863.56
224.42	26826.38
224.493	26790.21
224.566	26754.28
224.639	26750.12
224.712	26722.93
224.785	26714.43
224.858	26695.7
224.931	26656.29
225.004	26616.46
225.077	26589.85
225.15	26556.44
225.223	26517.66
225.296	26525.05
225.369	26492.51
225.442	26460.93
225.514	26445.43
225.587	26442.39
225.66	26421.96
225.733	26390.24
225.806	26381.12
225.879	26355.09
225.952	26337.66
226.025	26322.46
226.097	26324.58
226.17	26282.38
226.243	26230.63
226.316	26198.62
226.389	26180.03
226.461	26171.01
226.534	26145.18
226.607	26118.25
226.68	26107.05
226.753	26090.49
226.825	26033.13
226.898	26012.61
226.971	25990.74
227.044	25954.4
227.117	25918.92
227.189	25898.5
227.262	25873.06
227.335	25838.11
227.407	25801.57
227.48	25776.67
227.553	25754.75
227.626	25721.1
227.698	25692.92
227.771	25680.51
227.844	25649.67
227.916	25614.39
227.989	25563.43
228.062	25533.6
228.134	25527.18
228.207	25488.14
228.28	25443.21
228.352	25409.72
228.425	25379.75
228.498	25350.89
228.57	25319.86
228.643	25305.96
228.716	25277.63
228.788	25249.5
228.861	25212.1
228.934	25188.84
229.006	25149.27
229.079	25114.09
229.151	25057.34
229.224	25018.21
229.296	24985.07
229.369	24970.73
229.442	24952.35
229.514	24913.47
229.587	24901.55
229.659	24842.06
229.732	24818.85
229.804	24810.69
229.877	24807.61
229.949	24797.43
230.022	24784.98
230.094	24748.41
230.167	24709.33
230.239	24670.01
230.312	24637.49
230.384	24630.69
230.457	24610.38
230.529	24580.81
230.602	24554.13
230.674	24539.18
230.747	24524.22
230.819	24504.54
230.892	24450.08
230.964	24415.49
231.037	24396.15
231.109	24360.26
231.181	24337.01
231.254	24281.97
231.326	24240.54
231.399	24191.14
231.471	24145.7
231.544	24081.4
231.616	24064.37
231.688	24033.55
231.761	23987.88
231.833	23945.34
231.905	23881.58
231.978	23840.96
232.05	23803.54
232.122	23766.07
232.195	23714.07
232.267	23688.8
232.339	23653.93
232.412	23641.35
232.484	23591.24
232.556	23541.86
232.629	23523.29
232.701	23497.88
232.773	23472.95
232.846	23425.45
232.918	23392.17
232.99	23348.82
233.062	23325.19
233.135	23277.55
233.207	23225.33
233.279	23187.43
233.351	23154.98
233.424	23118.77
233.496	23068.43
233.568	23055.17
233.64	23003.48
233.713	22977.74
233.785	22929.13
233.857	22885.64
233.929	22820.02
234.001	22808.98
234.074	22798.32
234.146	22734.82
234.218	22695.63
234.29	22653.25
234.362	22610.25
234.434	22555.62
234.507	22509.19
234.579	22443.73
234.651	22405.45
234.723	22370.93
234.795	22335.5
234.867	22296.55
234.939	22275.05
235.012	22236.1
235.084	22194.78
235.156	22160.85
235.228	22108.11
235.3	22053.73
235.372	22011.5
235.444	21991.31
235.516	21927.77
235.588	21886.6
235.66	21849.73
235.732	21797.33
235.804	21819.6
235.876	21792.56
235.948	21761.52
236.02	21720.55
236.092	21680.4
236.164	21647.48
236.236	21606.75
236.308	21569.83
236.38	21531.85
236.452	21470.68
236.524	21430.48
236.596	21404.17
236.668	21374.62
236.74	21331.19
236.812	21304.69
236.884	21271.91
236.956	21229.16
237.028	21177.16
237.1	21117.25
237.172	21089.49
237.244	21064.52
237.316	20977.18
237.388	20918.82
237.46	20870.09
237.532	20835.58
237.604	20795.82
237.675	20757.41
237.747	20720.69
237.819	20670.47
237.891	20624.35
237.963	20580.64
238.035	20529.12
238.107	20453.94
238.178	20418.22
238.25	20369.55
238.322	20338.22
238.394	20272.78
238.466	20225.74
238.538	20191.14
238.609	20158.28
238.681	20091.14
238.753	20043.58
238.825	19993.51
238.897	19956.11
238.968	19929.41
239.04	19875.34
239.112	19857.27
239.184	19803.39
239.255	19753.52
239.327	19714.34
239.399	19679.06
239.471	19644.41
239.542	19618.1
239.614	19577.19
239.686	19501.77
239.758	19474.06
239.829	19420.33
239.901	19393.87
239.973	19351.85
240.044	19306.84
240.116	19261.54
240.188	19221.21
240.259	19177.6
240.331	19133.36
240.403	19102.23
240.474	19040.83
240.546	18998.96
240.618	18939.15
240.689	18895.4
240.761	18863.78
240.833	18832.75
240.904	18794.29
240.976	18751.5
241.048	18708.52
241.119	18686.01
241.191	18658.54
241.262	18635.27
241.334	18607.03
241.405	18567.75
241.477	18516.86
241.549	18476.72
241.62	18436.1
241.692	18401.11
241.763	18370.37
241.835	18330.56
241.906	18281.7
241.978	18232.78
242.049	18201.02
242.121	18176.78
242.192	18146.33
242.264	18082.76
242.335	18029.75
242.407	17986.57
242.478	17941.13
242.55	17901.71
242.621	17839.93
242.693	17792.8
242.764	17736.56
242.836	17674.92
242.907	17641.96
242.979	17613.38
243.05	17582.87
243.122	17549.04
243.193	17508.61
243.264	17443.07
243.336	17406.78
243.407	17390.44
243.479	17371.89
243.55	17332.66
243.622	17294.01
243.693	17259.84
243.764	17243.79
243.836	17196.7
243.907	17157.52
243.978	17116.17
244.05	17084.51
244.121	17034.29
244.192	17009.76
244.264	16962.67
244.335	16928.65
244.407	16869.75
244.478	16826.71
244.549	16780.78
244.62	16726.47
244.692	16695.91
244.763	16674.22
244.834	16628.53
244.906	16574.6
244.977	16532.87
245.048	16508.82
245.119	16461.39
245.191	16414.54
245.262	16350.97
245.333	16325.52
245.405	16285.52
245.476	16261.66
245.547	16225.27
245.618	16203.2
245.689	16168.16
245.761	16139.29
245.832	16102.37
245.903	16082.32
245.974	16051.28
246.045	16020.19
246.117	16011.75
246.188	15951.02
246.259	15896.36
246.33	15855.54
246.401	15811.63
246.473	15761.31
246.544	15713.45
246.615	15683.32
246.686	15648.47
246.757	15625.96
246.828	15584.27
246.899	15569.57
246.97	15514.66
247.042	15471.62
247.113	15440.34
247.184	15425.98
247.255	15377.34
247.326	15344.51
247.397	15299.25
247.468	15270.81
247.539	15244.11
247.61	15186.99
247.681	15169.54
247.752	15149.73
247.823	15115.75
247.894	15094.06
247.965	15062.68
248.037	15027.34
248.108	14976.92
248.179	14932.14
248.25	14910.16
248.321	14885.24
248.392	14834.14
248.463	14824.31
248.534	14802.52
248.605	14784.44
248.675	14749.35
248.746	14738.56
248.817	14711.18
248.888	14688.81
248.959	14640.32
249.03	14606.67
249.101	14584.01
249.172	14549.83
249.243	14495.8
249.314	14480.03
249.385	14445.86
249.456	14422.67
249.527	14397.51
249.598	14381.36
249.669	14359.66
249.739	14320.47
249.81	14293.57
249.881	14253.52
249.952	14218.18
250.023	14178.65
250.094	14130.3
250.165	14084.8
250.235	14046.52
250.306	14014.95
250.377	13972.77
250.448	13947.46
250.519	13894.53
250.59	13877.12
250.66	13849.89
250.731	13841.93
250.802	13809.88
250.873	13791.51
250.944	13763.02
251.014	13722.91
251.085	13711.82
251.156	13691
251.227	13688.97
251.297	13679.24
251.368	13663.23
251.439	13653.78
251.51	13636.28
251.58	13599.7
251.651	13571.54
251.722	13551.73
251.792	13514.85
251.863	13485.59
251.934	13474.26
252.005	13476.96
252.075	13453.77
252.146	13438.78
252.217	13430.2
252.287	13415.59
252.358	13388.17
252.429	13389.66
252.499	13364.25
252.57	13348.44
252.641	13334.7
252.711	13306.31
252.782	13258.15
252.852	13254.92
252.923	13227.11
252.994	13205.8
253.064	13194.91
253.135	13165.93
253.205	13138.36
253.276	13134.55
253.347	13131.32
253.417	13094.4
253.488	13068.27
253.558	13037.61
253.629	13013.65
253.699	12992.63
253.77	12984.34
253.841	12960.77
253.911	12933.39
253.982	12914.68
254.052	12893.76
254.123	12863.39
254.193	12839.77
254.264	12865.32
254.334	12835.53
254.405	12793.78
254.475	12756.42
254.546	12737.58
254.616	12722.49
254.687	12710.29
254.757	12690.82
254.827	12660.88
254.898	12646.13
254.968	12626.27
255.039	12600.77
255.109	12583.18
255.18	12545.87
255.25	12491.78
255.321	12468.88
255.391	12431.04
255.461	12431.14
255.532	12387.56
255.602	12365.63
255.673	12319.35
255.743	12282.38
255.813	12234.08
255.884	12229.94
255.954	12218.56
256.024	12217.69
256.095	12197.45
256.165	12166.74
256.235	12140.18
256.306	12114.3
256.376	12104.37
256.446	12088.94
256.517	12074.48
256.587	12063.83
256.657	12050.29
256.728	12035.1
256.798	12012.74
256.868	11989.26
256.938	11958.27
257.009	11952.63
257.079	11943.86
257.149	11952.05
257.219	11914.12
257.29	11893.63
257.36	11856.66
257.43	11849.58
257.5	11799.69
257.571	11778.58
257.641	11760.17
257.711	11741.03
257.781	11732.5
257.852	11717.9
257.922	11677.7
257.992	11657.99
258.062	11632.88
258.132	11627.19
258.202	11605.21
258.273	11594.75
258.343	11596.58
258.413	11566.8
258.483	11536.72
258.553	11503.03
258.623	11477.92
258.693	11463.7
258.764	11466.93
258.834	11464.47
258.904	11440.71
258.974	11416.91
259.044	11390.21
259.114	11374.69
259.184	11352.18
259.254	11328.13
259.324	11284.76
259.394	11276.51
259.464	11279.02
259.535	11261.91
259.605	11223.16
259.675	11196.56
259.745	11175.74
259.815	11140.8
259.885	11113.58
259.955	11132.47
260.025	11101.58
260.095	11080.71
260.165	11064.38
260.235	11066.74
260.305	11037.29
260.375	11010.59
260.445	11020.76
260.515	11030.79
260.585	11030.93
260.655	11011.13
260.725	11006.02
260.795	11003.9
260.865	11007.08
260.934	10968.38
261.004	10957.34
261.074	10948.04
261.144	10959.9
261.214	10955.99
261.284	10940.96
261.354	10940.43
261.424	10902.02
261.494	10911.27
261.564	10895.51
261.634	10887.27
261.703	10846.17
261.773	10838.84
