Data from 20250704_urea_0.1M_MAYP1162681_11-18-51-694.txt Node
Date: Fri Jul 04 11:18:51 BST 2025
User: adleo
Spectrometer: MAYP116268
Trigger mode: 0
Integration Time (sec): 1.000000E0
Scans to average: 1
Electric dark correction enabled: true
Nonlinearity correction enabled: true
Boxcar width: 10
XAxis mode: Wavelengths
Number of Pixels in Spectrum: 2068
>>>>>Begin Spectral Data<<<<<
179.565	1243.34
179.642	1305.2
179.718	1347.72
179.795	1392.08
179.871	1421.67
179.948	1440.2
180.024	1460.84
180.101	1484
180.177	1500.64
180.254	1525.39
180.33	1548.88
180.407	1604.47
180.483	1703.34
180.56	1797.75
180.636	1884.78
180.712	1874.36
180.789	1884.82
180.865	1895.56
180.942	1905.26
181.018	1918.52
181.095	1931.84
181.171	1937.12
181.248	1935.88
181.324	1950.95
181.4	1956.04
181.477	1969.78
181.553	1980.81
181.63	2003.88
181.706	2020.33
181.782	2028.08
181.859	2024.13
181.935	2028.75
182.011	2023.94
182.088	2042.54
182.164	2060.72
182.24	2073.56
182.317	2083.4
182.393	2081.12
182.469	2095.38
182.546	2107.13
182.622	2112.03
182.698	2107.51
182.775	2119.97
182.851	2133.58
182.927	2128.35
183.003	2123.07
183.08	2117.41
183.156	2127.82
183.232	2121.21
183.308	2108.37
183.385	2114.22
183.461	2136.29
183.537	2139
183.613	2154.17
183.69	2144.61
183.766	2133.86
183.842	2142.47
183.918	2144.27
183.995	2156.88
184.071	2160.21
184.147	2155.22
184.223	2141.28
184.299	2154.18
184.375	2140.24
184.452	2149.38
184.528	2200.25
184.604	2211.9
184.68	2222.27
184.756	2231.98
184.832	2238.16
184.908	2244.11
184.985	2245.39
185.061	2229.41
185.137	2237.88
185.213	2226.08
185.289	2228.36
185.365	2222.7
185.441	2218.75
185.517	2234.74
185.593	2229.65
185.669	2228.22
185.745	2239.93
185.822	2257.05
185.898	2245.06
185.974	2258.14
186.05	2249.76
186.126	2215.17
186.202	2209.98
186.278	2207.51
186.354	2198.04
186.43	2204.99
186.506	2204.75
186.582	2204.23
186.658	2210.84
186.734	2188.96
186.81	2191.67
186.886	2193.1
186.962	2206.37
187.038	2206.56
187.114	2197.47
187.19	2207.08
187.266	2195.95
187.341	2196.62
187.417	2188.24
187.493	2190.53
187.569	2192.1
187.645	2186.34
187.721	2173.44
187.797	2177.58
187.873	2183.24
187.949	2175.87
188.025	2172.16
188.101	2175.54
188.176	2179.29
188.252	2174.25
188.328	2180.48
188.404	2179.48
188.48	2174.3
188.556	2165.21
188.632	2163.21
188.707	2167.88
188.783	2162.35
188.859	2160.17
188.935	2147.51
189.011	2157.69
189.086	2153.41
189.162	2143.9
189.238	2139.33
189.314	2138.38
189.39	2134.24
189.465	2125.87
189.541	2143.99
189.617	2126.72
189.693	2120.26
189.768	2124.49
189.844	2149.05
189.92	2144.44
189.996	2156
190.071	2166.28
190.147	2162.56
190.223	2170.94
190.298	2158.95
190.374	2146.39
190.45	2158.04
190.526	2169.08
190.601	2162.66
190.677	2162.56
190.753	2192.36
190.828	2196.07
190.904	2210.63
190.98	2227.48
191.055	2238.33
191.131	2229.95
191.207	2251.5
191.282	2262.3
191.358	2253.55
191.433	2237.84
191.509	2251.3
191.585	2246.44
191.66	2248.06
191.736	2256.91
191.811	2251.63
191.887	2268
191.963	2293.7
192.038	2300.64
192.114	2298.69
192.189	2303.12
192.265	2299.22
192.34	2275.98
192.416	2276.89
192.491	2271.89
192.567	2273.7
192.642	2275.79
192.718	2272.94
192.793	2258.28
192.869	2254.19
192.944	2257.57
193.02	2265.33
193.095	2269.18
193.171	2275.84
193.246	2275.79
193.322	2273.99
193.397	2272.46
193.473	2260.04
193.548	2241.43
193.624	2245.57
193.699	2244.76
193.775	2258.66
193.85	2262.13
193.925	2271.99
194.001	2270.37
194.076	2262.9
194.152	2251.66
194.227	2243.81
194.302	2235.87
194.378	2240.44
194.453	2235.68
194.529	2248.72
194.604	2231.64
194.679	2223.31
194.755	2203.47
194.83	2214.76
194.905	2213.28
194.981	2221.99
195.056	2216.09
195.131	2222.13
195.207	2221.51
195.282	2213.14
195.357	2195.77
195.433	2210.23
195.508	2196.77
195.583	2204.57
195.659	2218.99
195.734	2227.27
195.809	2226.84
195.884	2236.21
195.96	2238.16
196.035	2253.82
196.11	2247.53
196.185	2262.38
196.261	2269.75
196.336	2300.16
196.411	2287.07
196.486	2292.3
196.561	2285.4
196.637	2291.87
196.712	2308.2
196.787	2310.96
196.862	2325.52
196.937	2335.09
197.013	2340.18
197.088	2352.84
197.163	2374.6
197.238	2391.75
197.313	2390.23
197.388	2406.98
197.464	2438.03
197.539	2448.88
197.614	2441.7
197.689	2456.41
197.764	2472.79
197.839	2492.93
197.914	2488.46
197.989	2509.84
198.065	2522.74
198.14	2572.39
198.215	2599.05
198.29	2611.49
198.365	2624.49
198.44	2636.59
198.515	2665.41
198.59	2681.22
198.665	2710.14
198.74	2716.57
198.815	2717.05
198.89	2741.25
198.965	2773.47
199.04	2772.09
199.115	2789.76
199.19	2834.02
199.265	2833.79
199.34	2844.89
199.415	2879.75
199.49	2903.09
199.565	2913.1
199.64	2938.17
199.715	2937.65
199.79	2943.89
199.865	2952.18
199.94	2953.18
200.015	2984.75
200.09	2989.37
200.165	2999.14
200.24	3002.72
200.315	3045.23
200.39	3066.22
200.464	3072.32
200.539	3070.94
200.614	3084.86
200.689	3105.93
200.764	3115.19
200.839	3134.87
200.914	3144.89
200.989	3134.87
201.063	3148.79
201.138	3133.16
201.213	3135.74
201.288	3115.14
201.363	3123.96
201.438	3120.34
201.512	3135.92
201.587	3118.9
201.662	3123.48
201.737	3137.55
201.812	3148.23
201.886	3112.2
201.961	3119.21
202.036	3110.87
202.111	3105.91
202.186	3079.37
202.26	3066.34
202.335	3045.98
202.41	3042.35
202.485	3019.57
202.559	2999.07
202.634	2975.7
202.709	2992.1
202.784	2978.51
202.858	2984.66
202.933	2969.21
203.008	2973.21
203.082	2960.29
203.157	2966.4
203.232	2933.99
203.306	2924.45
203.381	2902.75
203.456	2894.94
203.53	2886.01
203.605	2877.01
203.68	2870.95
203.754	2882.86
203.829	2887.39
203.904	2883.67
203.978	2895.88
204.053	2925.11
204.127	2939.03
204.202	2964.2
204.277	2973.98
204.351	2999.21
204.426	3026.07
204.5	3057.59
204.575	3060.26
204.65	3111.28
204.724	3149.99
204.799	3205.59
204.873	3248.61
204.948	3298.48
205.022	3341.13
205.097	3387.37
205.171	3466.32
205.246	3540.02
205.32	3600.59
205.395	3670.63
205.469	3738
205.544	3819.39
205.618	3883.81
205.693	3978.79
205.767	4055.37
205.842	4171.54
205.916	4259.58
205.991	4348.08
206.065	4451.48
206.14	4571.95
206.214	4676.25
206.289	4778.44
206.363	4901.74
206.438	5020.94
206.512	5148.95
206.586	5291.81
206.661	5433.68
206.735	5541.67
206.81	5679.05
206.884	5837.38
206.958	5967.47
207.033	6133.44
207.107	6286.97
207.181	6471.8
207.256	6623.54
207.33	6800.69
207.405	6971.45
207.479	7149.16
207.553	7322.85
207.628	7474.36
207.702	7658.8
207.776	7820.02
207.851	8001.9
207.925	8197.73
207.999	8370.58
208.073	8555.29
208.148	8743.64
208.222	8911.96
208.296	9126.99
208.371	9326.23
208.445	9533.09
208.519	9748.22
208.593	9944.13
208.668	10126.58
208.742	10320.06
208.816	10510.09
208.89	10717.12
208.965	10898.3
209.039	11095.38
209.113	11305.76
209.187	11519.51
209.261	11707.02
209.336	11918.2
209.41	12128
209.484	12321.09
209.558	12540.35
209.632	12739.37
209.707	12945.34
209.781	13168.27
209.855	13376.8
209.929	13584.94
210.003	13769.71
210.077	13956.89
210.151	14199.11
210.226	14429.71
210.3	14643.87
210.374	14844.01
210.448	15030.12
210.522	15232.28
210.596	15430.97
210.67	15628.01
210.744	15857.2
210.818	16069.48
210.892	16267.43
210.966	16440.03
211.041	16633.54
211.115	16799.63
211.189	16996.12
211.263	17180.61
211.337	17343.37
211.411	17520.86
211.485	17683.42
211.559	17863.37
211.633	18025.45
211.707	18149.2
211.781	18309.24
211.855	18427.89
211.929	18584.66
212.003	18722.97
212.077	18884.7
212.151	19051.2
212.225	19202.47
212.299	19333.16
212.373	19462.65
212.447	19605.92
212.52	19764.86
212.594	19896.04
212.668	20044.32
212.742	20172.9
212.816	20297.43
212.89	20428.18
212.964	20559.17
213.038	20691.03
213.112	20830.51
213.186	20981.13
213.26	21087.88
213.333	21170.77
213.407	21298.78
213.481	21427.42
213.555	21562.52
213.629	21661.34
213.703	21756.39
213.777	21868.57
213.85	21965.79
213.924	22118.81
213.998	22232.29
214.072	22339.21
214.146	22433.56
214.219	22535.57
214.293	22628.56
214.367	22736.37
214.441	22852.23
214.515	22941.81
214.588	23009.7
214.662	23071.94
214.736	23135.4
214.81	23236.02
214.883	23334.09
214.957	23417.95
215.031	23481.64
215.105	23534.59
215.178	23614.83
215.252	23687.8
215.326	23746.06
215.4	23808.94
215.473	23823.94
215.547	23888.14
215.621	23956.78
215.694	24048.77
215.768	24102.4
215.842	24162.55
215.915	24213.78
215.989	24247.26
216.063	24300.37
216.136	24372.1
216.21	24428.34
216.284	24506.4
216.357	24562.89
216.431	24628.35
216.504	24683.69
216.578	24780.28
216.652	24855.39
216.725	24903.45
216.799	24969.65
216.873	25023.45
216.946	25077
217.02	25135.09
217.093	25181.76
217.167	25201.93
217.24	25234.99
217.314	25273.49
217.387	25309.2
217.461	25347.51
217.535	25401.85
217.608	25434.13
217.682	25472.02
217.755	25530.42
217.829	25563.33
217.902	25611.69
217.976	25643.84
218.049	25677.09
218.123	25693.07
218.196	25738.63
218.27	25772.71
218.343	25793.76
218.417	25829.77
218.49	25864.08
218.563	25918.1
218.637	25939.77
218.71	26006.73
218.784	26039.22
218.857	26078.03
218.931	26130.74
219.004	26170.04
219.077	26214.6
219.151	26252.59
219.224	26285.04
219.298	26306.86
219.371	26345.73
219.444	26357.12
219.518	26373.05
219.591	26403.71
219.665	26453.93
219.738	26471.6
219.811	26487.15
219.885	26532.01
219.958	26562.43
220.031	26590.92
220.105	26611.54
220.178	26645.09
220.251	26659.1
220.325	26685.71
220.398	26725.11
220.471	26734.34
220.544	26761.72
220.618	26766.06
220.691	26788.66
220.764	26796.78
220.838	26824.25
220.911	26832.9
220.984	26876.31
221.057	26919.97
221.131	26940.83
221.204	26932.33
221.277	26966.28
221.35	27019.03
221.424	27021.05
221.497	27039.75
221.57	27048.44
221.643	27051
221.716	27068.87
221.79	27060.08
221.863	27072.73
221.936	27066.75
222.009	27067.9
222.082	27066.75
222.155	27066.31
222.229	27089.35
222.302	27105.19
222.375	27100.84
222.448	27108.04
222.521	27096.21
222.594	27088.09
222.667	27072.54
222.74	27075.3
222.814	27068.34
222.887	27054.09
222.96	27048.92
223.033	27046.17
223.106	27044.24
223.179	27051
223.252	27047.57
223.325	27047.66
223.398	27034.24
223.471	27023.32
223.544	27022.26
223.617	27023.27
223.69	27029.26
223.763	26998.3
223.837	26981.11
223.91	26978.41
223.983	26944.07
224.056	26926.01
224.129	26906.26
224.202	26902.1
224.275	26875.3
224.348	26845.74
224.42	26813.29
224.493	26786.2
224.566	26762.1
224.639	26753.07
224.712	26728.44
224.785	26696.95
224.858	26678.6
224.931	26649.72
225.004	26634.99
225.077	26615.63
225.15	26559.04
225.223	26533.35
225.296	26537.12
225.369	26508.49
225.442	26470.53
225.514	26461.6
225.587	26440.7
225.66	26427.61
225.733	26412.16
225.806	26390.58
225.879	26371.8
225.952	26337.62
226.025	26325.55
226.097	26317.92
226.17	26295.8
226.243	26258.82
226.316	26236.9
226.389	26217.49
226.461	26188.29
226.534	26162.17
226.607	26124.95
226.68	26137.7
226.753	26108.3
226.825	26054.08
226.898	26043.31
226.971	26022.41
227.044	25996.73
227.117	25965.31
227.189	25938.32
227.262	25921.28
227.335	25913.8
227.407	25870.89
227.48	25846.56
227.553	25817.84
227.626	25772.42
227.698	25736.26
227.771	25696.26
227.844	25657.4
227.916	25624.48
227.989	25586.89
228.062	25549.68
228.134	25544.8
228.207	25503.34
228.28	25466.86
228.352	25438.63
228.425	25415.17
228.498	25397.7
228.57	25360.93
228.643	25349.59
228.716	25304.85
228.788	25256.78
228.861	25203.22
228.934	25192.17
229.006	25165
229.079	25130.01
229.151	25097.44
229.224	25046.2
229.296	25027.53
229.369	25022.41
229.442	25002.29
229.514	24969.44
229.587	24954.58
229.659	24904.64
229.732	24881.33
229.804	24857.45
229.877	24850.74
229.949	24817.06
230.022	24797.96
230.094	24763.85
230.167	24730.12
230.239	24692.59
230.312	24665.19
230.384	24660.07
230.457	24629.63
230.529	24603.92
230.602	24580.71
230.674	24548.68
230.747	24543.47
230.819	24530.78
230.892	24462.18
230.964	24432.27
231.037	24415.97
231.109	24379.69
231.181	24344.48
231.254	24293.02
231.326	24249.41
231.399	24209.08
231.471	24173.39
231.544	24120.27
231.616	24099.73
231.688	24063.89
231.761	24023.72
231.833	23979.2
231.905	23914.76
231.978	23871.11
232.05	23832.58
232.122	23794.62
232.195	23764.67
232.267	23736.4
232.339	23689.86
232.412	23669.99
232.484	23625.33
232.556	23577.4
232.629	23558.2
232.701	23540.26
232.773	23511.43
232.846	23477.87
232.918	23429.88
232.99	23390.48
233.062	23356
233.135	23322.68
233.207	23269.88
233.279	23233.28
233.351	23203.29
233.424	23169.11
233.496	23120.65
233.568	23099.53
233.64	23045.53
233.713	22996.97
233.785	22947.6
233.857	22913.65
233.929	22859.85
234.001	22842.15
234.074	22817.66
234.146	22758.45
234.218	22716.5
234.29	22664.44
234.362	22613.91
234.434	22560.98
234.507	22514.98
234.579	22460.79
234.651	22403.23
234.723	22379.71
234.795	22359.07
234.867	22321.95
234.939	22295.73
235.012	22261.21
235.084	22220.72
235.156	22187.41
235.228	22138.96
235.3	22093.02
235.372	22055.23
235.444	22037.92
235.516	21965.37
235.588	21929.36
235.66	21890.17
235.732	21837.58
235.804	21860.09
235.876	21831.03
235.948	21811.89
236.02	21761.76
236.092	21715.97
236.164	21674.33
236.236	21623.19
236.308	21569.11
236.38	21523.03
236.452	21471.02
236.524	21434.97
236.596	21406.87
236.668	21370.04
236.74	21328.64
236.812	21288.54
236.884	21247.38
236.956	21189.2
237.028	21137.78
237.1	21079.08
237.172	21043.51
237.244	21019.02
237.316	20939.73
237.388	20884.12
237.46	20832.93
237.532	20801.65
237.604	20760.78
237.675	20735.87
237.747	20698.52
237.819	20655.09
237.891	20609.7
237.963	20552.73
238.035	20495.43
238.107	20414.8
238.178	20391.09
238.25	20356.1
238.322	20334.03
238.394	20275.91
238.466	20236.97
238.538	20207.48
238.609	20163.72
238.681	20100.06
238.753	20041.02
238.825	20000.54
238.897	19969.12
238.968	19941.27
239.04	19893.65
239.112	19872.11
239.184	19818.43
239.255	19768.55
239.327	19733.56
239.399	19696.22
239.471	19668.99
239.542	19637.04
239.614	19611.55
239.686	19536.9
239.758	19492.85
239.829	19438.25
239.901	19399.56
239.973	19346.69
240.044	19301.44
240.116	19259.52
240.188	19220.58
240.259	19180.82
240.331	19124.63
240.403	19091.87
240.474	19037.56
240.546	18985.56
240.618	18919.06
240.689	18877.85
240.761	18843.21
240.833	18810.2
240.904	18762.92
240.976	18728.9
241.048	18691.17
241.119	18657.53
241.191	18622.06
241.262	18600.62
241.334	18558.02
241.405	18522.94
241.477	18483.81
241.549	18445.98
241.62	18411.33
241.692	18381.11
241.763	18354.41
241.835	18310.37
241.906	18266.95
241.978	18201.75
242.049	18183.58
242.121	18155.1
242.192	18129.99
242.264	18068.31
242.335	18006.96
242.407	17979.88
242.478	17926.43
242.55	17883.01
242.621	17832.46
242.693	17787.88
242.764	17742.82
242.836	17694.63
242.907	17657.52
242.979	17634.58
243.05	17596.85
243.122	17568.66
243.193	17527.65
243.264	17471.79
243.336	17427.84
243.407	17396.61
243.479	17385.53
243.55	17342.2
243.622	17314.25
243.693	17267.6
243.764	17254.39
243.836	17213.86
243.907	17164.9
243.978	17130.44
244.05	17098.29
244.121	17043.16
244.192	17015.16
244.264	16956.65
244.335	16921.71
244.407	16868.45
244.478	16828.74
244.549	16792.11
244.62	16736.64
244.692	16699.82
244.763	16672.01
244.834	16636.49
244.906	16581.35
244.977	16542.89
245.048	16516.67
245.119	16465.87
245.191	16417.44
245.262	16351.89
245.333	16330.63
245.405	16299.54
245.476	16265.81
245.547	16231.63
245.618	16207.87
245.689	16175.58
245.761	16151.72
245.832	16114.32
245.903	16076.72
245.974	16037.78
246.045	15998.69
246.117	15979.27
246.188	15926.1
246.259	15875.11
246.33	15845.13
246.401	15812.88
246.473	15760.63
246.544	15718.36
246.615	15693.68
246.686	15660.96
246.757	15634.45
246.828	15586.49
246.899	15571.11
246.97	15517.75
247.042	15474.47
247.113	15445.74
247.184	15427.42
247.255	15380.86
247.326	15344.76
247.397	15317.91
247.468	15288.12
247.539	15254.67
247.61	15202.8
247.681	15184.39
247.752	15172
247.823	15116.42
247.894	15089.14
247.965	15055.93
248.037	15027.82
248.108	14984.73
248.179	14950.7
248.25	14929.3
248.321	14907.51
248.392	14857.38
248.463	14848.27
248.534	14817.22
248.605	14789.75
248.675	14753.5
248.746	14729.59
248.817	14710.12
248.888	14682.2
248.959	14631.88
249.03	14606.67
249.101	14580.59
249.172	14545.59
249.243	14486.25
249.314	14488.23
249.385	14457.71
249.456	14435.78
249.527	14387.67
249.598	14360.77
249.669	14331.13
249.739	14305.39
249.81	14281.23
249.881	14240.98
249.952	14210.71
250.023	14180.39
250.094	14139.56
250.165	14099.69
250.235	14072.79
250.306	14043.39
250.377	14004.2
250.448	13985.88
250.519	13938.64
250.59	13930.01
250.66	13897.03
250.731	13892.36
250.802	13858.52
250.873	13835.33
250.944	13811.56
251.014	13783.89
251.085	13778.45
251.156	13753.96
251.227	13740.8
251.297	13727.88
251.368	13710.38
251.439	13698.04
251.51	13684.68
251.58	13641.3
251.651	13610.69
251.722	13590.44
251.792	13548.6
251.863	13521.07
251.934	13508.68
252.005	13509.65
252.075	13476.48
252.146	13463.66
252.217	13445.72
252.287	13429
252.358	13410.63
252.429	13402.34
252.499	13375.58
252.57	13351.67
252.641	13344.88
252.711	13322.41
252.782	13277.48
252.852	13275.7
252.923	13243.06
252.994	13217.08
253.064	13216.65
253.135	13180.83
253.205	13154.17
253.276	13152.58
253.347	13152.63
253.417	13126.26
253.488	13094.88
253.558	13071.98
253.629	13043.25
253.699	13024.74
253.77	13012.98
253.841	12979.28
253.911	12955.85
253.982	12934.79
254.052	12919.36
254.123	12890.63
254.193	12863.49
254.264	12886.19
254.334	12845.56
254.405	12808.87
254.475	12770.89
254.546	12741.77
254.616	12739.07
254.687	12715.84
254.757	12688.21
254.827	12659.82
254.898	12637.36
254.968	12614.36
255.039	12575.17
255.109	12566.5
255.18	12532.37
255.25	12481.27
255.321	12463.68
255.391	12424.63
255.461	12426.22
255.532	12375.75
255.602	12348.32
255.673	12304.56
255.743	12266.28
255.813	12222.22
255.884	12220.44
255.954	12216.39
256.024	12212.82
256.095	12193.01
256.165	12163.42
256.235	12157.2
256.306	12125.58
256.376	12122.25
256.446	12106.73
256.517	12096.42
256.587	12082.2
256.657	12064.8
256.728	12045.66
256.798	12024.36
256.868	12008.59
256.938	11973.31
257.009	11964.3
257.079	11954.95
257.149	11959.62
257.219	11917.4
257.29	11911.42
257.36	11866.16
257.43	11856.95
257.5	11813.33
257.571	11790.87
257.641	11779.88
257.711	11742.72
257.781	11733.9
257.852	11708.98
257.922	11672.49
257.992	11652.59
258.062	11628.15
258.132	11617.55
258.202	11604.97
258.273	11589.59
258.343	11581.01
258.413	11557.54
258.483	11543.71
258.553	11505.73
258.623	11480.28
258.693	11461.2
258.764	11457.2
258.834	11460.09
258.904	11435.7
258.974	11413.24
259.044	11384.9
259.114	11369.34
259.184	11348.81
259.254	11329.19
259.324	11285.86
259.394	11274.54
259.464	11282.44
259.535	11264.95
259.605	11242.78
259.675	11208.03
259.745	11196.76
259.815	11167.36
259.885	11143.98
259.955	11150.44
260.025	11130.2
260.095	11109.63
260.165	11103.26
260.235	11100.32
260.305	11073.58
260.375	11041.96
260.445	11044.71
260.515	11051.02
260.585	11045.15
260.655	11033.72
260.725	11027.12
260.795	11021.77
260.865	11029.15
260.934	10993.48
261.004	10984.33
261.074	10965.68
261.144	10972.42
261.214	10964.14
261.284	10949.49
261.354	10952.43
261.424	10918.69
261.494	10921.44
261.564	10898.98
261.634	10890.36
261.703	10849.4
261.773	10841.35
261.843	10832.1
261.913	10818.22
