Data from 20250704_urea_1.5M_MAYP1162681_11-45-21-596.txt Node
Date: Fri Jul 04 11:45:21 BST 2025
User: adleo
Spectrometer: MAYP116268
Trigger mode: 0
Integration Time (sec): 1.000000E0
Scans to average: 1
Electric dark correction enabled: true
Nonlinearity correction enabled: true
Boxcar width: 10
XAxis mode: Wavelengths
Number of Pixels in Spectrum: 2068
>>>>>Begin Spectral Data<<<<<
179.565	1260.7
179.642	1320.67
179.718	1370.42
179.795	1412.91
179.871	1444.95
179.948	1463.13
180.024	1484.28
180.101	1510.01
180.177	1526.94
180.254	1552.5
180.33	1576.06
180.407	1633.47
180.483	1733.81
180.56	1829.41
180.636	1917.29
180.712	1904.26
180.789	1916.34
180.865	1929.88
180.942	1940.25
181.018	1947.24
181.095	1960.7
181.171	1968.45
181.248	1970.3
181.324	1983.48
181.4	1989.95
181.477	2003.36
181.553	2019.76
181.63	2041.92
181.706	2056
181.782	2063.08
181.859	2062.42
181.935	2066.89
182.011	2063.7
182.088	2080.54
182.164	2100.67
182.24	2114.32
182.317	2125.73
182.393	2122.21
182.469	2139.57
182.546	2151.61
182.622	2158.03
182.698	2152.79
182.775	2161.79
182.851	2174.01
182.927	2167.21
183.003	2162.64
183.08	2154.13
183.156	2159.5
183.232	2155.84
183.308	2143.66
183.385	2150.08
183.461	2164.74
183.537	2167.16
183.613	2181.86
183.69	2171.44
183.766	2158.93
183.842	2166.87
183.918	2172.3
183.995	2184.76
184.071	2184.81
184.147	2180.24
184.223	2169.35
184.299	2183.2
184.375	2175.73
184.452	2183.72
184.528	2233.4
184.604	2245.06
184.68	2260.81
184.756	2271.56
184.832	2274.89
184.908	2281.79
184.985	2282.88
185.061	2267.71
185.137	2275.65
185.213	2264.23
185.289	2266.33
185.365	2258.29
185.441	2257.86
185.517	2270.19
185.593	2267.86
185.669	2263.34
185.745	2273.19
185.822	2290.5
185.898	2280.46
185.974	2288.07
186.05	2282.64
186.126	2247.95
186.202	2240.77
186.278	2236.01
186.354	2222.78
186.43	2232.21
186.506	2231.35
186.582	2231.02
186.658	2239.63
186.734	2216.7
186.81	2218.46
186.886	2221.46
186.962	2235.49
187.038	2231.92
187.114	2224.97
187.19	2230.06
187.266	2220.88
187.341	2223.26
187.417	2212.99
187.493	2214.51
187.569	2219.6
187.645	2212.46
187.721	2199.04
187.797	2206.32
187.873	2211.22
187.949	2208.32
188.025	2199.42
188.101	2201.37
188.176	2207.75
188.252	2200.09
188.328	2213.21
188.404	2214.35
188.48	2210.41
188.556	2203.89
188.632	2200.65
188.707	2202.17
188.783	2198.56
188.859	2193.28
188.935	2178.34
189.011	2190.23
189.086	2184.19
189.162	2175.86
189.238	2172.53
189.314	2172.25
189.39	2167.06
189.465	2155.79
189.541	2170.73
189.617	2157.12
189.693	2154.65
189.768	2158.12
189.844	2188.16
189.92	2179.74
189.996	2188.26
190.071	2198.39
190.147	2196.2
190.223	2206.34
190.298	2199.29
190.374	2189.11
190.45	2205.14
190.526	2217.47
190.601	2208.57
190.677	2209.95
190.753	2237.7
190.828	2241.13
190.904	2253.69
190.98	2268.49
191.055	2282.86
191.131	2275.06
191.207	2293.09
191.282	2299.75
191.358	2289.38
191.433	2271.48
191.509	2281.84
191.585	2277.61
191.66	2278.89
191.736	2288.65
191.811	2283.08
191.887	2300.17
191.963	2324.06
192.038	2327.63
192.114	2326.16
192.189	2330.82
192.265	2327.3
192.34	2303.68
192.416	2303.25
192.491	2302.82
192.567	2307.49
192.642	2310.2
192.718	2310.73
192.793	2302.92
192.869	2298.02
192.944	2303.4
193.02	2312.68
193.095	2317.82
193.171	2322.39
193.246	2322.72
193.322	2319.39
193.397	2318.91
193.473	2301.49
193.548	2283.83
193.624	2289.26
193.699	2288.16
193.775	2305.49
193.85	2307.2
193.925	2316.34
194.001	2315.3
194.076	2307.02
194.152	2294.07
194.227	2285.17
194.302	2274.65
194.378	2278.22
194.453	2278.22
194.529	2288.98
194.604	2270.51
194.679	2263.95
194.755	2245.35
194.83	2257.11
194.905	2253.68
194.981	2261.15
195.056	2256.11
195.131	2263.06
195.207	2261.87
195.282	2253.78
195.357	2235.64
195.433	2251.44
195.508	2239.59
195.583	2245.58
195.659	2259.34
195.734	2266.48
195.809	2267.48
195.884	2279.89
195.96	2278.99
196.035	2293.89
196.11	2286.75
196.185	2299.88
196.261	2305.54
196.336	2337.47
196.411	2323
196.486	2328.76
196.561	2323.76
196.637	2330.04
196.712	2344.28
196.787	2347.09
196.862	2363.17
196.937	2369.88
197.013	2376.55
197.088	2386.45
197.163	2412.26
197.238	2430.03
197.313	2428.51
197.388	2441.5
197.464	2472.22
197.539	2481.27
197.614	2474.03
197.689	2488.13
197.764	2508.03
197.839	2529.94
197.914	2522.46
197.989	2547.8
198.065	2561.84
198.14	2612.45
198.215	2642.46
198.29	2656.42
198.365	2672.66
198.44	2682.81
198.515	2713.77
198.59	2728.64
198.665	2757.7
198.74	2763.47
198.815	2764.09
198.89	2790.53
198.965	2818.93
199.04	2812.6
199.115	2831.22
199.19	2877.21
199.265	2880.25
199.34	2891.46
199.415	2923.89
199.49	2948.47
199.565	2953.95
199.64	2976.73
199.715	2973.2
199.79	2981.55
199.865	2986.08
199.94	2981.98
200.015	3016.07
200.09	3022.46
200.165	3027.61
200.24	3032.14
200.315	3075.14
200.39	3092.45
200.464	3097.46
200.539	3099.51
200.614	3115.05
200.689	3138.9
200.764	3144.86
200.839	3163.97
200.914	3166.83
200.989	3155.72
201.063	3172.32
201.138	3156.4
201.213	3159.45
201.288	3140.09
201.363	3144.57
201.438	3146.39
201.512	3164.74
201.587	3146.61
201.662	3148.85
201.737	3165.07
201.812	3174.56
201.886	3141.34
201.961	3150.74
202.036	3137.96
202.111	3137.54
202.186	3108.27
202.26	3089.2
202.335	3066.25
202.41	3060.25
202.485	3040.13
202.559	3022.39
202.634	2992.02
202.709	3004.84
202.784	2983.29
202.858	2985.87
202.933	2966.13
203.008	2959.5
203.082	2938.1
203.157	2936.24
203.232	2893.55
203.306	2870.66
203.381	2840.48
203.456	2815.17
203.53	2790.84
203.605	2770.31
203.68	2747.95
203.754	2741.77
203.829	2728.85
203.904	2707.65
203.978	2696.31
204.053	2702.45
204.127	2687.16
204.202	2685.54
204.277	2663.77
204.351	2659.72
204.426	2650.62
204.5	2643.28
204.575	2609.85
204.65	2617.67
204.724	2607.56
204.799	2614.99
204.873	2611.22
204.948	2607.6
205.022	2596.32
205.097	2590.12
205.171	2606.84
205.246	2611.55
205.32	2609.98
205.395	2608.17
205.469	2599.41
205.544	2603.46
205.618	2584.13
205.693	2597.08
205.767	2584.61
205.842	2608.57
205.916	2600.19
205.991	2589.19
206.065	2593.95
206.14	2608.47
206.214	2607.75
206.289	2602.18
206.363	2614.04
206.438	2615.42
206.512	2620.85
206.586	2640.23
206.661	2645
206.735	2621.34
206.81	2624.58
206.884	2640.58
206.958	2628.82
207.033	2645.77
207.107	2650.86
207.181	2684.84
207.256	2676.88
207.33	2697.08
207.405	2707.71
207.479	2727.58
207.553	2734.91
207.628	2718.01
207.702	2727.39
207.776	2719.86
207.851	2722.48
207.925	2738.26
207.999	2735.11
208.073	2734.54
208.148	2735.78
208.222	2726.15
208.296	2761.78
208.371	2777.47
208.445	2791.15
208.519	2821.02
208.593	2834.27
208.668	2831.79
208.742	2835.6
208.816	2840.94
208.89	2854.67
208.965	2856.96
209.039	2864.78
209.113	2880.98
209.187	2903.93
209.261	2899.7
209.336	2918.66
209.41	2938.83
209.484	2941.36
209.558	2966.39
209.632	2979.73
209.707	2993.6
209.781	3016.01
209.855	3030.7
209.929	3048.45
210.003	3055.32
210.077	3056.27
210.151	3105
210.226	3145.27
210.3	3176.21
210.374	3200.62
210.448	3211.68
210.522	3225.05
210.596	3241.41
210.67	3258.39
210.744	3308.3
210.818	3347.88
210.892	3373.5
210.966	3373.55
211.041	3396.41
211.115	3398.89
211.189	3430
211.263	3458.06
211.337	3475
211.411	3502.46
211.485	3508.19
211.559	3533.38
211.633	3548.08
211.707	3529.54
211.781	3552.72
211.855	3529.04
211.929	3539.68
212.003	3534.14
212.077	3563.52
212.151	3598.87
212.225	3633.06
212.299	3648.31
212.373	3669.04
212.447	3697.42
212.52	3763.3
212.594	3795.45
212.668	3842.22
212.742	3867.45
212.816	3901.62
212.89	3936.7
212.964	3977.44
213.038	4028.22
213.112	4088.33
213.186	4153
213.26	4189.03
213.333	4196.78
213.407	4264.12
213.481	4329.81
213.555	4413.51
213.629	4469.6
213.703	4518.9
213.777	4589.65
213.85	4647.96
213.924	4754.18
213.998	4833.49
214.072	4902.48
214.146	4979.64
214.219	5063.23
214.293	5144.55
214.367	5232.82
214.441	5333.45
214.515	5413.46
214.588	5483.35
214.662	5542.84
214.736	5628.08
214.81	5738.75
214.883	5855.43
214.957	5952.16
215.031	6048.46
215.105	6131.44
215.178	6220.94
215.252	6331.28
215.326	6421.2
215.4	6516.15
215.473	6584.36
215.547	6678.36
215.621	6787.53
215.694	6911.45
215.768	7008.94
215.842	7125.07
215.915	7240.96
215.989	7340.75
216.063	7458.54
216.136	7585.94
216.21	7711.83
216.284	7850.58
216.357	7978.6
216.431	8102.94
216.504	8236.82
216.578	8388.14
216.652	8528.51
216.725	8664.69
216.799	8801.29
216.873	8929.41
216.946	9067.93
217.02	9188.89
217.093	9323.31
217.167	9428.13
217.24	9537.64
217.314	9664.52
217.387	9788.72
217.461	9907.79
217.535	10051.33
217.608	10165.2
217.682	10293.58
217.755	10435.21
217.829	10550.66
217.902	10674.14
217.976	10801.83
218.049	10920.27
218.123	11028.8
218.196	11162.81
218.27	11279.67
218.343	11386.23
218.417	11515.59
218.49	11636.51
218.563	11780.47
218.637	11905.01
218.71	12046.57
218.784	12178.02
218.857	12312.78
218.931	12437.48
219.004	12555.63
219.077	12679.22
219.151	12795.87
219.224	12905.01
219.298	13021.42
219.371	13144.39
219.444	13247.41
219.518	13356.69
219.591	13465.73
219.665	13607.12
219.738	13710.86
219.811	13811.51
219.885	13937.38
219.958	14043.14
220.031	14142.15
220.105	14257.51
220.178	14357.24
220.251	14455.05
220.325	14557.87
220.398	14656.88
220.471	14756.67
220.544	14861.61
220.618	14947.75
220.691	15053.99
220.764	15148.42
220.838	15245.3
220.911	15333.8
220.984	15450.16
221.057	15554.18
221.131	15653.76
221.204	15708.23
221.277	15811.57
221.35	15930.57
221.424	15998.44
221.497	16079.99
221.57	16162.85
221.643	16245.26
221.716	16333.32
221.79	16399.4
221.863	16474.01
221.936	16546.26
222.009	16618.5
222.082	16696.34
222.155	16766.61
222.229	16851.92
222.302	16935.92
222.375	17001.42
222.448	17063.64
222.521	17119.25
222.594	17169.57
222.667	17220.56
222.74	17288.41
222.814	17349.86
222.887	17396.75
222.96	17472.41
223.033	17541.96
223.106	17601.14
223.179	17649.42
223.252	17698.24
223.325	17758.53
223.398	17814.96
223.471	17872.41
223.544	17921.56
223.617	17965.8
223.69	18012.6
223.763	18042.86
223.837	18094.72
223.91	18140.4
223.983	18170.86
224.056	18202.33
224.129	18247.91
224.202	18300.92
224.275	18336.97
224.348	18360.34
224.42	18381.16
224.493	18392.34
224.566	18415.23
224.639	18457.11
224.712	18486.36
224.785	18514.99
224.858	18541.83
224.931	18561.01
225.004	18569.83
225.077	18597.73
225.15	18600.91
225.223	18622.69
225.296	18677.14
225.369	18668.37
225.442	18675.75
225.514	18703.89
225.587	18727.21
225.66	18747.55
225.733	18766.73
225.806	18780.85
225.879	18794.29
225.952	18803.98
226.025	18835.35
226.097	18871.25
226.17	18879.64
226.243	18872.99
226.316	18882.96
226.389	18899.15
226.461	18920.79
226.534	18945.46
226.607	18960.93
226.68	19000.45
226.753	19012.4
226.825	18988.16
226.898	19016.59
226.971	19032.3
227.044	19045.27
227.117	19052.74
227.189	19076.49
227.262	19085.84
227.335	19098.42
227.407	19093.41
227.48	19110.03
227.553	19116.92
227.626	19108.97
227.698	19119.62
227.771	19126.51
227.844	19132.01
227.916	19141.12
227.989	19120.01
228.062	19120.01
228.134	19146.56
228.207	19141.93
228.28	19138.75
228.352	19143.24
228.425	19146.61
228.498	19157.69
228.57	19151.81
228.643	19172.97
228.716	19160.82
228.788	19151.24
228.861	19149.64
228.934	19176.82
229.006	19161.16
229.079	19156.01
229.151	19144.63
229.224	19124.54
229.296	19130.51
229.369	19148.44
229.442	19159.91
229.514	19154.51
229.587	19153.89
229.659	19112.01
229.732	19107.53
229.804	19108.88
229.877	19131.53
229.949	19134.13
230.022	19148.58
230.094	19146.85
230.167	19134.51
230.239	19124.49
230.312	19130.9
230.384	19147.77
230.457	19137.26
230.529	19154.66
230.602	19157.07
230.674	19165.6
230.747	19177.88
230.819	19183.86
230.892	19145.16
230.964	19130.61
231.037	19133.65
231.109	19123
231.181	19134.22
231.254	19125.31
231.326	19119.48
231.399	19100.59
231.471	19089.99
231.544	19055.58
231.616	19055.48
231.688	19055.19
231.761	19033.6
231.833	19006.62
231.905	18975.01
231.978	18965.42
232.05	18951.68
232.122	18943.92
232.195	18928.41
232.267	18925.18
232.339	18913.9
232.412	18928.41
232.484	18914.33
232.556	18896.31
232.629	18911.39
232.701	18904.7
232.773	18896.5
232.846	18876.79
232.918	18866.29
232.99	18845.57
233.062	18839.74
233.135	18829.42
233.207	18795.45
233.279	18790.58
233.351	18798.49
233.424	18775.64
233.496	18745.33
233.568	18747.98
233.64	18711.26
233.713	18692.47
233.785	18666.54
233.857	18644.18
233.929	18607.65
234.001	18609.97
234.074	18622.79
234.146	18587.03
234.218	18565.44
234.29	18543.47
234.362	18522.26
234.434	18484.77
234.507	18461.93
234.579	18434.46
234.651	18403.14
234.723	18398.65
234.795	18391.43
234.867	18362.85
234.939	18366.32
235.012	18352.39
235.084	18328.3
235.156	18309.84
235.228	18287.91
235.3	18265.26
235.372	18255.72
235.444	18251.34
235.516	18203.72
235.588	18174.95
235.66	18159.24
235.732	18136.88
235.804	18174.52
235.876	18165.22
235.948	18172.01
236.02	18157.89
236.092	18130.71
236.164	18116.4
236.236	18090.43
236.308	18055.05
236.38	18034.86
236.452	17994.33
236.524	17984.94
236.596	17984.5
236.668	17985.51
236.74	17965.18
236.812	17956.46
236.884	17940.02
236.956	17912.79
237.028	17884.94
237.1	17853.9
237.172	17849.86
237.244	17849.86
237.316	17783.02
237.388	17746.82
237.46	17708.37
237.532	17702.87
237.604	17670.82
237.675	17662.97
237.747	17654.68
237.819	17635.4
237.891	17618.25
237.963	17596.03
238.035	17561.96
238.107	17498.68
238.178	17484.22
238.25	17448.13
238.322	17450.54
238.394	17399.69
238.466	17372.03
238.538	17358.25
238.609	17334.58
238.681	17281.43
238.753	17245.91
238.825	17228.46
238.897	17217.14
238.968	17215.64
239.04	17171.98
239.112	17179.5
239.184	17149.23
239.255	17109.57
239.327	17089.76
239.399	17063.69
239.471	17046.24
239.542	17032.8
239.614	17036.22
239.686	16990.34
239.758	16981.32
239.829	16926.82
239.901	16924.84
239.973	16904.46
240.044	16882.62
240.116	16865.13
240.188	16845.13
240.259	16819.39
240.331	16785.37
240.403	16768.26
240.474	16711.48
240.546	16675.48
240.618	16626.95
240.689	16591.52
240.761	16569.16
240.833	16555.13
240.904	16528.48
240.976	16501.25
241.048	16473.1
241.119	16445.53
241.191	16432.09
241.262	16426.74
241.334	16407.6
241.405	16378.06
241.477	16345.82
241.549	16320.66
241.62	16290.77
241.692	16262.58
241.763	16241.18
241.835	16214.53
241.906	16181.51
241.978	16146.03
242.049	16147
242.121	16142.03
242.192	16133.45
242.264	16094.46
242.335	16048.82
242.407	16026.84
242.478	15992.47
242.55	15973.43
242.621	15933.53
242.693	15891.45
242.764	15859.2
242.836	15832.12
242.907	15812.02
242.979	15796.5
243.05	15776.25
243.122	15748.87
243.193	15733.16
243.264	15688.19
243.336	15656.47
243.407	15651.32
243.479	15655.03
243.55	15619.89
243.622	15594.01
243.693	15554.77
243.764	15549.47
243.836	15513.51
243.907	15479.24
243.978	15453.64
244.05	15422.17
244.121	15382.93
244.192	15371.07
244.264	15324.41
244.335	15296.02
244.407	15250.86
244.478	15223.82
244.549	15191.23
244.62	15158.7
244.692	15119.51
244.763	15097.96
244.834	15062
244.906	15017.61
244.977	14991.19
245.048	14988.01
245.119	14950.22
245.191	14916.77
245.262	14864.37
245.333	14857.57
245.405	14830.82
245.476	14814.96
245.547	14794.04
245.618	14783.82
245.689	14758.71
245.761	14740.87
245.832	14718.6
245.903	14703.17
245.974	14683.02
246.045	14654.15
246.117	14654.82
246.188	14616.89
246.259	14590.09
246.33	14567.67
246.401	14536.48
246.473	14493.68
246.544	14454.44
246.615	14444.89
246.686	14420.98
246.757	14407.44
246.828	14370.75
246.899	14366.32
246.97	14323.27
247.042	14285.19
247.113	14257.76
247.184	14254.53
247.255	14220.11
247.326	14189.45
247.397	14159.47
247.468	14129.58
247.539	14106.34
247.61	14055.63
247.681	14051.05
247.752	14034.04
247.823	13997.69
247.894	13979.95
247.965	13955.27
248.037	13922.92
248.108	13875.92
248.179	13852.54
248.25	13829.74
248.321	13810.94
248.392	13768.95
248.463	13770.78
248.534	13754.97
248.605	13744.85
248.675	13712.69
248.746	13700.21
248.817	13680.39
248.888	13664.24
248.959	13629.87
249.03	13611.17
249.101	13595.69
249.172	13559.93
249.243	13508.63
249.314	13505.07
249.385	13485.11
249.456	13463.9
249.527	13437.38
249.598	13424.03
249.669	13402.29
249.739	13390.05
249.81	13378.72
249.881	13347.53
249.952	13326.12
250.023	13298.21
250.094	13253.52
250.165	13213.85
250.235	13191.19
250.306	13175.29
250.377	13134.79
250.448	13112.76
250.519	13066.19
250.59	13054.19
250.66	13025.99
250.731	13025.85
250.802	13006.95
250.873	12986.08
250.944	12967.08
251.014	12941.44
251.085	12943.41
251.156	12921.91
251.227	12898.58
251.297	12883.88
251.368	12866.04
251.439	12851.63
251.51	12841.12
251.58	12813.4
251.651	12791.66
251.722	12779.51
251.792	12737
251.863	12714.34
251.934	12706.53
252.005	12724.66
252.075	12698.87
252.146	12700.7
252.217	12692.31
252.287	12676.55
252.358	12651.77
252.429	12648.73
252.499	12625.98
252.57	12604.19
252.641	12594.74
252.711	12581.68
252.782	12541.67
252.852	12546.11
252.923	12521.62
252.994	12502.77
253.064	12503.01
253.135	12475.87
253.205	12440.39
253.276	12439.96
253.347	12438.66
253.417	12415.23
253.488	12382.5
253.558	12362.59
253.629	12339.7
253.699	12314.92
253.77	12304.46
253.841	12284.74
253.911	12265.32
253.982	12246.81
254.052	12236.2
254.123	12220.54
254.193	12200.1
254.264	12224.78
254.334	12194.6
254.405	12158.69
254.475	12128.33
254.546	12102.78
254.616	12094.05
254.687	12082.05
254.757	12068.41
254.827	12053.28
254.898	12032.98
254.968	12014.81
255.039	11986.13
255.109	11972.01
255.18	11947.23
255.25	11904.58
255.321	11891.71
255.391	11853.15
255.461	11862.45
255.532	11816.47
255.602	11795.26
255.673	11761.95
255.743	11731.25
255.813	11690.42
255.884	11683.72
255.954	11670.9
256.024	11667.67
256.095	11648.35
256.165	11620.83
256.235	11612.63
256.306	11586.41
256.376	11584.92
256.446	11577.59
256.517	11571.23
256.587	11567.9
256.657	11553.16
256.728	11532.67
256.798	11518.26
256.868	11504.72
256.938	11473.44
257.009	11468.38
257.079	11452.76
257.149	11457.44
257.219	11416.47
257.29	11410.01
257.36	11378.45
257.43	11370.21
257.5	11330.59
257.571	11310.4
257.641	11297.24
257.711	11262.83
257.781	11256.03
257.852	11245.28
257.922	11210.58
257.992	11187.93
258.062	11164.27
258.132	11161.38
258.202	11150.15
258.273	11130.1
258.343	11131.55
258.413	11109.57
258.483	11089.81
258.553	11063.45
258.623	11042.25
258.693	11037.67
258.764	11034.25
258.834	11030.2
258.904	11019.12
258.974	10997.92
259.044	10978.64
259.114	10965.05
259.184	10948.52
259.254	10923.42
259.324	10883.75
259.394	10873.3
259.464	10874.5
259.535	10858.46
259.605	10830.6
259.675	10808.49
259.745	10803.62
259.815	10775.57
259.885	10749.07
259.955	10761.51
260.025	10740.79
260.095	10723.87
260.165	10713.03
260.235	10716.89
260.305	10692.99
260.375	10660.46
260.445	10664.61
260.515	10666.49
260.585	10670.77
260.655	10656.46
260.725	10651.64
260.795	10641.72
260.865	10649.43
260.934	10625.53
261.004	10607.36
261.074	10591.13
261.144	10595.46
261.214	10582.94
261.284	10562.22
261.354	10560.1
261.424	10532.44
261.494	10531.52
261.564	10517.84
261.634	10505.02
261.703	10465.9
261.773	10460.89
261.843	10458.48
261.913	10446.05
261.983	10406.88
262.053	10401
262.123	10383.99
262.192	10351.96
262.262	10347.86
