Data from 20250704_urea_0.1M_MAYP1162681_11-18-39-695.txt Node
Date: Fri Jul 04 11:18:39 BST 2025
User: adleo
Spectrometer: MAYP116268
Trigger mode: 0
Integration Time (sec): 1.000000E0
Scans to average: 1
Electric dark correction enabled: true
Nonlinearity correction enabled: true
Boxcar width: 10
XAxis mode: Wavelengths
Number of Pixels in Spectrum: 2068
>>>>>Begin Spectral Data<<<<<
179.565	1248.77
179.642	1310.36
179.718	1355.95
179.795	1397.02
179.871	1427.55
179.948	1445.85
180.024	1469.4
180.101	1493.04
180.177	1508.84
180.254	1535.34
180.33	1558.03
180.407	1615.67
180.483	1712.73
180.56	1806.61
180.636	1892.6
180.712	1880.47
180.789	1888.88
180.865	1898.05
180.942	1903.47
181.018	1910.89
181.095	1927.06
181.171	1929.72
181.248	1927.15
181.324	1941.37
181.4	1945.94
181.477	1958.82
181.553	1974.32
181.63	1993.44
181.706	2010.51
181.782	2017.45
181.859	2013.94
181.935	2019.12
182.011	2014.13
182.088	2033.29
182.164	2052.33
182.24	2067.3
182.317	2077.62
182.393	2077.76
182.469	2094.65
182.546	2112.06
182.622	2116.95
182.698	2112.34
182.775	2126.89
182.851	2144.16
182.927	2136.84
183.003	2132.65
183.08	2126.66
183.156	2132.03
183.232	2127.8
183.308	2113.72
183.385	2122.85
183.461	2141.74
183.537	2142.4
183.613	2157.15
183.69	2148.97
183.766	2139.02
183.842	2145.78
183.918	2149.87
183.995	2162.47
184.071	2165.76
184.147	2155.86
184.223	2143.83
184.299	2156.15
184.375	2145.5
184.452	2152.21
184.528	2202.6
184.604	2214.39
184.68	2226.19
184.756	2237.57
184.832	2244.04
184.908	2249.22
184.985	2247.89
185.061	2228.48
185.137	2239.8
185.213	2228.48
185.289	2227.67
185.365	2217.87
185.441	2215.97
185.517	2229.73
185.593	2225.21
185.669	2221.83
185.745	2235.34
185.822	2251.75
185.898	2246.13
185.974	2255.93
186.05	2245.74
186.126	2207.72
186.202	2205.73
186.278	2200.02
186.354	2190.78
186.43	2195.07
186.506	2194.88
186.582	2193.17
186.658	2201.92
186.734	2180.51
186.81	2180.08
186.886	2182.08
186.962	2197.11
187.038	2195.21
187.114	2186.83
187.19	2194.3
187.266	2184.88
187.341	2184.45
187.417	2177.56
187.493	2175.22
187.569	2178.56
187.645	2174.08
187.721	2165.04
187.797	2168.8
187.873	2176.7
187.949	2169.66
188.025	2164.19
188.101	2168.52
188.176	2176.7
188.252	2171.47
188.328	2180.6
188.404	2182.55
188.48	2178.46
188.556	2170.41
188.632	2169.99
188.707	2171.89
188.783	2170.51
188.859	2164.19
188.935	2154.38
189.011	2163.42
189.086	2158.24
189.162	2147.44
189.238	2141.64
189.314	2140.26
189.39	2133.5
189.465	2124.27
189.541	2139.83
189.617	2124.85
189.693	2116.57
189.768	2116.9
189.844	2143.46
189.92	2135.76
189.996	2143.94
190.071	2156.17
190.147	2156.31
190.223	2165.64
190.298	2157.07
190.374	2145.46
190.45	2158.73
190.526	2167.06
190.601	2161.25
190.677	2161.59
190.753	2191.14
190.828	2197.8
190.904	2212.7
190.98	2226.45
191.055	2238.77
191.131	2229.92
191.207	2250.38
191.282	2262.94
191.358	2254.85
191.433	2240.61
191.509	2255.69
191.585	2253.65
191.66	2252.74
191.736	2262.4
191.811	2252.07
191.887	2268.88
191.963	2289.39
192.038	2295.1
192.114	2294.38
192.189	2298
192.265	2295.24
192.34	2273.05
192.416	2272.44
192.491	2269.01
192.567	2270.39
192.642	2271.39
192.718	2271.96
192.793	2260.21
192.869	2254.12
192.944	2258.3
193.02	2265.58
193.095	2265.16
193.171	2269.3
193.246	2270.34
193.322	2265.25
193.397	2267.34
193.473	2249.73
193.548	2233.36
193.624	2239.36
193.699	2240.88
193.775	2257.97
193.85	2260.49
193.925	2268.49
194.001	2268.49
194.076	2260.16
194.152	2253.26
194.227	2245.74
194.302	2235.08
194.378	2239.13
194.453	2240.17
194.529	2250.69
194.604	2235.23
194.679	2229.99
194.755	2213.1
194.83	2226.72
194.905	2222.63
194.981	2230.29
195.056	2226.3
195.131	2232.15
195.207	2229.91
195.282	2216.11
195.357	2197.17
195.433	2210.78
195.508	2199.45
195.583	2204.97
195.659	2218.44
195.734	2226.1
195.809	2226.86
195.884	2237.33
195.96	2239.09
196.035	2250.27
196.11	2248.56
196.185	2261.36
196.261	2264.55
196.336	2294.62
196.411	2281.48
196.486	2288.81
196.561	2283.48
196.637	2293.9
196.712	2308.56
196.787	2311.94
196.862	2329.83
196.937	2340.01
197.013	2344.58
197.088	2354.58
197.163	2381.15
197.238	2400.96
197.313	2397.97
197.388	2409.34
197.464	2438.1
197.539	2448.05
197.614	2441.06
197.689	2453.2
197.764	2466.72
197.839	2486
197.914	2478.43
197.989	2499.53
198.065	2512.57
198.14	2560.98
198.215	2585.7
198.29	2599.66
198.365	2612.99
198.44	2624.18
198.515	2650.19
198.59	2669.44
198.665	2697.5
198.74	2703.26
198.815	2704.07
198.89	2728.7
198.965	2761.96
199.04	2759.82
199.115	2774.25
199.19	2820.51
199.265	2822.56
199.34	2836.57
199.415	2870.38
199.49	2894.15
199.565	2902.68
199.64	2931.04
199.715	2931.13
199.79	2938.57
199.865	2945.39
199.94	2944.05
200.015	2975.23
200.09	2982.62
200.165	2989.63
200.24	2998.5
200.315	3038.01
200.39	3054.18
200.464	3064.38
200.539	3068.86
200.614	3086.41
200.689	3110.63
200.764	3116.59
200.839	3135.08
200.914	3137.66
200.989	3130.88
201.063	3146.62
201.138	3131.18
201.213	3129.94
201.288	3109.73
201.363	3113.49
201.438	3116.78
201.512	3133.32
201.587	3119.73
201.662	3125.12
201.737	3138.19
201.812	3145.29
201.886	3111.65
201.961	3121.14
202.036	3107.03
202.111	3102.4
202.186	3074.05
202.26	3059.36
202.335	3039.09
202.41	3035.75
202.485	3020.64
202.559	3004.76
202.634	2980.26
202.709	2992.07
202.784	2979.58
202.858	2986.01
202.933	2978.58
203.008	2977.34
203.082	2960.8
203.157	2964.09
203.232	2931.58
203.306	2919.85
203.381	2902.01
203.456	2892.77
203.53	2882.75
203.605	2879.32
203.68	2871.64
203.754	2884.02
203.829	2889.08
203.904	2890.51
203.978	2899.62
204.053	2929.08
204.127	2942.15
204.202	2966.46
204.277	2978.81
204.351	2999.79
204.426	3023.22
204.5	3048.54
204.575	3049.12
204.65	3102.36
204.724	3140.5
204.799	3192.86
204.873	3237.02
204.948	3284.55
205.022	3328.45
205.097	3377.64
205.171	3449.43
205.246	3525.53
205.32	3590.98
205.395	3660.72
205.469	3725.66
205.544	3809.4
205.618	3874.83
205.693	3970.77
205.767	4047.97
205.842	4164.95
205.916	4253.36
205.991	4344.2
206.065	4453
206.14	4578.88
206.214	4684.08
206.289	4792.02
206.363	4918.53
206.438	5045.26
206.512	5177.93
206.586	5322.58
206.661	5461.53
206.735	5576.46
206.81	5709.15
206.884	5864.71
206.958	5996.18
207.033	6158.84
207.107	6322.28
207.181	6506.99
207.256	6650.56
207.33	6830.5
207.405	6994.32
207.479	7176.64
207.553	7352.98
207.628	7500.36
207.702	7681.21
207.776	7848.97
207.851	8025.71
207.925	8217.4
207.999	8388.15
208.073	8568.25
208.148	8749.48
208.222	8920.21
208.296	9130.13
208.371	9330.63
208.445	9528.86
208.519	9742.98
208.593	9947.27
208.668	10121.26
208.742	10311.8
208.816	10507.75
208.89	10709.72
208.965	10908.34
209.039	11109.09
209.113	11321.69
209.187	11546.23
209.261	11735.72
209.336	11951.83
209.41	12159.26
209.484	12356.88
209.558	12569.2
209.632	12778.59
209.707	12989.61
209.781	13204.74
209.855	13414.86
209.929	13620.98
210.003	13816.16
210.077	14001.31
210.151	14237.55
210.226	14463.19
210.3	14675.09
210.374	14872.92
210.448	15063.89
210.522	15253.62
210.596	15447.43
210.67	15625.39
210.744	15840.46
210.818	16049.94
210.892	16237.62
210.966	16415.23
211.041	16601.18
211.115	16775.94
211.189	16963.04
211.263	17141.5
211.337	17319.15
211.411	17502
211.485	17666.09
211.559	17843.2
211.633	18008.8
211.707	18125.37
211.781	18297.27
211.855	18420.16
211.929	18584.2
212.003	18714.89
212.077	18879.95
212.151	19040.76
212.225	19199.12
212.299	19332.12
212.373	19469.66
212.447	19610.48
212.52	19782.81
212.594	19922.66
212.668	20068.4
212.742	20179.24
212.816	20312.49
212.89	20428.54
212.964	20560.45
213.038	20693.9
213.112	20833.43
213.186	20984.72
213.26	21102.36
213.333	21176.34
213.407	21304.98
213.481	21426.15
213.555	21558.36
213.629	21659.34
213.703	21763.99
213.777	21888.02
213.85	21986.64
213.924	22137.78
213.998	22255.16
214.072	22355.78
214.146	22463.29
214.219	22574.18
214.293	22677.2
214.367	22773.76
214.441	22890.49
214.515	22985.23
214.588	23065.03
214.662	23133.7
214.736	23203.95
214.81	23305.83
214.883	23405.49
214.957	23487.8
215.031	23561.87
215.105	23635.84
215.178	23710.49
215.252	23784.08
215.326	23836.56
215.4	23902.82
215.473	23936.25
215.547	23997.6
215.621	24057.95
215.694	24125.77
215.768	24164.45
215.842	24224.98
215.915	24278.23
215.989	24318.46
216.063	24355.03
216.136	24401.29
216.21	24454.21
216.284	24532.27
216.357	24580.07
216.431	24634.73
216.504	24706.33
216.578	24799.55
216.652	24855.71
216.725	24906.8
216.799	24963.02
216.873	25022.56
216.946	25081.52
217.02	25113.17
217.093	25145.79
217.167	25176
217.24	25205.92
217.314	25248.18
217.387	25297.98
217.461	25343.25
217.535	25406.46
217.608	25452.16
217.682	25505.83
217.755	25557.95
217.829	25574.65
217.902	25619.68
217.976	25653.12
218.049	25676.15
218.123	25686.87
218.196	25732.81
218.27	25766.21
218.343	25803
218.417	25839.35
218.49	25867.54
218.563	25921.07
218.637	25973.64
218.71	26024.91
218.784	26065.55
218.857	26121.79
218.931	26159.64
219.004	26192.9
219.077	26233.99
219.151	26269.62
219.224	26287.91
219.298	26316.54
219.371	26370.28
219.444	26392.93
219.518	26427.83
219.591	26455.4
219.665	26510.11
219.738	26537.97
219.811	26565.83
219.885	26599.15
219.958	26633.53
220.031	26658.59
220.105	26691.14
220.178	26706.93
220.251	26725.72
220.325	26760.44
220.398	26779.71
220.471	26797.77
220.544	26820.03
220.618	26813.27
220.691	26827.95
220.764	26862.57
220.838	26891.16
220.911	26885.75
220.984	26910.19
221.057	26928.49
221.131	26939.6
221.204	26923.32
221.277	26959.21
221.35	26998.86
221.424	26992.92
221.497	27000.26
221.57	27015.67
221.643	27025.72
221.716	27037.07
221.79	27030.16
221.863	27028.27
221.936	27031.03
222.009	27037.45
222.082	27048.46
222.155	27054.26
222.229	27080.78
222.302	27073.39
222.375	27065.03
222.448	27077.68
222.521	27084.16
222.594	27094.93
222.667	27084.4
222.74	27088.75
222.814	27073.14
222.887	27053.68
222.96	27059.71
223.033	27057.88
223.106	27049.96
223.179	27040.59
223.252	27045.32
223.325	27044.26
223.398	27034.84
223.471	27023.05
223.544	27016.15
223.617	27006.54
223.69	26991.76
223.763	26959.21
223.837	26961.04
223.91	26953.6
223.983	26928.3
224.056	26901.45
224.129	26877.4
224.202	26874.89
224.275	26855.95
224.348	26828.57
224.42	26802.06
224.493	26775.74
224.566	26751.59
224.639	26742.61
224.712	26717.21
224.785	26690.5
224.858	26668.63
224.931	26642.84
225.004	26610.78
225.077	26586.25
225.15	26555.35
225.223	26549.65
225.296	26553.95
225.369	26510.25
225.442	26477.9
225.514	26455.83
225.587	26436.13
225.66	26417.74
225.733	26395.48
225.806	26369.16
225.879	26349.42
225.952	26329.67
226.025	26313.26
226.097	26294.18
226.17	26272.17
226.243	26226.06
226.316	26194.87
226.389	26167.84
226.461	26158.09
226.534	26145.87
226.607	26127.63
226.68	26116.86
226.753	26076.31
226.825	26016.93
226.898	26015.05
226.971	25987.82
227.044	25970.59
227.117	25941.58
227.189	25920.39
227.262	25907.3
227.335	25888.57
227.407	25849.72
227.48	25818.34
227.553	25805.07
227.626	25787.98
227.698	25754.58
227.771	25736.72
227.844	25706.12
227.916	25685.9
227.989	25639.76
228.062	25594.97
228.134	25581.46
228.207	25549.36
228.28	25516.64
228.352	25498.93
228.425	25463.94
228.498	25435.08
228.57	25385.04
228.643	25382.63
228.716	25349.9
228.788	25304.78
228.861	25273.51
228.934	25257.34
229.006	25225.88
229.079	25186.07
229.151	25138.53
229.224	25084.3
229.296	25065.72
229.369	25057.71
229.442	25037.4
229.514	24998.7
229.587	24987.36
229.659	24922.42
229.732	24886.96
229.804	24867.46
229.877	24863.75
229.949	24842.61
230.022	24842.61
230.094	24818.93
230.167	24774.63
230.239	24730.06
230.312	24704.34
230.384	24682.1
230.457	24647.32
230.529	24612.49
230.602	24568.59
230.674	24529.17
230.747	24520.2
230.819	24485.85
230.892	24424.05
230.964	24387.68
231.037	24365.15
231.109	24322.42
231.181	24305.53
231.254	24250.98
231.326	24223.25
231.399	24169.65
231.471	24117.07
231.544	24051.47
231.616	24019.49
231.688	23986.31
231.761	23943.14
231.833	23894.04
231.905	23851.02
231.978	23822.9
232.05	23786.44
232.122	23762.18
232.195	23731.27
232.267	23698.04
232.339	23663.36
232.412	23640.79
232.484	23607.7
232.556	23553.5
232.629	23540.48
232.701	23517.24
232.773	23496.5
232.846	23451.03
232.918	23422.77
232.99	23394.99
233.062	23369.24
233.135	23349.61
233.207	23304.86
233.279	23283.94
233.351	23266.58
233.424	23213.54
233.496	23158.43
233.568	23139.62
233.64	23085.18
233.713	23048.3
233.785	23015.9
233.857	22986.1
233.929	22938.32
234.001	22903.98
234.074	22876.02
234.146	22813.68
234.218	22770.09
234.29	22727.09
234.362	22674.16
234.434	22615.29
234.507	22554.98
234.579	22495.58
234.651	22440.19
234.723	22403.31
234.795	22361.36
234.867	22318.31
234.939	22292.14
235.012	22249.67
235.084	22209.22
235.156	22177.89
235.228	22131.03
235.3	22084.85
235.372	22037.36
235.444	21997.5
235.516	21938.54
235.588	21911.4
235.66	21878.43
235.732	21823.19
235.804	21845.61
235.876	21821.84
235.948	21796.92
236.02	21758.41
236.092	21718.21
236.164	21679.12
236.236	21637
236.308	21586.53
236.38	21549.56
236.452	21498.81
236.524	21465.69
236.596	21437.26
236.668	21398.26
236.74	21356.81
236.812	21316.66
236.884	21277.62
236.956	21240.32
237.028	21188.65
237.1	21137.42
237.172	21106.76
237.244	21083.34
237.316	20991.13
237.388	20945.88
237.46	20891.46
237.532	20865.68
237.604	20818.06
237.675	20791.32
237.747	20748.76
237.819	20705.29
237.891	20647.7
237.963	20599.55
238.035	20553.05
238.107	20474.49
238.178	20437.33
238.25	20390.06
238.322	20362.92
238.394	20299.26
238.466	20254.01
238.538	20221.67
238.609	20182.25
238.681	20113.62
238.753	20059.41
238.825	20024.81
238.897	19985.39
238.968	19957.68
239.04	19905.97
239.112	19892.33
239.184	19836.62
239.255	19789.92
239.327	19747.66
239.399	19712.34
239.471	19677.64
239.542	19641.83
239.614	19618.7
239.686	19551.67
239.758	19524.39
239.829	19466.9
239.901	19446.66
239.973	19410.95
240.044	19365.56
240.116	19325.71
240.188	19284.6
240.259	19243.83
240.331	19193.14
240.403	19157.81
240.474	19104.71
240.546	19057.19
240.618	18993.63
240.689	18940.14
240.761	18901.11
240.833	18880.1
240.904	18833.35
240.976	18788.1
241.048	18750.51
241.119	18718.47
241.191	18693.07
241.262	18659.1
241.334	18613.75
241.405	18563.34
241.477	18508.12
241.549	18468.46
241.62	18423.01
241.692	18392.56
241.763	18365.33
241.835	18316.8
241.906	18272.27
241.978	18217.19
242.049	18188.28
242.121	18161.63
242.192	18139.75
242.264	18089
242.335	18025.01
242.407	18001.44
242.478	17955.03
242.55	17909.06
242.621	17856.29
242.693	17805.88
242.764	17765.64
242.836	17727.04
242.907	17696.25
242.979	17662.08
243.05	17623.19
243.122	17587.77
243.193	17547.52
243.264	17481.79
243.336	17451.72
243.407	17420.78
243.479	17394.22
243.55	17359.86
243.622	17327.28
243.693	17283.72
243.764	17257.45
243.836	17217.21
243.907	17165.4
243.978	17137.11
244.05	17109.74
244.121	17046.8
244.192	17023.61
244.264	16968.29
244.335	16923.03
244.407	16864.19
244.478	16834.64
244.549	16799.03
244.62	16747.79
244.692	16704.71
244.763	16675.4
244.834	16628.56
244.906	16584.07
244.977	16545.66
245.048	16522.91
245.119	16466.48
245.191	16420.25
245.262	16358.18
245.333	16334.66
245.405	16300.44
245.476	16261.3
245.547	16216.43
245.618	16191.89
245.689	16156.08
245.761	16120.42
245.832	16092.75
245.903	16067.93
245.974	16031.39
246.045	15996.69
246.117	15981.89
246.188	15937.26
246.259	15897.54
246.33	15854.41
246.401	15804.57
246.473	15770.59
246.544	15721.52
246.615	15707.83
246.686	15680.74
246.757	15672.84
246.828	15630.81
246.899	15609.74
246.97	15560.67
247.042	15530.98
247.113	15514.35
247.184	15488.61
247.255	15452.03
247.326	15420.12
247.397	15382.52
247.468	15349.6
247.539	15311.96
247.61	15264.86
247.681	15246.83
247.752	15220.27
247.823	15189.62
247.894	15169.37
247.965	15119.82
248.037	15084.2
248.108	15022.45
248.179	14985.72
248.25	14942.62
248.321	14912.4
248.392	14865.45
248.463	14861.06
248.534	14821.83
248.605	14795.22
248.675	14769.53
248.746	14744.89
248.817	14718.53
248.888	14694.76
248.959	14645.88
249.03	14626.94
249.101	14595.89
249.172	14558.54
249.243	14514.72
249.314	14497.89
249.385	14462.75
249.456	14437.2
249.527	14410.3
249.598	14396.33
249.669	14363.01
249.739	14348.55
249.81	14329.03
249.881	14286.85
249.952	14252.87
250.023	14223.6
250.094	14177.28
250.165	14131.92
250.235	14101.69
250.306	14071.52
250.377	14034.93
250.448	14016.85
250.519	13963.34
250.59	13953.6
250.66	13918.17
250.731	13897.78
250.802	13864.08
250.873	13841.33
250.944	13823.35
251.014	13780.98
251.085	13777.22
251.156	13756.82
251.227	13738.55
251.297	13723.03
251.368	13715.22
251.439	13695.17
251.51	13682.68
251.58	13644.7
251.651	13619.82
251.722	13609.55
251.792	13564.24
251.863	13529.97
251.934	13516.23
252.005	13519.99
252.075	13481.52
252.146	13469.76
252.217	13462.72
252.287	13453.99
252.358	13424.49
252.429	13419.67
252.499	13396.19
252.57	13372.72
252.641	13355.51
252.711	13322.34
252.782	13272.01
252.852	13265.84
252.923	13237.59
252.994	13211.56
253.064	13204.52
253.135	13163.5
253.205	13125.32
253.276	13124.5
253.347	13121.56
253.417	13090.51
253.488	13062.02
253.558	13044.04
253.629	13017.1
253.699	12994.73
253.77	12970.53
253.841	12951.05
253.911	12925.79
253.982	12905.64
254.052	12890.6
254.123	12872
254.193	12849.53
254.264	12872.72
254.334	12835.5
254.405	12801.95
254.475	12766.86
254.546	12744.2
254.616	12746.9
254.687	12736.78
254.757	12711.23
254.827	12685.63
254.898	12665.82
254.968	12638.15
255.039	12610.05
255.109	12595.54
255.18	12558.62
255.25	12515.04
255.321	12498.99
255.391	12455.36
255.461	12457
255.532	12400.89
255.602	12371.1
255.673	12328.83
255.743	12291.52
255.813	12243.51
255.884	12239.75
255.954	12226.2
256.024	12231.89
256.095	12207.79
256.165	12170.72
256.235	12161.03
256.306	12133.7
256.376	12122.23
256.446	12113.5
256.517	12098.46
256.587	12086.9
256.657	12071.38
256.728	12061.59
256.798	12033.97
256.868	12017.44
256.938	11987.36
257.009	11979.07
257.079	11971.31
257.149	11981.19
257.219	11943.74
257.29	11929.04
257.36	11888.45
257.43	11879.83
257.5	11825.17
257.571	11792
257.641	11777.59
257.711	11741.01
257.781	11727.61
257.852	11712.72
257.922	11667.36
257.992	11644.03
258.062	11624.08
258.132	11614.34
258.202	11590.97
258.273	11578.82
258.343	11578.24
258.413	11548.26
258.483	11535.06
258.553	11501.75
258.623	11471.44
258.693	11457.99
258.764	11457.94
258.834	11455.53
258.904	11437.46
258.974	11412.25
259.044	11396.16
259.114	11387.53
259.184	11372.35
259.254	11346.52
259.324	11304.15
259.394	11296.3
259.464	11295.67
259.535	11270.95
259.605	11248.3
259.675	11218.32
259.745	11206.71
259.815	11173.98
259.885	11147.77
259.955	11150.9
260.025	11117.07
260.095	11096.16
260.165	11080.54
260.235	11075.29
260.305	11042.04
260.375	11011.87
260.445	11019.29
260.515	11018.04
260.585	11007.92
260.655	10991.53
260.725	10989.8
260.795	10981.75
260.865	10981.89
260.934	10954.04
261.004	10945.27
261.074	10931.1
261.144	10932.21
261.214	10923.49
261.284	10904.89
261.354	10904.74
261.424	10876.89
261.494	10887.44
261.564	10867.2
261.634	10858.33
261.703	10823.78
261.773	10815.54
261.843	10799.64
261.913	10779.93
