Data from 20250704_urea_1M_MAYP1162681_11-32-03-661.txt Node
Date: Fri Jul 04 11:32:03 BST 2025
User: adleo
Spectrometer: MAYP116268
Trigger mode: 0
Integration Time (sec): 1.000000E0
Scans to average: 1
Electric dark correction enabled: true
Nonlinearity correction enabled: true
Boxcar width: 10
XAxis mode: Wavelengths
Number of Pixels in Spectrum: 2068
>>>>>Begin Spectral Data<<<<<
179.565	1254.06
179.642	1314.35
179.718	1355.54
179.795	1395.47
179.871	1427.69
179.948	1446.52
180.024	1469.24
180.101	1493.26
180.177	1508.66
180.254	1531.06
180.33	1555.41
180.407	1612.96
180.483	1712.49
180.56	1808.23
180.636	1893.31
180.712	1878.85
180.789	1889.88
180.865	1900.05
180.942	1905.52
181.018	1918.83
181.095	1932.48
181.171	1935.38
181.248	1936.05
181.324	1954.74
181.4	1962.72
181.477	1976.85
181.553	1992.2
181.63	2014.46
181.706	2031.25
181.782	2040.38
181.859	2038.57
181.935	2042.09
182.011	2036.15
182.088	2052.22
182.164	2068.16
182.24	2085.33
182.317	2097.12
182.393	2096.55
182.469	2111.86
182.546	2127.04
182.622	2130.79
182.698	2126.75
182.775	2139.69
182.851	2152.1
182.927	2142.69
183.003	2136.6
183.08	2130.6
183.156	2137.6
183.232	2129.51
183.308	2117.47
183.385	2123.23
183.461	2143.97
183.537	2146.3
183.613	2159.86
183.69	2150.1
183.766	2143.11
183.842	2150.53
183.918	2157.86
183.995	2170.75
184.071	2175.98
184.147	2169.28
184.223	2160.38
184.299	2173.37
184.375	2162.1
184.452	2171.81
184.528	2223.01
184.604	2236.85
184.68	2250.17
184.756	2257.59
184.832	2264.11
184.908	2270.01
184.985	2271.44
185.061	2254.07
185.137	2262.16
185.213	2253.93
185.289	2253.46
185.365	2244.37
185.441	2240.99
185.517	2250.8
185.593	2246.71
185.669	2242.71
185.745	2254.41
185.822	2268.87
185.898	2261.16
185.974	2268.54
186.05	2260.4
186.126	2228.95
186.202	2221.76
186.278	2215.29
186.354	2206.72
186.43	2214.05
186.506	2210.06
186.582	2208.54
186.658	2218.24
186.734	2199.97
186.81	2201.21
186.886	2206.73
186.962	2218.91
187.038	2215.15
187.114	2208.05
187.19	2215.53
187.266	2205.58
187.341	2206.34
187.417	2198.35
187.493	2199.3
187.569	2203.92
187.645	2196.12
187.721	2181.65
187.797	2189.07
187.873	2194.11
187.949	2188.26
188.025	2179.74
188.101	2183.41
188.176	2188.92
188.252	2181.5
188.328	2189.4
188.404	2187.59
188.48	2182.07
188.556	2173.7
188.632	2174.03
188.707	2171.32
188.783	2170.61
188.859	2166.42
188.935	2155.1
189.011	2165.47
189.086	2157.95
189.162	2147.87
189.238	2143.73
189.314	2141.06
189.39	2134.88
189.465	2130.55
189.541	2147.3
189.617	2136.12
189.693	2129.13
189.768	2131.17
189.844	2159.35
189.92	2148.08
189.996	2160.78
190.071	2173.96
190.147	2177.67
190.223	2188.9
190.298	2184.62
190.374	2169.78
190.45	2181.1
190.526	2192.37
190.601	2185.62
190.677	2188.28
190.753	2216.7
190.828	2221.31
190.904	2237.44
190.98	2253.39
191.055	2260.48
191.131	2251.39
191.207	2271.32
191.282	2283.5
191.358	2275.7
191.433	2257.89
191.509	2273.44
191.585	2267.92
191.66	2269.45
191.736	2276.2
191.811	2265.54
191.887	2282.68
191.963	2305.33
192.038	2312.23
192.114	2310.85
192.189	2315.94
192.265	2313.18
192.34	2291.95
192.416	2294.38
192.491	2291.85
192.567	2294.28
192.642	2297.38
192.718	2298.71
192.793	2286.72
192.869	2282.58
192.944	2285.62
193.02	2292.76
193.095	2294.66
193.171	2301.18
193.246	2300.85
193.322	2298.33
193.397	2296.81
193.473	2280.76
193.548	2260.63
193.624	2266.25
193.699	2267.68
193.775	2282.67
193.85	2283.77
193.925	2293.86
194.001	2291.81
194.076	2281.91
194.152	2269.73
194.227	2261.25
194.302	2251.98
194.378	2256.36
194.453	2254.79
194.529	2263.54
194.604	2253.83
194.679	2246.98
194.755	2227.14
194.83	2237.14
194.905	2233.57
194.981	2244.14
195.056	2236.76
195.131	2244.09
195.207	2242.38
195.282	2228.29
195.357	2208.92
195.433	2224.96
195.508	2215.96
195.583	2221.24
195.659	2234.85
195.734	2242.04
195.809	2242.75
195.884	2251.65
195.96	2250.65
196.035	2265.21
196.11	2264.55
196.185	2272.73
196.261	2278.82
196.336	2310.51
196.411	2294.66
196.486	2301.9
196.561	2295.99
196.637	2304.37
196.712	2322.36
196.787	2327.27
196.862	2346.92
196.937	2357.15
197.013	2361.29
197.088	2368.48
197.163	2390.91
197.238	2411.15
197.313	2411.25
197.388	2427.29
197.464	2456.82
197.539	2470.15
197.614	2464.86
197.689	2476.81
197.764	2493.15
197.839	2516.62
197.914	2512.62
197.989	2538.81
198.065	2550.48
198.14	2603.85
198.215	2629.9
198.29	2642.57
198.365	2654.34
198.44	2665.01
198.515	2693.26
198.59	2709.93
198.665	2737.8
198.74	2750.62
198.815	2748.38
198.89	2773.58
198.965	2799.27
199.04	2795.03
199.115	2810.89
199.19	2850.92
199.265	2857.25
199.34	2869.07
199.415	2902.98
199.49	2925.52
199.565	2930.76
199.64	2955.54
199.715	2954.59
199.79	2964.74
199.865	2970.61
199.94	2968.99
200.015	2999.36
200.09	3005.17
200.165	3013.37
200.24	3020.58
200.315	3060.71
200.39	3079.84
200.464	3084.56
200.539	3084.94
200.614	3101.57
200.689	3126.37
200.764	3135.2
200.839	3151.6
200.914	3158.32
200.989	3146.82
201.063	3157.89
201.138	3142.92
201.213	3143.26
201.288	3120.61
201.363	3126.66
201.438	3124.95
201.512	3140.82
201.587	3123.36
201.662	3125.46
201.737	3134.28
201.812	3142.35
201.886	3106.07
201.961	3112.61
202.036	3100.93
202.111	3100.93
202.186	3071.29
202.26	3051.73
202.335	3030.46
202.41	3023.31
202.485	3001.29
202.559	2980.36
202.634	2954.76
202.709	2968.57
202.784	2949.12
202.858	2949.89
202.933	2928.63
203.008	2922
203.082	2902.51
203.157	2902.7
203.232	2862.34
203.306	2843.51
203.381	2808.61
203.456	2787.93
203.53	2763.84
203.605	2743.03
203.68	2719.63
203.754	2714.72
203.829	2696.38
203.904	2676.32
203.978	2666.46
204.053	2670.41
204.127	2657.64
204.202	2654.41
204.277	2636.06
204.351	2629.54
204.426	2620.06
204.5	2613.77
204.575	2581.58
204.65	2589.63
204.724	2579.58
204.799	2585.29
204.873	2581.28
204.948	2580.09
205.022	2566.48
205.097	2560.42
205.171	2576.52
205.246	2584.24
205.32	2582.9
205.395	2585.33
205.469	2577.15
205.544	2579.34
205.618	2566.95
205.693	2577
205.767	2567.05
205.842	2587.44
205.916	2582.16
205.991	2573.49
206.065	2577.3
206.14	2593.05
206.214	2587.29
206.289	2582.14
206.363	2597.95
206.438	2602.19
206.512	2610.24
206.586	2629.29
206.661	2636.44
206.735	2610.97
206.81	2613.55
206.884	2627.5
206.958	2614.5
207.033	2630.21
207.107	2637.88
207.181	2667.76
207.256	2665.19
207.33	2682.24
207.405	2695.69
207.479	2714.12
207.553	2721.55
207.628	2706.51
207.702	2716.18
207.776	2712.7
207.851	2714.94
207.925	2729.05
207.999	2724.04
208.073	2721.85
208.148	2727
208.222	2716.7
208.296	2753.52
208.371	2769.44
208.445	2782.45
208.519	2813.56
208.593	2827.57
208.668	2828.38
208.742	2831.58
208.816	2832.81
208.89	2850.5
208.965	2846.54
209.039	2859.37
209.113	2881.82
209.187	2908.83
209.261	2909.21
209.336	2931.7
209.41	2955.3
209.484	2961.26
209.558	2992.35
209.632	3011.56
209.707	3026.96
209.781	3058.57
209.855	3082.76
209.929	3111.54
210.003	3126.61
210.077	3136.53
210.151	3200.32
210.226	3249.58
210.3	3296
210.374	3336.1
210.448	3358.82
210.522	3388.7
210.596	3420.25
210.67	3449.22
210.744	3525.2
210.818	3586.62
210.892	3639.77
210.966	3666.4
211.041	3714.4
211.115	3743.82
211.189	3810.4
211.263	3870.41
211.337	3919.14
211.411	3977.4
211.485	4019.82
211.559	4088.01
211.633	4147.3
211.707	4170.22
211.781	4238.99
211.855	4264.68
211.929	4325.97
212.003	4380.43
212.077	4468.78
212.151	4558.57
212.225	4651.71
212.299	4720.8
212.373	4796.38
212.447	4879.15
212.52	5010.34
212.594	5113.79
212.668	5227.22
212.742	5316.89
212.816	5419.52
212.89	5526.8
212.964	5640.85
213.038	5763.03
213.112	5899.53
213.186	6038.39
213.26	6145.44
213.333	6228.95
213.407	6373.77
213.481	6511.55
213.555	6659.08
213.629	6786.71
213.703	6915.52
213.777	7060.87
213.85	7189.62
213.924	7382.28
213.998	7539.73
214.072	7685.89
214.146	7828.76
214.219	7988.34
214.293	8142.52
214.367	8304.98
214.441	8478.28
214.515	8635.17
214.588	8777.96
214.662	8905.32
214.736	9056.85
214.81	9239.75
214.883	9423.15
214.957	9586.66
215.031	9747.09
215.105	9897.47
215.178	10057.14
215.252	10222.35
215.326	10369.43
215.4	10520.64
215.473	10637.2
215.547	10793.13
215.621	10945.4
215.694	11127.08
215.768	11270.83
215.842	11428.7
215.915	11581.33
215.989	11726.98
216.063	11890.47
216.136	12060.08
216.21	12224.82
216.284	12397.43
216.357	12558.09
216.431	12710.12
216.504	12871.99
216.578	13064.03
216.652	13238.18
216.725	13408.44
216.799	13573.11
216.873	13733.63
216.946	13905.39
217.02	14055.11
217.093	14201.51
217.167	14332.15
217.24	14461.09
217.314	14601.03
217.387	14738.66
217.461	14879.89
217.535	15038.38
217.608	15161.59
217.682	15300.36
217.755	15451.81
217.829	15584.8
217.902	15717.06
217.976	15852.02
218.049	15973
218.123	16086.6
218.196	16219.87
218.27	16330.49
218.343	16438.88
218.417	16565.88
218.49	16686.99
218.563	16823.05
218.637	16946.14
218.71	17088.85
218.784	17217.77
218.857	17351.6
218.931	17468.76
219.004	17578.93
219.077	17688.86
219.151	17802.98
219.224	17905.05
219.298	17999.31
219.371	18108.61
219.444	18197.81
219.518	18289.76
219.591	18388.12
219.665	18508.98
219.738	18607.05
219.811	18687.86
219.885	18793.21
219.958	18889.01
220.031	18959.13
220.105	19043.8
220.178	19129.09
220.251	19198.97
220.325	19281.08
220.398	19358.33
220.471	19438.14
220.544	19521.94
220.618	19586.56
220.691	19658.03
220.764	19729.25
220.838	19810.17
220.911	19877.06
220.984	19967.13
221.057	20043.84
221.131	20113.72
221.204	20141.58
221.277	20212.13
221.35	20302.25
221.424	20346.01
221.497	20389.19
221.57	20451.74
221.643	20508.56
221.716	20565.72
221.79	20615.12
221.863	20647.17
221.936	20692.23
222.009	20749.05
222.082	20797.05
222.155	20829.58
222.229	20880.62
222.302	20917.49
222.375	20954.31
222.448	20993.2
222.521	21026.65
222.594	21061.69
222.667	21081.88
222.74	21126.56
222.814	21148.49
222.887	21171.72
222.96	21206.38
223.033	21250
223.106	21280.12
223.179	21311.74
223.252	21340.13
223.325	21359.69
223.398	21393.05
223.471	21419.03
223.544	21436.67
223.617	21464.48
223.69	21495.66
223.763	21511.33
223.837	21537.55
223.91	21562.71
223.983	21551.67
224.056	21548.59
224.129	21559.43
224.202	21583.72
224.275	21587.43
224.348	21591.15
224.42	21599.05
224.493	21598.38
224.566	21604.98
224.639	21615.29
224.712	21621.08
224.785	21617.22
224.858	21621.9
224.931	21617.46
225.004	21608.93
225.077	21608.98
225.15	21580.4
225.223	21579.48
225.296	21600.88
225.369	21579.05
225.442	21564.16
225.514	21576.69
225.587	21581.31
225.66	21591.05
225.733	21598.47
225.806	21595.97
225.879	21587.24
225.952	21570.52
226.025	21578.18
226.097	21580.4
226.17	21574.23
226.243	21538.66
226.316	21532.63
226.389	21529.64
226.461	21537.69
226.534	21544.54
226.607	21537.02
226.68	21555.62
226.753	21549.02
226.825	21514.12
226.898	21524.82
226.971	21507.33
227.044	21498.41
227.117	21496.53
227.189	21491.66
227.262	21486.41
227.335	21491.23
227.407	21484.48
227.48	21472.96
227.553	21460.62
227.626	21436.86
227.698	21421.92
227.771	21428.52
227.844	21405.14
227.916	21393.19
227.989	21362.83
228.062	21339.64
228.134	21347.21
228.207	21332.89
228.28	21311.35
228.352	21301.9
228.425	21293.52
228.498	21295.11
228.57	21271.68
228.643	21274.38
228.716	21250.04
228.788	21225.12
228.861	21184.49
228.934	21174.56
229.006	21155.09
229.079	21140.3
229.151	21114.27
229.224	21087.72
229.296	21062.65
229.369	21077.64
229.442	21070.46
229.514	21045.64
229.587	21040.34
229.659	21000.14
229.732	20979.76
229.804	20974.12
229.877	20982.41
229.949	20974.89
230.022	20983.61
230.094	20970.36
230.167	20941.01
230.239	20909.49
230.312	20896.62
230.384	20912.09
230.457	20905.29
230.529	20895.27
230.602	20881.92
230.674	20873.53
230.747	20867.22
230.819	20868.38
230.892	20813.77
230.964	20803.89
231.037	20793.1
231.109	20767.07
231.181	20756.18
231.254	20720.23
231.326	20689.77
231.399	20661.09
231.471	20626.73
231.544	20569.33
231.616	20555.4
231.688	20540.61
231.761	20516.61
231.833	20488.13
231.905	20430.97
231.978	20403.02
232.05	20384.51
232.122	20364.94
232.195	20339.64
232.267	20331.35
232.339	20304.37
232.412	20303.5
232.484	20266.2
232.556	20241.14
232.629	20240.75
232.701	20227.26
232.773	20216.22
232.846	20193.09
232.918	20170.78
232.99	20156.37
233.062	20152.51
233.135	20133.04
233.207	20092.13
233.279	20088.13
233.351	20067.41
233.424	20050.44
233.496	20017.48
233.568	20007.79
233.64	19971.79
233.713	19951.65
233.785	19928.33
233.857	19902.16
233.929	19851.8
234.001	19847.27
234.074	19834.79
234.146	19795.18
234.218	19763.27
234.29	19739.37
234.362	19711.9
234.434	19665.54
234.507	19616.24
234.579	19567.33
234.651	19537.55
234.723	19518.42
234.795	19497.89
234.867	19468.69
234.939	19452.3
235.012	19431.63
235.084	19410.91
235.156	19386.04
235.228	19348.6
235.3	19313.37
235.372	19288.21
235.444	19285.9
235.516	19231.35
235.588	19207.88
235.66	19174.05
235.732	19136.13
235.804	19157.76
235.876	19129.53
235.948	19123.41
236.02	19102.01
236.092	19078.11
236.164	19051.31
236.236	19017.53
236.308	18971.13
236.38	18943.8
236.452	18915.13
236.524	18892.19
236.596	18874.65
236.668	18856.53
236.74	18826.17
236.812	18793.06
236.884	18768.49
236.956	18740.68
237.028	18704.01
237.1	18661.99
237.172	18649.56
237.244	18648.88
237.316	18577.17
237.388	18549.8
237.46	18505.52
237.532	18490.14
237.604	18447.3
237.675	18435.74
237.747	18422.77
237.819	18392.51
237.891	18360.12
237.963	18312.85
238.035	18264.13
238.107	18197.19
238.178	18172.62
238.25	18139.7
238.322	18137.73
238.394	18089.78
238.466	18052.04
238.538	18030.79
238.609	18005.92
238.681	17953.88
238.753	17909.44
238.825	17887.18
238.897	17859.18
238.968	17846.7
239.04	17810.89
239.112	17819.38
239.184	17764
239.255	17725.26
239.327	17693.11
239.399	17662.13
239.471	17640.58
239.542	17620.82
239.614	17597.84
239.686	17542.03
239.758	17531.81
239.829	17483.77
239.901	17466.8
239.973	17430.71
240.044	17404.44
240.116	17368.25
240.188	17337.36
240.259	17303.19
240.331	17266.46
240.403	17236.05
240.474	17186.27
240.546	17142.17
240.618	17086.51
240.689	17049.93
240.761	17012.72
240.833	17003.04
240.904	16977.59
240.976	16948.34
241.048	16917.11
241.119	16895.76
241.191	16875.47
241.262	16857.2
241.334	16818.64
241.405	16787.61
241.477	16750.4
241.549	16718.88
241.62	16696.76
241.692	16668.08
241.763	16648.22
241.835	16609.72
241.906	16579.88
241.978	16534
242.049	16517.61
242.121	16494.24
242.192	16483.83
242.264	16440.5
242.335	16383.05
242.407	16356.63
242.478	16326.65
242.55	16297.88
242.621	16257.11
242.693	16226.02
242.764	16189.82
242.836	16159.94
242.907	16133.77
242.979	16115.65
243.05	16092.66
243.122	16064.36
243.193	16034.14
243.264	15978.67
243.336	15951.53
243.407	15935.38
243.479	15921.02
243.55	15898.08
243.622	15876.19
243.693	15836.96
243.764	15827.8
243.836	15794.83
243.907	15753.81
243.978	15720.99
244.05	15693.9
244.121	15654.04
244.192	15638.18
244.264	15583.67
244.335	15551.37
244.407	15502.16
244.478	15472.18
244.549	15432.17
244.62	15390.76
244.692	15362.23
244.763	15341.65
244.834	15296.63
244.906	15258.79
244.977	15237.48
245.048	15210.73
245.119	15163.3
245.191	15128.06
245.262	15079.91
245.333	15065.16
245.405	15038.98
245.476	15017.53
245.547	14990.59
245.618	14971.89
245.689	14943.78
245.761	14924.84
245.832	14891.92
245.903	14876.93
245.974	14857.79
246.045	14832.34
246.117	14820.72
246.188	14781.92
246.259	14745.76
246.33	14731.54
246.401	14695.2
246.473	14648.1
246.544	14611.32
246.615	14599.03
246.686	14574.3
246.757	14560.8
246.828	14525.42
246.899	14518.38
246.97	14466.75
247.042	14428.91
247.113	14405.72
247.184	14392.85
247.255	14359.88
247.326	14347.11
247.397	14314.57
247.468	14282.66
247.539	14254.55
247.61	14211.02
247.681	14194.63
247.752	14186.44
247.823	14148.36
247.894	14124.35
247.965	14092.73
248.037	14065.59
248.108	14031.21
248.179	14004.03
248.25	13977.85
248.321	13958.28
248.392	13914.22
248.463	13915.71
248.534	13891.9
248.605	13868.37
248.675	13835.69
248.746	13818.82
248.817	13797.27
248.888	13776.16
248.959	13731.32
249.03	13713.54
249.101	13692.9
249.172	13663.93
249.243	13607.34
249.314	13599.19
249.385	13576.39
249.456	13564.14
249.527	13537.68
249.598	13510.73
249.669	13480.17
249.739	13459.97
249.81	13445.6
249.881	13410.61
249.952	13386.02
250.023	13362.11
250.094	13326.87
250.165	13289.61
250.235	13261.79
250.306	13231.66
250.377	13198.3
250.448	13186.4
250.519	13138.77
250.59	13126.57
250.66	13103.58
250.731	13113.08
250.802	13084.1
250.873	13065.3
250.944	13041.39
251.014	13014.25
251.085	13018.93
251.156	13009.19
251.227	13000.56
251.297	12984.36
251.368	12979.88
251.439	12969.23
251.51	12961.42
251.58	12930.71
251.651	12906.03
251.722	12893.69
251.792	12858.88
251.863	12835.07
251.934	12824.08
252.005	12837.24
252.075	12819.6
252.146	12808.85
252.217	12787.25
252.287	12774.77
252.358	12754.81
252.429	12748.93
252.499	12724.44
252.57	12703.18
252.641	12689.73
252.711	12663.65
252.782	12623.98
252.852	12619.79
252.923	12600.12
252.994	12582.14
253.064	12579.53
253.135	12549.41
253.205	12522.32
253.276	12527.14
253.347	12532.05
253.417	12507.28
253.488	12478.74
253.558	12452.56
253.629	12427.98
253.699	12422.1
253.77	12414.87
253.841	12392.98
253.911	12379.49
253.982	12363.44
254.052	12353.75
254.123	12336.1
254.193	12319.04
254.264	12346.32
254.334	12323.62
254.405	12288.19
254.475	12258.64
254.546	12231.31
254.616	12236.66
254.687	12221.96
254.757	12204.7
254.827	12175.49
254.898	12164.21
254.968	12151.05
255.039	12126.42
255.109	12118.13
255.18	12082.46
255.25	12031.76
255.321	12024.48
255.391	11988.04
255.461	11993.24
255.532	11944.41
255.602	11921.62
255.673	11878.96
255.743	11852.98
255.813	11803.19
255.884	11799.23
255.954	11791.72
256.024	11796.15
256.095	11774.8
256.165	11751.66
256.235	11742.79
256.306	11719.85
256.376	11714.16
256.446	11701.05
256.517	11694.88
256.587	11691.17
256.657	11677
256.728	11671.07
256.798	11649.24
256.868	11629.05
256.938	11601.23
257.009	11599.93
257.079	11591.31
257.149	11602.05
257.219	11550.53
257.29	11540.75
257.36	11501.61
257.43	11483.78
257.5	11444.21
257.571	11418.04
257.641	11405.8
257.711	11375.53
257.781	11369.84
257.852	11353.75
257.922	11312.83
257.992	11287.62
258.062	11259.91
258.132	11254.22
258.202	11237.89
258.273	11221.55
258.343	11228.15
258.413	11201.98
258.483	11178.46
258.553	11150.32
258.623	11128.34
258.693	11127.47
258.764	11130.94
258.834	11133.35
258.904	11120.58
258.974	11096.2
259.044	11078.03
259.114	11069.02
259.184	11048.39
259.254	11024.49
259.324	10983.43
259.394	10980.25
259.464	10981.6
259.535	10965.51
259.605	10937.32
259.675	10908.74
259.745	10900.16
259.815	10868.99
259.885	10847.45
259.955	10864.99
260.025	10836.56
260.095	10813.58
260.165	10799.6
260.235	10792.32
260.305	10767.22
260.375	10737.87
260.445	10744.57
260.515	10744.81
260.585	10738.79
260.655	10729.2
260.725	10727.7
260.795	10724.24
260.865	10723.75
260.934	10698.7
261.004	10688.29
261.074	10676.24
261.144	10678.89
261.214	10668.53
261.284	10652.54
261.354	10649.26
261.424	10616.01
261.494	10627.81
261.564	10620.78
261.634	10615.24
261.703	10583.24
261.773	10574.86
261.843	10568.11
261.913	10556.98
261.983	10523.79
262.053	10513.28
262.123	10490.35
262.192	10462.45
