Data from 20250704_urea_1.5M_MAYP1162681_11-45-31-597.txt Node
Date: Fri Jul 04 11:45:31 BST 2025
User: adleo
Spectrometer: MAYP116268
Trigger mode: 0
Integration Time (sec): 1.000000E0
Scans to average: 1
Electric dark correction enabled: true
Nonlinearity correction enabled: true
Boxcar width: 10
XAxis mode: Wavelengths
Number of Pixels in Spectrum: 2068
>>>>>Begin Spectral Data<<<<<
179.565	1261.88
179.642	1318.27
179.718	1366.75
179.795	1407.39
179.871	1442.13
179.948	1463.43
180.024	1483.92
180.101	1504.75
180.177	1519.07
180.254	1542.54
180.33	1565.82
180.407	1623.18
180.483	1722.24
180.56	1816.79
180.636	1904.67
180.712	1889.21
180.789	1900.82
180.865	1916.5
180.942	1923.82
181.018	1934.52
181.095	1947.79
181.171	1954.11
181.248	1960.48
181.324	1973.18
181.4	1979.27
181.477	1993.4
181.553	2002.33
181.63	2025.26
181.706	2044.57
181.782	2054.36
181.859	2052.36
181.935	2057.45
182.011	2054.83
182.088	2075.29
182.164	2094.23
182.24	2107.49
182.317	2118.19
182.393	2114.67
182.469	2130.04
182.546	2143.74
182.622	2149.3
182.698	2145.21
182.775	2156.87
182.851	2169.62
182.927	2164.72
183.003	2159.68
183.08	2149.88
183.156	2163.58
183.232	2158.39
183.308	2145.69
183.385	2154.77
183.461	2174.09
183.537	2175.8
183.613	2188.5
183.69	2176.18
183.766	2165.76
183.842	2174.65
183.918	2179.84
183.995	2196.11
184.071	2200.73
184.147	2192.83
184.223	2181.6
184.299	2193.45
184.375	2181.66
184.452	2187.23
184.528	2234.09
184.604	2247.84
184.68	2263.02
184.756	2271.06
184.832	2275.53
184.908	2280.15
184.985	2277.2
185.061	2262.88
185.137	2271.49
185.213	2260.12
185.289	2261.88
185.365	2255.55
185.441	2254.17
185.517	2270.12
185.593	2265.03
185.669	2258.93
185.745	2270.07
185.822	2287.05
185.898	2279.43
185.974	2291.76
186.05	2285.47
186.126	2252.4
186.202	2244.51
186.278	2238.89
186.354	2226.57
186.43	2237.23
186.506	2234.71
186.582	2236.13
186.658	2242.79
186.734	2223.38
186.81	2225.95
186.886	2230.85
186.962	2243.99
187.038	2240.23
187.114	2230.18
187.19	2237.65
187.266	2228.76
187.341	2230.37
187.417	2222.09
187.493	2220.91
187.569	2222
187.645	2212.39
187.721	2201.87
187.797	2207.1
187.873	2210.77
187.949	2207.87
188.025	2197.06
188.101	2203.67
188.176	2210
188.252	2204.81
188.328	2214.28
188.404	2215.04
188.48	2208.24
188.556	2201.19
188.632	2201.77
188.707	2203.24
188.783	2201.48
188.859	2194.3
188.935	2184.26
189.011	2193.35
189.086	2189.21
189.162	2181.21
189.238	2179.79
189.314	2176.79
189.39	2175.93
189.465	2166.89
189.541	2182.84
189.617	2167.47
189.693	2161.38
189.768	2159.72
189.844	2185.13
189.92	2175.72
189.996	2185.14
190.071	2198.18
190.147	2197.18
190.223	2204.22
190.298	2195.75
190.374	2183.47
190.45	2196.89
190.526	2205.78
190.601	2199.46
190.677	2197.74
190.753	2224.69
190.828	2228.02
190.904	2241.39
190.98	2254.57
191.055	2268.23
191.131	2259.24
191.207	2283.41
191.282	2294.3
191.358	2288.69
191.433	2272.5
191.509	2286.48
191.585	2284.72
191.66	2281.1
191.736	2287.34
191.811	2278.44
191.887	2296.05
191.963	2318.42
192.038	2324.37
192.114	2323.08
192.189	2327.22
192.265	2326.27
192.34	2304.18
192.416	2304.7
192.491	2302.23
192.567	2304.13
192.642	2310.51
192.718	2309.42
192.793	2294.33
192.869	2288.76
192.944	2292.14
193.02	2300.9
193.095	2303.47
193.171	2305.18
193.246	2306.13
193.322	2304.71
193.397	2306.8
193.473	2292.23
193.548	2273
193.624	2275.43
193.699	2277.24
193.775	2293.76
193.85	2294.57
193.925	2303.95
194.001	2301.33
194.076	2291.76
194.152	2284.72
194.227	2272.96
194.302	2262.16
194.378	2265.78
194.453	2263.64
194.529	2276.16
194.604	2262.4
194.679	2257.12
194.755	2239.52
194.83	2254.94
194.905	2255.18
194.981	2264.13
195.056	2259.66
195.131	2266.79
195.207	2267.51
195.282	2256.8
195.357	2235.38
195.433	2250.61
195.508	2236.33
195.583	2242.13
195.659	2259.22
195.734	2266.03
195.809	2263.51
195.884	2273.35
195.96	2276.26
196.035	2292.1
196.11	2286.63
196.185	2297.81
196.261	2299.38
196.336	2332.13
196.411	2316.6
196.486	2320.22
196.561	2315.32
196.637	2318.13
196.712	2334.65
196.787	2337.65
196.862	2352.49
196.937	2364.39
197.013	2372.72
197.088	2384.72
197.163	2412.72
197.238	2431.2
197.313	2426.2
197.388	2444.1
197.464	2474.68
197.539	2485.53
197.614	2477.82
197.689	2490.96
197.764	2508.44
197.839	2529.72
197.914	2521.05
197.989	2546.1
198.065	2561.2
198.14	2615.68
198.215	2646.35
198.29	2660.64
198.365	2674.65
198.44	2687.98
198.515	2715.09
198.59	2725.81
198.665	2750.77
198.74	2757.3
198.815	2754.3
198.89	2780.4
198.965	2811.1
199.04	2807.34
199.115	2824.11
199.19	2872.14
199.265	2874.57
199.34	2882.48
199.415	2918.15
199.49	2942.31
199.565	2951.17
199.64	2975.34
199.715	2968.56
199.79	2976.48
199.865	2981.24
199.94	2980.77
200.015	3009.14
200.09	3017.2
200.165	3029.83
200.24	3040.7
200.315	3084.28
200.39	3104.69
200.464	3111.22
200.539	3111.55
200.614	3127.71
200.689	3153.23
200.764	3154.85
200.839	3173.3
200.914	3180.35
200.989	3169.62
201.063	3183.5
201.138	3166.67
201.213	3168.3
201.288	3147.79
201.363	3153.51
201.438	3154.56
201.512	3170.91
201.587	3155.74
201.662	3159.75
201.737	3171.01
201.812	3177.97
201.886	3138.78
201.961	3148.33
202.036	3136.36
202.111	3134.41
202.186	3105.15
202.26	3086.97
202.335	3066.51
202.41	3058.26
202.485	3037.34
202.559	3017.31
202.634	2991.28
202.709	2998.33
202.784	2975.69
202.858	2974.64
202.933	2955.14
203.008	2946.99
203.082	2926.68
203.157	2923.97
203.232	2882.6
203.306	2858.81
203.381	2827.15
203.456	2804.75
203.53	2779
203.605	2757.42
203.68	2728.2
203.754	2723.77
203.829	2707.23
203.904	2684.65
203.978	2676.31
204.053	2683.89
204.127	2670.55
204.202	2669.41
204.277	2656.07
204.351	2647.83
204.426	2639.63
204.5	2627.92
204.575	2592.82
204.65	2600.87
204.724	2595.87
204.799	2598.06
204.873	2594.01
204.948	2596.63
205.022	2583.49
205.097	2574.58
205.171	2591.77
205.246	2605.39
205.32	2604.54
205.395	2603.58
205.469	2597.16
205.544	2600.59
205.618	2583.2
205.693	2592.78
205.767	2578.78
205.842	2597.74
205.916	2594.02
205.991	2586.02
206.065	2595.41
206.14	2613.02
206.214	2606.58
206.289	2598.86
206.363	2616.92
206.438	2618.06
206.512	2620.77
206.586	2642.78
206.661	2651.83
206.735	2626.69
206.81	2624.88
206.884	2638.98
206.958	2626.98
207.033	2642.59
207.107	2649.79
207.181	2682.1
207.256	2680.62
207.33	2698.48
207.405	2710.12
207.479	2729.46
207.553	2737.32
207.628	2719.37
207.702	2728.37
207.776	2727.61
207.851	2726.51
207.925	2737.95
207.999	2736.52
208.073	2735.09
208.148	2738.09
208.222	2726.23
208.296	2760.9
208.371	2774.25
208.445	2783.87
208.519	2812.27
208.593	2825.13
208.668	2821.03
208.742	2823.51
208.816	2822.13
208.89	2839.53
208.965	2838.1
209.039	2844.11
209.113	2862.22
209.187	2883.65
209.261	2883.22
209.336	2901.81
209.41	2926.17
209.484	2927.27
209.558	2949.63
209.632	2962.68
209.707	2973.41
209.781	3000.44
209.855	3016.61
209.929	3040.8
210.003	3052.39
210.077	3053.01
210.151	3101.21
210.226	3140.57
210.3	3170.41
210.374	3198.77
210.448	3207.65
210.522	3218.71
210.596	3239.04
210.67	3253.4
210.744	3303.97
210.818	3342.6
210.892	3370.14
210.966	3369.33
211.041	3395.86
211.115	3398.67
211.189	3426.92
211.263	3453.83
211.337	3466.81
211.411	3491.16
211.485	3491.93
211.559	3512.54
211.633	3532.29
211.707	3515.33
211.781	3537.31
211.855	3520.12
211.929	3531.34
212.003	3529.62
212.077	3560.85
212.151	3590.47
212.225	3625.62
212.299	3639.05
212.373	3656.01
212.447	3680.33
212.52	3745.49
212.594	3777.89
212.668	3826.66
212.742	3854.94
212.816	3890.36
212.89	3928.77
212.964	3970.33
213.038	4025.07
213.112	4088.86
213.186	4157.13
213.26	4191.05
213.333	4201.19
213.407	4264.05
213.481	4328.06
213.555	4402.44
213.629	4460.73
213.703	4511.98
213.777	4580.15
213.85	4638.6
213.924	4744.14
213.998	4818.69
214.072	4889.85
214.146	4960.73
214.219	5044.75
214.293	5128.52
214.367	5214.48
214.441	5316.84
214.515	5400.16
214.588	5469.09
214.662	5533.09
214.736	5606.26
214.81	5716.29
214.883	5829.23
214.957	5927.25
215.031	6024.32
215.105	6112.95
215.178	6209.85
215.252	6315.38
215.326	6398.09
215.4	6494.23
215.473	6565.22
215.547	6663.15
215.621	6767.66
215.694	6892.72
215.768	6988.09
215.842	7094.51
215.915	7207.27
215.989	7305.48
216.063	7425.1
216.136	7552.2
216.21	7678.59
216.284	7817.52
216.357	7945.01
216.431	8068.28
216.504	8197.82
216.578	8352.32
216.652	8493.26
216.725	8626.52
216.799	8769.62
216.873	8910.68
216.946	9054.01
217.02	9180.17
217.093	9317.63
217.167	9427.65
217.24	9535.9
217.314	9660.85
217.387	9783.59
217.461	9912.24
217.535	10053.27
217.608	10167.15
217.682	10294.43
217.755	10430.52
217.829	10545.72
217.902	10679.32
217.976	10803.49
218.049	10925.73
218.123	11030.55
218.196	11160.66
218.27	11277.91
218.343	11380.42
218.417	11503.51
218.49	11622.17
218.563	11766.08
218.637	11888.56
218.71	12033.97
218.784	12168.84
218.857	12306.59
218.931	12436.44
219.004	12555.75
219.077	12682.86
219.151	12809.88
219.224	12919.54
219.298	13040.92
219.371	13167.07
219.444	13264.69
219.518	13387.23
219.591	13500.13
219.665	13633.8
219.738	13742.84
219.811	13837.04
219.885	13960.97
219.958	14071.99
220.031	14171.78
220.105	14272.86
220.178	14375.35
220.251	14473.73
220.325	14579.83
220.398	14677.25
220.471	14779.16
220.544	14884.53
220.618	14967.68
220.691	15067.99
220.764	15171.53
220.838	15257.57
220.911	15351.08
220.984	15464.5
221.057	15558.69
221.131	15654.03
221.204	15718.13
221.277	15822.1
221.35	15937.01
221.424	16013.12
221.497	16098.62
221.57	16175.6
221.643	16264.18
221.716	16354.79
221.79	16417.64
221.863	16488.69
221.936	16568.84
222.009	16638.58
222.082	16704.7
222.155	16777.24
222.229	16859.94
222.302	16932.91
222.375	16999.56
222.448	17072.24
222.521	17131.57
222.594	17185.06
222.667	17234.07
222.74	17305.4
222.814	17352.34
222.887	17406.56
222.96	17475.81
223.033	17532.77
223.106	17598.66
223.179	17648
223.252	17690.17
223.325	17745.64
223.398	17801.54
223.471	17850.7
223.544	17904.14
223.617	17948.48
223.69	17992.29
223.763	18018.89
223.837	18066.93
223.91	18119.41
223.983	18137.68
224.056	18168.76
224.129	18214.25
224.202	18267.21
224.275	18303.45
224.348	18341.48
224.42	18367.11
224.493	18380.22
224.566	18407.5
224.639	18441.42
224.712	18464.31
224.785	18487.88
224.858	18523.39
224.931	18544.41
225.004	18566.28
225.077	18590.86
225.15	18604.69
225.223	18624.26
225.296	18673.89
225.369	18673.22
225.442	18680.59
225.514	18708.97
225.587	18733.84
225.66	18753.45
225.733	18778.85
225.806	18794.8
225.879	18808.2
225.952	18808.34
226.025	18840.72
226.097	18873.93
226.17	18893.78
226.243	18897.73
226.316	18920.82
226.389	18928
226.461	18952.81
226.534	18973.92
226.607	18986.74
226.68	19019.41
226.753	19029.1
226.825	19013.44
226.898	19045.43
226.971	19064.18
227.044	19090.54
227.117	19101.67
227.189	19111.89
227.262	19125.77
227.335	19143.12
227.407	19139.6
227.48	19170.68
227.553	19181.38
227.626	19182.78
227.698	19183.21
227.771	19185.38
227.844	19180.94
227.916	19190.53
227.989	19168.51
228.062	19161.04
228.134	19192.12
228.207	19190.53
228.28	19196.22
228.352	19196.32
228.425	19196.56
228.498	19204.41
228.57	19180.56
228.643	19188.12
228.716	19194.15
228.788	19187.88
228.861	19178.97
228.934	19194.63
229.006	19179.06
229.079	19176.66
229.151	19172.56
229.224	19158.68
229.296	19162.54
229.369	19189.28
229.442	19203.83
229.514	19195.59
229.587	19212.65
229.659	19178.68
229.732	19186.97
229.804	19196.51
229.877	19223.93
229.949	19225.76
230.022	19239.49
230.094	19237.42
230.167	19232.36
230.239	19215.83
230.312	19205.57
230.384	19227.3
230.457	19224.99
230.529	19223.5
230.602	19217.23
230.674	19210.87
230.747	19211.11
230.819	19219.11
230.892	19176.8
230.964	19168.56
231.037	19174.2
231.109	19156.22
231.181	19164.32
231.254	19126.78
231.326	19117.48
231.399	19103.02
231.471	19084.47
231.544	19055.65
231.616	19056.33
231.688	19048.37
231.761	19034.83
231.833	19019.27
231.905	18972.91
231.978	18971.42
232.05	18966.07
232.122	18955.95
232.195	18936.72
232.267	18940.38
232.339	18924.77
232.412	18932.14
232.484	18910.36
232.556	18882.89
232.629	18888.43
232.701	18880.77
232.773	18881.25
232.846	18857.78
232.918	18840.92
232.99	18835.13
233.062	18827.95
233.135	18815.38
233.207	18792.1
233.279	18789.5
233.351	18784.25
233.424	18769.64
233.496	18737.74
233.568	18744.59
233.64	18718.61
233.713	18703.38
233.785	18688.54
233.857	18676.16
233.929	18645.41
234.001	18651.77
234.074	18672.01
234.146	18641.07
234.218	18620.5
234.29	18602.57
234.362	18576.5
234.434	18539.92
234.507	18511.49
234.579	18470.96
234.651	18456.89
234.723	18455.74
234.795	18444.99
234.867	18411.79
234.939	18406.97
235.012	18395.79
235.084	18378.05
235.156	18371.79
235.228	18355.07
235.3	18334.54
235.372	18322.73
235.444	18320.61
235.516	18266.97
235.588	18242.59
235.66	18222.4
235.732	18194.4
235.804	18237.48
235.876	18234.73
235.948	18238.64
236.02	18218.25
236.092	18200.76
236.164	18185.34
236.236	18154.45
236.308	18120.14
236.38	18110.93
236.452	18085
236.524	18067.75
236.596	18054.26
236.668	18040.48
236.74	18019.27
236.812	17998.5
236.884	17983.08
236.956	17960.09
237.028	17936.82
237.1	17899.57
237.172	17895.81
237.244	17895.42
237.316	17826.89
237.388	17800.1
237.46	17763.47
237.532	17758.37
237.604	17736.29
237.675	17719.09
237.747	17703.57
237.819	17680.01
237.891	17664.58
237.963	17632.25
238.035	17600.78
238.107	17540.54
238.178	17532.58
238.25	17505.21
238.322	17504.97
238.394	17461.07
238.466	17431.04
238.538	17408.63
238.609	17395.67
238.681	17348.73
238.753	17308.92
238.825	17294.42
238.897	17273.07
238.968	17270.66
239.04	17236.78
239.112	17239.14
239.184	17203.81
239.255	17176.15
239.327	17153.74
239.399	17124.2
239.471	17111.42
239.542	17092.97
239.614	17086.56
239.686	17032.29
239.758	17022.36
239.829	16985.59
239.901	16974.7
239.973	16960.87
240.044	16956.19
240.116	16926.75
240.188	16903.08
240.259	16884.48
240.331	16846.12
240.403	16828.76
240.474	16782.45
240.546	16759.89
240.618	16702.59
240.689	16669.72
240.761	16648.22
240.833	16649.24
240.904	16623.11
240.976	16601.62
241.048	16577.81
241.119	16561.47
241.191	16537.28
241.262	16526.05
241.334	16492.02
241.405	16462.72
241.477	16426.04
241.549	16389.02
241.62	16368.64
241.692	16345.36
241.763	16331.48
241.835	16311.33
241.906	16274.02
241.978	16234.5
242.049	16211.46
242.121	16200.67
242.192	16192.86
242.264	16147.41
242.335	16084.6
242.407	16067.2
242.478	16034.38
242.55	16013.46
242.621	15976.16
242.693	15944.25
242.764	15910.32
242.836	15876.77
242.907	15858.31
242.979	15831.08
243.05	15809.77
243.122	15785.63
243.193	15758.97
243.264	15704.26
243.336	15668.84
243.407	15659.44
243.479	15655.97
243.55	15627.53
243.622	15611.82
243.693	15586.51
243.764	15586.08
243.836	15558.41
243.907	15524.77
243.978	15488.86
244.05	15462.2
244.121	15419.83
244.192	15409.18
244.264	15362.42
244.335	15340.39
244.407	15296.29
244.478	15280.24
244.549	15248.38
244.62	15212.27
244.692	15182.77
244.763	15163.73
244.834	15130.52
244.906	15092.06
244.977	15064
245.048	15060.39
245.119	15017.05
245.191	14976.51
245.262	14917.13
245.333	14908.31
245.405	14882.42
245.476	14869.26
245.547	14845.01
245.618	14830.17
245.689	14796.38
245.761	14771.55
245.832	14745.86
245.903	14731.78
245.974	14701.12
246.045	14673.65
246.117	14667.86
246.188	14631.57
246.259	14594.4
246.33	14577.58
246.401	14547.54
246.473	14502.14
246.544	14465.93
246.615	14453.4
246.686	14423.18
246.757	14417.58
246.828	14380.18
246.899	14372.46
246.97	14326.72
247.042	14294.95
247.113	14274.17
247.184	14270.56
247.255	14240.48
247.326	14222.45
247.397	14187.88
247.468	14168.07
247.539	14143.82
247.61	14100.1
247.681	14090.94
247.752	14078.46
247.823	14039.12
247.894	14014.63
247.965	13986.53
248.037	13948.83
248.108	13909.4
248.179	13887.03
248.25	13863.51
248.321	13846.25
248.392	13805.27
248.463	13806.33
248.534	13769.99
248.605	13747.23
248.675	13721.1
248.746	13704.04
248.817	13678.34
248.888	13661.76
248.959	13621.08
249.03	13601.7
249.101	13582.22
249.172	13550.02
249.243	13503.45
249.314	13496.27
249.385	13478.87
249.456	13457.46
249.527	13434.61
249.598	13422.51
249.669	13389.88
249.739	13367.85
249.81	13354.59
249.881	13314.67
249.952	13291.05
250.023	13274.76
250.094	13245.11
250.165	13202.21
250.235	13176.76
250.306	13151.59
250.377	13112.64
250.448	13089.89
250.519	13043.18
250.59	13035.22
250.66	13001.29
250.731	13000.66
250.802	12975.35
250.873	12957.8
250.944	12938.42
251.014	12902.27
251.085	12904.49
251.156	12894.94
251.227	12882.84
251.297	12871.95
251.368	12869.35
251.439	12853.82
251.51	12849.1
251.58	12824.32
251.651	12807.45
251.722	12799.01
251.792	12758.38
251.863	12739.58
251.934	12731.72
252.005	12746.52
252.075	12722.27
252.146	12718.41
252.217	12708.63
252.287	12697.4
252.358	12671.08
252.429	12676.52
252.499	12656.71
252.57	12635.12
252.641	12620.41
252.711	12602.77
252.782	12562.47
252.852	12564.5
252.923	12546.9
252.994	12528.97
253.064	12517.78
253.135	12485.01
253.205	12465.68
253.276	12472.38
253.347	12465.97
253.417	12436.71
253.488	12407.01
253.558	12380.69
253.629	12364.06
253.699	12352.06
253.77	12338.56
253.841	12317.06
253.911	12294.99
253.982	12283.8
254.052	12270.16
254.123	12258.64
254.193	12232.66
254.264	12258.35
254.334	12218.63
254.405	12182.58
254.475	12145.99
254.546	12127.05
254.616	12123.82
254.687	12105.02
254.757	12090.46
254.827	12073.5
254.898	12064
254.968	12047.13
255.039	12018.11
255.109	12000.57
255.18	11973.91
255.25	11933.47
255.321	11924.75
255.391	11894
255.461	11894.29
255.532	11845.46
255.602	11820.83
255.673	11785.26
255.743	11751.37
255.813	11711.94
255.884	11709.44
255.954	11701.82
256.024	11698.02
256.095	11683.8
256.165	11656.95
256.235	11641.28
256.306	11617.33
256.376	11619.26
256.446	11607.88
256.517	11597.81
256.587	11590.92
256.657	11572.17
256.728	11564.84
256.798	11546.1
256.868	11526.38
256.938	11498.38
257.009	11498.86
257.079	11484.69
257.149	11490.43
257.219	11450.04
257.29	11438.42
257.36	11398.91
257.43	11392.54
257.5	11344.3
257.571	11319.72
257.641	11311.58
257.711	11274.81
257.781	11256.35
257.852	11235.29
257.922	11201.74
257.992	11186.66
258.062	11167.43
258.132	11161.21
258.202	11127.77
258.273	11113.17
258.343	11113.84
258.413	11090.37
258.483	11060.59
258.553	11037.89
258.623	11012.2
258.693	11000.73
258.764	11002.23
258.834	11008.64
258.904	10989.94
258.974	10973.36
259.044	10953.8
259.114	10934.96
259.184	10929.17
259.254	10916.02
259.324	10876.02
259.394	10863.73
259.464	10864.31
259.535	10845.23
259.605	10818.87
259.675	10803.21
259.745	10788.8
259.815	10758.39
259.885	10739.6
259.955	10760.52
260.025	10731.32
260.095	10722.55
260.165	10714.65
260.235	10715.95
260.305	10683.23
260.375	10653.74
260.445	10657.5
260.515	10652.87
260.585	10650.66
260.655	10631.77
260.725	10631.14
260.795	10627.63
260.865	10636.97
260.934	10609.6
261.004	10600.55
261.074	10583.2
261.144	10587.05
261.214	10584.07
261.284	10574
261.354	10571.44
261.424	10542.58
261.494	10553.51
261.564	10538.14
261.634	10527.54
261.703	10488.66
261.773	10491.55
261.843	10481
261.913	10467.32
261.983	10437.59
262.053	10422.32
262.123	10407.86
262.192	10375.63
262.262	10372.84
262.332	10339.64
