Data from 20250704_urea_0.1M_MAYP1162681_11-18-49-694.txt Node
Date: Fri Jul 04 11:18:49 BST 2025
User: adleo
Spectrometer: MAYP116268
Trigger mode: 0
Integration Time (sec): 1.000000E0
Scans to average: 1
Electric dark correction enabled: true
Nonlinearity correction enabled: true
Boxcar width: 10
XAxis mode: Wavelengths
Number of Pixels in Spectrum: 2068
>>>>>Begin Spectral Data<<<<<
179.565	1247.06
179.642	1303.37
179.718	1349.1
179.795	1389.57
179.871	1423.59
179.948	1444.12
180.024	1465.7
180.101	1489.54
180.177	1506.72
180.254	1529.77
180.33	1550.82
180.407	1607.89
180.483	1705.05
180.56	1799.41
180.636	1885.01
180.712	1873.55
180.789	1883.2
180.865	1894.8
180.942	1904.4
181.018	1914.95
181.095	1926.79
181.171	1931.07
181.248	1935.12
181.324	1949.86
181.4	1957.47
181.477	1969.4
181.553	1982.9
181.63	2004.88
181.706	2019.52
181.782	2024.94
181.859	2025.23
181.935	2032.89
182.011	2029.56
182.088	2049.53
182.164	2069.95
182.24	2084.59
182.317	2095.95
182.393	2097.76
182.469	2112.79
182.546	2126.82
182.622	2131.25
182.698	2125.3
182.775	2133.67
182.851	2146.94
182.927	2139.81
183.003	2134.34
183.08	2127.35
183.156	2134.96
183.232	2130.06
183.308	2117.98
183.385	2125.82
183.461	2143.38
183.537	2145.47
183.613	2156.79
183.69	2144.38
183.766	2132.14
183.842	2140.76
183.918	2143.04
183.995	2154.46
184.071	2157.36
184.147	2149.84
184.223	2137.76
184.299	2150.47
184.375	2143.76
184.452	2150.66
184.528	2200.05
184.604	2210.37
184.68	2222.36
184.756	2232.35
184.832	2237.25
184.908	2244.53
184.985	2243.77
185.061	2226.83
185.137	2235.49
185.213	2225.41
185.289	2226.74
185.365	2220.79
185.441	2219.99
185.517	2233.45
185.593	2228.7
185.669	2227.17
185.745	2240.5
185.822	2262.28
185.898	2255.38
185.974	2262.04
186.05	2253.66
186.126	2221.36
186.202	2214.7
186.278	2209.89
186.354	2199.47
186.43	2204.94
186.506	2204.66
186.582	2206.51
186.658	2214.26
186.734	2192.38
186.81	2194.9
186.886	2200.18
186.962	2211.51
187.038	2206.18
187.114	2199.7
187.19	2206.84
187.266	2195.14
187.341	2195.09
187.417	2183.48
187.493	2182.25
187.569	2186.48
187.645	2182.39
187.721	2168.49
187.797	2179.01
187.873	2186.67
187.949	2182.58
188.025	2176.72
188.101	2178.39
188.176	2181.91
188.252	2178.05
188.328	2185.47
188.404	2184.33
188.48	2178.19
188.556	2171.1
188.632	2171.01
188.707	2169.53
188.783	2168.06
188.859	2163.87
188.935	2153.26
189.011	2164.49
189.086	2160.92
189.162	2151.31
189.238	2142.56
189.314	2139.19
189.39	2132.43
189.465	2121.15
189.541	2135.76
189.617	2119.64
189.693	2113.93
189.768	2116.83
189.844	2142.44
189.92	2135.45
189.996	2147.44
190.071	2160
190.147	2158.81
190.223	2169.66
190.298	2164.05
190.374	2150.06
190.45	2163.14
190.526	2171.47
190.601	2160.05
190.677	2157.24
190.753	2187.18
190.828	2196.41
190.904	2212.54
190.98	2227.05
191.055	2238.38
191.131	2227.34
191.207	2249.41
191.282	2259.78
191.358	2254.31
191.433	2236.98
191.509	2252.06
191.585	2245.63
191.66	2245.92
191.736	2256.05
191.811	2244.49
191.887	2261.39
191.963	2286.99
192.038	2292.37
192.114	2290.27
192.189	2298.55
192.265	2299.12
192.34	2273.65
192.416	2272.79
192.491	2270.7
192.567	2270.79
192.642	2276.55
192.718	2277.13
192.793	2266.18
192.869	2261.47
192.944	2260.8
193.02	2270.32
193.095	2273.8
193.171	2283.65
193.246	2281.36
193.322	2278.51
193.397	2279.89
193.473	2265.8
193.548	2248.23
193.624	2250.57
193.699	2251.23
193.775	2266.28
193.85	2268.51
193.925	2279.65
194.001	2276.27
194.076	2268.23
194.152	2259.47
194.227	2249.62
194.302	2241.44
194.378	2243.43
194.453	2241.15
194.529	2253.05
194.604	2235.2
194.679	2227.02
194.755	2205.56
194.83	2220.32
194.905	2216.9
194.981	2225.84
195.056	2219.99
195.131	2221.51
195.207	2223.61
195.282	2213.57
195.357	2190.44
195.433	2206.38
195.508	2195.2
195.583	2203.47
195.659	2218.75
195.734	2227.89
195.809	2229.41
195.884	2238.5
195.96	2240.07
196.035	2256.63
196.11	2252.73
196.185	2265.95
196.261	2272.19
196.336	2302.45
196.411	2286.22
196.486	2291.55
196.561	2285.93
196.637	2292.64
196.712	2313.82
196.787	2317.82
196.862	2335.48
196.937	2352.37
197.013	2355.32
197.088	2364.98
197.163	2387.27
197.238	2401.56
197.313	2398.13
197.388	2411.79
197.464	2443.03
197.539	2456.22
197.614	2448.03
197.689	2464.36
197.764	2483.98
197.839	2506.46
197.914	2500.46
197.989	2523.74
198.065	2535.26
198.14	2588.78
198.215	2616.68
198.29	2623.02
198.365	2633.88
198.44	2645.98
198.515	2669.75
198.59	2686.56
198.665	2713.19
198.74	2720.48
198.815	2723.3
198.89	2751.97
198.965	2784.15
199.04	2779.19
199.115	2793.53
199.19	2834.55
199.265	2833.88
199.34	2845.32
199.415	2875.27
199.49	2900.33
199.565	2910.57
199.64	2938.17
199.715	2933.45
199.79	2942.22
199.865	2951.08
199.94	2953.42
200.015	2985.41
200.09	2995
200.165	3002.24
200.24	3011.68
200.315	3057.97
200.39	3073.33
200.464	3077.28
200.539	3077.43
200.614	3092.16
200.689	3115.24
200.764	3126.69
200.839	3144.89
200.914	3147.09
200.989	3138.64
201.063	3151.14
201.138	3133.84
201.213	3134.41
201.288	3115.77
201.363	3119.01
201.438	3116.39
201.512	3131.97
201.587	3114.18
201.662	3118.71
201.737	3133.17
201.812	3141.37
201.886	3106.81
201.961	3121.56
202.036	3110.5
202.111	3107.3
202.186	3080.71
202.26	3066.88
202.335	3045.8
202.41	3041.65
202.485	3026.87
202.559	3007.23
202.634	2985.58
202.709	2999.97
202.784	2984.86
202.858	2989.19
202.933	2977.47
203.008	2982.85
203.082	2968.65
203.157	2976.56
203.232	2939.91
203.306	2927.75
203.381	2903.19
203.456	2890.42
203.53	2878.82
203.605	2873.24
203.68	2866.42
203.754	2876.52
203.829	2875.81
203.904	2873.57
203.978	2889.49
204.053	2919.58
204.127	2933.55
204.202	2957.3
204.277	2967.07
204.351	2991.54
204.426	3017.58
204.5	3045.58
204.575	3046.3
204.65	3096.92
204.724	3127.62
204.799	3183.84
204.873	3225.6
204.948	3278.48
205.022	3321.18
205.097	3366.65
205.171	3447.24
205.246	3522.05
205.32	3590.78
205.395	3663.14
205.469	3730.27
205.544	3812.35
205.618	3878.12
205.693	3975.1
205.767	4051.15
205.842	4168.22
205.916	4257.07
205.991	4345.18
206.065	4455.14
206.14	4582.02
206.214	4687.51
206.289	4795.54
206.363	4920.66
206.438	5048.67
206.512	5176.44
206.586	5326.61
206.661	5467.57
206.735	5571.39
206.81	5705.9
206.884	5858
206.958	5988.8
207.033	6153.33
207.107	6310.19
207.181	6492.07
207.256	6642.18
207.33	6817.88
207.405	6990.65
207.479	7168.84
207.553	7340.56
207.628	7490.26
207.702	7669.7
207.776	7838.29
207.851	8010.63
207.925	8204.35
207.999	8372.63
208.073	8552.72
208.148	8730.6
208.222	8899.64
208.296	9112.39
208.371	9312.17
208.445	9516.46
208.519	9735.16
208.593	9934.53
208.668	10114.97
208.742	10301.7
208.816	10501.04
208.89	10706.67
208.965	10894.31
209.039	11096.15
209.113	11308.99
209.187	11519.37
209.261	11703.6
209.336	11915.42
209.41	12132.63
209.484	12319.41
209.558	12536.74
209.632	12748.87
209.707	12955.27
209.781	13173.14
209.855	13382.63
209.929	13595.06
210.003	13776.79
210.077	13963.15
210.151	14192.79
210.226	14419.2
210.3	14640.89
210.374	14841.75
210.448	15028.68
210.522	15217.39
210.596	15406.53
210.67	15591.87
210.744	15819.61
210.818	16037.57
210.892	16244.68
210.966	16418
211.041	16606.94
211.115	16772.25
211.189	16962.58
211.263	17144.71
211.337	17311.51
211.411	17494.55
211.485	17646.41
211.559	17824.39
211.633	17989.98
211.707	18124.43
211.781	18281.63
211.855	18396.18
211.929	18547.12
212.003	18684.9
212.077	18850.09
212.151	19015.1
212.225	19177.46
212.299	19317.6
212.373	19449.88
212.447	19578.45
212.52	19747.08
212.594	19895.75
212.668	20052.9
212.742	20171.75
212.816	20298.73
212.89	20429.82
212.964	20563.13
213.038	20707.13
213.112	20852.93
213.186	21000.31
213.26	21107.64
213.333	21184.56
213.407	21311.32
213.481	21438.22
213.555	21571.25
213.629	21671.65
213.703	21775.43
213.777	21888.04
213.85	21981.65
213.924	22129.17
213.998	22238.6
214.072	22342.44
214.146	22440.02
214.219	22538.18
214.293	22632.38
214.367	22732.65
214.441	22852.81
214.515	22945.43
214.588	23012.89
214.662	23083.04
214.736	23144.23
214.81	23243.99
214.883	23351.41
214.957	23434.78
215.031	23502.62
215.105	23561.4
215.178	23640.39
215.252	23721.27
215.326	23791.39
215.4	23853.7
215.473	23881.24
215.547	23937.82
215.621	24006.42
215.694	24082.15
215.768	24132.5
215.842	24193.32
215.915	24261.63
215.989	24290.13
216.063	24345.9
216.136	24402.53
216.21	24460.28
216.284	24545.57
216.357	24601.82
216.431	24655.61
216.504	24723.87
216.578	24815.31
216.652	24893.32
216.725	24958.6
216.799	25016.55
216.873	25049.17
216.946	25109.34
217.02	25161.11
217.093	25201.01
217.167	25237.83
217.24	25266.02
217.314	25305.87
217.387	25350.7
217.461	25389.4
217.535	25445.33
217.608	25470.38
217.682	25521.49
217.755	25570.76
217.829	25593.3
217.902	25640.7
217.976	25686.6
218.049	25718.79
218.123	25728.93
218.196	25768.85
218.27	25790.71
218.343	25810.75
218.417	25851.87
218.49	25886.67
218.563	25933.11
218.637	25973.42
218.71	26012.67
218.784	26060.22
218.857	26105.11
218.931	26155.51
219.004	26189.06
219.077	26238.11
219.151	26278.47
219.224	26304.3
219.298	26333.56
219.371	26377.25
219.444	26388.41
219.518	26421.67
219.591	26448.23
219.665	26505.79
219.738	26518.97
219.811	26533.7
219.885	26571.46
219.958	26609.12
220.031	26629.4
220.105	26651.95
220.178	26679.42
220.251	26696.47
220.325	26727.82
220.398	26751.48
220.471	26765.82
220.544	26794.75
220.618	26801.03
220.691	26813.58
220.764	26838.69
220.838	26859.36
220.911	26871.19
220.984	26903.11
221.057	26914.51
221.131	26929.29
221.204	26911.22
221.277	26952.66
221.35	27002.41
221.424	26996.9
221.497	27007.19
221.57	27010.86
221.643	27019.99
221.716	27036.7
221.79	27038.39
221.863	27035.83
221.936	27047.04
222.009	27045.49
222.082	27036.51
222.155	27036.41
222.229	27067.37
222.302	27066.89
222.375	27071.86
222.448	27079.35
222.521	27078.05
222.594	27072.78
222.667	27059.94
222.74	27074.14
222.814	27060.42
222.887	27048.73
222.96	27059.83
223.033	27054.47
223.106	27059.3
223.179	27058.82
223.252	27053.41
223.325	27043.51
223.398	27035.06
223.471	27020.57
223.544	27020.18
223.617	27018.11
223.69	27017.09
223.763	26984.54
223.837	26982.6
223.91	26971.3
223.983	26937.3
224.056	26920.5
224.129	26910.5
224.202	26900.17
224.275	26876.07
224.348	26848.11
224.42	26811.5
224.493	26781.61
224.566	26760.65
224.639	26742.3
224.712	26720.47
224.785	26698.11
224.858	26671.99
224.931	26651.27
225.004	26631.52
225.077	26611.19
225.15	26572.66
225.223	26540.93
225.296	26544.89
225.369	26500.76
225.442	26466.81
225.514	26454.99
225.587	26434.03
225.66	26415.54
225.733	26413.03
225.806	26394.34
225.879	26376.72
225.952	26348.19
226.025	26334.19
226.097	26327.86
226.17	26297.25
226.243	26247.67
226.316	26215.9
226.389	26194.95
226.461	26167.53
226.534	26138.37
226.607	26112.35
226.68	26100.57
226.753	26075.33
226.825	26017.34
226.898	26017.53
226.971	25992.19
227.044	25968.68
227.117	25942.38
227.189	25919.73
227.262	25885.8
227.335	25856.26
227.407	25820.63
227.48	25802.53
227.553	25773.72
227.626	25744.51
227.698	25722.21
227.771	25705.85
227.844	25670.52
227.916	25645.38
227.989	25598.76
228.062	25566.08
228.134	25547.89
228.207	25521.83
228.28	25483.7
228.352	25448.13
228.425	25414.93
228.498	25402.81
228.57	25363.19
228.643	25343.5
228.716	25308.08
228.788	25268.75
228.861	25238.25
228.934	25218.56
229.006	25188.07
229.079	25149.46
229.151	25098.55
229.224	25053.73
229.296	25017.78
229.369	25011.99
229.442	24997.03
229.514	24966.73
229.587	24943.33
229.659	24895.71
229.732	24863.72
229.804	24844.71
229.877	24846.5
229.949	24819.77
230.022	24796.36
230.094	24768.33
230.167	24743.39
230.239	24701.9
230.312	24671.21
230.384	24660.36
230.457	24634.4
230.529	24603.87
230.602	24580.57
230.674	24554.52
230.747	24544.92
230.819	24531.46
230.892	24470.82
230.964	24434.64
231.037	24412.83
231.109	24379.84
231.181	24357.84
231.254	24318.72
231.326	24285.2
231.399	24246.22
231.471	24200.15
231.544	24142.65
231.616	24110.97
231.688	24070.3
231.761	24028.39
231.833	23986.82
231.905	23917.36
231.978	23867.64
232.05	23821.15
232.122	23784.88
232.195	23739.25
232.267	23706.26
232.339	23657.26
232.412	23632.67
232.484	23589.65
232.556	23534.87
232.629	23524.02
232.701	23490.79
232.773	23454.33
232.846	23407.37
232.918	23364.01
232.99	23328.9
233.062	23302.86
233.135	23275.23
233.207	23236.8
233.279	23210.66
233.351	23193.6
233.424	23162.3
233.496	23121.85
233.568	23118.14
233.64	23068.14
233.713	23034.97
233.785	22987.04
233.857	22958.98
233.929	22907.97
234.001	22886.22
234.074	22867.56
234.146	22798.61
234.218	22747.07
234.29	22709.18
234.362	22663.81
234.434	22615.46
234.507	22559.15
234.579	22494.55
234.651	22443.15
234.723	22407.28
234.795	22374.74
234.867	22315.11
234.939	22289.41
235.012	22255.09
235.084	22214.01
235.156	22181.19
235.228	22140.02
235.3	22095.67
235.372	22060.57
235.444	22033.92
235.516	21973.03
235.588	21929.79
235.66	21897.79
235.732	21851.37
235.804	21863.9
235.876	21834.26
235.948	21801.19
236.02	21756.94
236.092	21731.06
236.164	21692.16
236.236	21632.73
236.308	21583.47
236.38	21554.89
236.452	21500.37
236.524	21458.34
236.596	21422.43
236.668	21388.74
236.74	21348.79
236.812	21297.94
236.884	21250.7
236.956	21204.68
237.028	21148.43
237.1	21103.03
237.172	21071.85
237.244	21048.37
237.316	20967.35
237.388	20919.01
237.46	20860.55
237.532	20835.2
237.604	20778.52
237.675	20743.19
237.747	20712.11
237.819	20658.57
237.891	20605.5
237.963	20545.22
238.035	20491.72
238.107	20406.95
238.178	20371.33
238.25	20316.59
238.322	20311.28
238.394	20253.36
238.466	20213.31
238.538	20180.54
238.609	20144.11
238.681	20084.4
238.753	20034.71
238.825	19988.49
238.897	19945.89
238.968	19927
239.04	19879.63
239.112	19870.52
239.184	19826.76
239.255	19776.65
239.327	19741.03
239.399	19710.77
239.471	19699.06
239.542	19669.47
239.614	19651.35
239.686	19584.32
239.758	19556.75
239.829	19499.46
239.901	19470.83
239.973	19425.24
240.044	19387.51
240.116	19338.02
240.188	19290.26
240.259	19248.24
240.331	19200.15
240.403	19161.79
240.474	19105.46
240.546	19049.02
240.618	18977.27
240.689	18920.98
240.761	18881.23
240.833	18854.92
240.904	18810.73
240.976	18754.97
241.048	18713.96
241.119	18664.81
241.191	18639.31
241.262	18615.32
241.334	18562.21
241.405	18514.31
241.477	18461.4
241.549	18413.35
241.62	18381.45
241.692	18345.21
241.763	18316.2
241.835	18275.24
241.906	18239.29
241.978	18177.99
242.049	18155.29
242.121	18124.64
242.192	18101.8
242.264	18044.45
242.335	17983.59
242.407	17947.49
242.478	17902.77
242.55	17860.31
242.621	17818.19
242.693	17770.34
242.764	17731.45
242.836	17693.96
242.907	17664.7
242.979	17635.02
243.05	17606.29
243.122	17567.93
243.193	17529.81
243.264	17472.47
243.336	17428.71
243.407	17398.78
243.479	17385.53
243.55	17353.81
243.622	17324.08
243.693	17276.75
243.764	17260.27
243.836	17219.45
243.907	17178.63
243.978	17145.86
244.05	17115.69
244.121	17066.39
244.192	17035.54
244.264	16974.82
244.335	16937.27
244.407	16882.67
244.478	16848.4
244.549	16808.83
244.62	16755.34
244.692	16716.49
244.763	16677.69
244.834	16639.33
244.906	16583.66
244.977	16551.18
245.048	16527.23
245.119	16475.51
245.191	16431.8
245.262	16369.19
245.333	16350.34
245.405	16305.57
245.476	16267.15
245.547	16233.42
245.618	16213.27
245.689	16174.18
245.761	16143.14
245.832	16103.72
245.903	16079.67
245.974	16049.25
246.045	16008.04
246.117	15983.51
246.188	15932.51
246.259	15891.01
246.33	15851.78
246.401	15815.05
246.473	15764.15
246.544	15714.41
246.615	15686.98
246.686	15648.76
246.757	15638.54
246.828	15582.29
246.899	15569.04
246.97	15519.68
247.042	15478.47
247.113	15438.17
247.184	15424.92
247.255	15381.63
247.326	15352.04
247.397	15315.88
247.468	15283.59
247.539	15247.44
247.61	15209.5
247.681	15191.91
247.752	15169.49
247.823	15125.1
247.894	15096.66
247.965	15047.63
248.037	15017.6
248.108	14976.87
248.179	14940.38
248.25	14903.17
248.321	14875.55
248.392	14826.19
248.463	14826.29
248.534	14787.53
248.605	14767.09
248.675	14731.86
248.746	14713.59
248.817	14692.38
248.888	14665.82
248.959	14626.38
249.03	14605.08
249.101	14573.41
249.172	14535.86
249.243	14488.52
249.314	14482.97
249.385	14459.45
249.456	14447.49
249.527	14406.09
249.598	14386.56
249.669	14362.36
249.739	14332.62
249.81	14314.11
249.881	14272.12
249.952	14235.63
250.023	14212.44
250.094	14165.2
250.165	14123.6
250.235	14085.09
250.306	14052.6
250.377	14010.61
250.448	13976.57
250.519	13930.73
250.59	13924.37
250.66	13892.31
250.731	13886.86
250.802	13851.19
250.873	13829.98
250.944	13804.53
251.014	13773.43
251.085	13767.65
251.156	13744.17
251.227	13731.83
251.297	13721.8
251.368	13711.44
251.439	13685.89
251.51	13668.73
251.58	13635.75
251.651	13609.1
251.722	13603.5
251.792	13564.36
251.863	13540.84
251.934	13530.76
252.005	13536.93
252.075	13507.86
252.146	13498.94
252.217	13486.12
252.287	13472.82
252.358	13439.94
252.429	13429.43
252.499	13402.19
252.57	13374.28
252.641	13362.37
252.711	13337.16
252.782	13291.85
252.852	13286.06
252.923	13266.73
252.994	13246.29
253.064	13241.81
253.135	13211.3
253.205	13177.31
253.276	13171.81
253.347	13161.55
253.417	13125.63
253.488	13092.23
253.558	13060.75
253.629	13035.44
253.699	13008.78
253.77	12990.51
253.841	12966.26
253.911	12946.31
253.982	12925.29
254.052	12907.11
254.123	12887.83
254.193	12862.33
254.264	12882.48
254.334	12844.45
254.405	12810.85
254.475	12772.72
254.546	12742.11
254.616	12736.18
254.687	12717.18
254.757	12698.91
254.827	12674.33
254.898	12660.11
254.968	12636.54
255.039	12606.6
255.109	12593.2
255.18	12562.21
255.25	12516.56
255.321	12503.54
255.391	12466.18
255.461	12467.73
255.532	12420.53
255.602	12392.53
255.673	12347.17
255.743	12311.64
255.813	12274.19
255.884	12268.74
255.954	12259.82
256.024	12257.7
256.095	12232.01
256.165	12191.33
256.235	12175.03
256.306	12145.1
256.376	12131.65
256.446	12116.71
256.517	12105.04
256.587	12091.98
256.657	12072.36
256.728	12062.63
256.798	12047.01
256.868	12019.49
256.938	11983.87
257.009	11976.35
257.079	11959.77
257.149	11972.25
257.219	11928.77
257.29	11913.93
257.36	11869.49
257.43	11857.72
257.5	11818.49
257.571	11793.33
257.641	11786.53
257.711	11751.59
257.781	11747.11
257.852	11737.08
257.922	11693.03
257.992	11673.8
258.062	11650.23
258.132	11643.29
258.202	11617.79
258.273	11593.26
258.343	11597.5
258.413	11576.48
258.483	11559.81
258.553	11530.26
258.623	11500.86
258.693	11493.73
258.764	11493.05
258.834	11491.51
258.904	11471.36
258.974	11442.74
259.044	11425.68
259.114	11411.12
259.184	11397.43
259.254	11369.48
259.324	11326.54
259.394	11324.13
259.464	11324.56
259.535	11305.82
259.605	11276.42
259.675	11246.88
259.745	11232.51
259.815	11197.81
259.885	11178.06
259.955	11181.57
260.025	11154.83
260.095	11137.48
260.165	11121.58
260.235	11113.58
260.305	11080.42
260.375	11051.17
260.445	11065.77
260.515	11068.04
260.585	11061.87
260.655	11037.82
260.725	11030.3
260.795	11024.91
260.865	11028.28
260.934	10995.75
261.004	10981.73
261.074	10970.93
261.144	10975.85
261.214	10969.48
261.284	10963.85
261.354	10954.5
261.424	10926.45
261.494	10933.68
261.564	10914.4
261.634	10903.7
261.703	10867.85
261.773	10864.82
