Data from 20250704_urea_0.1M_MAYP1162681_11-18-57-694.txt Node
Date: Fri Jul 04 11:18:57 BST 2025
User: adleo
Spectrometer: MAYP116268
Trigger mode: 0
Integration Time (sec): 1.000000E0
Scans to average: 1
Electric dark correction enabled: true
Nonlinearity correction enabled: true
Boxcar width: 10
XAxis mode: Wavelengths
Number of Pixels in Spectrum: 2068
>>>>>Begin Spectral Data<<<<<
179.565	1243.7
179.642	1298.21
179.718	1348.1
179.795	1388.15
179.871	1423.66
179.948	1441.82
180.024	1464.24
180.101	1488.88
180.177	1505.21
180.254	1528.38
180.33	1550.54
180.407	1606.57
180.483	1706.53
180.56	1798.46
180.636	1885.11
180.712	1871.65
180.789	1882.73
180.865	1891.94
180.942	1902.35
181.018	1910.44
181.095	1922.47
181.171	1930.17
181.248	1935.07
181.324	1947.58
181.4	1954.33
181.477	1964.36
181.553	1977.39
181.63	1999.41
181.706	2014.44
181.782	2023.9
181.859	2022.66
181.935	2029.79
182.011	2023.71
182.088	2039.45
182.164	2059.86
182.24	2072.36
182.317	2083.54
182.393	2082.16
182.469	2097.24
182.546	2106.61
182.622	2110.41
182.698	2103.94
182.775	2112.88
182.851	2124.39
182.927	2114.83
183.003	2111.98
183.08	2106.7
183.156	2114.6
183.232	2109.7
183.308	2095.9
183.385	2103.99
183.461	2123.87
183.537	2124.02
183.613	2141.95
183.69	2131.48
183.766	2120.4
183.842	2128.63
183.918	2133.33
183.995	2145.42
184.071	2150.65
184.147	2148.8
184.223	2139.05
184.299	2155.94
184.375	2148.66
184.452	2156.18
184.528	2210.38
184.604	2218.94
184.68	2231.36
184.756	2238.12
184.832	2241.11
184.908	2247.67
184.985	2246.06
185.061	2228.84
185.137	2236.4
185.213	2222.84
185.289	2224.17
185.365	2220.61
185.441	2219.56
185.517	2232.65
185.593	2231.22
185.669	2228.7
185.745	2238.45
185.822	2255.34
185.898	2246.01
185.974	2254.38
186.05	2247.34
186.126	2210.69
186.202	2203.27
186.278	2199.13
186.354	2193
186.43	2200.13
186.506	2200.47
186.582	2199.37
186.658	2206.51
186.734	2187.24
186.81	2190.43
186.886	2195.42
186.962	2202.66
187.038	2200.18
187.114	2193.95
187.19	2200.61
187.266	2190.09
187.341	2189.81
187.417	2184.96
187.493	2184.81
187.569	2188.53
187.645	2181.82
187.721	2172.82
187.797	2183.19
187.873	2188.81
187.949	2182.39
188.025	2179.44
188.101	2183.76
188.176	2188.9
188.252	2184.86
188.328	2193.75
188.404	2194.61
188.48	2187.9
188.556	2185.28
188.632	2185.19
188.707	2184.09
188.783	2180.05
188.859	2174.25
188.935	2166.21
189.011	2175.15
189.086	2168.06
189.162	2158.5
189.238	2154.46
189.314	2149.99
189.39	2144.61
189.465	2135.14
189.541	2152.84
189.617	2134.29
189.693	2125.78
189.768	2126.82
189.844	2151.81
189.92	2141.21
189.996	2152.05
190.071	2162.76
190.147	2159.81
190.223	2169.71
190.298	2162.28
190.374	2149.73
190.45	2162.85
190.526	2168.94
190.601	2160.76
190.677	2161.57
190.753	2190.65
190.828	2195.31
190.904	2209.87
190.98	2222.82
191.055	2233.24
191.131	2222.2
191.207	2247.75
191.282	2257.64
191.358	2248.74
191.433	2233.75
191.509	2249.87
191.585	2243.54
191.66	2244.11
191.736	2255.91
191.811	2247.25
191.887	2265.67
191.963	2289.46
192.038	2295.13
192.114	2295.79
192.189	2301.31
192.265	2301.36
192.34	2278.17
192.416	2277.94
192.491	2274.18
192.567	2277.6
192.642	2280.27
192.718	2282.46
192.793	2267.51
192.869	2263.66
192.944	2267.75
193.02	2277.37
193.095	2282.84
193.171	2290.79
193.246	2292.59
193.322	2287.07
193.397	2284.55
193.473	2267.27
193.548	2247.9
193.624	2250.71
193.699	2251.95
193.775	2266.61
193.85	2267.13
193.925	2276.08
194.001	2274.65
194.076	2266.37
194.152	2255.67
194.227	2250
194.302	2239.63
194.378	2242.06
194.453	2239.77
194.529	2252.86
194.604	2235.4
194.679	2227.74
194.755	2205.09
194.83	2218.42
194.905	2215.38
194.981	2224.75
195.056	2220.09
195.131	2228.18
195.207	2228.84
195.282	2218.8
195.357	2199.81
195.433	2214.71
195.508	2203
195.583	2211.66
195.659	2230.79
195.734	2242.41
195.809	2241.55
195.884	2250.68
195.96	2248.97
196.035	2264.96
196.11	2259.91
196.185	2270.38
196.261	2273.9
196.336	2310.02
196.411	2294.36
196.486	2297.83
196.561	2293.02
196.637	2300.97
196.712	2318.68
196.787	2319.73
196.862	2333.48
196.937	2343.28
197.013	2347.81
197.088	2359.08
197.163	2381.04
197.238	2395.38
197.313	2391.85
197.388	2406.8
197.464	2436.8
197.539	2450.27
197.614	2441.04
197.689	2452.46
197.764	2471.75
197.839	2493.13
197.914	2486.41
197.989	2509.55
198.065	2524.36
198.14	2575.49
198.215	2601.87
198.29	2612.11
198.365	2624.97
198.44	2637.4
198.515	2664.36
198.59	2678.42
198.665	2707.14
198.74	2716.15
198.815	2715.48
198.89	2738.3
198.965	2768.33
199.04	2765.28
199.115	2780.81
199.19	2827.4
199.265	2834.26
199.34	2844.98
199.415	2875.31
199.49	2893.65
199.565	2906.38
199.64	2933.83
199.715	2928.87
199.79	2938.07
199.865	2946.27
199.94	2948.94
200.015	2979.4
200.09	2983.41
200.165	2992.27
200.24	2998.66
200.315	3038.6
200.39	3059.44
200.464	3064.83
200.539	3065.88
200.614	3083.47
200.689	3111.32
200.764	3116.57
200.839	3134.2
200.914	3139.11
200.989	3129.52
201.063	3148.12
201.138	3129.16
201.213	3128.92
201.288	3111.32
201.363	3117.52
201.438	3118.29
201.512	3135.64
201.587	3119.23
201.662	3127.67
201.737	3140.17
201.812	3144.98
201.886	3111.96
201.961	3119.26
202.036	3111.2
202.111	3108.72
202.186	3079.46
202.26	3061.95
202.335	3044.16
202.41	3038.16
202.485	3022.71
202.559	3004.93
202.634	2981.18
202.709	2994.67
202.784	2980.17
202.858	2985.47
202.933	2970.35
203.008	2970.11
203.082	2953.86
203.157	2959.1
203.232	2924.79
203.306	2914.68
203.381	2894.22
203.456	2886.02
203.53	2873.09
203.605	2864.18
203.68	2855.69
203.754	2868.7
203.829	2871.13
203.904	2871.94
203.978	2886.63
204.053	2915.05
204.127	2932.59
204.202	2955.67
204.277	2967.59
204.351	2991.67
204.426	3019.01
204.5	3047.44
204.575	3049.44
204.65	3102.07
204.724	3135.48
204.799	3188.69
204.873	3230.22
204.948	3283.66
205.022	3321.17
205.097	3372.99
205.171	3451.27
205.246	3521.81
205.32	3587.54
205.395	3661.06
205.469	3720.74
205.544	3802.44
205.618	3863.08
205.693	3955.14
205.767	4032.82
205.842	4144.3
205.916	4237.22
205.991	4329.36
206.065	4440.18
206.14	4561.61
206.214	4666.86
206.289	4779.97
206.363	4913.23
206.438	5038.41
206.512	5165.94
206.586	5315.32
206.661	5446.97
206.735	5556
206.81	5696.11
206.884	5843.31
206.958	5971.39
207.033	6139.02
207.107	6292.08
207.181	6480.76
207.256	6632.15
207.33	6800.54
207.405	6973.98
207.479	7150.45
207.553	7316.94
207.628	7462.7
207.702	7645.45
207.776	7813.37
207.851	7987.26
207.925	8168.76
207.999	8343.2
208.073	8518.19
208.148	8704.77
208.222	8882.37
208.296	9093.63
208.371	9288.24
208.445	9489.25
208.519	9707.08
208.593	9906.99
208.668	10094.02
208.742	10281.43
208.816	10478.16
208.89	10690.38
208.965	10877.97
209.039	11076.25
209.113	11290.83
209.187	11504.57
209.261	11691.7
209.336	11903.99
209.41	12116.49
209.484	12315.6
209.558	12532.59
209.632	12740.72
209.707	12937.19
209.781	13155.35
209.855	13369.57
209.929	13581.67
210.003	13779.4
210.077	13965.9
210.151	14200.75
210.226	14418.91
210.3	14636.5
210.374	14838.47
210.448	15022.7
210.522	15209.58
210.596	15401.38
210.67	15587
210.744	15810.41
210.818	16023.07
210.892	16222.8
210.966	16391.98
211.041	16579.85
211.115	16742.9
211.189	16931.54
211.263	17109.82
211.337	17276.09
211.411	17451.42
211.485	17613.64
211.559	17785.74
211.633	17953.45
211.707	18085.78
211.781	18251.61
211.855	18372.33
211.929	18523.41
212.003	18657.19
212.077	18831.25
212.151	18996.74
212.225	19153.02
212.299	19287.81
212.373	19418.51
212.447	19550.12
212.52	19720.28
212.594	19863.36
212.668	20018.54
212.742	20153.53
212.816	20298.3
212.89	20424.08
212.964	20562.93
213.038	20698.36
213.112	20840.83
213.186	20977.32
213.26	21073.42
213.333	21156.41
213.407	21279.46
213.481	21401.35
213.555	21537.89
213.629	21634.01
213.703	21738.17
213.777	21855.84
213.85	21953.01
213.924	22109.21
213.998	22223.51
214.072	22321.28
214.146	22426.33
214.219	22526.99
214.293	22620.08
214.367	22713.52
214.441	22831.69
214.515	22912.4
214.588	22980.87
214.662	23046.49
214.736	23127.26
214.81	23235.01
214.883	23332.99
214.957	23422.1
215.031	23502.24
215.105	23564.87
215.178	23639.23
215.252	23716.06
215.326	23776.49
215.4	23835.61
215.473	23853.02
215.547	23912.93
215.621	23973.9
215.694	24042.97
215.768	24091.78
215.842	24143.83
215.915	24199.68
215.989	24243.39
216.063	24303.78
216.136	24365.38
216.21	24423.36
216.284	24491.97
216.357	24553.86
216.431	24607.12
216.504	24666.32
216.578	24748.24
216.652	24812.06
216.725	24879.04
216.799	24938.19
216.873	24982.97
216.946	25045.5
217.02	25089.25
217.093	25132.44
217.167	25170.66
217.24	25203.86
217.314	25247.43
217.387	25291.19
217.461	25337.04
217.535	25397.95
217.608	25420.63
217.682	25466.23
217.755	25527.28
217.829	25557.69
217.902	25594.66
217.976	25634.77
218.049	25659.86
218.123	25673.28
218.196	25718.41
218.27	25740.27
218.343	25756.35
218.417	25805.44
218.49	25846.81
218.563	25899.71
218.637	25935.81
218.71	25982.78
218.784	26018.75
218.857	26064.85
218.931	26097.86
219.004	26124.41
219.077	26162.13
219.151	26209.39
219.224	26238.55
219.298	26254.33
219.371	26291.03
219.444	26311.06
219.518	26340.9
219.591	26366.68
219.665	26424.48
219.738	26457.55
219.811	26476.33
219.885	26506.66
219.958	26532.34
220.031	26549.29
220.105	26589.47
220.178	26613.95
220.251	26632.16
220.325	26659.01
220.398	26685.47
220.471	26726.75
220.544	26759.64
220.618	26754.04
220.691	26771.37
220.764	26794.12
220.838	26826.33
220.911	26845.84
220.984	26883.12
221.057	26903.21
221.131	26926.53
221.204	26910.4
221.277	26931.75
221.35	26975.26
221.424	26988.3
221.497	27004.24
221.57	27011.97
221.643	27019.5
221.716	27033.17
221.79	27036.22
221.863	27045.25
221.936	27037.71
222.009	27031.58
222.082	27039.36
222.155	27041.58
222.229	27065
222.302	27067.71
222.375	27061.28
222.448	27064.09
222.521	27057.32
222.594	27055.78
222.667	27045.44
222.74	27052.88
222.814	27040.9
222.887	27024.29
222.96	27036.8
223.033	27036.6
223.106	27038.2
223.179	27029.02
223.252	27024.38
223.325	27022.55
223.398	27010.33
223.471	27004.15
223.544	27002.6
223.617	26994.87
223.69	26990.43
223.763	26966.33
223.837	26961.02
223.91	26961.88
223.983	26933.87
224.056	26908.13
224.129	26907.41
224.202	26916.83
224.275	26890.75
224.348	26874.14
224.42	26851.2
224.493	26803.2
224.566	26778.81
224.639	26762.68
224.712	26743.12
224.785	26723.56
224.858	26698.02
224.931	26678.7
225.004	26661.56
225.077	26646.06
225.15	26604.82
225.223	26582.8
225.296	26577.3
225.369	26525.78
225.442	26488.26
225.514	26464.55
225.587	26442.68
225.66	26411.2
225.733	26381.21
225.806	26369.63
225.879	26339.74
225.952	26304.88
226.025	26309.37
226.097	26296.72
226.17	26268.53
226.243	26223
226.316	26197.12
226.389	26176.46
226.461	26155.94
226.534	26133.25
226.607	26093.33
226.68	26089.71
226.753	26066.54
226.825	26022.26
226.898	26017.53
226.971	25982.05
227.044	25953.67
227.117	25936.05
227.189	25913.8
227.262	25897.39
227.335	25865.33
227.407	25835.89
227.48	25815.14
227.553	25782.22
227.626	25746.93
227.698	25723.33
227.771	25700.55
227.844	25658.94
227.916	25627.57
227.989	25575.06
228.062	25538.28
228.134	25543.3
228.207	25501.17
228.28	25460.24
228.352	25426.27
228.425	25402.72
228.498	25384.04
228.57	25361.84
228.643	25344.57
228.716	25305.38
228.788	25264.26
228.861	25235.11
228.934	25222.28
229.006	25190.72
229.079	25155.78
229.151	25115.68
229.224	25067.05
229.296	25035.1
229.369	25031.68
229.442	25011.65
229.514	24981.93
229.587	24957.18
229.659	24901.59
229.732	24880.94
229.804	24858.75
229.877	24856.43
229.949	24834.53
230.022	24827.87
230.094	24784.88
230.167	24745.08
230.239	24702
230.312	24669.82
230.384	24654.04
230.457	24623.65
230.529	24592.63
230.602	24560.07
230.674	24527.26
230.747	24517.52
230.819	24505.8
230.892	24442.94
230.964	24407.43
231.037	24375.55
231.109	24337.59
231.181	24307.92
231.254	24262.34
231.326	24220.52
231.399	24167.65
231.471	24114.25
231.544	24055.35
231.616	24042.57
231.688	24014.88
231.761	23981.08
231.833	23945.87
231.905	23883.12
231.978	23843.86
232.05	23812.22
232.122	23779.86
232.195	23740.84
232.267	23701.97
232.339	23657.74
232.412	23642.11
232.484	23599.63
232.556	23564.43
232.629	23555.17
232.701	23514.27
232.773	23475.55
232.846	23442.86
232.918	23401.96
232.99	23372.84
233.062	23347.28
233.135	23301.32
233.207	23242.59
233.279	23215.06
233.351	23171.95
233.424	23134.24
233.496	23080.53
233.568	23056.42
233.64	22997.55
233.713	22960.91
233.785	22927.25
233.857	22884.44
233.929	22819.44
234.001	22801.6
234.074	22778.6
234.146	22718.05
234.218	22679.86
234.29	22649.39
234.362	22608.12
234.434	22555.72
234.507	22502.3
234.579	22443.53
234.651	22407.76
234.723	22385.01
234.795	22348.85
234.867	22313.71
234.939	22293.56
235.012	22261.21
235.084	22230.21
235.156	22204.42
235.228	22156.02
235.3	22105.12
235.372	22065.11
235.444	22038.4
235.516	21970.24
235.588	21927.77
235.66	21883.04
235.732	21839.46
235.804	21845.58
235.876	21820.86
235.948	21800.13
236.02	21760.41
236.092	21720.99
236.164	21664.35
236.236	21611.57
236.308	21561.3
236.38	21513.87
236.452	21456.8
236.524	21407.54
236.596	21372.26
236.668	21347.1
236.74	21312.4
236.812	21279.38
236.884	21249.02
236.956	21216.58
237.028	21162.94
237.1	21106.31
237.172	21088.09
237.244	21063.84
237.316	20983.16
237.388	20926
237.46	20875.63
237.532	20841.41
237.604	20787.82
237.675	20760.5
237.747	20728.83
237.819	20673.22
237.891	20635.68
237.963	20581.84
238.035	20541.8
238.107	20458.61
238.178	20424.78
238.25	20374.47
238.322	20355.43
238.394	20287.29
238.466	20235
238.538	20207.72
238.609	20182.47
238.681	20114.52
238.753	20054.86
238.825	20011.87
238.897	19964.74
238.968	19935.29
239.04	19892.88
239.112	19875.78
239.184	19827.68
239.255	19780.26
239.327	19753.56
239.399	19714.34
239.471	19692.41
239.542	19658.58
239.614	19632.03
239.686	19555.55
239.758	19526.73
239.829	19457.82
239.901	19428.04
239.973	19385.25
240.044	19348.67
240.116	19299.03
240.188	19255.08
240.259	19222.99
240.331	19170.56
240.403	19141.93
240.474	19083.34
240.546	19030.57
240.618	18972.11
240.689	18925.51
240.761	18882.87
240.833	18851.35
240.904	18803.16
240.976	18755.89
241.048	18707.84
241.119	18673.48
241.191	18640.13
241.262	18612.47
241.334	18575.22
241.405	18536.67
241.477	18488.05
241.549	18438.99
241.62	18400.87
241.692	18367.19
241.763	18330.8
241.835	18303.19
241.906	18268.78
241.978	18216.49
242.049	18187.82
242.121	18162.76
242.192	18135.39
242.264	18079.97
242.335	18022.91
242.407	17988.79
242.478	17938.82
242.55	17908.46
242.621	17853.37
242.693	17809.76
242.764	17764.56
242.836	17722.29
242.907	17687.16
242.979	17658.87
243.05	17628.03
243.122	17597.67
243.193	17560.66
243.264	17500.61
243.336	17445.77
243.407	17409.72
243.479	17387.6
243.55	17354.88
243.622	17315.65
243.693	17279.41
243.764	17262.2
243.836	17222.05
243.907	17185.33
243.978	17152.08
244.05	17117.47
244.121	17067.69
244.192	17040.17
244.264	16987.59
244.335	16948.79
244.407	16891.49
244.478	16855.25
244.549	16808.59
244.62	16748.83
244.692	16707.53
244.763	16676.1
244.834	16630.22
244.906	16574.89
244.977	16543.27
245.048	16521.64
245.119	16477.44
245.191	16420.76
245.262	16360.22
245.333	16329.91
245.405	16291.83
245.476	16262.09
245.547	16219.39
245.618	16197.9
245.689	16162.18
245.761	16123.48
245.832	16085.21
245.903	16065.16
245.974	16030.17
246.045	15996.81
246.117	15985
246.188	15934.49
246.259	15891.64
246.33	15856.79
246.401	15819.92
246.473	15770.71
246.544	15720.15
246.615	15692.62
246.686	15660.38
246.757	15643.51
246.828	15604.75
246.899	15582.15
246.97	15522.96
247.042	15479.82
247.113	15457.35
247.184	15442.99
247.255	15408
247.326	15376.28
247.397	15345.29
247.468	15310.68
247.539	15283.3
247.61	15233.55
247.681	15211.04
247.752	15190.56
247.823	15157.59
247.894	15127.7
247.965	15078.92
248.037	15040.55
248.108	14985.21
248.179	14949.16
248.25	14909.77
248.321	14880.66
248.392	14837.28
248.463	14832.17
248.534	14800.25
248.605	14764.25
248.675	14719.56
248.746	14697.29
248.817	14673.29
248.888	14637.81
248.959	14589.03
249.03	14559.57
249.101	14528.82
249.172	14500.62
249.243	14451.3
249.314	14439.69
249.385	14414.86
249.456	14399.77
249.527	14367.19
249.598	14352.19
249.669	14326.07
249.739	14304.57
249.81	14289.62
249.881	14241.95
249.952	14215.43
250.023	14195.04
250.094	14157.49
250.165	14124.28
250.235	14093.28
250.306	14060.65
250.377	14028.25
250.448	14013.93
250.519	13964.47
250.59	13946.73
250.66	13912.6
250.731	13899.59
250.802	13865.94
250.873	13839.86
250.944	13809.78
251.014	13778.93
251.085	13770.88
251.156	13742.97
251.227	13724.89
251.297	13701.12
251.368	13688.64
251.439	13669.26
251.51	13653.78
251.58	13615.41
251.651	13590.15
251.722	13571.01
251.792	13532.74
251.863	13505.55
251.934	13494.41
252.005	13487.57
252.075	13464.09
252.146	13452.42
252.217	13438.25
252.287	13421.19
252.358	13395.64
252.429	13393.81
252.499	13364.11
252.57	13346.8
252.641	13331.67
252.711	13308.62
252.782	13264.71
252.852	13263.26
252.923	13239.98
252.994	13213.18
253.064	13207.73
253.135	13166.99
253.205	13141.97
253.276	13137.78
253.347	13118.74
253.417	13083.26
253.488	13059.98
253.558	13029.41
253.629	12999.67
253.699	12981.83
253.77	12968.24
253.841	12939.41
253.911	12917.33
253.982	12902.54
254.052	12879.35
254.123	12861.61
254.193	12833.17
254.264	12849.17
254.334	12807.47
254.405	12769.87
254.475	12732.03
254.546	12699.93
254.616	12695.01
254.687	12669.03
254.757	12647.29
254.827	12624.53
254.898	12600.34
254.968	12583.99
255.039	12553.77
255.109	12542.25
255.18	12507.35
255.25	12459.15
255.321	12452.01
255.391	12413.4
255.461	12410.12
255.532	12356.18
255.602	12335.02
255.673	12298.72
255.743	12267.92
255.813	12221.84
255.884	12209.02
255.954	12197.88
256.024	12198.03
256.095	12175.66
256.165	12150.11
256.235	12136.38
256.306	12116.76
256.376	12107.41
256.446	12096.37
256.517	12085.18
256.587	12070.68
256.657	12047.88
256.728	12028.36
256.798	12003.92
256.868	11986.32
256.938	11951.67
257.009	11950.46
257.079	11932.39
257.149	11934.56
257.219	11897.39
257.29	11895.9
257.36	11865.24
257.43	11857.1
257.5	11817.48
257.571	11792.94
257.641	11778.68
257.711	11744.45
257.781	11730.28
257.852	11717.65
257.922	11672.49
257.992	11649.21
258.062	11635.86
258.132	11634.32
258.202	11616.97
258.273	11594.65
258.343	11593.79
258.413	11573.5
258.483	11549.3
258.553	11519.03
258.623	11495.27
258.693	11478.31
258.764	11467.65
258.834	11459.94
258.904	11440.9
258.974	11415.7
259.044	11403.8
259.114	11393.29
259.184	11379.55
259.254	11363.02
259.324	11321.24
259.394	11311.55
259.464	11323.36
259.535	11295.21
259.605	11267.02
259.675	11239.21
259.745	11228.8
259.815	11191.31
259.885	11163.45
259.955	11177.82
260.025	11156.32
260.095	11134.78
260.165	11120.95
260.235	11117.67
260.305	11088.66
260.375	11061.29
260.445	11067.6
260.515	11064.47
260.585	11054.01
260.655	11034.74
260.725	11023.75
260.795	11017.53
260.865	11018.25
260.934	10981.05
261.004	10972.91
261.074	10962.79
261.144	10961.63
261.214	10954.59
261.284	10941.15
261.354	10937.54
261.424	10900.04
261.494	10906.3
261.564	10888.96
261.634	10882.93
261.703	10847.13
261.773	10843.08
261.843	10833.3
