Data from 20250704_urea_0.5M_MAYP1162681_11-05-15-767.txt Node
Date: Fri Jul 04 11:05:15 BST 2025
User: adleo
Spectrometer: MAYP116268
Trigger mode: 0
Integration Time (sec): 1.000000E0
Scans to average: 1
Electric dark correction enabled: true
Nonlinearity correction enabled: true
Boxcar width: 10
XAxis mode: Wavelengths
Number of Pixels in Spectrum: 2068
>>>>>Begin Spectral Data<<<<<
179.565	1234.03
179.642	1289.07
179.718	1334.56
179.795	1372.63
179.871	1405.63
179.948	1424.21
180.024	1447.94
180.101	1475.35
180.177	1488.43
180.254	1512.58
180.33	1533.86
180.407	1591.59
180.483	1688.42
180.56	1779.78
180.636	1863.39
180.712	1850.5
180.789	1863.19
180.865	1877.69
180.942	1887.53
181.018	1898.51
181.095	1912.25
181.171	1920.62
181.248	1925.23
181.324	1941.12
181.4	1949.39
181.477	1961.9
181.553	1976.39
181.63	1995.42
181.706	2009.35
181.782	2018
181.859	2016.81
181.935	2026.66
182.011	2021.67
182.088	2040.07
182.164	2060.62
182.24	2075.74
182.317	2085.54
182.393	2082.78
182.469	2097.67
182.546	2108.08
182.622	2110.08
182.698	2102.42
182.775	2113.69
182.851	2125.49
182.927	2117.74
183.003	2111.79
183.08	2105.37
183.156	2113.46
183.232	2112.08
183.308	2098.62
183.385	2108.27
183.461	2127.92
183.537	2124.35
183.613	2134.34
183.69	2124.21
183.766	2114.83
183.842	2123.3
183.918	2127.87
183.995	2142.33
184.071	2144.9
184.147	2139.61
184.223	2131.67
184.299	2143.24
184.375	2133.29
184.452	2142.77
184.528	2192.58
184.604	2204
184.68	2216.27
184.756	2223.79
184.832	2227.07
184.908	2231.06
184.985	2232.06
185.061	2215.65
185.137	2226.59
185.213	2215.99
185.289	2216.89
185.365	2208.33
185.441	2204.57
185.517	2215.85
185.593	2215.56
185.669	2210.28
185.745	2222.75
185.822	2238.3
185.898	2232.11
185.974	2240.25
186.05	2228.78
186.126	2193.28
186.202	2188.71
186.278	2184.48
186.354	2175.77
186.43	2180.48
186.506	2179.77
186.582	2178.96
186.658	2187.24
186.734	2168.59
186.81	2174.49
186.886	2180.29
186.962	2193.99
187.038	2191.95
187.114	2185.71
187.19	2189.66
187.266	2182.1
187.341	2181.72
187.417	2173.06
187.493	2172.77
187.569	2176.34
187.645	2171.97
187.721	2162.16
187.797	2168.49
187.873	2176.63
187.949	2172.54
188.025	2168.21
188.101	2174.68
188.176	2178.34
188.252	2169.97
188.328	2177
188.404	2175.96
188.48	2170.68
188.556	2161.73
188.632	2163.45
188.707	2163.35
188.783	2162.21
188.859	2156.5
188.935	2146.51
189.011	2156.31
189.086	2149.22
189.162	2138.66
189.238	2133.38
189.314	2129.2
189.39	2121.87
189.465	2111.64
189.541	2126.34
189.617	2111.07
189.693	2103.7
189.768	2104.32
189.844	2129.73
189.92	2121.79
189.996	2129.02
190.071	2139.68
190.147	2139.01
190.223	2147.25
190.298	2140.39
190.374	2126.22
190.45	2139.91
190.526	2149.81
190.601	2140.68
190.677	2141.2
190.753	2170.57
190.828	2177.23
190.904	2194.93
190.98	2214.3
191.055	2226.57
191.131	2218.63
191.207	2238.8
191.282	2247.93
191.358	2242.46
191.433	2225.7
191.509	2240.3
191.585	2237.78
191.66	2239.54
191.736	2249.73
191.811	2239.83
191.887	2260.3
191.963	2282.66
192.038	2287.56
192.114	2287.04
192.189	2294.7
192.265	2294.41
192.34	2270.18
192.416	2269.18
192.491	2262.99
192.567	2264.42
192.642	2262.85
192.718	2261.19
192.793	2248.58
192.869	2247.48
192.944	2248.91
193.02	2260.09
193.095	2263.14
193.171	2269.85
193.246	2266.52
193.322	2263.09
193.397	2264.09
193.473	2246.71
193.548	2230.01
193.624	2235.44
193.699	2232.2
193.775	2246.38
193.85	2248.29
193.925	2258.71
194.001	2258.23
194.076	2251.95
194.152	2242.1
194.227	2235.34
194.302	2227.49
194.378	2230.25
194.453	2228.3
194.529	2241.05
194.604	2225.73
194.679	2218.78
194.755	2201.04
194.83	2213.23
194.905	2209.85
194.981	2218.89
195.056	2210.28
195.131	2215.8
195.207	2216.51
195.282	2209.04
195.357	2191.43
195.433	2203.23
195.508	2190.34
195.583	2197.43
195.659	2210.09
195.734	2217.37
195.809	2218.51
195.884	2228.36
195.96	2232.26
196.035	2245.3
196.11	2240.92
196.185	2251.77
196.261	2255.91
196.336	2286.31
196.411	2273.65
196.486	2280.65
196.561	2278.79
196.637	2289.78
196.712	2306.73
196.787	2305.44
196.862	2321.76
196.937	2329.14
197.013	2338.33
197.088	2350.46
197.163	2373.7
197.238	2392.37
197.313	2392.23
197.388	2405.89
197.464	2435.79
197.539	2442.27
197.614	2436.18
197.689	2450.79
197.764	2466.17
197.839	2489.07
197.914	2480.84
197.989	2503.22
198.065	2516.55
198.14	2564.58
198.215	2591.06
198.29	2599.63
198.365	2614.3
198.44	2620.83
198.515	2652.88
198.59	2668.75
198.665	2695.09
198.74	2700.76
198.815	2702.57
198.89	2725.06
198.965	2756.89
199.04	2751.27
199.115	2771.61
199.19	2814.11
199.265	2816.49
199.34	2828.83
199.415	2860.54
199.49	2884.22
199.565	2893.37
199.64	2915.77
199.715	2911.38
199.79	2919.29
199.865	2931.68
199.94	2929.16
200.015	2962.96
200.09	2967.1
200.165	2973.68
200.24	2981.26
200.315	3024.21
200.39	3039.75
200.464	3046.14
200.539	3046.47
200.614	3065.49
200.689	3091.2
200.764	3096.21
200.839	3112.22
200.914	3116.23
200.989	3107.73
201.063	3121.28
201.138	3103.93
201.213	3106.6
201.288	3087.77
201.363	3090.92
201.438	3089.77
201.512	3108.84
201.587	3092.53
201.662	3098.73
201.737	3109.36
201.812	3117.23
201.886	3081.15
201.961	3092.79
202.036	3079.54
202.111	3076.16
202.186	3043.9
202.26	3023.72
202.335	3003.6
202.41	2997.21
202.485	2981.1
202.559	2961.31
202.634	2937.34
202.709	2948.96
202.784	2927.18
202.858	2927.51
202.933	2905.59
203.008	2898.63
203.082	2878.09
203.157	2879.28
203.232	2835.82
203.306	2813.27
203.381	2779.05
203.456	2759.37
203.53	2735.47
203.605	2717.14
203.68	2694.21
203.754	2690.78
203.829	2675.1
203.904	2652.29
203.978	2643.95
204.053	2649.14
204.127	2635.47
204.202	2632.85
204.277	2615.56
204.351	2608.56
204.426	2602.32
204.5	2599.03
204.575	2562.27
204.65	2571.8
204.724	2562.08
204.799	2569.36
204.873	2567.41
204.948	2569.31
205.022	2555.17
205.097	2544.97
205.171	2556.5
205.246	2565.65
205.32	2560.74
205.395	2561.03
205.469	2555.6
205.544	2557.8
205.618	2540.89
205.693	2551.6
205.767	2539.03
205.842	2560.76
205.916	2556.85
205.991	2545.42
206.065	2548.04
206.14	2562.98
206.214	2561.31
206.289	2556.26
206.363	2570.98
206.438	2573.84
206.512	2580.46
206.586	2603.18
206.661	2612.85
206.735	2593.67
206.81	2594.81
206.884	2614.95
206.958	2605.38
207.033	2624.76
207.107	2639.2
207.181	2673.51
207.256	2671.27
207.33	2691.7
207.405	2710.44
207.479	2737.32
207.553	2751.84
207.628	2747.13
207.702	2769.37
207.776	2771.38
207.851	2785.29
207.925	2812.09
207.999	2821.67
208.073	2837.4
208.148	2855.51
208.222	2860.28
208.296	2911.74
208.371	2948.9
208.445	2983.19
208.519	3037.59
208.593	3076.74
208.668	3100.6
208.742	3134.97
208.816	3170.01
208.89	3223.46
208.965	3255.5
209.039	3303.96
209.113	3369.78
209.187	3435.65
209.261	3479.6
209.336	3555.23
209.41	3629.79
209.484	3686.07
209.558	3768.53
209.632	3841.28
209.707	3919.94
209.781	4016.87
209.855	4110.83
209.929	4207.98
210.003	4293.92
210.077	4377.68
210.151	4516.06
210.226	4643.12
210.3	4768.29
210.374	4895.13
210.448	5003.03
210.522	5125.97
210.596	5250.41
210.67	5369.06
210.744	5535.11
210.818	5700.14
210.892	5847.07
210.966	5975.65
211.041	6125.23
211.115	6260.97
211.189	6424.23
211.263	6585.62
211.337	6737.74
211.411	6897.64
211.485	7043.62
211.559	7210.31
211.633	7372.25
211.707	7502.27
211.781	7673.43
211.855	7804.95
211.929	7964.72
212.003	8119.02
212.077	8302.57
212.151	8489.22
212.225	8675.48
212.299	8848.64
212.373	9015.82
212.447	9198.06
212.52	9409.66
212.594	9598.57
212.668	9802.16
212.742	9977.28
212.816	10154.48
212.89	10342.34
212.964	10532.3
213.038	10729.51
213.112	10941.32
213.186	11153.27
213.26	11330.21
213.333	11478.98
213.407	11679.4
213.481	11879.44
213.555	12081.85
213.629	12261.1
213.703	12438.82
213.777	12636.1
213.85	12807.42
213.924	13027.85
213.998	13213.62
214.072	13399.55
214.146	13576.51
214.219	13774.29
214.293	13967.68
214.367	14169.42
214.441	14359
214.515	14530.13
214.588	14684.19
214.662	14832.03
214.736	14989.99
214.81	15170.17
214.883	15359.03
214.957	15520.51
215.031	15669.65
215.105	15824.08
215.178	15984.44
215.252	16136.95
215.326	16274.46
215.4	16418.96
215.473	16529.95
215.547	16677.72
215.621	16811.17
215.694	16961.54
215.768	17075.28
215.842	17205.93
215.915	17318.85
215.989	17443.14
216.063	17579
216.136	17722.47
216.21	17850.37
216.284	17992.15
216.357	18125.78
216.431	18244.38
216.504	18377.29
216.578	18530.73
216.652	18661.53
216.725	18773.33
216.799	18902.29
216.873	19015.68
216.946	19137.74
217.02	19253.26
217.093	19354.6
217.167	19444.43
217.24	19535.94
217.314	19642.63
217.387	19736.94
217.461	19844.46
217.535	19943.44
217.608	20033.37
217.682	20121.37
217.755	20224.11
217.829	20298.95
217.902	20386.86
217.976	20475.92
218.049	20556.69
218.123	20618.81
218.196	20701.99
218.27	20782.58
218.343	20844.31
218.417	20930.2
218.49	20997.19
218.563	21077.87
218.637	21160.1
218.71	21252.83
218.784	21340.41
218.857	21415.5
218.931	21493.92
219.004	21567.43
219.077	21639.53
219.151	21697.52
219.224	21762.16
219.298	21826.31
219.371	21901.41
219.444	21946.63
219.518	22002.98
219.591	22057.64
219.665	22155.94
219.738	22220.34
219.811	22268.54
219.885	22338.06
219.958	22402.61
220.031	22453.18
220.105	22500.91
220.178	22537.45
220.251	22575.34
220.325	22624.42
220.398	22665.84
220.471	22709.56
220.544	22750.26
220.618	22772.05
220.691	22814.23
220.764	22850.1
220.838	22878.84
220.911	22898.7
220.984	22952.7
221.057	22989.63
221.131	23031.44
221.204	23017.31
221.277	23065.77
221.35	23124.4
221.424	23132.84
221.497	23138.39
221.57	23153.14
221.643	23182.51
221.716	23215.68
221.79	23224.99
221.863	23239.89
221.936	23259.76
222.009	23266.84
222.082	23278.13
222.155	23303.39
222.229	23332.52
222.302	23351.13
222.375	23357.4
222.448	23376.4
222.521	23386.53
222.594	23392.75
222.667	23371.34
222.74	23396.08
222.814	23387.11
222.887	23382.86
222.96	23406.78
223.033	23428.77
223.106	23453.26
223.179	23464.02
223.252	23458.04
223.325	23467.3
223.398	23462.76
223.471	23459.1
223.544	23464.5
223.617	23466.81
223.69	23470.58
223.763	23446.85
223.837	23444.73
223.91	23466.38
223.983	23453.12
224.056	23431.23
224.129	23429.83
224.202	23454.95
224.275	23437.83
224.348	23405.43
224.42	23375.77
224.493	23345.59
224.566	23328.51
224.639	23313.81
224.712	23294.37
224.785	23276.92
224.858	23258.5
224.931	23248.08
225.004	23221.08
225.077	23206.28
225.15	23170.16
225.223	23150.05
225.296	23170.11
225.369	23137.42
225.442	23111.29
225.514	23109.55
225.587	23097.59
225.66	23090.55
225.733	23070.59
225.806	23060.41
225.879	23063.07
225.952	23040.41
226.025	23033.27
226.097	23028.64
226.17	23010.46
226.243	22973.24
226.316	22946.29
226.389	22939.83
226.461	22917.89
226.534	22908.15
226.607	22890.17
226.68	22904.68
226.753	22882.02
226.825	22831.39
226.898	22827.44
226.971	22798.17
227.044	22775.32
227.117	22761.77
227.189	22747.55
227.262	22729.03
227.335	22709.6
227.407	22667.18
227.48	22654.02
227.553	22637.48
227.626	22604.93
227.698	22583.96
227.771	22571.81
227.844	22549.78
227.916	22521.72
227.989	22485.09
228.062	22455.92
228.134	22449.65
228.207	22408
228.28	22382.11
228.352	22363.89
228.425	22339.25
228.498	22324.94
228.57	22285.12
228.643	22268.77
228.716	22225.39
228.788	22195.83
228.861	22169.56
228.934	22165.95
229.006	22136.59
229.079	22109.11
229.151	22075.46
229.224	22034.92
229.296	22009.38
229.369	22015.21
229.442	22002.34
229.514	21977.76
229.587	21966.81
229.659	21913.69
229.732	21892.05
229.804	21880.43
229.877	21880.14
229.949	21869.01
230.022	21864.81
230.094	21835.27
230.167	21811.65
230.239	21784.32
230.312	21757.76
230.384	21751.11
230.457	21733.32
230.529	21712.35
230.602	21683.19
230.674	21669.79
230.747	21660.39
230.819	21649.26
230.892	21586.89
230.964	21553.15
231.037	21529.91
231.109	21497.28
231.181	21488.46
231.254	21444.84
231.326	21405.85
231.399	21368.5
231.471	21324.35
231.544	21255.9
231.616	21243.23
231.688	21213.68
231.761	21176.81
231.833	21140.23
231.905	21078.58
231.978	21033.52
232.05	20998.87
232.122	20979.16
232.195	20938.24
232.267	20910.91
232.339	20873.32
232.412	20863.58
232.484	20831.29
232.556	20796.69
232.629	20793.36
232.701	20773.17
232.773	20756.01
232.846	20726.56
232.918	20693.93
232.99	20672.73
233.062	20669.93
233.135	20640.25
233.207	20596.63
233.279	20579.57
233.351	20556.58
233.424	20532.53
233.496	20496.87
233.568	20486.75
233.64	20430.9
233.713	20393.6
233.785	20366.61
233.857	20335.23
233.929	20277.26
234.001	20260.25
234.074	20243.72
234.146	20191.28
234.218	20156.73
234.29	20121.98
234.362	20085.31
234.434	20037.7
234.507	19981.84
234.579	19924.93
234.651	19881.46
234.723	19863.39
234.795	19830.91
234.867	19796.94
234.939	19779.2
235.012	19758
235.084	19725.9
235.156	19712.65
235.228	19676.99
235.3	19636.03
235.372	19607.79
235.444	19594.78
235.516	19542.87
235.588	19514.39
235.66	19469.19
235.732	19426.16
235.804	19453.87
235.876	19428.76
235.948	19408.14
236.02	19379.75
236.092	19346.74
236.164	19323.32
236.236	19276.67
236.308	19244.15
236.38	19221.45
236.452	19169.26
236.524	19130.61
236.596	19105.02
236.668	19080.93
236.74	19046.13
236.812	19020.16
236.884	18987.68
236.956	18962.48
237.028	18923.59
237.1	18876.41
237.172	18864.84
237.244	18852.22
237.316	18775.16
237.388	18730.35
237.46	18686.01
237.532	18669.24
237.604	18626.25
237.675	18608.23
237.747	18582.31
237.819	18528.91
237.891	18490.79
237.963	18447.71
238.035	18405.59
238.107	18339.86
238.178	18308.68
238.25	18277.74
238.322	18260.97
238.394	18205.17
238.466	18163.29
238.538	18136.21
238.609	18109.08
238.681	18053.99
238.753	17992.89
238.825	17956.79
238.897	17929.47
238.968	17922
239.04	17876.7
239.112	17871.49
239.184	17823.21
239.255	17777.23
239.327	17754.44
239.399	17717.57
239.471	17695.35
239.542	17670.97
239.614	17653.81
239.686	17593.96
239.758	17565.14
239.829	17519.21
239.901	17500.22
239.973	17462.59
240.044	17434.06
240.116	17395.5
240.188	17357.86
240.259	17329.81
240.331	17288.66
240.403	17270.15
240.474	17206.01
240.546	17164.41
240.618	17110.92
240.689	17070.15
240.761	17045.18
240.833	17028.41
240.904	16987.25
240.976	16954.87
241.048	16928.12
241.119	16904.45
241.191	16878.67
241.262	16856.21
241.334	16812.98
241.405	16781.12
241.477	16742.47
241.549	16697.5
241.62	16668.73
241.692	16650.42
241.763	16630.03
241.835	16598.9
241.906	16554.03
241.978	16508.62
242.049	16487.75
242.121	16474.89
242.192	16459.37
242.264	16407.89
242.335	16352.42
242.407	16324.41
242.478	16281.28
242.55	16243.92
242.621	16195.1
242.693	16163.1
242.764	16137.36
242.836	16101.93
242.907	16069.83
242.979	16048.91
243.05	16026.84
243.122	15998.45
243.193	15962.16
243.264	15908.56
243.336	15874.39
243.407	15853.56
243.479	15849.13
243.55	15823.2
243.622	15790.47
243.693	15752.83
243.764	15743.62
243.836	15706.65
243.907	15672.77
243.978	15647.89
244.05	15623.02
244.121	15577.09
244.192	15553.37
244.264	15500.4
244.335	15471.48
244.407	15417.68
244.478	15376.71
244.549	15335.98
244.62	15293.32
244.692	15256.83
244.763	15238.81
244.834	15204.63
244.906	15158.36
244.977	15134.4
245.048	15119.03
245.119	15077.23
245.191	15040.21
245.262	14981.5
245.333	14970.7
245.405	14944
245.476	14926.07
245.547	14901.97
245.618	14892.04
245.689	14858.05
245.761	14834.53
245.832	14807.29
245.903	14800.26
245.974	14788.06
246.045	14761.69
246.117	14755.67
246.188	14725.25
246.259	14681.29
246.33	14651.69
246.401	14622.77
246.473	14572.97
246.544	14532.87
246.615	14511.7
246.686	14476.51
246.757	14466.44
246.828	14426.38
246.899	14411.05
246.97	14363.76
247.042	14321.44
247.113	14292.08
247.184	14289.24
247.255	14256.12
247.326	14232.79
247.397	14195.19
247.468	14162.55
247.539	14137.05
247.61	14088.07
247.681	14065.76
247.752	14049.85
247.823	14009.69
247.894	13993.35
247.965	13958.5
248.037	13925.14
248.108	13881.22
248.179	13854.61
248.25	13825.59
248.321	13805.92
248.392	13768.37
248.463	13764.13
248.534	13733.71
248.605	13718.14
248.675	13684.59
248.746	13662.08
248.817	13634.12
248.888	13620.86
248.959	13576.46
249.03	13561.32
249.101	13539.34
249.172	13507.43
249.243	13463.99
249.314	13453.82
249.385	13424.9
249.456	13402.19
249.527	13376.89
249.598	13362.47
249.669	13341.21
249.739	13326.41
249.81	13305.25
249.881	13271.31
249.952	13250.49
250.023	13229.57
250.094	13185.75
250.165	13147.18
250.235	13131.13
250.306	13106.49
250.377	13067.5
250.448	13053.03
250.519	13004.97
250.59	13000.83
250.66	12971.95
250.731	12962.89
250.802	12943.27
250.873	12920.76
250.944	12906.01
251.014	12880.79
251.085	12887.49
251.156	12862.43
251.227	12857.41
251.297	12851.34
251.368	12833.84
251.439	12824.68
251.51	12809.59
251.58	12782.94
251.651	12758.98
251.722	12741.14
251.792	12704.12
251.863	12675.01
251.934	12666.91
252.005	12676.36
252.075	12649.89
252.146	12641.79
252.217	12636.88
252.287	12619.52
252.358	12598.75
252.429	12596.09
252.499	12562.5
252.57	12538.15
252.641	12527.45
252.711	12492.79
252.782	12448.49
252.852	12452.59
252.923	12426.94
252.994	12415.23
253.064	12402.36
253.135	12372.91
253.205	12344.08
253.276	12346.4
253.347	12357.43
253.417	12330.25
253.488	12307.06
253.558	12275.78
253.629	12255.97
253.699	12237.99
253.77	12233.31
253.841	12212.83
253.911	12194.03
253.982	12186.65
254.052	12172.33
254.123	12156.81
254.193	12141.29
254.264	12165.54
254.334	12135.56
254.405	12098.39
254.475	12064.65
254.546	12047.49
254.616	12044.84
254.687	12039.2
254.757	12023.39
254.827	11991.05
254.898	11978.8
254.968	11954.99
255.039	11932.73
255.109	11920.82
255.18	11889.15
255.25	11845.68
255.321	11831.84
255.391	11798.68
255.461	11800.99
255.532	11756.84
255.602	11734.86
255.673	11694.76
255.743	11660.25
255.813	11616.92
255.884	11607.72
255.954	11601.88
256.024	11605.21
256.095	11581.64
256.165	11549.97
256.235	11535.66
256.306	11509.39
256.376	11500.28
256.446	11490.93
256.517	11480.91
256.587	11471.75
256.657	11460.96
256.728	11448.76
256.798	11430.21
256.868	11413.53
256.938	11388.56
257.009	11379.41
257.079	11373.14
257.149	11386.59
257.219	11347.74
257.29	11334.54
257.36	11300.61
257.43	11292.61
257.5	11251.6
257.571	11241.53
257.641	11228.22
257.711	11203.6
257.781	11201.81
257.852	11187.36
257.922	11149.72
257.992	11130.73
258.062	11113.28
258.132	11109.38
258.202	11088.08
258.273	11075.07
258.343	11074.3
258.413	11049.48
258.483	11034.35
258.553	11004.76
258.623	10980.81
258.693	10971.84
258.764	10973.72
258.834	10969.92
258.904	10947.6
258.974	10926.4
259.044	10898.74
259.114	10879.76
259.184	10856.14
259.254	10837.4
259.324	10799.81
259.394	10789.6
259.464	10792.44
259.535	10774.32
259.605	10741.94
259.675	10718.23
259.745	10702
259.815	10671.11
259.885	10637.77
259.955	10650.2
260.025	10625.87
260.095	10611.99
260.165	10602.02
260.235	10606.88
260.305	10582.84
260.375	10555.95
260.445	10556.34
260.515	10561.69
260.585	10565.49
260.655	10560.48
260.725	10550.03
260.795	10543.57
260.865	10551.47
260.934	10526.56
261.004	10521.12
261.074	10518.9
261.144	10516.15
261.214	10516.06
261.284	10502.86
261.354	10504.35
261.424	10475.68
261.494	10480.4
261.564	10461.13
261.634	10454.62
261.703	10411.84
261.773	10405.29
261.843	10404.03
261.913	10393.05
261.983	10360.1
262.053	10348.68
