Data from 20250704_urea_0.1M_MAYP1162681_11-18-36-695.txt Node
Date: Fri Jul 04 11:18:36 BST 2025
User: adleo
Spectrometer: MAYP116268
Trigger mode: 0
Integration Time (sec): 1.000000E0
Scans to average: 1
Electric dark correction enabled: true
Nonlinearity correction enabled: true
Boxcar width: 10
XAxis mode: Wavelengths
Number of Pixels in Spectrum: 2068
>>>>>Begin Spectral Data<<<<<
179.565	1247.07
179.642	1304.95
179.718	1348.85
179.795	1388.48
179.871	1423.09
179.948	1441.34
180.024	1464.54
180.101	1486.99
180.177	1500.15
180.254	1523.07
180.33	1546.95
180.407	1603.78
180.483	1702.51
180.56	1796.92
180.636	1884.23
180.712	1870.3
180.789	1882.56
180.865	1896.49
180.942	1904.33
181.018	1912.41
181.095	1927.63
181.171	1935.19
181.248	1936.43
181.324	1952.88
181.4	1959.11
181.477	1970.14
181.553	1985.12
181.63	2005
181.706	2021.26
181.782	2030.72
181.859	2030.39
181.935	2036.28
182.011	2033.53
182.088	2047.79
182.164	2067.92
182.24	2082.66
182.317	2090.17
182.393	2087.75
182.469	2101.97
182.546	2112.05
182.622	2119.57
182.698	2111.48
182.775	2123.66
182.851	2139.98
182.927	2129.18
183.003	2126.42
183.08	2118.62
183.156	2123.95
183.232	2118.48
183.308	2108.11
183.385	2116.38
183.461	2134.22
183.537	2133.55
183.613	2146.02
183.69	2137.65
183.766	2126.37
183.842	2134.22
183.918	2141.45
183.995	2156.96
184.071	2162.33
184.147	2157.62
184.223	2145.45
184.299	2158.91
184.375	2147.12
184.452	2153.02
184.528	2205.74
184.604	2215.16
184.68	2227.76
184.756	2236.8
184.832	2243.51
184.908	2248.55
184.985	2249.5
185.061	2234.33
185.137	2243.22
185.213	2233.09
185.289	2235.99
185.365	2227.43
185.441	2225.43
185.517	2240.09
185.593	2234.57
185.669	2228.86
185.745	2240.76
185.822	2255.88
185.898	2247.65
185.974	2258.3
186.05	2249.31
186.126	2216.38
186.202	2209.91
186.278	2208.29
186.354	2198.16
186.43	2205.63
186.506	2201.97
186.582	2199.88
186.658	2207.53
186.734	2187.46
186.81	2189.94
186.886	2191.74
186.962	2206.25
187.038	2201.07
187.114	2190.69
187.19	2198.83
187.266	2191.03
187.341	2189.98
187.417	2183.41
187.493	2183.98
187.569	2186.93
187.645	2180.42
187.721	2170.56
187.797	2180.94
187.873	2185.84
187.949	2182.41
188.025	2174.56
188.101	2179.03
188.176	2184.59
188.252	2177.98
188.328	2189.92
188.404	2186.88
188.48	2180.98
188.556	2172.56
188.632	2171.89
188.707	2174.22
188.783	2167.99
188.859	2159.43
188.935	2151.24
189.011	2159.43
189.086	2154.81
189.162	2145.2
189.238	2144.2
189.314	2136.74
189.39	2130.74
189.465	2122.13
189.541	2138.78
189.617	2124.18
189.693	2118.66
189.768	2120.76
189.844	2144.69
189.92	2135.66
189.996	2147.26
190.071	2159.11
190.147	2159.11
190.223	2167.58
190.298	2160.77
190.374	2149.45
190.45	2163.63
190.526	2171.81
190.601	2165.05
190.677	2166.86
190.753	2193.33
190.828	2194.56
190.904	2213.31
190.98	2226.44
191.055	2236.53
191.131	2224.87
191.207	2248.09
191.282	2257.51
191.358	2248.23
191.433	2235.71
191.509	2245.94
191.585	2241.61
191.66	2245.56
191.736	2251.84
191.811	2244.18
191.887	2259.27
191.963	2284.77
192.038	2288.39
192.114	2289.63
192.189	2293.86
192.265	2289.2
192.34	2267.68
192.416	2269.3
192.491	2263.35
192.567	2267.21
192.642	2270.63
192.718	2272.49
192.793	2256.45
192.869	2254.64
192.944	2258.54
193.02	2266.16
193.095	2271.87
193.171	2278.06
193.246	2276.34
193.322	2272.96
193.397	2274.01
193.473	2260.45
193.548	2239.79
193.624	2248.17
193.699	2244.5
193.775	2260.45
193.85	2261.88
193.925	2271.3
194.001	2269.44
194.076	2261.73
194.152	2250.41
194.227	2242.46
194.302	2231.18
194.378	2234.32
194.453	2230.71
194.529	2243.89
194.604	2228.9
194.679	2220.96
194.755	2202.35
194.83	2215.31
194.905	2214.07
194.981	2220.73
195.056	2212.64
195.131	2216.69
195.207	2212.69
195.282	2205.31
195.357	2187.42
195.433	2204.17
195.508	2195.22
195.583	2202.21
195.659	2218.44
195.734	2225.01
195.809	2223.92
195.884	2234.09
195.96	2237.28
196.035	2253.13
196.11	2249.65
196.185	2261.31
196.261	2267.45
196.336	2297.33
196.411	2281.57
196.486	2287.28
196.561	2282.24
196.637	2294.61
196.712	2313.27
196.787	2316.27
196.862	2328.35
196.937	2338.21
197.013	2343.3
197.088	2352.15
197.163	2371.29
197.238	2387.49
197.313	2388.2
197.388	2402.39
197.464	2434.43
197.539	2441.81
197.614	2433.15
197.689	2446
197.764	2463.24
197.839	2484.62
197.914	2479.72
197.989	2503.15
198.065	2514.76
198.14	2566.17
198.215	2592.08
198.29	2606.42
198.365	2621.86
198.44	2636.38
198.515	2666.25
198.59	2681.02
198.665	2707.17
198.74	2719.18
198.815	2719.7
198.89	2744.62
198.965	2773.54
199.04	2770.26
199.115	2789.02
199.19	2833.95
199.265	2834.9
199.34	2842.57
199.415	2873.28
199.49	2899.87
199.565	2910.02
199.64	2937.23
199.715	2936.04
199.79	2942.29
199.865	2950.01
199.94	2948.25
200.015	2981.38
200.09	2986.06
200.165	2993.3
200.24	3002.93
200.315	3043.5
200.39	3058.04
200.464	3063.19
200.539	3068.05
200.614	3082.78
200.689	3108.29
200.764	3117.88
200.839	3137.81
200.914	3145.24
200.989	3136.23
201.063	3146.48
201.138	3130.66
201.213	3131.76
201.288	3115.02
201.363	3122.36
201.438	3118.59
201.512	3136.09
201.587	3119.54
201.662	3124.12
201.737	3136.71
201.812	3144.91
201.886	3111.41
201.961	3122.62
202.036	3111.89
202.111	3104.98
202.186	3080.29
202.26	3062.59
202.335	3040.18
202.41	3040.42
202.485	3025.02
202.559	3009.95
202.634	2987.4
202.709	3000.93
202.784	2984.82
202.858	2985.44
202.933	2972.09
203.008	2973.14
203.082	2959.12
203.157	2965.08
203.232	2933.25
203.306	2925.04
203.381	2903.06
203.456	2897.48
203.53	2890.94
203.605	2883.03
203.68	2877.93
203.754	2889.89
203.829	2895.09
203.904	2897.37
203.978	2904.67
204.053	2935.52
204.127	2945.49
204.202	2972.14
204.277	2982.92
204.351	3007.57
204.426	3033.28
204.5	3058.71
204.575	3062.61
204.65	3113.1
204.724	3149.28
204.799	3200.69
204.873	3243.89
204.948	3295.43
205.022	3333.85
205.097	3383.96
205.171	3460.42
205.246	3533.31
205.32	3598.04
205.395	3668.17
205.469	3732.25
205.544	3815.18
205.618	3874.92
205.693	3975.01
205.767	4054.38
205.842	4165.37
205.916	4254.6
205.991	4348.02
206.065	4457.25
206.14	4580.12
206.214	4684.5
206.289	4792.02
206.363	4926.97
206.438	5047.94
206.512	5174.61
206.586	5325.26
206.661	5463.26
206.735	5574.4
206.81	5709.14
206.884	5867.73
206.958	6004.97
207.033	6164.56
207.107	6319.73
207.181	6506.48
207.256	6657.37
207.33	6829.64
207.405	7009.32
207.479	7192.56
207.553	7360.3
207.628	7513.89
207.702	7696.6
207.776	7860.17
207.851	8036.57
207.925	8219.87
207.999	8398.93
208.073	8580.17
208.148	8763.2
208.222	8929.26
208.296	9147.03
208.371	9347.9
208.445	9543.45
208.519	9755.46
208.593	9958.78
208.668	10143.75
208.742	10333.85
208.816	10516.37
208.89	10720.41
208.965	10905.55
209.039	11102.24
209.113	11313.68
209.187	11526.57
209.261	11717.84
209.336	11939.48
209.41	12150.44
209.484	12346.8
209.558	12556.14
209.632	12763.74
209.707	12965.85
209.781	13181.46
209.855	13393.45
209.929	13603.91
210.003	13801.6
210.077	13981.59
210.151	14217.59
210.226	14441.59
210.3	14662.5
210.374	14876.67
210.448	15066.01
210.522	15259.45
210.596	15452.54
210.67	15643.71
210.744	15869.91
210.818	16083.05
210.892	16277.14
210.966	16450.75
211.041	16640.89
211.115	16808.47
211.189	16999.47
211.263	17180.93
211.337	17358.57
211.411	17531.93
211.485	17689.71
211.559	17862.77
211.633	18025.52
211.707	18144.79
211.781	18313.61
211.855	18428.93
211.929	18576.39
212.003	18713.79
212.077	18874.65
212.151	19042.11
212.225	19197.86
212.299	19329.04
212.373	19455.11
212.447	19589.9
212.52	19761.17
212.594	19906.62
212.668	20067.39
212.742	20193.31
212.816	20323.43
212.89	20448.88
212.964	20581.56
213.038	20720.85
213.112	20852.18
213.186	21008.62
213.26	21124
213.333	21207.19
213.407	21346.82
213.481	21470.35
213.555	21603.71
213.629	21704.89
213.703	21812.48
213.777	21934.29
213.85	22032.72
213.924	22181.11
213.998	22293.05
214.072	22396.36
214.146	22496.45
214.219	22594.7
214.293	22689.1
214.367	22794.97
214.441	22906.68
214.515	22994.44
214.588	23070.62
214.662	23138.41
214.736	23197.81
214.81	23300.66
214.883	23389.96
214.957	23451.19
215.031	23534.13
215.105	23589.58
215.178	23672.97
215.252	23738.99
215.326	23795.47
215.4	23857.05
215.473	23891.3
215.547	23955.35
215.621	24013.28
215.694	24080.04
215.768	24117.23
215.842	24176.46
215.915	24225.37
215.989	24261.99
216.063	24315.77
216.136	24375.74
216.21	24448.67
216.284	24538.5
216.357	24590.51
216.431	24642.75
216.504	24706.82
216.578	24778.51
216.652	24854.73
216.725	24903.18
216.799	24961.42
216.873	25008.32
216.946	25067.57
217.02	25098.97
217.093	25137.72
217.167	25160.11
217.24	25202
217.314	25256.53
217.387	25294.6
217.461	25345.22
217.535	25409.16
217.608	25444.73
217.682	25487.44
217.755	25535.95
217.829	25560.03
217.902	25600.09
217.976	25649.9
218.049	25687.83
218.123	25718.92
218.196	25751.79
218.27	25791.23
218.343	25817.53
218.417	25854.8
218.49	25881.49
218.563	25945.98
218.637	25992.51
218.71	26051.36
218.784	26083.8
218.857	26126.04
218.931	26168.08
219.004	26184.45
219.077	26220.13
219.151	26248.27
219.224	26265.41
219.298	26283.18
219.371	26309.73
219.444	26321.27
219.518	26345.07
219.591	26372.88
219.665	26424.6
219.738	26444.64
219.811	26447.53
219.885	26468.63
219.958	26496.64
220.031	26523.58
220.105	26546.86
220.178	26565.25
220.251	26576.31
220.325	26609.01
220.398	26635.86
220.471	26669.13
220.544	26705.83
220.618	26705.97
220.691	26736.73
220.764	26767.83
220.838	26797.1
220.911	26817.91
220.984	26868.52
221.057	26889.43
221.131	26903.43
221.204	26869.77
221.277	26912.61
221.35	26967.42
221.424	26984.37
221.497	26999.15
221.57	27011.18
221.643	27019.29
221.716	27037.35
221.79	27041.31
221.863	27036.34
221.936	27025.62
222.009	27018.18
222.082	27029.53
222.155	27034.89
222.229	27050.2
222.302	27063.05
222.375	27057.83
222.448	27064.26
222.521	27057.25
222.594	27055.56
222.667	27049.53
222.74	27071.94
222.814	27064.74
222.887	27047.64
222.96	27061.55
223.033	27065.65
223.106	27070.05
223.179	27073.29
223.252	27068.21
223.325	27071.69
223.398	27061.6
223.471	27062.56
223.544	27055.85
223.617	27034.79
223.69	27020.26
223.763	26990.6
223.837	26973.65
223.91	26977.71
223.983	26951.14
224.056	26928.06
224.129	26924
224.202	26925.11
224.275	26908.31
224.348	26871.89
224.42	26845.57
224.493	26805.59
224.566	26780.23
224.639	26763.38
224.712	26731.17
224.785	26706.92
224.858	26683.36
224.931	26661.19
225.004	26639.99
225.077	26627.92
225.15	26593.64
225.223	26581.86
225.296	26600.5
225.369	26566.27
225.442	26529.85
225.514	26511.02
225.587	26498.47
225.66	26466.12
225.733	26447.19
225.806	26417.83
225.879	26406.01
225.952	26380.37
226.025	26373.9
226.097	26357.29
226.17	26326.2
226.243	26286.8
226.316	26262.9
226.389	26235.14
226.461	26222.78
226.534	26199.85
226.607	26161.76
226.68	26161.28
226.753	26139.17
226.825	26071.43
226.898	26053.67
226.971	26019.97
227.044	25994.82
227.117	25966.49
227.189	25943.75
227.262	25909.91
227.335	25892.77
227.407	25840.94
227.48	25805.85
227.553	25769.6
227.626	25731.66
227.698	25708.25
227.771	25692.95
227.844	25649.84
227.916	25610.51
227.989	25560.85
228.062	25522.57
228.134	25521.75
228.207	25482.47
228.28	25448.2
228.352	25425.95
228.425	25404.09
228.498	25383.68
228.57	25337.35
228.643	25317.56
228.716	25279.34
228.788	25239
228.861	25196
228.934	25194.6
229.006	25163.19
229.079	25134.14
229.151	25111.22
229.224	25055.78
229.296	25019.26
229.369	25012.21
229.442	25008.74
229.514	24971.11
229.587	24948.67
229.659	24894.14
229.732	24865.15
229.804	24841.99
229.877	24831.37
229.949	24804.11
230.022	24803.53
230.094	24776.8
230.167	24742.16
230.239	24693.39
230.312	24666.62
230.384	24666.04
230.457	24631.49
230.529	24602.99
230.602	24571.92
230.674	24530.43
230.747	24520.78
230.819	24503.46
230.892	24446.15
230.964	24409.1
231.037	24380.45
231.109	24350.45
231.181	24334.19
231.254	24290.3
231.326	24251.27
231.399	24207.57
231.471	24155.47
231.544	24084.36
231.616	24069.41
231.688	24039.75
231.761	24017.47
231.833	23979.37
231.905	23905.28
231.978	23876.97
232.05	23843.16
232.122	23801.39
232.195	23762.38
232.267	23730.59
232.339	23695.53
232.412	23675.47
232.484	23635.82
232.556	23607.71
232.629	23584.95
232.701	23543.86
232.773	23514.92
232.846	23475.09
232.918	23429.95
232.99	23405.5
233.062	23373.82
233.135	23327.91
233.207	23273.91
233.279	23243.87
233.351	23217.44
233.424	23183.4
233.496	23127.27
233.568	23105.29
233.64	23056.25
233.713	23012.47
233.785	22975.4
233.857	22935.62
233.929	22870.33
234.001	22840.25
234.074	22806.64
234.146	22752.74
234.218	22716.96
234.29	22675.26
234.362	22627.63
234.434	22570.69
234.507	22508.74
234.579	22447.18
234.651	22414.68
234.723	22377.75
234.795	22337.31
234.867	22296.09
234.939	22269.38
235.012	22231.44
235.084	22196.83
235.156	22170.56
235.228	22134.89
235.3	22083.69
235.372	22043
235.444	22028.54
235.516	21972.38
235.588	21935.55
235.66	21895.64
235.732	21832.59
235.804	21842.91
235.876	21810.9
235.948	21799.62
236.02	21771.04
236.092	21744.24
236.164	21703.32
236.236	21660.27
236.308	21611.64
236.38	21565.75
236.452	21512.3
236.524	21480.49
236.596	21446.94
236.668	21405.97
236.74	21363.75
236.812	21319.22
236.884	21274.68
236.956	21231.59
237.028	21181.08
237.1	21122.04
237.172	21093.17
237.244	21074.52
237.316	20993.54
237.388	20941.3
237.46	20892.14
237.532	20859.41
237.604	20803.89
237.675	20769.1
237.747	20731.55
237.819	20684.61
237.891	20641.05
237.963	20594.49
238.035	20539.74
238.107	20455.45
238.178	20429.09
238.25	20391.4
238.322	20383.4
238.394	20325.28
238.466	20271.16
238.538	20242.39
238.609	20213.38
238.681	20149.09
238.753	20096.32
238.825	20049.29
238.897	20008.09
238.968	19973.05
239.04	19914.74
239.112	19903.65
239.184	19843.46
239.255	19802.21
239.327	19759.37
239.399	19721.45
239.471	19687.04
239.542	19652.97
239.614	19635.18
239.686	19560.39
239.758	19519.72
239.829	19461.7
239.901	19432.98
239.973	19401.27
240.044	19352.02
240.116	19305.18
240.188	19266.1
240.259	19219.98
240.331	19173.91
240.403	19147.36
240.474	19098.97
240.546	19050.35
240.618	18987.7
240.689	18947.32
240.761	18902.94
240.833	18883.47
240.904	18831.04
240.976	18788.63
241.048	18739.33
241.119	18707.53
241.191	18683.82
241.262	18660.01
241.334	18610.33
241.405	18569.32
241.477	18514.43
241.549	18471.2
241.62	18428.8
241.692	18394.58
241.763	18371.21
241.835	18326.34
241.906	18280.32
241.978	18211.51
242.049	18187.22
242.121	18156.52
242.192	18122.69
242.264	18064.47
242.335	17998.98
242.407	17973.15
242.478	17928.19
242.55	17903.56
242.621	17845.4
242.693	17798.07
242.764	17749.26
242.836	17709.45
242.907	17670.66
242.979	17633.21
243.05	17598.61
243.122	17563.86
243.193	17520.05
243.264	17454.32
243.336	17424.39
243.407	17395.91
243.479	17380.73
243.55	17343.96
243.622	17305.94
243.693	17265.12
243.764	17250.99
243.836	17208.58
243.907	17170.08
243.978	17132.48
244.05	17096
244.121	17048.82
244.192	17016.92
244.264	16958.31
244.335	16922.26
244.407	16870.02
244.478	16841.34
244.549	16793.87
244.62	16744.85
244.692	16706.97
244.763	16685.77
244.834	16636.9
244.906	16593.57
244.977	16556.89
245.048	16540.12
245.119	16492.79
245.191	16451.44
245.262	16390.95
245.333	16376.06
245.405	16335.14
245.476	16308.05
245.547	16272.19
245.618	16247.71
245.689	16208.43
245.761	16181.29
245.832	16139.12
245.903	16119.21
245.974	16084.85
246.045	16052.89
246.117	16032.55
246.188	15980.83
246.259	15928.54
246.33	15897.98
246.401	15850.89
246.473	15803.75
246.544	15747.16
246.615	15725.33
246.686	15685.71
246.757	15664.98
246.828	15612.73
246.899	15592.2
246.97	15539.42
247.042	15494.93
247.113	15467.5
247.184	15458.2
247.255	15419.06
247.326	15392.69
247.397	15347.77
247.468	15304.24
247.539	15277.35
247.61	15230.59
247.681	15216.52
247.752	15197.43
247.823	15150.19
247.894	15121.99
247.965	15079.67
248.037	15051.52
248.108	15000.18
248.179	14971.16
248.25	14940.7
248.321	14918.86
248.392	14871.96
248.463	14861.5
248.534	14826.79
248.605	14800.71
248.675	14761.77
248.746	14738.15
248.817	14706.57
248.888	14684.16
248.959	14639.76
249.03	14611.51
249.101	14577.29
249.172	14536.17
249.243	14479.43
249.314	14474.66
249.385	14451.23
249.456	14425.97
249.527	14392.42
249.598	14367.84
249.669	14336.21
249.739	14303.43
249.81	14275.52
249.881	14235.08
249.952	14205.48
250.023	14173.47
250.094	14126.13
250.165	14093.26
250.235	14061.44
250.306	14036.86
250.377	13996.65
250.448	13980.6
250.519	13927.86
250.59	13927.19
250.66	13894.26
250.731	13888.57
250.802	13852.56
250.873	13823.16
250.944	13802.57
251.014	13768.97
251.085	13763.28
251.156	13742.17
251.227	13729.11
251.297	13725.3
251.368	13712.76
251.439	13697.87
251.51	13686.01
251.58	13649.13
251.651	13614.76
251.722	13600.35
251.792	13555.85
251.863	13524.42
251.934	13515.21
252.005	13521.63
252.075	13486.63
252.146	13477.28
252.217	13472.5
252.287	13458.62
252.358	13431.77
252.429	13427.33
252.499	13393.93
252.57	13379.51
252.641	13361.77
252.711	13330.34
252.782	13281.41
252.852	13275.05
252.923	13242.75
252.994	13213.3
253.064	13207.17
253.135	13173.62
253.205	13146.39
253.276	13142.05
253.347	13141.47
253.417	13101.12
253.488	13070.46
253.558	13043.95
253.629	13018.49
253.699	12987.55
253.77	12964.02
253.841	12935.19
253.911	12917.17
253.982	12896.24
254.052	12876.96
254.123	12858.79
254.193	12842.54
254.264	12859.08
254.334	12824.51
254.405	12792.26
254.475	12758.91
254.546	12736.88
254.616	12727.72
254.687	12707.28
254.757	12690.46
254.827	12657.92
254.898	12640.85
254.968	12620.56
255.039	12589.37
255.109	12575.54
255.18	12540.68
255.25	12499.32
255.321	12488.77
255.391	12443.74
255.461	12449.58
255.532	12400.84
255.602	12368.11
255.673	12326.32
255.743	12291.9
255.813	12248.13
255.884	12237.67
255.954	12232.56
256.024	12225.62
256.095	12209.57
256.165	12175.25
256.235	12158.52
256.306	12135.24
256.376	12132.16
256.446	12123.34
256.517	12110.47
256.587	12097.16
256.657	12076.34
256.728	12064.1
256.798	12042.02
256.868	12020.43
256.938	11987.02
257.009	11971.31
257.079	11962.2
257.149	11974.88
257.219	11929.71
257.29	11910.1
257.36	11868.4
257.43	11857.7
257.5	11811.14
257.571	11777.98
257.641	11767.09
257.711	11729.44
257.781	11715.95
257.852	11700.62
257.922	11657.87
257.992	11638.54
258.062	11610.92
258.132	11610.92
258.202	11587.3
258.273	11568.85
258.343	11570
258.413	11546.87
258.483	11528.12
258.553	11491.78
258.623	11456.93
258.693	11444.35
258.764	11446.52
258.834	11449.85
258.904	11432.78
258.974	11407.19
259.044	11394.52
259.114	11375.1
259.184	11364.54
259.254	11340.64
259.324	11291.14
259.394	11278.51
259.464	11273.07
259.535	11258.27
259.605	11223.81
259.675	11199.14
259.745	11186.8
259.815	11153.98
259.885	11125.74
259.955	11141.84
260.025	11119.34
260.095	11099.19
260.165	11089.65
260.235	11088.45
260.305	11057.46
260.375	11022.33
260.445	11036.01
260.515	11029.12
260.585	11032.64
260.655	11010.18
260.725	11005.6
260.795	11000.35
260.865	10998.86
260.934	10972.06
261.004	10964.98
261.074	10955.87
261.144	10957.17
261.214	10945.22
261.284	10927.63
261.354	10923.54
261.424	10895.78
261.494	10900.93
261.564	10884.07
261.634	10869.47
261.703	10827.69
261.773	10822.19
