Data from 20250704_urea_1M_MAYP1162681_11-32-05-657.txt Node
Date: Fri Jul 04 11:32:05 BST 2025
User: adleo
Spectrometer: MAYP116268
Trigger mode: 0
Integration Time (sec): 1.000000E0
Scans to average: 1
Electric dark correction enabled: true
Nonlinearity correction enabled: true
Boxcar width: 10
XAxis mode: Wavelengths
Number of Pixels in Spectrum: 2068
>>>>>Begin Spectral Data<<<<<
179.565	1250.5
179.642	1308.03
179.718	1356.56
179.795	1398.16
179.871	1433.35
179.948	1453.72
180.024	1475.39
180.101	1498.75
180.177	1512.83
180.254	1534.64
180.33	1556.12
180.407	1613.01
180.483	1711.26
180.56	1804.62
180.636	1892.45
180.712	1880.23
180.789	1892.59
180.865	1907.75
180.942	1912.65
181.018	1921.39
181.095	1933.14
181.171	1939.94
181.248	1943.17
181.324	1955.73
181.4	1962.58
181.477	1972.23
181.553	1985.88
181.63	2007.13
181.706	2023.49
181.782	2033.33
181.859	2033.05
181.935	2041.99
182.011	2041.14
182.088	2058.54
182.164	2078.67
182.24	2093.84
182.317	2103.68
182.393	2103.16
182.469	2116.71
182.546	2131.22
182.622	2137.36
182.698	2130.41
182.775	2141.83
182.851	2154.77
182.927	2149.91
183.003	2144.54
183.08	2136.31
183.156	2144.54
183.232	2140.93
183.308	2129.65
183.385	2139.26
183.461	2159.34
183.537	2156.91
183.613	2166.71
183.69	2157.24
183.766	2149.2
183.842	2153.62
183.918	2158.14
183.995	2168.04
184.071	2172.61
184.147	2166.99
184.223	2157.01
184.299	2174.28
184.375	2162.53
184.452	2169.62
184.528	2217.3
184.604	2229.14
184.68	2241.65
184.756	2248.31
184.832	2254.5
184.908	2258.64
184.985	2254.07
185.061	2238.56
185.137	2247.31
185.213	2236.14
185.289	2238.37
185.365	2227.76
185.441	2229.24
185.517	2241.28
185.593	2239.38
185.669	2234
185.745	2244.99
185.822	2260.02
185.898	2247.08
185.974	2259.78
186.05	2253.11
186.126	2219.38
186.202	2212.67
186.278	2209.86
186.354	2200.97
186.43	2207.06
186.506	2205.68
186.582	2207.25
186.658	2215.19
186.734	2198.5
186.81	2203.49
186.886	2206.53
186.962	2218.52
187.038	2214.34
187.114	2208.91
187.19	2216.81
187.266	2209.2
187.341	2212.24
187.417	2206.77
187.493	2209.58
187.569	2209.2
187.645	2201.3
187.721	2190.69
187.797	2196.16
187.873	2204.82
187.949	2198.16
188.025	2191.97
188.101	2194.92
188.176	2200.82
188.252	2195.11
188.328	2201.06
188.404	2199.63
188.48	2196.06
188.556	2189.35
188.632	2186.59
188.707	2185.59
188.783	2181.98
188.859	2175.03
188.935	2162.8
189.011	2170.32
189.086	2165.99
189.162	2160.19
189.238	2157.14
189.314	2154.53
189.39	2150.29
189.465	2140.92
189.541	2159.76
189.617	2144.3
189.693	2140.88
189.768	2143.68
189.844	2168.77
189.92	2161.68
189.996	2172.15
190.071	2180.48
190.147	2180.48
190.223	2193.09
190.298	2186.61
190.374	2172.63
190.45	2185.99
190.526	2194.61
190.601	2188.51
190.677	2188.75
190.753	2215.98
190.828	2219.55
190.904	2236.59
190.98	2251.44
191.055	2262.09
191.131	2250.81
191.207	2270.94
191.282	2279.69
191.358	2269.94
191.433	2254.13
191.509	2269.31
191.585	2265.4
191.66	2267.21
191.736	2275.44
191.811	2264.5
191.887	2281.64
191.963	2308.24
192.038	2313.71
192.114	2311.04
192.189	2316.52
192.265	2311.71
192.34	2286.57
192.416	2285.24
192.491	2277.34
192.567	2279.77
192.642	2282.72
192.718	2282.05
192.793	2268.73
192.869	2264.64
192.944	2267.68
193.02	2274.73
193.095	2276.2
193.171	2281.63
193.246	2282.06
193.322	2280.1
193.397	2281.48
193.473	2265.3
193.548	2243.5
193.624	2249.45
193.699	2252.16
193.775	2264.73
193.85	2265.26
193.925	2277.53
194.001	2276.82
194.076	2269.97
194.152	2261.07
194.227	2254.93
194.302	2245.51
194.378	2248.22
194.453	2246.32
194.529	2259.31
194.604	2242.56
194.679	2234.85
194.755	2216.49
194.83	2230.25
194.905	2227.58
194.981	2236.1
195.056	2231.58
195.131	2241.62
195.207	2239.96
195.282	2229.01
195.357	2208.64
195.433	2225.39
195.508	2212.59
195.583	2220.44
195.659	2236.48
195.734	2246
195.809	2243.43
195.884	2255.89
195.96	2256.7
196.035	2271.5
196.11	2268.4
196.185	2281.39
196.261	2287.2
196.336	2318.18
196.411	2301.37
196.486	2308.32
196.561	2302.14
196.637	2309.8
196.712	2327.22
196.787	2331.79
196.862	2345.31
196.937	2359.58
197.013	2364.96
197.088	2374.53
197.163	2398.34
197.238	2412.1
197.313	2407.1
197.388	2421.81
197.464	2450.77
197.539	2464.19
197.614	2458
197.689	2472.53
197.764	2490.15
197.839	2511.86
197.914	2502.57
197.989	2524.38
198.065	2536.24
198.14	2587.27
198.215	2615.56
198.29	2623.66
198.365	2633.71
198.44	2646.43
198.515	2675.3
198.59	2687.78
198.665	2716.07
198.74	2723.27
198.815	2727.61
198.89	2755.14
198.965	2786.36
199.04	2783.6
199.115	2799.6
199.19	2840.67
199.265	2839.25
199.34	2849.06
199.415	2884.4
199.49	2910.13
199.565	2923.57
199.64	2947.87
199.715	2945.77
199.79	2955.6
199.865	2963.13
199.94	2961.36
200.015	2992.78
200.09	2996.17
200.165	3009.28
200.24	3014.95
200.315	3056.9
200.39	3071.44
200.464	3074.68
200.539	3073.49
200.614	3093.32
200.689	3118.93
200.764	3128.29
200.839	3147.92
200.914	3152.93
200.989	3142.43
201.063	3156.12
201.138	3139.53
201.213	3141.01
201.288	3121.51
201.363	3123.8
201.438	3122.84
201.512	3142
201.587	3123.69
201.662	3127.98
201.737	3141.15
201.812	3146.97
201.886	3113.46
201.961	3124.91
202.036	3114.14
202.111	3113.18
202.186	3078.34
202.26	3059.31
202.335	3036.8
202.41	3030.46
202.485	3015.73
202.559	2993.51
202.634	2966.82
202.709	2972.58
202.784	2952.99
202.858	2953.51
202.933	2934.83
203.008	2931.01
203.082	2909.85
203.157	2910.23
203.232	2869.54
203.306	2843.89
203.381	2814.57
203.456	2789.12
203.53	2766.94
203.605	2746.46
203.68	2720.1
203.754	2715.68
203.829	2702.05
203.904	2680.42
203.978	2667.31
204.053	2671.41
204.127	2658.17
204.202	2656.79
204.277	2641.31
204.351	2632.83
204.426	2620.01
204.5	2611.39
204.575	2575.34
204.65	2585.16
204.724	2576.15
204.799	2581.53
204.873	2577.53
204.948	2577.48
205.022	2567.53
205.097	2556.33
205.171	2571.38
205.246	2579.24
205.32	2576.95
205.395	2574.76
205.469	2566.72
205.544	2571.48
205.618	2554.05
205.693	2565.67
205.767	2553.19
205.842	2574.63
205.916	2570.44
205.991	2563.39
206.065	2570.35
206.14	2587.1
206.214	2581.72
206.289	2576.24
206.363	2591.43
206.438	2593.81
206.512	2600.72
206.586	2620.77
206.661	2628.92
206.735	2607.21
206.81	2607.35
206.884	2623.54
206.958	2609.92
207.033	2628.06
207.107	2638.21
207.181	2671.19
207.256	2668.33
207.33	2684.57
207.405	2694.2
207.479	2713.73
207.553	2721.74
207.628	2699.45
207.702	2711.55
207.776	2709.41
207.851	2712.41
207.925	2724.52
207.999	2722.99
208.073	2721.61
208.148	2724.9
208.222	2711.13
208.296	2743.04
208.371	2763.01
208.445	2776.4
208.519	2806.99
208.593	2821.24
208.668	2816.9
208.742	2818.62
208.816	2820.52
208.89	2841.12
208.965	2845.79
209.039	2856.85
209.113	2881.16
209.187	2910.5
209.261	2909.92
209.336	2932.71
209.41	2959.79
209.484	2971.28
209.558	3002.95
209.632	3020.77
209.707	3036.12
209.781	3071.6
209.855	3094.2
209.929	3122.56
210.003	3136.77
210.077	3150.75
210.151	3213.06
210.226	3266.46
210.3	3309.15
210.374	3348.93
210.448	3369.16
210.522	3398.52
210.596	3432.03
210.67	3460.24
210.744	3534.2
210.818	3592.37
210.892	3643.19
210.966	3666.72
211.041	3712.53
211.115	3740.51
211.189	3805.9
211.263	3864.13
211.337	3910.81
211.411	3975.76
211.485	4016.55
211.559	4082.69
211.633	4141.12
211.707	4163.9
211.781	4229.71
211.855	4256.63
211.929	4316.68
212.003	4370.95
212.077	4453.51
212.151	4544.26
212.225	4636.06
212.299	4707.97
212.373	4785.37
212.447	4870.06
212.52	5001.4
212.594	5105.18
212.668	5222.21
212.742	5315.91
212.816	5418.67
212.89	5526.23
212.964	5640.44
213.038	5761.75
213.112	5902.13
213.186	6040.14
213.26	6146.51
213.333	6225.17
213.407	6369.78
213.481	6511.17
213.555	6661.48
213.629	6791.18
213.703	6915.56
213.777	7060.19
213.85	7187.39
213.924	7375.34
213.998	7534.96
214.072	7676.88
214.146	7816.96
214.219	7968.51
214.293	8125.59
214.367	8300.04
214.441	8473.86
214.515	8624.98
214.588	8766.18
214.662	8888.48
214.736	9037.65
214.81	9221.17
214.883	9411.64
214.957	9570.91
215.031	9729.56
215.105	9878.69
215.178	10042.21
215.252	10208.24
215.326	10361.34
215.4	10520.93
215.473	10647.61
215.547	10797.56
215.621	10965.31
215.694	11147.23
215.768	11298.35
215.842	11457.33
215.915	11609.44
215.989	11747.91
216.063	11906
216.136	12076.76
216.21	12243.96
216.284	12418.98
216.357	12574.62
216.431	12734.27
216.504	12904.23
216.578	13083.74
216.652	13260.02
216.725	13422.13
216.799	13596.2
216.873	13748.24
216.946	13901.43
217.02	14043.06
217.093	14194.91
217.167	14311.42
217.24	14440.94
217.314	14586.18
217.387	14717.2
217.461	14852.41
217.535	15010.71
217.608	15142.4
217.682	15282.29
217.755	15442.12
217.829	15565.66
217.902	15710.21
217.976	15842.38
218.049	15960.23
218.123	16078.36
218.196	16204.3
218.27	16329.28
218.343	16442.88
218.417	16570.89
218.49	16706.75
218.563	16848.16
218.637	16961.66
218.71	17103.26
218.784	17222.2
218.857	17340.04
218.931	17460.23
219.004	17570.69
219.077	17692.18
219.151	17801.58
219.224	17902.21
219.298	17999.7
219.371	18113.14
219.444	18201.52
219.518	18293.52
219.591	18396.75
219.665	18515.25
219.738	18606.95
219.811	18680.93
219.885	18765.93
219.958	18859.61
220.031	18930.21
220.105	19010.3
220.178	19101.53
220.251	19178.44
220.325	19264.03
220.398	19344.21
220.471	19419.97
220.544	19500.49
220.618	19557.07
220.691	19626.94
220.764	19698.12
220.838	19771.57
220.911	19828.72
220.984	19917.15
221.057	19985.49
221.131	20049.87
221.204	20080.61
221.277	20157.53
221.35	20246.01
221.424	20301.33
221.497	20365.53
221.57	20415.55
221.643	20473.04
221.716	20527.55
221.79	20566.3
221.863	20614.44
221.936	20659.5
222.009	20711.75
222.082	20758.98
222.155	20802.11
222.229	20860.09
222.302	20902.11
222.375	20931.51
222.448	20980.72
222.521	21008.53
222.594	21054.03
222.667	21074.41
222.74	21132.2
222.814	21164.25
222.887	21193.99
222.96	21239.11
223.033	21268.6
223.106	21315.69
223.179	21345.91
223.252	21374.59
223.325	21405.92
223.398	21423.7
223.471	21450.65
223.544	21470.65
223.617	21488.29
223.69	21502.8
223.763	21513.83
223.837	21536.34
223.91	21564.59
223.983	21559.91
224.056	21558.56
224.129	21567.43
224.202	21599.39
224.275	21594.33
224.348	21593.7
224.42	21578.13
224.493	21561.94
224.566	21557.36
224.639	21569.65
224.712	21572.44
224.785	21573.7
224.858	21574.71
224.931	21574.47
225.004	21564.49
225.077	21577.46
225.15	21561.07
225.223	21575.29
225.296	21606.96
225.369	21584.16
225.442	21575.77
225.514	21573.6
225.587	21586.47
225.66	21582.95
225.733	21575.77
225.806	21570.81
225.879	21558.81
225.952	21547.77
226.025	21561.22
226.097	21582.57
226.17	21565.89
226.243	21541.17
226.316	21538.61
226.389	21534.56
226.461	21543
226.534	21542.23
226.607	21521.26
226.68	21538.61
226.753	21525.65
226.825	21485.06
226.898	21501.54
226.971	21482.46
227.044	21488.67
227.117	21471.13
227.189	21467.37
227.262	21462.89
227.335	21463.23
227.407	21451.51
227.48	21450.45
227.553	21440.19
227.626	21418.25
227.698	21409.19
227.771	21403.46
227.844	21369.14
227.916	21357.72
227.989	21325.42
228.062	21318.05
228.134	21325.38
228.207	21300.26
228.28	21280.26
228.352	21261.27
228.425	21239.63
228.498	21244.93
228.57	21209.56
228.643	21204.26
228.716	21188.93
228.788	21177.99
228.861	21147.19
228.934	21146.03
229.006	21128.34
229.079	21100.63
229.151	21064.48
229.224	21030.55
229.296	21017.93
229.369	21030.55
229.442	21037.78
229.514	21011.76
229.587	21012.05
229.659	20979.61
229.732	20974.65
229.804	20963.61
229.877	20971.71
229.949	20963.18
230.022	20955.27
230.094	20947.42
230.167	20933.05
230.239	20901.82
230.312	20875.65
230.384	20884.23
230.457	20872.57
230.529	20856.23
230.602	20851.8
230.674	20841.34
230.747	20843.12
230.819	20832.13
230.892	20788.95
230.964	20765.48
231.037	20760.85
231.109	20736.27
231.181	20726.59
231.254	20693.67
231.326	20673.72
231.399	20649.09
231.471	20634.97
231.544	20589.28
231.616	20592.61
231.688	20581.23
231.761	20557.43
231.833	20533.23
231.905	20488.7
231.978	20464.51
232.05	20448.08
232.122	20427.88
232.195	20401.47
232.267	20384.61
232.339	20364.99
232.412	20360.51
232.484	20324.27
232.556	20295.59
232.629	20292.17
232.701	20267.4
232.773	20242.1
232.846	20208.37
232.918	20177.67
232.99	20145.04
233.062	20138.01
233.135	20104.75
233.207	20060.47
233.279	20051.94
233.351	20029.09
233.424	20005.05
233.496	19966.49
233.568	19959.36
233.64	19919.56
233.713	19897.77
233.785	19871.27
233.857	19846.07
233.929	19803.08
234.001	19801.92
234.074	19792.14
234.146	19740.67
234.218	19719.47
234.29	19701.64
234.362	19680.58
234.434	19640.77
234.507	19602.32
234.579	19567.76
234.651	19541.5
234.723	19525.98
234.795	19500.2
234.867	19477.79
234.939	19470.9
235.012	19457.17
235.084	19431.58
235.156	19409.7
235.228	19372.93
235.3	19342.96
235.372	19323.83
235.444	19300.7
235.516	19244.17
235.588	19221.09
235.66	19190.53
235.732	19150.3
235.804	19171.79
235.876	19155.69
235.948	19153.72
236.02	19133.33
236.092	19088.23
236.164	19048.33
236.236	19009.39
236.308	18968.09
236.38	18936.67
236.452	18886.55
236.524	18852.15
236.596	18834.94
236.668	18807.33
236.74	18776.25
236.812	18746.42
236.884	18720.68
236.956	18694.52
237.028	18657.31
237.1	18615.1
237.172	18606.28
237.244	18597.99
237.316	18530.77
237.388	18486.09
237.46	18447.93
237.532	18430.58
237.604	18402.1
237.675	18394.77
237.747	18377.09
237.819	18344.75
237.891	18314.06
237.963	18279.84
238.035	18237.82
238.107	18175.31
238.178	18162.93
238.25	18138.93
238.322	18128.91
238.394	18072.76
238.466	18043.32
238.538	18023.61
238.609	17994.21
238.681	17944.43
238.753	17899.08
238.825	17866.12
238.897	17844.39
238.968	17826.56
239.04	17781.21
239.112	17774.12
239.184	17732.15
239.255	17695.81
239.327	17670.03
239.399	17646.56
239.471	17629.02
239.542	17613.4
239.614	17598.85
239.686	17538.51
239.758	17520.87
239.829	17481.21
239.901	17463.48
239.973	17429.69
240.044	17400.49
240.116	17371.24
240.188	17328.01
240.259	17302.9
240.331	17264.34
240.403	17235.23
240.474	17183.09
240.546	17148.39
240.618	17100.24
240.689	17061.5
240.761	17033.83
240.833	17021.11
240.904	16981.54
240.976	16953.78
241.048	16924.72
241.119	16901.83
241.191	16876.43
241.262	16855.85
241.334	16813.54
241.405	16785.39
241.477	16759.27
241.549	16719.36
241.62	16685.48
241.692	16673.91
241.763	16651.98
241.835	16624.99
241.906	16592.51
241.978	16547.01
242.049	16530.19
242.121	16513.13
242.192	16501.18
242.264	16455.1
242.335	16402.32
242.407	16381.17
242.478	16344.25
242.55	16310.41
242.621	16267.9
242.693	16234.21
242.764	16203.85
242.836	16173.58
242.907	16149.77
242.979	16119.79
243.05	16106.49
243.122	16085.81
243.193	16043.78
243.264	15990.14
243.336	15957.17
243.407	15933.36
243.479	15929.12
243.55	15895.96
243.622	15868.43
243.693	15836.33
243.764	15828.28
243.836	15791.55
243.907	15752.9
243.978	15720.51
244.05	15695.3
244.121	15644.21
244.192	15632.01
244.264	15577.93
244.335	15557.49
244.407	15501.97
244.478	15478.25
244.549	15435.45
244.62	15393.99
244.692	15364.4
244.763	15344.44
244.834	15312.77
244.906	15280.24
244.977	15250.74
245.048	15246.83
245.119	15207.65
245.191	15166.77
245.262	15112.49
245.333	15105.84
245.405	15083.67
245.476	15056.34
245.547	15032.62
245.618	15025.68
245.689	14984.27
245.761	14957.14
245.832	14919.34
245.903	14906.14
245.974	14880.06
246.045	14858.37
246.117	14851.14
246.188	14814.16
246.259	14772.27
246.33	14745.13
246.401	14711.29
246.473	14668.15
246.544	14621.73
246.615	14607.7
246.686	14570.83
246.757	14551.69
246.828	14510.09
246.899	14503.87
246.97	14458.12
247.042	14412.86
247.113	14389.34
247.184	14389.09
247.255	14368.85
247.326	14338.82
247.397	14307.24
247.468	14276.1
247.539	14250.46
247.61	14201.77
247.681	14190.2
247.752	14179.74
247.823	14140.3
247.894	14119.24
247.965	14078.22
248.037	14048.52
248.108	13999.98
248.179	13973.46
248.25	13957.51
248.321	13944.54
248.392	13889.73
248.463	13895.18
248.534	13874.3
248.605	13853.86
248.675	13825.91
248.746	13804.65
248.817	13795.29
248.888	13781.65
248.959	13739.71
249.03	13718.65
249.101	13696.76
249.172	13666.58
249.243	13621.99
249.314	13619.68
249.385	13597.7
249.456	13588.73
249.527	13561.15
249.598	13546.6
249.669	13522.88
249.739	13497.43
249.81	13477.61
249.881	13450.52
249.952	13422.71
250.023	13398.7
250.094	13357.53
250.165	13314.72
250.235	13280.54
250.306	13253.07
250.377	13211.46
250.448	13192.81
250.519	13145.76
250.59	13138.24
250.66	13112.11
250.731	13107.82
250.802	13077.4
250.873	13061.06
250.944	13040.28
251.014	13014.16
251.085	13015.51
251.156	13006.83
251.227	12998.87
251.297	12980.7
251.368	12964.46
251.439	12950.14
251.51	12942.57
251.58	12916.92
251.651	12899.76
251.722	12897.3
251.792	12859.32
251.863	12841.63
251.934	12837.38
252.005	12844.66
252.075	12822.15
252.146	12807.88
252.217	12794.48
252.287	12783.39
252.358	12751.87
252.429	12753.17
252.499	12732.73
252.57	12709.25
252.641	12698.75
252.711	12672.47
252.782	12638.3
252.852	12649
252.923	12631.55
252.994	12610.92
253.064	12604.75
253.135	12575.68
253.205	12542.75
253.276	12543.28
253.347	12543.04
253.417	12520
253.488	12492.53
253.558	12468.28
253.629	12452.85
253.699	12439.26
253.77	12429.72
253.841	12408.94
253.911	12388.89
253.982	12369.85
254.052	12361.07
254.123	12338.9
254.193	12321.74
254.264	12337.41
254.334	12304
254.405	12265.53
254.475	12237.53
254.546	12209.67
254.616	12207.59
254.687	12194.48
254.757	12183.16
254.827	12156.84
254.898	12137.65
254.968	12123.34
255.039	12100.1
255.109	12086.61
255.18	12062.6
255.25	12021.15
255.321	12011.8
255.391	11976.61
255.461	11981.14
255.532	11932.03
255.602	11912.55
255.673	11875.34
255.743	11845.12
255.813	11796.68
255.884	11797.55
255.954	11793.3
256.024	11787.71
256.095	11765.11
256.165	11732.09
256.235	11713.73
256.306	11688.23
256.376	11684.04
256.446	11682.3
256.517	11668.08
256.587	11661.72
256.657	11633
256.728	11617.04
256.798	11600.27
256.868	11580.75
256.938	11551.4
257.009	11546.48
257.079	11533.76
257.149	11543.64
257.219	11509.95
257.29	11500.5
257.36	11462.28
257.43	11453.17
257.5	11421.94
257.571	11398.04
257.641	11396.64
257.711	11370.18
257.781	11365.41
257.852	11344.59
257.922	11298.85
257.992	11285.07
258.062	11264.44
258.132	11262.17
258.202	11243.77
258.273	11230.66
258.343	11231.43
258.413	11198.95
258.483	11179.43
258.553	11148.49
258.623	11125.79
258.693	11111.81
258.764	11120.92
258.834	11116.78
258.904	11088.63
258.974	11064.92
259.044	11052.25
259.114	11045.5
259.184	11025.84
259.254	11001.7
259.324	10971
259.394	10963.48
259.464	10962.95
259.535	10938.33
259.605	10912.02
259.675	10890.33
259.745	10876.02
259.815	10853.28
259.885	10836.03
259.955	10843.16
260.025	10823.84
260.095	10801.91
260.165	10788.42
260.235	10780.27
260.305	10758.3
260.375	10736.57
260.445	10745.68
260.515	10742.01
260.585	10728.47
260.655	10717.87
260.725	10714.74
260.795	10710.07
260.865	10710.6
260.934	10686.89
261.004	10689.92
261.074	10683.52
261.144	10683.66
261.214	10675.32
261.284	10655.28
261.354	10650.85
261.424	10625.55
261.494	10627.19
261.564	10615.57
261.634	10614.03
261.703	10573.17
261.773	10563.06
261.843	10558.96
261.913	10539.64
261.983	10508.71
262.053	10502.59
262.123	10490.73
262.192	10465.73
