Data from 20250704_urea_2M_MAYP1162681_11-59-38-532.txt Node
Date: Fri Jul 04 11:59:38 BST 2025
User: adleo
Spectrometer: MAYP116268
Trigger mode: 0
Integration Time (sec): 1.000000E0
Scans to average: 1
Electric dark correction enabled: true
Nonlinearity correction enabled: true
Boxcar width: 10
XAxis mode: Wavelengths
Number of Pixels in Spectrum: 2068
>>>>>Begin Spectral Data<<<<<
179.565	1270.63
179.642	1332.08
179.718	1380.77
179.795	1424.36
179.871	1458.87
179.948	1479.65
180.024	1500.57
180.101	1525.54
180.177	1538.9
180.254	1565.9
180.33	1587
180.407	1644.65
180.483	1745.51
180.56	1841.15
180.636	1929.23
180.712	1915.29
180.789	1926.13
180.865	1937.63
180.942	1945.38
181.018	1957.93
181.095	1971.68
181.171	1975.34
181.248	1975.25
181.324	1990.09
181.4	1997.6
181.477	2006.45
181.553	2020.66
181.63	2042.59
181.706	2059.76
181.782	2069.98
181.859	2065.08
181.935	2071.12
182.011	2067.89
182.088	2086.39
182.164	2107.57
182.24	2119.55
182.317	2130.63
182.393	2129.87
182.469	2143.52
182.546	2158.99
182.622	2166.07
182.698	2161.13
182.775	2174.45
182.851	2189.48
182.927	2179.25
183.003	2173.07
183.08	2170.17
183.156	2175.45
183.232	2171.12
183.308	2160.27
183.385	2167.36
183.461	2188.34
183.537	2191.81
183.613	2204.56
183.69	2194
183.766	2180.72
183.842	2190.14
183.918	2198.61
183.995	2216.16
184.071	2220.73
184.147	2212.64
184.223	2199.85
184.299	2215.41
184.375	2204.9
184.452	2212.56
184.528	2265.29
184.604	2278.56
184.68	2291.31
184.756	2302.54
184.832	2308.21
184.908	2310.44
184.985	2311.77
185.061	2294.22
185.137	2301.69
185.213	2292.22
185.289	2292.17
185.365	2283.66
185.441	2283.32
185.517	2293.18
185.593	2288.37
185.669	2286.99
185.745	2297.75
185.822	2312.59
185.898	2300.26
185.974	2307.16
186.05	2298.87
186.126	2263.56
186.202	2255
186.278	2254
186.354	2243.48
186.43	2250.34
186.506	2250.14
186.582	2251.19
186.658	2256.38
186.734	2236.21
186.81	2239.06
186.886	2242.72
186.962	2258.8
187.038	2254.9
187.114	2247.76
187.19	2255.33
187.266	2241.01
187.341	2240.63
187.417	2233.78
187.493	2235.21
187.569	2239.11
187.645	2230.83
187.721	2219.98
187.797	2226.45
187.873	2224.88
187.949	2220.45
188.025	2211.55
188.101	2212.79
188.176	2214.07
188.252	2210.5
188.328	2222.06
188.404	2221.59
188.48	2216.97
188.556	2209.74
188.632	2210.98
188.707	2212.55
188.783	2207.83
188.859	2204.79
188.935	2195.32
189.011	2205.12
189.086	2201.22
189.162	2190.28
189.238	2190.66
189.314	2187.61
189.39	2183.24
189.465	2178.57
189.541	2193.85
189.617	2180.62
189.693	2178.58
189.768	2182.48
189.844	2211.23
189.92	2197.63
189.996	2208.58
190.071	2218.09
190.147	2214.67
190.223	2222.52
190.298	2215.52
190.374	2203.25
190.45	2217.09
190.526	2227.8
190.601	2223.7
190.677	2221.9
190.753	2251.74
190.828	2253.31
190.904	2268.73
190.98	2285.58
191.055	2296.96
191.131	2288.91
191.207	2310.8
191.282	2319.41
191.358	2311.61
191.433	2295.61
191.509	2311.87
191.585	2308.49
191.66	2310.92
191.736	2321.68
191.811	2315.06
191.887	2329.91
191.963	2348.38
192.038	2353.18
192.114	2350.61
192.189	2352.8
192.265	2351.42
192.34	2332.04
192.416	2332.09
192.491	2327.28
192.567	2326.14
192.642	2326.95
192.718	2325.86
192.793	2311.34
192.869	2305.82
192.944	2305.63
193.02	2311.91
193.095	2314.91
193.171	2320.67
193.246	2320.34
193.322	2315.96
193.397	2312.01
193.473	2296.87
193.548	2283.54
193.624	2288.5
193.699	2288.12
193.775	2304.83
193.85	2307.01
193.925	2313.92
194.001	2312.01
194.076	2304.49
194.152	2294.74
194.227	2286.36
194.302	2278.84
194.378	2284.17
194.453	2284.03
194.529	2296.35
194.604	2282.31
194.679	2277.65
194.755	2256.48
194.83	2270.76
194.905	2267.38
194.981	2281.14
195.056	2275.71
195.131	2282.28
195.207	2282.52
195.282	2272.38
195.357	2254.01
195.433	2269.38
195.508	2257.29
195.583	2266.04
195.659	2279.61
195.734	2286.8
195.809	2286.46
195.884	2295.31
195.96	2295.03
196.035	2307.31
196.11	2307.02
196.185	2317.92
196.261	2322.25
196.336	2352.28
196.411	2334.47
196.486	2344.23
196.561	2335.66
196.637	2345.75
196.712	2363.46
196.787	2362.37
196.862	2378.45
196.937	2387.31
197.013	2392.5
197.088	2402.54
197.163	2427.92
197.238	2447.5
197.313	2447.12
197.388	2462.79
197.464	2491.84
197.539	2505.88
197.614	2502.17
197.689	2514.17
197.764	2530.46
197.839	2551.03
197.914	2546.51
197.989	2574.27
198.065	2585.37
198.14	2637.17
198.215	2665.03
198.29	2675.71
198.365	2692.9
198.44	2705
198.515	2735.74
198.59	2747.64
198.665	2777.71
198.74	2781.52
198.815	2782.71
198.89	2808.54
198.965	2839.81
199.04	2836.99
199.115	2853.77
199.19	2897.8
199.265	2900.37
199.34	2912.43
199.415	2946.48
199.49	2969.93
199.565	2975.45
199.64	2999.05
199.715	2994.37
199.79	3001.57
199.865	3004.1
199.94	3004.34
200.015	3034.14
200.09	3040.15
200.165	3051.02
200.24	3058.17
200.315	3103.66
200.39	3119.25
200.464	3123.97
200.539	3125.31
200.614	3139.9
200.689	3160.5
200.764	3166.99
200.839	3185.44
200.914	3189.3
200.989	3177.04
201.063	3190.44
201.138	3175.95
201.213	3178.72
201.288	3163.98
201.363	3166.79
201.438	3168.03
201.512	3184.29
201.587	3168.65
201.662	3170.22
201.737	3182.34
201.812	3188.25
201.886	3150.73
201.961	3166.05
202.036	3156.09
202.111	3152.08
202.186	3121.86
202.26	3103.88
202.335	3080.27
202.41	3074.79
202.485	3058.29
202.559	3040.32
202.634	3014.48
202.709	3024.2
202.784	3005.17
202.858	3004.6
202.933	2986.91
203.008	2983.86
203.082	2960.27
203.157	2957.31
203.232	2914.76
203.306	2895.54
203.381	2861.03
203.456	2837.58
203.53	2808.62
203.605	2787.8
203.68	2765.39
203.754	2760.3
203.829	2746.38
203.904	2725.9
203.978	2711.93
204.053	2714.89
204.127	2701.64
204.202	2698.31
204.277	2680.59
204.351	2672.44
204.426	2662.62
204.5	2650.38
204.575	2614.38
204.65	2624.1
204.724	2617.28
204.799	2625.13
204.873	2618.8
204.948	2620.75
205.022	2608.42
205.097	2598.65
205.171	2614.08
205.246	2621.04
205.32	2621.75
205.395	2623.51
205.469	2615.56
205.544	2621.28
205.618	2600.66
205.693	2609.47
205.767	2597.51
205.842	2620.34
205.916	2613.24
205.991	2601.29
206.065	2609.24
206.14	2625.33
206.214	2621.8
206.289	2618.13
206.363	2632.9
206.438	2632.28
206.512	2638.09
206.586	2658.71
206.661	2668.77
206.735	2643.3
206.81	2644.82
206.884	2659.06
206.958	2645.39
207.033	2662.73
207.107	2671.73
207.181	2708.38
207.256	2702.61
207.33	2720.19
207.405	2732.11
207.479	2753.88
207.553	2760.55
207.628	2744.93
207.702	2757.37
207.776	2753.22
207.851	2753.03
207.925	2766.62
207.999	2766.9
208.073	2764.81
208.148	2770.72
208.222	2755.85
208.296	2790.28
208.371	2805.92
208.445	2816.84
208.519	2847.47
208.593	2861.96
208.668	2855.96
208.742	2855.15
208.816	2858.29
208.89	2872.73
208.965	2869.78
209.039	2876.21
209.113	2898.57
209.187	2918.95
209.261	2915.61
209.336	2933.78
209.41	2954.89
209.484	2951.56
209.558	2972.72
209.632	2990.98
209.707	2999.04
209.781	3025.92
209.855	3040.85
209.929	3058.13
210.003	3065.42
210.077	3066.19
210.151	3110.72
210.226	3149.99
210.3	3180.82
210.374	3210
210.448	3216.49
210.522	3227.7
210.596	3241.06
210.67	3250.45
210.744	3300.12
210.818	3333.79
210.892	3360.42
210.966	3353.41
211.041	3376.74
211.115	3376.26
211.189	3399.21
211.263	3421.02
211.337	3429.61
211.411	3447.89
211.485	3446.03
211.559	3463.35
211.633	3468.83
211.707	3443.9
211.781	3457.42
211.855	3431.07
211.929	3427.83
212.003	3418.34
212.077	3440.4
212.151	3462.55
212.225	3485.61
212.299	3487.28
212.373	3491.15
212.447	3497.65
212.52	3548.35
212.594	3570.18
212.668	3608.81
212.742	3615.25
212.816	3633.64
212.89	3655.08
212.964	3683.47
213.038	3718.87
213.112	3764.32
213.186	3816.81
213.26	3834.19
213.333	3820.24
213.407	3864.51
213.481	3911.17
213.555	3972.64
213.629	4008.69
213.703	4044.6
213.777	4096.4
213.85	4136.57
213.924	4228.75
213.998	4295.63
214.072	4354.94
214.146	4404.55
214.219	4466.81
214.293	4538.33
214.367	4615.25
214.441	4707.45
214.515	4776.6
214.588	4835.88
214.662	4886.4
214.736	4951.2
214.81	5051.49
214.883	5162.89
214.957	5254.67
215.031	5345.2
215.105	5423.57
215.178	5517.06
215.252	5618.65
215.326	5703.1
215.4	5790.07
215.473	5856.53
215.547	5950.44
215.621	6055.14
215.694	6183.39
215.768	6285.78
215.842	6399.73
215.915	6510.62
215.989	6607.4
216.063	6731.24
216.136	6866.85
216.21	7004.62
216.284	7154.98
216.357	7295.65
216.431	7431.53
216.504	7576.38
216.578	7740.88
216.652	7895.87
216.725	8043.63
216.799	8200.47
216.873	8352.34
216.946	8515.22
217.02	8668.56
217.093	8819.82
217.167	8949.59
217.24	9082.02
217.314	9231
217.387	9381.01
217.461	9527.34
217.535	9692.56
217.608	9830.78
217.682	9985.73
217.755	10144.39
217.829	10283.03
217.902	10434.74
217.976	10580.81
218.049	10717.16
218.123	10850.44
218.196	11012.39
218.27	11147.99
218.343	11276.48
218.417	11425.68
218.49	11573.97
218.563	11732.73
218.637	11877.56
218.71	12043.03
218.784	12199.43
218.857	12351.75
218.931	12491.09
219.004	12632.71
219.077	12781.85
219.151	12923.09
219.224	13053
219.298	13190.63
219.371	13331.43
219.444	13444.09
219.518	13589.14
219.591	13732.74
219.665	13887.91
219.738	14010.45
219.811	14127.88
219.885	14265.7
219.958	14395.52
220.031	14521.04
220.105	14636.97
220.178	14763.75
220.251	14877.07
220.325	14999.6
220.398	15117.17
220.471	15237.97
220.544	15363.2
220.618	15461.19
220.691	15585.79
220.764	15697.52
220.838	15807.13
220.911	15913.41
220.984	16040.03
221.057	16149.92
221.131	16251.28
221.204	16316.54
221.277	16432.02
221.35	16561.77
221.424	16653.34
221.497	16746.55
221.57	16841.98
221.643	16937.26
221.716	17032.69
221.79	17107.05
221.863	17190.77
221.936	17269.52
222.009	17360.26
222.082	17443.35
222.155	17521.52
222.229	17605.13
222.302	17684.12
222.375	17748.6
222.448	17825.71
222.521	17892.17
222.594	17942.33
222.667	17993.71
222.74	18080.02
222.814	18132.06
222.887	18192.35
222.96	18268.49
223.033	18335.09
223.106	18376.05
223.179	18444.53
223.252	18495.51
223.325	18542.79
223.398	18585.92
223.471	18639.07
223.544	18684.13
223.617	18738.15
223.69	18786.39
223.763	18817.95
223.837	18857.13
223.91	18919.2
223.983	18950.52
224.056	18986.38
224.129	19041.46
224.202	19094.9
224.275	19124.88
224.348	19157.07
224.42	19177.11
224.493	19186.37
224.566	19206.03
224.639	19259.61
224.712	19271.37
224.785	19290.94
224.858	19329.34
224.931	19345.05
225.004	19364.52
225.077	19381.2
225.15	19365.25
225.223	19388.81
225.296	19428.95
225.369	19434.35
225.442	19433.82
225.514	19450.98
225.587	19479.02
225.66	19496.61
225.733	19519.74
225.806	19534.3
225.879	19552.95
225.952	19554.2
226.025	19581.43
226.097	19612.65
226.17	19617.28
226.243	19610.29
226.316	19626.05
226.389	19637.28
226.461	19663.83
226.534	19670.72
226.607	19681.08
226.68	19724.55
226.753	19730.14
226.825	19709.42
226.898	19739.64
226.971	19742.62
227.044	19755.92
227.117	19753.42
227.189	19766.77
227.262	19769.75
227.335	19777.32
227.407	19767.97
227.48	19783.39
227.553	19783.58
227.626	19779.54
227.698	19781.99
227.771	19795.39
227.844	19781.32
227.916	19788.6
227.989	19777.56
228.062	19782.04
228.134	19811.05
228.207	19804.07
228.28	19797.51
228.352	19813.08
228.425	19804.4
228.498	19820.88
228.57	19804.89
228.643	19821.22
228.716	19807.54
228.788	19811.44
228.861	19806.81
228.934	19824.88
229.006	19824.02
229.079	19823.68
229.151	19819.2
229.224	19803.29
229.296	19802.67
229.369	19838.67
229.442	19837.17
229.514	19829.17
229.587	19846.62
229.659	19819.82
229.732	19820.69
229.804	19830.52
229.877	19846.86
229.949	19864.98
230.022	19880.64
230.094	19884.5
230.167	19885.51
230.239	19869.94
230.312	19857.12
230.384	19877.56
230.457	19870.43
230.529	19870.91
230.602	19870.14
230.674	19865.22
230.747	19880.88
230.819	19892.26
230.892	19837.27
230.964	19846.86
231.037	19841.99
231.109	19817.32
231.181	19817.75
231.254	19809.32
231.326	19795.06
231.399	19787.44
231.471	19756.79
231.544	19714.91
231.616	19712.75
231.688	19685.86
231.761	19669.57
231.833	19661.9
231.905	19620.41
231.978	19610.1
232.05	19590.15
232.122	19575.93
232.195	19556.32
232.267	19548.42
232.339	19524.32
232.412	19541.77
232.484	19517.96
232.556	19505.09
232.629	19520.51
232.701	19517.57
232.773	19497.91
232.846	19480.76
232.918	19453.19
232.99	19442.59
233.062	19440.23
233.135	19430.93
233.207	19406.06
233.279	19404.04
233.351	19387.85
233.424	19370.64
233.496	19339.08
233.568	19350.6
233.64	19319.56
233.713	19303.42
233.785	19284.24
233.857	19273.83
233.929	19236.68
234.001	19231.47
234.074	19228.68
234.146	19175.33
234.218	19151.91
234.29	19124.97
234.362	19097.36
234.434	19068.49
234.507	19043.15
234.579	19006.38
234.651	18973.7
234.723	18968.31
234.795	18957.51
234.867	18936.74
234.939	18934.09
235.012	18916.02
235.084	18884.31
235.156	18870.96
235.228	18843.06
235.3	18812.22
235.372	18795.88
235.444	18794.2
235.516	18751.36
235.588	18733.82
235.66	18725.67
235.732	18691.31
235.804	18732.42
235.876	18733.57
235.948	18729.38
236.02	18701.53
236.092	18685
236.164	18671.75
236.236	18643.46
236.308	18608.28
236.38	18584.52
236.452	18544.38
236.524	18531.51
236.596	18528.96
236.668	18513.92
236.74	18497.78
236.812	18472.58
236.884	18456.29
236.956	18431.76
237.028	18397.21
237.1	18360.39
237.172	18345.4
237.244	18342.03
237.316	18278.71
237.388	18241.07
237.46	18207.48
237.532	18202.23
237.604	18169.65
237.675	18154.14
237.747	18146.62
237.819	18114.86
237.891	18091.73
237.963	18065.9
238.035	18028.98
238.107	17962
238.178	17950.58
238.25	17914.77
238.322	17921.47
238.394	17872.65
238.466	17843.3
238.538	17835.54
238.609	17820.03
238.681	17774.48
238.753	17741.52
238.825	17715.16
238.897	17684.8
238.968	17673.14
239.04	17634.15
239.112	17637.96
239.184	17602.1
239.255	17561.04
239.327	17543.93
239.399	17513.81
239.471	17499.21
239.542	17482.78
239.614	17468.13
239.686	17419.21
239.758	17410.73
239.829	17362.83
239.901	17347.07
239.973	17324.71
240.044	17299.31
240.116	17264.51
240.188	17241.23
240.259	17205.19
240.331	17173.52
240.403	17159.45
240.474	17111.16
240.546	17081.57
240.618	17040.22
240.689	17002.19
240.761	16971.98
240.833	16966.63
240.904	16932.7
240.976	16897.61
241.048	16868.79
241.119	16862.28
241.191	16840.6
241.262	16831.34
241.334	16794.47
241.405	16760.5
241.477	16727.14
241.549	16694.61
241.62	16675.38
241.692	16655.62
241.763	16642.51
241.835	16601.74
241.906	16574.12
241.978	16525.49
242.049	16504
242.121	16480.33
242.192	16473.73
242.264	16437.34
242.335	16380.71
242.407	16373.86
242.478	16344.13
242.55	16315.4
242.621	16269.56
242.693	16226.72
242.764	16181.89
242.836	16153.51
242.907	16134.95
242.979	16108.05
243.05	16082.32
243.122	16056
243.193	16023.8
243.264	15968.04
243.336	15954.35
243.407	15938.4
243.479	15940.03
243.55	15921.72
243.622	15890.34
243.693	15850.72
243.764	15838.57
243.836	15800.74
243.907	15756.44
243.978	15730.56
244.05	15712.92
244.121	15671.66
244.192	15669.29
244.264	15620.85
244.335	15597.76
244.407	15543.63
244.478	15519.78
244.549	15488.35
244.62	15442.89
244.692	15417.11
244.763	15400.77
244.834	15360.66
244.906	15318.92
244.977	15293.13
245.048	15278.67
245.119	15244.3
245.191	15209.36
245.262	15163.23
245.333	15160.53
245.405	15136.52
245.476	15117.39
245.547	15088.71
245.618	15076.08
245.689	15049.47
245.761	15041.18
245.832	15009.27
245.903	15002.37
245.974	14977.98
246.045	14949.59
246.117	14936.96
246.188	14898.16
246.259	14864.08
246.33	14834.67
246.401	14805.46
246.473	14755.38
246.544	14716.82
246.615	14698.06
246.686	14672.27
246.757	14652.51
246.828	14610.14
246.899	14603.15
246.97	14554.32
247.042	14518.36
247.113	14494.64
247.184	14475.41
247.255	14430.43
247.326	14409.99
247.397	14378.85
247.468	14346.41
247.539	14318.79
247.61	14282.87
247.681	14260.94
247.752	14246.72
247.823	14216.93
247.894	14190.99
247.965	14156.91
248.037	14123.46
248.108	14089.33
248.179	14060.79
248.25	14031.58
248.321	14018.42
248.392	13972.23
248.463	13971.95
248.534	13948.66
248.605	13929.67
248.675	13898.82
248.746	13884.31
248.817	13864.78
248.888	13844.01
248.959	13797.73
249.03	13778.78
249.101	13752.32
249.172	13721.61
249.243	13666.41
249.314	13655.28
249.385	13633.34
249.456	13621.49
249.527	13596.8
249.598	13572.22
249.669	13544.98
249.739	13533.8
249.81	13505.6
249.881	13468.86
249.952	13450.06
250.023	13423.36
250.094	13378.86
250.165	13340.25
250.235	13312.77
250.306	13284.14
250.377	13250.2
250.448	13244.12
250.519	13201.22
250.59	13198.23
250.66	13173.69
250.731	13184.11
250.802	13160.49
250.873	13143.42
250.944	13126.4
251.014	13094.88
251.085	13098.64
251.156	13088.85
251.227	13077.81
251.297	13069.81
251.368	13066.97
251.439	13048.12
251.51	13036.5
251.58	13005.89
251.651	12982.85
251.722	12974.94
251.792	12940.28
251.863	12917.82
251.934	12907.5
252.005	12912.08
252.075	12881.23
252.146	12872.84
252.217	12856.21
252.287	12839.87
252.358	12815.86
252.429	12802.17
252.499	12776.72
252.57	12758.59
252.641	12745.77
252.711	12726.73
252.782	12686.04
252.852	12683.49
252.923	12658.81
252.994	12643.53
253.064	12643.77
253.135	12618.51
253.205	12598.65
253.276	12598.02
253.347	12601.97
253.417	12574.79
253.488	12549.86
253.558	12530.2
253.629	12507.16
253.699	12492.98
253.77	12481.08
253.841	12454.18
253.911	12449.7
253.982	12437.98
254.052	12423.81
254.123	12402.07
254.193	12379.13
254.264	12400.82
254.334	12373.34
254.405	12345.48
254.475	12309.91
254.546	12275.25
254.616	12267.34
254.687	12243.68
254.757	12227.09
254.827	12196.77
254.898	12182.99
254.968	12162.26
255.039	12131.41
255.109	12125.44
255.18	12093.91
255.25	12052.84
255.321	12043.35
255.391	12003.63
255.461	12002.62
255.532	11949.98
255.602	11928.92
255.673	11892.53
255.743	11865.87
255.813	11820.9
255.884	11809.14
255.954	11801.81
256.024	11806.58
256.095	11791.83
256.165	11766.14
256.235	11747.88
256.306	11730.33
256.376	11716.93
256.446	11709.61
256.517	11701.22
256.587	11690.18
256.657	11671.72
256.728	11658.8
256.798	11642.51
256.868	11621.6
256.938	11597.79
257.009	11594.12
257.079	11583.81
257.149	11595.42
257.219	11554.36
257.29	11540.96
257.36	11506.41
257.43	11493.34
257.5	11457.58
257.571	11431.94
257.641	11423.7
257.711	11402.54
257.781	11389.05
257.852	11378.16
257.922	11343.31
257.992	11328.37
258.062	11306.73
258.132	11299.93
258.202	11284.08
258.273	11265.28
258.343	11268.66
258.413	11241.48
258.483	11229.04
258.553	11200.32
258.623	11170
258.693	11158.2
258.764	11161.81
258.834	11160.08
258.904	11148.7
258.974	11125.28
259.044	11109.52
259.114	11092.27
259.184	11075.45
259.254	11050.73
259.324	11013.87
259.394	11001.14
259.464	10999.07
259.535	10978.11
259.605	10953.48
259.675	10925.92
259.745	10917.01
259.815	10884.57
259.885	10864.77
259.955	10874.79
260.025	10851.18
260.095	10835.91
260.165	10822.95
260.235	10819.57
260.305	10794.61
260.375	10761.7
260.445	10770.71
260.515	10769.94
260.585	10767.1
260.655	10744.74
260.725	10744.4
260.795	10742.81
260.865	10747.48
260.934	10721.56
261.004	10718.91
261.074	10702.09
261.144	10704.07
261.214	10698.82
261.284	10686.58
261.354	10680.31
261.424	10654.92
261.494	10660.02
261.564	10640.9
261.634	10638.05
261.703	10598.59
261.773	10595.27
261.843	10588.76
261.913	10570.16
261.983	10533.74
262.053	10518.99
262.123	10507.38
262.192	10477.08
262.262	10465.13
262.332	10439.93
