Data from 20250704_urea_1.5M_MAYP1162681_11-45-34-595.txt Node
Date: Fri Jul 04 11:45:34 BST 2025
User: adleo
Spectrometer: MAYP116268
Trigger mode: 0
Integration Time (sec): 1.000000E0
Scans to average: 1
Electric dark correction enabled: true
Nonlinearity correction enabled: true
Boxcar width: 10
XAxis mode: Wavelengths
Number of Pixels in Spectrum: 2068
>>>>>Begin Spectral Data<<<<<
179.565	1256.5
179.642	1319.93
179.718	1367.3
179.795	1408.54
179.871	1443.03
179.948	1466.21
180.024	1487.26
180.101	1511.12
180.177	1527.11
180.254	1550.99
180.33	1572.97
180.407	1631.19
180.483	1730.53
180.56	1824.37
180.636	1911.63
180.712	1899.27
180.789	1910.82
180.865	1920.04
180.942	1928.6
181.018	1939.87
181.095	1955.04
181.171	1959.94
181.248	1958.27
181.324	1974.87
181.4	1981.01
181.477	1991.47
181.553	2002.26
181.63	2023.62
181.706	2038.65
181.782	2046.01
181.859	2046.92
181.935	2053.34
182.011	2051.01
182.088	2069.42
182.164	2090.16
182.24	2103.76
182.317	2116.46
182.393	2117.17
182.469	2136.72
182.546	2152.89
182.622	2156.46
182.698	2149.37
182.775	2159.84
182.851	2176.25
182.927	2167.64
183.003	2164.64
183.08	2158.98
183.156	2168.92
183.232	2168.11
183.308	2157.65
183.385	2165.4
183.461	2183.24
183.537	2183.91
183.613	2196.04
183.69	2186.05
183.766	2175.39
183.842	2185.48
183.918	2191.28
183.995	2202.6
184.071	2205.6
184.147	2198.13
184.223	2187.38
184.299	2200.71
184.375	2193.24
184.452	2198.24
184.528	2247.68
184.604	2258.48
184.68	2272.18
184.756	2279.51
184.832	2281.46
184.908	2287.07
184.985	2287.45
185.061	2269.23
185.137	2276.8
185.213	2266.14
185.289	2268.61
185.365	2259.53
185.441	2257.77
185.517	2269.67
185.593	2265.05
185.669	2260.2
185.745	2270.71
185.822	2288.74
185.898	2280.32
185.974	2288.21
186.05	2281.17
186.126	2248
186.202	2240.06
186.278	2235.54
186.354	2223.59
186.43	2230.64
186.506	2230.06
186.582	2232.97
186.658	2242.39
186.734	2224.78
186.81	2226.92
186.886	2227.16
186.962	2239.86
187.038	2237.2
187.114	2230.34
187.19	2237.48
187.266	2228.63
187.341	2230.73
187.417	2221.83
187.493	2220.64
187.569	2224.83
187.645	2216.5
187.721	2204.08
187.797	2208.93
187.873	2214.74
187.949	2211.03
188.025	2205.84
188.101	2206.7
188.176	2209.55
188.252	2203.7
188.328	2208.36
188.404	2209.26
188.48	2204.51
188.556	2198.37
188.632	2197.66
188.707	2198.32
188.783	2197.18
188.859	2194.9
188.935	2186.47
189.011	2197.08
189.086	2192.23
189.162	2179.67
189.238	2178.81
189.314	2176.06
189.39	2171.82
189.465	2163.07
189.541	2179.77
189.617	2162.5
189.693	2156.03
189.768	2158.6
189.844	2185.97
189.92	2179.7
189.996	2187.12
190.071	2201.54
190.147	2199.73
190.223	2208.58
190.298	2200.3
190.374	2188.55
190.45	2196.58
190.526	2203.87
190.601	2194.59
190.677	2196.68
190.753	2225.05
190.828	2227.76
190.904	2243.08
190.98	2259.36
191.055	2269.59
191.131	2262.74
191.207	2284.24
191.282	2296.42
191.358	2288.04
191.433	2273.33
191.509	2288.22
191.585	2283.89
191.66	2283.36
191.736	2295.5
191.811	2286.46
191.887	2302.02
191.963	2325.11
192.038	2333.2
192.114	2334.05
192.189	2339.19
192.265	2335.39
192.34	2312.2
192.416	2311.3
192.491	2305.2
192.567	2307.77
192.642	2311.49
192.718	2308.68
192.793	2296.83
192.869	2294.4
192.944	2295.16
193.02	2299.45
193.095	2304.49
193.171	2311.87
193.246	2310.49
193.322	2306.16
193.397	2305.97
193.473	2291.78
193.548	2271.93
193.624	2277.74
193.699	2274.17
193.775	2290.36
193.85	2291.83
193.925	2303.11
194.001	2302.45
194.076	2295.4
194.152	2286.12
194.227	2274.6
194.302	2263.66
194.378	2268.13
194.453	2263.38
194.529	2276.42
194.604	2259.48
194.679	2249.82
194.755	2230.69
194.83	2242.02
194.905	2238.79
194.981	2249.45
195.056	2240.69
195.131	2248.88
195.207	2247.59
195.282	2237.27
195.357	2215.56
195.433	2229.79
195.508	2218.37
195.583	2224.79
195.659	2241.4
195.734	2248.83
195.809	2252.16
195.884	2262.34
195.96	2264.53
196.035	2281.14
196.11	2277.47
196.185	2292.17
196.261	2296.5
196.336	2326.3
196.411	2314.49
196.486	2318.53
196.561	2311.49
196.637	2321
196.712	2336.57
196.787	2335.15
196.862	2349.13
196.937	2364.46
197.013	2372.7
197.088	2382.78
197.163	2409.79
197.238	2427.56
197.313	2426.89
197.388	2438.79
197.464	2471.27
197.539	2480.51
197.614	2470.99
197.689	2485.56
197.764	2502.66
197.839	2523.7
197.914	2519.18
197.989	2542.56
198.065	2560.51
198.14	2613.03
198.215	2643.75
198.29	2654.71
198.365	2668.38
198.44	2686.76
198.515	2712.92
198.59	2725.3
198.665	2753.55
198.74	2756.27
198.815	2756.46
198.89	2780.04
198.965	2816.27
199.04	2813.22
199.115	2828.04
199.19	2875.97
199.265	2877.59
199.34	2887.41
199.415	2923.55
199.49	2947.14
199.565	2957.1
199.64	2979.22
199.715	2975.93
199.79	2981.65
199.865	2987.99
199.94	2992.99
200.015	3021.6
200.09	3026.56
200.165	3036.57
200.24	3044.92
200.315	3089.97
200.39	3105.75
200.464	3110.85
200.539	3105.7
200.614	3122.63
200.689	3149.29
200.764	3155.73
200.839	3176.03
200.914	3182.61
200.989	3173.31
201.063	3187.24
201.138	3168.13
201.213	3168.99
201.288	3148.76
201.363	3157.73
201.438	3158.45
201.512	3171.22
201.587	3153.96
201.662	3159.92
201.737	3170.6
201.812	3176.99
201.886	3140.58
201.961	3151.5
202.036	3140.49
202.111	3141.21
202.186	3109.8
202.26	3091.43
202.335	3064.39
202.41	3054.24
202.485	3035.31
202.559	3012.19
202.634	2982.39
202.709	2991.01
202.784	2969.18
202.858	2969.7
202.933	2945.2
203.008	2937.72
203.082	2918.46
203.157	2915.84
203.232	2871.05
203.306	2852.12
203.381	2819.08
203.456	2797.54
203.53	2770.92
203.605	2753.92
203.68	2727.55
203.754	2722.46
203.829	2707.83
203.904	2689.82
203.978	2679.24
204.053	2684.29
204.127	2673.62
204.202	2671.05
204.277	2655.05
204.351	2648.95
204.426	2636.66
204.5	2629.18
204.575	2593.7
204.65	2600.04
204.724	2594.22
204.799	2602.6
204.873	2592.64
204.948	2593.69
205.022	2581.6
205.097	2576.97
205.171	2587.88
205.246	2597.98
205.32	2595.65
205.395	2594.03
205.469	2586.65
205.544	2593.56
205.618	2577.41
205.693	2590.66
205.767	2582.32
205.842	2603.43
205.916	2596.14
205.991	2591.85
206.065	2597.76
206.14	2616.61
206.214	2611.32
206.289	2603.08
206.363	2616.13
206.438	2621.75
206.512	2626.37
206.586	2645.09
206.661	2650.71
206.735	2631.28
206.81	2633.19
206.884	2647.71
206.958	2636.52
207.033	2655.05
207.107	2659.67
207.181	2692.36
207.256	2686.26
207.33	2702.27
207.405	2715.14
207.479	2737.01
207.553	2741.2
207.628	2727.01
207.702	2739.25
207.776	2737.82
207.851	2743.92
207.925	2758.51
207.999	2757.84
208.073	2755.84
208.148	2756.36
208.222	2745.83
208.296	2777.6
208.371	2791.09
208.445	2807.25
208.519	2834.88
208.593	2845.84
208.668	2842.79
208.742	2841.84
208.816	2841.55
208.89	2858.43
208.965	2858.38
209.039	2865.87
209.113	2882.16
209.187	2905.69
209.261	2900.36
209.336	2919.23
209.41	2938.78
209.484	2938.73
209.558	2962.28
209.632	2976.06
209.707	2991.03
209.781	3012.67
209.855	3028.93
209.929	3049.31
210.003	3050.83
210.077	3052.46
210.151	3103.19
210.226	3139.31
210.3	3173.06
210.374	3201
210.448	3207.1
210.522	3218.55
210.596	3233.91
210.67	3246.31
210.744	3295.47
210.818	3333.52
210.892	3358.48
210.966	3357
211.041	3381.24
211.115	3382.53
211.189	3414.74
211.263	3438.36
211.337	3453.39
211.411	3478.02
211.485	3482.03
211.559	3510.71
211.633	3526.5
211.707	3507.25
211.781	3530.42
211.855	3508.93
211.929	3516.28
212.003	3517.52
212.077	3553.35
212.151	3587.4
212.225	3628.28
212.299	3640.81
212.373	3656.42
212.447	3684.18
212.52	3745.33
212.594	3782.65
212.668	3828.31
212.742	3853.59
212.816	3890.67
212.89	3927.99
212.964	3971.26
213.038	4023.57
213.112	4080.72
213.186	4146.68
213.26	4181.51
213.333	4193.32
213.407	4254.26
213.481	4321.14
213.555	4394.51
213.629	4445.44
213.703	4494.63
213.777	4564.29
213.85	4618.76
213.924	4731.82
213.998	4807.39
214.072	4880.45
214.146	4949.13
214.219	5034.06
214.293	5121.19
214.367	5212.47
214.441	5313
214.515	5398.82
214.588	5468.37
214.662	5533.33
214.736	5612.19
214.81	5719.4
214.883	5833.64
214.957	5932.08
215.031	6025.69
215.105	6119.26
215.178	6213.9
215.252	6322.55
215.326	6414.35
215.4	6516.11
215.473	6582.35
215.547	6684.03
215.621	6797.87
215.694	6922.12
215.768	7022.58
215.842	7129.83
215.915	7241.01
215.989	7342.96
216.063	7459.13
216.136	7586.19
216.21	7717.77
216.284	7863.2
216.357	7992.56
216.431	8110.45
216.504	8247.59
216.578	8402.27
216.652	8538.99
216.725	8669.78
216.799	8805.17
216.873	8932.38
216.946	9069.13
217.02	9197.45
217.093	9324.03
217.167	9426.45
217.24	9543.09
217.314	9668.14
217.387	9786.74
217.461	9905.61
217.535	10045.58
217.608	10162.69
217.682	10285.63
217.755	10415.94
217.829	10528.98
217.902	10656.27
217.976	10782.12
218.049	10893.23
218.123	10999.54
218.196	11129.79
218.27	11248.82
218.343	11361.89
218.417	11489.07
218.49	11605.9
218.563	11742.73
218.637	11867.22
218.71	12010.91
218.784	12137.14
218.857	12271.19
218.931	12398.97
219.004	12524
219.077	12652.76
219.151	12769.8
219.224	12887.99
219.298	13006.34
219.371	13132.83
219.444	13233.38
219.518	13347.24
219.591	13463.56
219.665	13602.49
219.738	13716.45
219.811	13822.65
219.885	13937.23
219.958	14048.2
220.031	14155.27
220.105	14257.51
220.178	14369.01
220.251	14465.27
220.325	14574.07
220.398	14677.76
220.471	14786.7
220.544	14896.31
220.618	14975.66
220.691	15077.8
220.764	15171.36
220.838	15266.46
220.911	15353.32
220.984	15465.87
221.057	15577.41
221.131	15670.1
221.204	15724.71
221.277	15814.27
221.35	15928.89
221.424	16009.72
221.497	16094.02
221.57	16179.76
221.643	16269.7
221.716	16352.46
221.79	16422.44
221.863	16493.1
221.936	16565.53
222.009	16628.53
222.082	16696.77
222.155	16765.5
222.229	16847.19
222.302	16924.11
222.375	16987.87
222.448	17058.14
222.521	17126.14
222.594	17173.76
222.667	17228.22
222.74	17301.14
222.814	17365.38
222.887	17419.79
222.96	17486.53
223.033	17545.43
223.106	17600.61
223.179	17659.5
223.252	17707.83
223.325	17762.43
223.398	17811.4
223.471	17855.4
223.544	17913.18
223.617	17970.38
223.69	18019.63
223.763	18062.04
223.837	18108.3
223.91	18156.25
223.983	18172.3
224.056	18204.3
224.129	18244.54
224.202	18301.21
224.275	18340.92
224.348	18359.62
224.42	18375.23
224.493	18397.69
224.566	18423.23
224.639	18453.78
224.712	18475.18
224.785	18509.06
224.858	18531.9
224.931	18553.2
225.004	18569.78
225.077	18592.57
225.15	18582.31
225.223	18611.22
225.296	18651.36
225.369	18658.06
225.442	18672.13
225.514	18709.09
225.587	18728.42
225.66	18758.3
225.733	18774.05
225.806	18795.5
225.879	18817.95
225.952	18824.85
226.025	18852.7
226.097	18884.22
226.17	18900.02
226.243	18888.89
226.316	18900.7
226.389	18917.9
226.461	18944.4
226.534	18965.8
226.607	18978.04
226.68	19019
226.753	19024.93
226.825	19005.94
226.898	19035.15
226.971	19050.13
227.044	19061.36
227.117	19073.07
227.189	19093.21
227.262	19114.9
227.335	19122.32
227.407	19134.37
227.48	19152.3
227.553	19165.31
227.626	19169.74
227.698	19174.17
227.771	19194.32
227.844	19179.57
227.916	19185.98
227.989	19170.46
228.062	19178.7
228.134	19199.18
228.207	19195.04
228.28	19195.14
228.352	19200.73
228.425	19199.52
228.498	19210.51
228.57	19201.35
228.643	19202.61
228.716	19193.74
228.788	19178.51
228.861	19173.74
228.934	19180.34
229.006	19170.9
229.079	19162.85
229.151	19150.75
229.224	19142.8
229.296	19147.57
229.369	19178.41
229.442	19191.18
229.514	19182.46
229.587	19190.51
229.659	19169.69
229.732	19174.22
229.804	19186.41
229.877	19202.61
229.949	19208.24
230.022	19217.93
230.094	19216.19
230.167	19228.97
230.239	19214.51
230.312	19211.67
230.384	19238.7
230.457	19233.21
230.529	19234.07
230.602	19226.8
230.674	19226.56
230.747	19228.19
230.819	19225.16
230.892	19187.86
230.964	19186.75
231.037	19188.78
231.109	19175.96
231.181	19173.11
231.254	19149.45
231.326	19137.93
231.399	19121.84
231.471	19107.72
231.544	19073.79
231.616	19074.52
231.688	19055.77
231.761	19035.05
231.833	19014.81
231.905	18972.35
231.978	18967.82
232.05	18958.19
232.122	18950.19
232.195	18934.09
232.267	18940.5
232.339	18929.42
232.412	18935.88
232.484	18915.25
232.556	18896.26
232.629	18900.74
232.701	18892.41
232.773	18887.97
232.846	18870.87
232.918	18864.51
232.99	18850.77
233.062	18858
233.135	18849.9
233.207	18822.34
233.279	18823.88
233.351	18827.01
233.424	18801.71
233.496	18768.08
233.568	18777.28
233.64	18752.56
233.713	18735.31
233.785	18717.05
233.857	18696.32
233.929	18657.24
234.001	18655.02
234.074	18655.84
234.146	18618.79
234.218	18615.56
234.29	18596.62
234.362	18564.76
234.434	18527.56
234.507	18494.94
234.579	18452.72
234.651	18426.89
234.723	18419.09
234.795	18404.63
234.867	18385.45
234.939	18399.91
235.012	18393.21
235.084	18378.17
235.156	18369.35
235.228	18342.71
235.3	18315.09
235.372	18307.29
235.444	18307.48
235.516	18257.6
235.588	18244.35
235.66	18228.01
235.732	18195.44
235.804	18231.72
235.876	18230.85
235.948	18229.84
236.02	18214.66
236.092	18197.94
236.164	18184.98
236.236	18162.57
236.308	18142.28
236.38	18115.78
236.452	18079.15
236.524	18053.95
236.596	18041.75
236.668	18023.83
236.74	18011.39
236.812	17998.33
236.884	17978.19
236.956	17960.55
237.028	17943.2
237.1	17916.46
237.172	17912.36
237.244	17904.22
237.316	17846.82
237.388	17821.52
237.46	17784.17
237.532	17769.47
237.604	17744.8
237.675	17734.15
237.747	17726.58
237.819	17690.01
237.891	17668.27
237.963	17633.86
238.035	17607.79
238.107	17549.19
238.178	17542.05
238.25	17515.5
238.322	17514.44
238.394	17477.86
238.466	17452.46
238.538	17435.36
238.609	17408.56
238.681	17362.97
238.753	17333.43
238.825	17312.08
238.897	17282.68
238.968	17283.6
239.04	17258.73
239.112	17254.39
239.184	17217.28
239.255	17170.68
239.327	17158.29
239.399	17141.91
239.471	17127.45
239.542	17106.34
239.614	17099.69
239.686	17044.31
239.758	17030.05
239.829	16989.47
239.901	16976.55
239.973	16947.35
240.044	16927.68
240.116	16916.65
240.188	16889.61
240.259	16858.24
240.331	16820.64
240.403	16804.55
240.474	16761.85
240.546	16729.75
240.618	16685.84
240.689	16650.47
240.761	16642.22
240.833	16631.57
240.904	16592.34
240.976	16562.03
241.048	16544.19
241.119	16519.32
241.191	16505.88
241.262	16495.03
241.334	16462.5
241.405	16435.03
241.477	16402.88
241.549	16377.1
241.62	16342.88
241.692	16330.44
241.763	16314.44
241.835	16282.15
241.906	16259.88
241.978	16220.02
242.049	16208.98
242.121	16200.93
242.192	16196.79
242.264	16152.49
242.335	16106.27
242.407	16097.98
242.478	16070.41
242.55	16044.58
242.621	16014.4
242.693	15976.81
242.764	15948.13
242.836	15919.55
242.907	15892.37
242.979	15876.31
243.05	15847.2
243.122	15828.6
243.193	15804.26
243.264	15755.57
243.336	15735.67
243.407	15715.57
243.479	15706.8
243.55	15681.49
243.622	15647.94
243.693	15606.44
243.764	15592.08
243.836	15554.87
243.907	15519.54
243.978	15494.04
244.05	15471.33
244.121	15424
244.192	15413.3
244.264	15366.5
244.335	15340.9
244.407	15301.71
244.478	15276.98
244.549	15252.74
244.62	15206.75
244.692	15172.05
244.763	15159.61
244.834	15122.11
244.906	15088.32
244.977	15066.53
245.048	15059.25
245.119	15024.45
245.191	14999.68
245.262	14960.78
245.333	14940.77
245.405	14917.83
245.476	14893.29
245.547	14865.09
245.618	14860.03
245.689	14830.29
245.761	14814.43
245.832	14783.92
245.903	14775.82
245.974	14747.52
246.045	14707.85
246.117	14705.49
246.188	14669.09
246.259	14635.73
246.33	14612.5
246.401	14581.31
246.473	14535.85
246.544	14492.76
246.615	14481
246.686	14440.84
246.757	14426.96
246.828	14401.27
246.899	14391.82
246.97	14347.08
247.042	14314.3
247.113	14289.53
247.184	14287.16
247.255	14252.99
247.326	14233.22
247.397	14196.3
247.468	14175.81
247.539	14156.91
247.61	14110.68
247.681	14094.77
247.752	14075.49
247.823	14042.33
247.894	14023.09
247.965	13996.19
248.037	13966.88
248.108	13922.2
248.179	13909.95
248.25	13880.55
248.321	13856.3
248.392	13813.73
248.463	13813.35
248.534	13784.37
248.605	13762.39
248.675	13726.96
248.746	13704.64
248.817	13688.11
248.888	13667.38
248.959	13627.22
249.03	13613.53
249.101	13595.41
249.172	13561.47
249.243	13515.19
249.314	13506.46
249.385	13481.69
249.456	13458.11
249.527	13434.01
249.598	13419.79
249.669	13382.33
249.739	13366.33
249.81	13353.65
249.881	13318.8
249.952	13299.51
250.023	13281.05
250.094	13244.03
250.165	13209.03
250.235	13182.9
250.306	13153.25
250.377	13126.74
250.448	13107.89
250.519	13061.28
250.59	13050.24
250.66	13027.44
250.731	13034.47
250.802	13003.77
250.873	12985.64
250.944	12969.06
251.014	12940.67
251.085	12944.28
251.156	12937.34
251.227	12930.88
251.297	12925.77
251.368	12907.07
251.439	12895.11
251.51	12889.04
251.58	12860.02
251.651	12833.26
251.722	12829.55
251.792	12791.42
251.863	12761.68
251.934	12756.09
252.005	12767.56
252.075	12746.88
252.146	12733.09
252.217	12720.08
252.287	12708.36
252.358	12684.74
252.429	12684.45
252.499	12659.29
252.57	12633.89
252.641	12618.99
252.711	12592.19
252.782	12549.82
252.852	12559.99
252.923	12539.65
252.994	12520.36
253.064	12514.68
253.135	12487.1
253.205	12459.24
253.276	12459.29
253.347	12455.67
253.417	12426.7
253.488	12400.72
253.558	12373.63
253.629	12356.13
253.699	12333.72
253.77	12329.33
253.841	12303.83
253.911	12283.25
253.982	12264.79
254.052	12260.59
254.123	12236.69
254.193	12212.97
254.264	12237.84
254.334	12202.17
254.405	12163.42
254.475	12129.53
254.546	12108.47
254.616	12109.29
254.687	12092.22
254.757	12076.7
254.827	12055.73
254.898	12042.38
254.968	12015.97
255.039	11999.87
255.109	11992.16
255.18	11964.73
255.25	11919.28
255.321	11905.11
255.391	11871.9
255.461	11875.7
255.532	11821.29
255.602	11806.2
255.673	11764.99
255.743	11728.11
255.813	11686.86
255.884	11681.36
255.954	11670.71
256.024	11671.29
256.095	11654.27
256.165	11624.59
256.235	11616.63
256.306	11597.45
256.376	11593.3
256.446	11587.47
256.517	11573.25
256.587	11565.16
256.657	11549.4
256.728	11542.12
256.798	11526.31
256.868	11505.25
256.938	11480.23
257.009	11474.93
257.079	11466.06
257.149	11479.46
257.219	11438.21
257.29	11428.95
257.36	11396.71
257.43	11398.54
257.5	11360.28
257.571	11340.37
257.641	11331.5
257.711	11299.41
257.781	11286.39
257.852	11264.71
257.922	11232.85
257.992	11205.77
258.062	11184.66
258.132	11179.45
258.202	11155.4
258.273	11143.79
258.343	11145.62
258.413	11120.32
258.483	11101.77
258.553	11074.15
258.623	11047.12
258.693	11037.86
258.764	11044.03
258.834	11035.7
258.904	11006.88
258.974	10973.97
259.044	10946.93
259.114	10932.33
259.184	10916.33
259.254	10898.84
259.324	10869.64
259.394	10855.04
259.464	10855.23
259.535	10834.7
259.605	10814.75
259.675	10785.31
259.745	10773.79
259.815	10743.92
259.885	10720.02
259.955	10734.43
260.025	10711.15
260.095	10700.26
260.165	10691.06
260.235	10689.09
260.305	10670.58
260.375	10645.82
260.445	10661.47
260.515	10671.5
260.585	10670.68
260.655	10654.25
260.725	10647.55
260.795	10631.46
260.865	10643.36
260.934	10628.18
261.004	10623.6
261.074	10605.2
261.144	10619.31
261.214	10608.95
261.284	10599.8
261.354	10599.75
261.424	10573.82
261.494	10574.07
261.564	10553.97
261.634	10551.37
261.703	10514.46
261.773	10504.59
261.843	10499.48
261.913	10483.44
261.983	10445.28
262.053	10435.11
262.123	10422.92
262.192	10388.48
262.262	10392.14
262.332	10358.75
