Data from 20250704_urea_1.5M_MAYP1162681_11-45-44-595.txt Node
Date: Fri Jul 04 11:45:44 BST 2025
User: adleo
Spectrometer: MAYP116268
Trigger mode: 0
Integration Time (sec): 1.000000E0
Scans to average: 1
Electric dark correction enabled: true
Nonlinearity correction enabled: true
Boxcar width: 10
XAxis mode: Wavelengths
Number of Pixels in Spectrum: 2068
>>>>>Begin Spectral Data<<<<<
179.565	1260.67
179.642	1320.68
179.718	1365.76
179.795	1406.12
179.871	1440.43
179.948	1458.1
180.024	1482.39
180.101	1505.8
180.177	1520.34
180.254	1547.9
180.33	1571.5
180.407	1631.24
180.483	1729.63
180.56	1827.61
180.636	1917.2
180.712	1901.7
180.789	1912.49
180.865	1926.46
180.942	1934.54
181.018	1943.82
181.095	1954.66
181.171	1964.22
181.248	1964.83
181.324	1980.86
181.4	1988.8
181.477	1995.08
181.553	2009.87
181.63	2029.03
181.706	2045.68
181.782	2055.33
181.859	2050.24
181.935	2057.04
182.011	2052.29
182.088	2069.55
182.164	2085.68
182.24	2096.57
182.317	2110.08
182.393	2109.6
182.469	2123.59
182.546	2138.33
182.622	2142.14
182.698	2137.33
182.775	2146.04
182.851	2161.98
182.927	2155.89
183.003	2152.75
183.08	2153.27
183.156	2162.07
183.232	2157.65
183.308	2148.7
183.385	2157.26
183.461	2176.82
183.537	2174.53
183.613	2189.76
183.69	2180.53
183.766	2170.25
183.842	2179.43
183.918	2185.81
183.995	2198.65
184.071	2201.84
184.147	2196.75
184.223	2186.53
184.299	2201.42
184.375	2191.48
184.452	2198.14
184.528	2244.72
184.604	2255.47
184.68	2265.99
184.756	2274.98
184.832	2279.65
184.908	2282.83
184.985	2278.74
185.061	2262.33
185.137	2274.61
185.213	2259.62
185.289	2261.71
185.365	2254.1
185.441	2251.91
185.517	2262.72
185.593	2260.96
185.669	2257.53
185.745	2268.57
185.822	2284.65
185.898	2274.56
185.974	2284.74
186.05	2273.84
186.126	2242.63
186.202	2236.06
186.278	2234.25
186.354	2223.69
186.43	2231.73
186.506	2232.21
186.582	2235.11
186.658	2243.1
186.734	2220.98
186.81	2226.21
186.886	2230.16
186.962	2243.62
187.038	2242.15
187.114	2235.34
187.19	2239.67
187.266	2230.87
187.341	2228.92
187.417	2221.97
187.493	2221.93
187.569	2224.59
187.645	2219.79
187.721	2206.84
187.797	2212.74
187.873	2216.4
187.949	2210.65
188.025	2204.7
188.101	2206.36
188.176	2208.69
188.252	2203.89
188.328	2213.88
188.404	2212.69
188.48	2207.12
188.556	2199.6
188.632	2196.75
188.707	2197.22
188.783	2196.46
188.859	2190.85
188.935	2182.33
189.011	2191.37
189.086	2185.9
189.162	2177.24
189.238	2174.25
189.314	2172.44
189.39	2169.54
189.465	2162.45
189.541	2180.15
189.617	2162.93
189.693	2154.75
189.768	2160.88
189.844	2184.78
189.92	2176.69
189.996	2186.92
190.071	2199.63
190.147	2198.06
190.223	2209.1
190.298	2200.15
190.374	2187.4
190.45	2199.15
190.526	2207.86
190.601	2203.1
190.677	2207.47
190.753	2234.56
190.828	2237.7
190.904	2254.88
190.98	2265.64
191.055	2276.44
191.131	2268.35
191.207	2294.33
191.282	2308.6
191.358	2300.13
191.433	2284.37
191.509	2296.69
191.585	2292.84
191.66	2294.27
191.736	2301.78
191.811	2292.27
191.887	2307.07
191.963	2329.48
192.038	2336.05
192.114	2332.29
192.189	2335.24
192.265	2331.2
192.34	2308.58
192.416	2309.2
192.491	2302.73
192.567	2306.68
192.642	2306.58
192.718	2306.06
192.793	2291.59
192.869	2283.07
192.944	2284.45
193.02	2294.69
193.095	2298.21
193.171	2304.73
193.246	2305.44
193.322	2303.97
193.397	2306.73
193.473	2294.68
193.548	2275.31
193.624	2280.64
193.699	2281.17
193.775	2299.11
193.85	2298.26
193.925	2305.83
194.001	2304.87
194.076	2297.12
194.152	2288.79
194.227	2280.98
194.302	2271.42
194.378	2275.75
194.453	2273.51
194.529	2286.65
194.604	2269.52
194.679	2264.81
194.755	2243.78
194.83	2254.35
194.905	2254.3
194.981	2260.96
195.056	2253.45
195.131	2259.3
195.207	2256.49
195.282	2249.97
195.357	2228.64
195.433	2246.39
195.508	2237.21
195.583	2246.01
195.659	2259.58
195.734	2266.95
195.809	2268.14
195.884	2277.14
195.96	2277.66
196.035	2296.69
196.11	2293.03
196.185	2306.5
196.261	2308.92
196.336	2342.71
196.411	2328.57
196.486	2332.33
196.561	2324.91
196.637	2334.38
196.712	2353.28
196.787	2359.09
196.862	2373.55
196.937	2383.98
197.013	2386.83
197.088	2395.11
197.163	2416.16
197.238	2434.6
197.313	2432.74
197.388	2445.64
197.464	2476.46
197.539	2486.83
197.614	2479.45
197.689	2491.31
197.764	2509.08
197.839	2532.08
197.914	2522.6
197.989	2543.36
198.065	2557.79
198.14	2611.69
198.215	2640.74
198.29	2651.51
198.365	2664.37
198.44	2673.23
198.515	2703.2
198.59	2720.68
198.665	2753.08
198.74	2763.13
198.815	2762.32
198.89	2786.29
198.965	2817.22
199.04	2813.98
199.115	2830.18
199.19	2870.25
199.265	2875.92
199.34	2885.64
199.415	2914.68
199.49	2940.84
199.565	2951.9
199.64	2973.58
199.715	2970.15
199.79	2976.54
199.865	2981.35
199.94	2980.59
200.015	3015.59
200.09	3021.36
200.165	3026.03
200.24	3030.8
200.315	3071.6
200.39	3088.67
200.464	3095.68
200.539	3099.55
200.614	3115.33
200.689	3139.17
200.764	3149.1
200.839	3165.69
200.914	3171.69
200.989	3161.49
201.063	3174.03
201.138	3157.45
201.213	3159.35
201.288	3141.75
201.363	3147.14
201.438	3151.29
201.512	3166.21
201.587	3147.13
201.662	3150.52
201.737	3164.68
201.812	3171.41
201.886	3133.99
201.961	3148.31
202.036	3135.1
202.111	3132.86
202.186	3100.64
202.26	3082.66
202.335	3060.72
202.41	3054.62
202.485	3036.12
202.559	3017.38
202.634	2991.49
202.709	2999.12
202.784	2979.76
202.858	2978.95
202.933	2959.17
203.008	2952.45
203.082	2931
203.157	2929.71
203.232	2887.45
203.306	2866.51
203.381	2833.24
203.456	2813.98
203.53	2785.36
203.605	2765.93
203.68	2742.19
203.754	2739.95
203.829	2725.98
203.904	2702.64
203.978	2693.39
204.053	2698.11
204.127	2687.92
204.202	2685.06
204.277	2671.01
204.351	2662.24
204.426	2652.71
204.5	2643.52
204.575	2605.9
204.65	2616.19
204.724	2606.61
204.799	2613.42
204.873	2611.46
204.948	2609.23
205.022	2595.13
205.097	2589.36
205.171	2604.32
205.246	2610.85
205.32	2609.7
205.395	2606.51
205.469	2601.7
205.544	2605.71
205.618	2586.85
205.693	2598.18
205.767	2583.85
205.842	2605.91
205.916	2602.34
205.991	2593.38
206.065	2600.43
206.14	2616.9
206.214	2612.04
206.289	2608.56
206.363	2621.47
206.438	2622.47
206.512	2632.28
206.586	2653.28
206.661	2659.48
206.735	2634.58
206.81	2631.77
206.884	2645.2
206.958	2634.01
207.033	2651.53
207.107	2659.06
207.181	2692.23
207.256	2684.32
207.33	2703.7
207.405	2715.48
207.479	2735.54
207.553	2743.16
207.628	2724.97
207.702	2736.59
207.776	2729.73
207.851	2732.21
207.925	2745.79
207.999	2746.13
208.073	2743.36
208.148	2745.75
208.222	2733.69
208.296	2769.31
208.371	2787
208.445	2799.25
208.519	2829.03
208.593	2840.32
208.668	2830.55
208.742	2833.75
208.816	2835.84
208.89	2851.72
208.965	2849.57
209.039	2857.34
209.113	2873.12
209.187	2896.26
209.261	2890.64
209.336	2912.99
209.41	2932.54
209.484	2935.21
209.558	2955.47
209.632	2972.35
209.707	2982.21
209.781	3006.95
209.855	3022.64
209.929	3045.36
210.003	3053.37
210.077	3056.42
210.151	3104.11
210.226	3142.55
210.3	3172.72
210.374	3199.75
210.448	3209.3
210.522	3220.41
210.596	3232.77
210.67	3246.74
210.744	3297.13
210.818	3338.04
210.892	3365.86
210.966	3368.11
211.041	3390.15
211.115	3392.39
211.189	3423.89
211.263	3450.47
211.337	3465.98
211.411	3488.13
211.485	3494.15
211.559	3517.72
211.633	3531.99
211.707	3519.99
211.781	3545.22
211.855	3523.78
211.929	3534.14
212.003	3533.71
212.077	3568.1
212.151	3605.12
212.225	3641.94
212.299	3655.8
212.373	3672.8
212.447	3697.31
212.52	3763.68
212.594	3801.04
212.668	3850.72
212.742	3874.62
212.816	3907.64
212.89	3943.52
212.964	3987.13
213.038	4032.12
213.112	4092.33
213.186	4160.44
213.26	4188.07
213.333	4197.72
213.407	4265.12
213.481	4331.14
213.555	4405.95
213.629	4454
213.703	4505.16
213.777	4573.47
213.85	4625.69
213.924	4737.27
213.998	4818.25
214.072	4885.67
214.146	4956.51
214.219	5041.74
214.293	5121.82
214.367	5218.85
214.441	5317.22
214.515	5399.48
214.588	5471.57
214.662	5533.5
214.736	5611.99
214.81	5724.57
214.883	5840.87
214.957	5934.91
215.031	6024.68
215.105	6109.85
215.178	6208.66
215.252	6312.66
215.326	6397.29
215.4	6497.89
215.473	6562.06
215.547	6659.24
215.621	6763.07
215.694	6893.05
215.768	6986.21
215.842	7095.8
215.915	7201.17
215.989	7299.65
216.063	7410.84
216.136	7542.09
216.21	7667.84
216.284	7801.67
216.357	7924.93
216.431	8044.16
216.504	8178.8
216.578	8338.73
216.652	8480.77
216.725	8610.51
216.799	8749.12
216.873	8884.11
216.946	9025.14
217.02	9156.44
217.093	9282.3
217.167	9392.51
217.24	9494.51
217.314	9621.2
217.387	9747.7
217.461	9868.01
217.535	10018.29
217.608	10144.54
217.682	10264.92
217.755	10408.43
217.829	10527.77
217.902	10658.1
217.976	10789.78
218.049	10906.73
218.123	11007.49
218.196	11133.02
218.27	11255.77
218.343	11363.53
218.417	11489.41
218.49	11603.54
218.563	11737.23
218.637	11865.68
218.71	12008.74
218.784	12140.27
218.857	12279.96
218.931	12405.09
219.004	12536.2
219.077	12655.79
219.151	12782.42
219.224	12901.92
219.298	13020.22
219.371	13154.81
219.444	13251.94
219.518	13358.96
219.591	13475.28
219.665	13622.5
219.738	13738.77
219.811	13847.86
219.885	13961.86
219.958	14080.06
220.031	14185.73
220.105	14299.01
220.178	14409.45
220.251	14496.51
220.325	14606.51
220.398	14702.92
220.471	14811.28
220.544	14911.84
220.618	14992.72
220.691	15090.77
220.764	15184.33
220.838	15274.27
220.911	15351.78
220.984	15465.44
221.057	15561.94
221.131	15651.79
221.204	15697.77
221.277	15804.15
221.35	15910.52
221.424	15990.2
221.497	16070.35
221.57	16156.2
221.643	16234.23
221.716	16315.92
221.79	16398.53
221.863	16471.79
221.936	16541.58
222.009	16607.71
222.082	16679.81
222.155	16751.91
222.229	16830.23
222.302	16908.59
222.375	16973.99
222.448	17048.89
222.521	17115.35
222.594	17173.42
222.667	17228.8
222.74	17309.81
222.814	17368.22
222.887	17425.28
222.96	17508.41
223.033	17578.63
223.106	17638.29
223.179	17702.1
223.252	17750.72
223.325	17800.46
223.398	17855.59
223.471	17909.95
223.544	17960.6
223.617	18006.81
223.69	18062.52
223.763	18095
223.837	18144.3
223.91	18193.31
223.983	18212.35
224.056	18240.11
224.129	18283.77
224.202	18335.43
224.275	18371.38
224.348	18386.41
224.42	18399.76
224.493	18401.11
224.566	18420.87
224.639	18457.74
224.712	18477.49
224.785	18507.37
224.858	18542.12
224.931	18561.49
225.004	18575.85
225.077	18607.94
225.15	18608.52
225.223	18631.94
225.296	18685.58
225.369	18691.46
225.442	18705.58
225.514	18744.9
225.587	18778.01
225.66	18807.59
225.733	18826.92
225.806	18846.87
225.879	18872.99
225.952	18887.25
226.025	18933.18
226.097	18963.58
226.17	18985.17
226.243	18982.09
226.316	18984.11
226.389	18991.2
226.461	19016.5
226.534	19045.12
226.607	19047.82
226.68	19092.25
226.753	19106.32
226.825	19088.06
226.898	19114.18
226.971	19126.61
227.044	19131.24
227.117	19135.48
227.189	19147.19
227.262	19166.37
227.335	19176.25
227.407	19175.19
227.48	19189.55
227.553	19184.24
227.626	19189.26
227.698	19185.16
227.771	19193.45
227.844	19204.58
227.916	19212.24
227.989	19196.58
228.062	19185.11
228.134	19211.47
228.207	19207.09
228.28	19197.55
228.352	19194.17
228.425	19189.21
228.498	19195.33
228.57	19188.82
228.643	19199.09
228.716	19194.61
228.788	19185.26
228.861	19178.08
228.934	19191.57
229.006	19196.77
229.079	19205.93
229.151	19189.4
229.224	19173.79
229.296	19182.94
229.369	19206.85
229.442	19226.8
229.514	19217.3
229.587	19228.05
229.659	19210.27
229.732	19204.63
229.804	19214.99
229.877	19241.59
229.949	19251.86
230.022	19278.07
230.094	19277.44
230.167	19276.67
230.239	19270.22
230.312	19261.4
230.384	19278.75
230.457	19271.66
230.529	19261.78
230.602	19251.86
230.674	19254.41
230.747	19265.2
230.819	19266.55
230.892	19225.25
230.964	19208.34
231.037	19215.81
231.109	19212.87
231.181	19214.17
231.254	19200.29
231.326	19186.03
231.399	19166.95
231.471	19142.8
231.544	19096.88
231.616	19099.58
231.688	19086.18
231.761	19064.16
231.833	19044.78
231.905	19010.71
231.978	19002.76
232.05	18987.63
232.122	18976.79
232.195	18958.19
232.267	18960.07
232.339	18942.67
232.412	18954.91
232.484	18945.66
232.556	18925.95
232.629	18932.31
232.701	18919.2
232.773	18908.74
232.846	18885.61
232.918	18874.05
232.99	18870.1
233.062	18868.41
233.135	18852.17
233.207	18822.97
233.279	18818.05
233.351	18817.71
233.424	18796.12
233.496	18773.19
233.568	18785.81
233.64	18759.31
233.713	18731.79
233.785	18706.11
233.857	18692.37
233.929	18654.83
234.001	18648.9
234.074	18645.92
234.146	18598.11
234.218	18589.29
234.29	18568.57
234.362	18560.62
234.434	18530.55
234.507	18491.52
234.579	18455.86
234.651	18436.48
234.723	18435.52
234.795	18427.13
234.867	18403.38
234.939	18403.91
235.012	18382.51
235.084	18363.62
235.156	18352.2
235.228	18341.79
235.3	18324.49
235.372	18318.56
235.444	18308.39
235.516	18272.35
235.588	18251.77
235.66	18241.31
235.732	18205.41
235.804	18248.59
235.876	18230.9
235.948	18233.26
236.02	18217.8
236.092	18197.02
236.164	18172.93
236.236	18155.1
236.308	18132.45
236.38	18120.02
236.452	18089.75
236.524	18081.56
236.596	18074.33
236.668	18062.57
236.74	18046.91
236.812	18031.49
236.884	18011.15
236.956	17990.33
237.028	17966.19
237.1	17941.47
237.172	17935.59
237.244	17930.96
237.316	17862.58
237.388	17833.23
237.46	17792.65
237.532	17791.45
237.604	17764.85
237.675	17757.43
237.747	17735.5
237.819	17708.32
237.891	17683.55
237.963	17650.25
238.035	17615.55
238.107	17553.77
238.178	17539.21
238.25	17511.26
238.322	17500.66
238.394	17457.19
238.466	17433.33
238.538	17418.1
238.609	17394.83
238.681	17360.03
238.753	17321.77
238.825	17301.72
238.897	17284.9
238.968	17275.4
239.04	17248.75
239.112	17259.45
239.184	17225.04
239.255	17192.18
239.327	17164.37
239.399	17137.28
239.471	17128.32
239.542	17114.82
239.614	17114.34
239.686	17061.76
239.758	17046.44
239.829	17013.57
239.901	17000.75
239.973	16973.76
240.044	16944.46
240.116	16923.68
240.188	16887.1
240.259	16863.49
240.331	16835.58
240.403	16810.86
240.474	16771.68
240.546	16732.93
240.618	16679.43
240.689	16658.76
240.761	16640.49
240.833	16631.62
240.904	16607.04
240.976	16585.74
241.048	16554.56
241.119	16524.67
241.191	16508.05
241.262	16491.37
241.334	16456.28
241.405	16430.93
241.477	16408.38
241.549	16377.1
241.62	16349.04
241.692	16336.8
241.763	16327.93
241.835	16298.1
241.906	16272.65
241.978	16237.37
242.049	16222.86
242.121	16211.92
242.192	16197.51
242.264	16157.8
242.335	16116.15
242.407	16099.04
242.478	16061.69
242.55	16043.9
242.621	16014.21
242.693	15982.79
242.764	15951.51
242.836	15932.56
242.907	15910.01
242.979	15883.59
243.05	15872.36
243.122	15848.99
243.193	15816.6
243.264	15761.41
243.336	15731.72
243.407	15721.55
243.479	15716.92
243.55	15701.4
243.622	15677.35
243.693	15643.85
243.764	15630.21
243.836	15595.21
243.907	15567.69
243.978	15538.48
244.05	15513.94
244.121	15458.8
244.192	15442.27
244.264	15404.57
244.335	15371.46
244.407	15322.68
244.478	15296.94
244.549	15255.24
244.62	15212.59
244.692	15185.06
244.763	15170.5
244.834	15135.46
244.906	15094.39
244.977	15066.24
245.048	15041.56
245.119	15001.55
245.191	14958.46
245.262	14915.56
245.333	14896.42
245.405	14865.33
245.476	14844.85
245.547	14811.73
245.618	14804.93
245.689	14777.7
245.761	14756.87
245.832	14727.13
245.903	14714.16
245.974	14691.17
246.045	14673.72
246.117	14670.3
246.188	14632.7
246.259	14598.62
246.33	14581.36
246.401	14549.64
246.473	14511.7
246.544	14471.41
246.615	14459.79
246.686	14434.29
246.757	14419.68
246.828	14394.71
246.899	14385.7
246.97	14343.37
247.042	14316.28
247.113	14295.84
247.184	14292.32
247.255	14255.49
247.326	14233.75
247.397	14207.05
247.468	14180.58
247.539	14150.84
247.61	14109.91
247.681	14090.82
247.752	14079.16
247.823	14041.8
247.894	14026.61
247.965	13984
248.037	13959.7
248.108	13915.74
248.179	13896.94
248.25	13865.84
248.321	13842.46
248.392	13800.81
248.463	13796.23
248.534	13767.21
248.605	13753.86
248.675	13724.98
248.746	13705.56
248.817	13685.5
248.888	13665.45
248.959	13622.5
249.03	13598.68
249.101	13575.59
249.172	13546.52
249.243	13498.37
249.314	13484.43
249.385	13452.42
249.456	13441.87
249.527	13413.67
249.598	13394.09
249.669	13366.33
249.739	13353.02
249.81	13343.57
249.881	13309.3
249.952	13290.02
250.023	13267.79
250.094	13220.6
250.165	13186.95
250.235	13164.34
250.306	13142.84
250.377	13107.94
250.448	13094.3
250.519	13050.53
250.59	13042.19
250.66	13022.52
250.731	13019.77
250.802	12998.18
250.873	12978.8
250.944	12955.03
251.014	12929.67
251.085	12940.28
251.156	12926.06
251.227	12918.83
251.297	12899.02
251.368	12891.69
251.439	12882.05
251.51	12878.09
251.58	12855.25
251.651	12824.63
251.722	12812.29
251.792	12770.69
251.863	12749.87
251.934	12750.11
252.005	12766.21
252.075	12743.75
252.146	12736.47
252.217	12723.64
252.287	12719.45
252.358	12699.16
252.429	12700.75
252.499	12676.74
252.57	12652.4
252.641	12641.84
252.711	12618.61
252.782	12583.03
252.852	12576.43
252.923	12551.41
252.994	12530.49
253.064	12518.53
253.135	12493.18
253.205	12468.98
253.276	12473.8
253.347	12470.67
253.417	12434.51
253.488	12402.02
253.558	12377.97
253.629	12352.23
253.699	12341.58
253.77	12319.31
253.841	12304.22
253.911	12288.17
253.982	12262.28
254.052	12248.21
254.123	12227.96
254.193	12204.24
254.264	12225.89
254.334	12193.83
254.405	12163.61
254.475	12130.69
254.546	12115.36
254.616	12108.42
254.687	12097.48
254.757	12081.52
254.827	12062.29
254.898	12049.76
254.968	12033.56
255.039	12008.35
255.109	11997.22
255.18	11959.62
255.25	11924.63
255.321	11911.04
255.391	11868.09
255.461	11887.66
255.532	11840.04
255.602	11820.47
255.673	11784.03
255.743	11755.01
255.813	11720.89
255.884	11716.98
255.954	11704.35
256.024	11702.09
256.095	11686.52
256.165	11650.42
256.235	11633.74
256.306	11599.47
256.376	11594.85
256.446	11579.09
256.517	11561.74
256.587	11554.75
256.657	11540.43
256.728	11516.48
256.798	11498.79
256.868	11484.19
256.938	11450.79
257.009	11444.04
257.079	11429.63
257.149	11433.34
257.219	11390.3
257.29	11379.51
257.36	11338.59
257.43	11331.07
257.5	11288.56
257.571	11267.31
257.641	11257.62
257.711	11228.66
257.781	11222.59
257.852	11209.23
257.922	11178.01
257.992	11164.32
258.062	11144.17
258.132	11137.96
258.202	11131.89
258.273	11112.9
258.343	11116.42
258.413	11094.63
258.483	11082.34
258.553	11051.84
258.623	11033.04
258.693	11024.95
258.764	11025.09
258.834	11029.04
258.904	11009.81
258.974	10985.39
259.044	10971.94
259.114	10965.53
259.184	10954.98
259.254	10940.96
259.324	10895.61
259.394	10884.86
259.464	10889.39
259.535	10864.91
259.605	10845.06
259.675	10818.51
259.745	10809.69
259.815	10781.98
259.885	10754.09
259.955	10766.47
260.025	10749.37
260.095	10731.1
260.165	10726.72
260.235	10726.91
260.305	10695.25
260.375	10672.37
260.445	10687.59
260.515	10678.48
260.585	10670.39
260.655	10654.73
260.725	10648.32
260.795	10643.21
260.865	10646.15
260.934	10611.84
261.004	10604.09
261.074	10590.5
261.144	10596.47
261.214	10594.98
261.284	10576.05
261.354	10579.22
261.424	10553.59
261.494	10557.39
261.564	10538.56
261.634	10522.94
261.703	10481.89
261.773	10482.9
261.843	10473.56
261.913	10451.83
261.983	10427.4
262.053	10420.61
262.123	10399.17
262.192	10371.8
262.262	10376.48
