Data from 20250704_urea_1M_MAYP1162681_11-32-02-661.txt Node
Date: Fri Jul 04 11:32:02 BST 2025
User: adleo
Spectrometer: MAYP116268
Trigger mode: 0
Integration Time (sec): 1.000000E0
Scans to average: 1
Electric dark correction enabled: true
Nonlinearity correction enabled: true
Boxcar width: 10
XAxis mode: Wavelengths
Number of Pixels in Spectrum: 2068
>>>>>Begin Spectral Data<<<<<
179.565	1253.19
179.642	1313.94
179.718	1359.28
179.795	1398.99
179.871	1431.75
179.948	1447.69
180.024	1468.44
180.101	1494.32
180.177	1510.02
180.254	1536.57
180.33	1557.98
180.407	1614.72
180.483	1713.59
180.56	1807
180.636	1893.45
180.712	1883.23
180.789	1895.4
180.865	1910.75
180.942	1917.74
181.018	1926.1
181.095	1943.18
181.171	1947.03
181.248	1947.98
181.324	1964.96
181.4	1971.62
181.477	1982.79
181.553	1997.53
181.63	2019.26
181.706	2033.48
181.782	2042.04
181.859	2039.47
181.935	2046.65
182.011	2043.71
182.088	2061.21
182.164	2079.95
182.24	2095.12
182.317	2106.49
182.393	2104.54
182.469	2115.24
182.546	2128.51
182.622	2136.03
182.698	2126.56
182.775	2141.21
182.851	2154.48
182.927	2143.35
183.003	2140.31
183.08	2135.31
183.156	2145.16
183.232	2141.11
183.308	2130.27
183.385	2140.16
183.461	2159.67
183.537	2161.05
183.613	2175.08
183.69	2166.9
183.766	2157.62
183.842	2165.47
183.918	2166.9
183.995	2180.45
184.071	2184.83
184.147	2178.36
184.223	2163.29
184.299	2179.23
184.375	2166.76
184.452	2173.71
184.528	2224.34
184.604	2234.14
184.68	2244.84
184.756	2250.46
184.832	2256.97
184.908	2261.11
184.985	2259.02
185.061	2240.27
185.137	2248.41
185.213	2237.13
185.289	2237.04
185.365	2232.09
185.441	2230.85
185.517	2245.66
185.593	2240.19
185.669	2236.85
185.745	2250.18
185.822	2268.25
185.898	2256.11
185.974	2263.82
186.05	2253.97
186.126	2220.71
186.202	2214.67
186.278	2213.24
186.354	2205.77
186.43	2212.29
186.506	2213.29
186.582	2211.44
186.658	2218.62
186.734	2200.59
186.81	2199.78
186.886	2204.44
186.962	2217.29
187.038	2215.58
187.114	2206.39
187.19	2214.05
187.266	2204.96
187.341	2203.3
187.417	2198.02
187.493	2200.01
187.569	2207.01
187.645	2203.54
187.721	2192.92
187.797	2199.73
187.873	2205.87
187.949	2201.58
188.025	2192.4
188.101	2193.21
188.176	2197.82
188.252	2196.92
188.328	2203.72
188.404	2205.29
188.48	2200.63
188.556	2192.11
188.632	2191.63
188.707	2193.06
188.783	2192.11
188.859	2188.11
188.935	2178.17
189.011	2183.64
189.086	2177.36
189.162	2169.13
189.238	2163.66
189.314	2161.57
189.39	2156.14
189.465	2148.01
189.541	2163.9
189.617	2149.72
189.693	2145.97
189.768	2149.82
189.844	2172.62
189.92	2166.15
189.996	2179.57
190.071	2187.95
190.147	2184.76
190.223	2190.56
190.298	2183.47
190.374	2169.68
190.45	2183.09
190.526	2192.32
190.601	2187.75
190.677	2191.51
190.753	2215.69
190.828	2222.07
190.904	2239.68
190.98	2254.95
191.055	2263.04
191.131	2253
191.207	2275.17
191.282	2284.68
191.358	2275.69
191.433	2258.84
191.509	2271.44
191.585	2263.5
191.66	2264.92
191.736	2274.58
191.811	2264.88
191.887	2281.54
191.963	2304.38
192.038	2307.95
192.114	2307.57
192.189	2311.28
192.265	2305.38
192.34	2285.34
192.416	2282.82
192.491	2274.86
192.567	2277.44
192.642	2282.34
192.718	2284.34
192.793	2270.73
192.869	2264.54
192.944	2268.54
193.02	2275.49
193.095	2280.29
193.171	2286.1
193.246	2288.76
193.322	2285.77
193.397	2288.1
193.473	2271.53
193.548	2255.06
193.624	2261.3
193.699	2260.78
193.775	2276.58
193.85	2279.1
193.925	2286.67
194.001	2285.29
194.076	2276.2
194.152	2268.25
194.227	2257.26
194.302	2245.7
194.378	2252.74
194.453	2252.41
194.529	2265.21
194.604	2250.08
194.679	2241.7
194.755	2224.53
194.83	2236
194.905	2233.62
194.981	2243.38
195.056	2238.43
195.131	2244.48
195.207	2240.91
195.282	2232.06
195.357	2211.49
195.433	2227.39
195.508	2216.63
195.583	2224.2
195.659	2240.23
195.734	2246.09
195.809	2248.71
195.884	2259.84
195.96	2260.17
196.035	2272.88
196.11	2267.73
196.185	2280.72
196.261	2283.01
196.336	2316.23
196.411	2303.66
196.486	2309.75
196.561	2305.32
196.637	2314.93
196.712	2330.69
196.787	2335.17
196.862	2350.21
196.937	2362.05
197.013	2366.15
197.088	2378.33
197.163	2402
197.238	2420.29
197.313	2418.48
197.388	2432.14
197.464	2461.86
197.539	2468.91
197.614	2463.05
197.689	2476.81
197.764	2495.62
197.839	2519.05
197.914	2510.62
197.989	2530.19
198.065	2543.86
198.14	2595.28
198.215	2622.52
198.29	2633.2
198.365	2646.58
198.44	2657.06
198.515	2687.69
198.59	2702.51
198.665	2730.42
198.74	2738.05
198.815	2739.19
198.89	2764.01
198.965	2796.57
199.04	2792.33
199.115	2812.53
199.19	2856.45
199.265	2858.98
199.34	2868.56
199.415	2900.79
199.49	2924.57
199.565	2933.81
199.64	2959.22
199.715	2952.01
199.79	2960.45
199.865	2967.55
199.94	2964.22
200.015	2995.5
200.09	3001.31
200.165	3009.66
200.24	3015.62
200.315	3063.58
200.39	3077.41
200.464	3084.37
200.539	3081.56
200.614	3099.05
200.689	3118.84
200.764	3128
200.839	3150.31
200.914	3153.98
200.989	3144.63
201.063	3157.98
201.138	3141.4
201.213	3140.64
201.288	3124.33
201.363	3128.38
201.438	3128.62
201.512	3146.5
201.587	3133.05
201.662	3130.57
201.737	3142.58
201.812	3146.49
201.886	3107.68
201.961	3118.75
202.036	3104.45
202.111	3100.26
202.186	3068.04
202.26	3051.11
202.335	3024.21
202.41	3013.53
202.485	2996.14
202.559	2975.59
202.634	2948.65
202.709	2957.94
202.784	2939.3
202.858	2937.25
202.933	2919.28
203.008	2911.22
203.082	2892.11
203.157	2888.25
203.232	2849.8
203.306	2828.21
203.381	2797.22
203.456	2772.3
203.53	2746.92
203.605	2728.35
203.68	2705.14
203.754	2700.05
203.829	2684.65
203.904	2668.17
203.978	2655.78
204.053	2664.26
204.127	2650.07
204.202	2648.45
204.277	2632.35
204.351	2624.92
204.426	2616.53
204.5	2606.34
204.575	2572.3
204.65	2582.25
204.724	2574.34
204.799	2581.82
204.873	2577.48
204.948	2577.05
205.022	2564.82
205.097	2561.72
205.171	2575.29
205.246	2584.96
205.32	2585.77
205.395	2585.34
205.469	2573.97
205.544	2580.45
205.618	2557.01
205.693	2569.73
205.767	2554.87
205.842	2573.54
205.916	2566.93
205.991	2556.54
206.065	2560.45
206.14	2575.72
206.214	2572.48
206.289	2564.39
206.363	2577.48
206.438	2579.29
206.512	2585.68
206.586	2608.49
206.661	2612.21
206.735	2592.21
206.81	2592.64
206.884	2605.45
206.958	2592.26
207.033	2610.49
207.107	2618.26
207.181	2652.18
207.256	2648.23
207.33	2671.66
207.405	2685.59
207.479	2707.21
207.553	2717.4
207.628	2700.74
207.702	2715.36
207.776	2709.26
207.851	2711.98
207.925	2727.14
207.999	2724.71
208.073	2725.18
208.148	2724.66
208.222	2713.7
208.296	2745.04
208.371	2760.72
208.445	2771.16
208.519	2803.03
208.593	2815.03
208.668	2812.41
208.742	2817.47
208.816	2820.18
208.89	2835.06
208.965	2837.78
209.039	2846.74
209.113	2870.1
209.187	2898.2
209.261	2897.86
209.336	2921.51
209.41	2947.1
209.484	2953.88
209.558	2981.43
209.632	2997.97
209.707	3014.28
209.781	3046.55
209.855	3072.5
209.929	3103.39
210.003	3125.66
210.077	3136.82
210.151	3197.83
210.226	3242.92
210.3	3285.52
210.374	3327.63
210.448	3349.78
210.522	3376.94
210.596	3408.68
210.67	3437.65
210.744	3510.81
210.818	3572.32
210.892	3623.57
210.966	3652.64
211.041	3702.88
211.115	3738.89
211.189	3805.14
211.263	3866.33
211.337	3917.5
211.411	3976.53
211.485	4018.66
211.559	4080.54
211.633	4137.92
211.707	4165.61
211.781	4236.2
211.855	4267.34
211.929	4323.99
212.003	4374.38
212.077	4462.97
212.151	4555.11
212.225	4650.56
212.299	4723.28
212.373	4797.53
212.447	4886.2
212.52	5012.61
212.594	5109.68
212.668	5219.71
212.742	5311.92
212.816	5411.81
212.89	5514.19
212.964	5631.13
213.038	5759.12
213.112	5892.73
213.186	6038.45
213.26	6146.84
213.333	6230.63
213.407	6374.5
213.481	6516.02
213.555	6672.29
213.629	6799.59
213.703	6924.3
213.777	7068.33
213.85	7197.94
213.924	7382.47
213.998	7537.09
214.072	7685.61
214.146	7831.21
214.219	7990.98
214.293	8146.04
214.367	8315.51
214.441	8491.16
214.515	8647.82
214.588	8782.87
214.662	8913.93
214.736	9060.99
214.81	9240.22
214.883	9427.42
214.957	9584.1
215.031	9741.88
215.105	9887.64
215.178	10055.26
215.252	10222.45
215.326	10370.97
215.4	10526.43
215.473	10655.75
215.547	10802.57
215.621	10958.61
215.694	11136.72
215.768	11284.52
215.842	11440.36
215.915	11596.76
215.989	11742.99
216.063	11896.41
216.136	12065.68
216.21	12239.14
216.284	12416.38
216.357	12578.72
216.431	12743.81
216.504	12912.91
216.578	13098.4
216.652	13271.3
216.725	13421.36
216.799	13590.99
216.873	13748.38
216.946	13918.74
217.02	14060.8
217.093	14211.25
217.167	14338.46
217.24	14477
217.314	14621.76
217.387	14765.99
217.461	14903.9
217.535	15058.48
217.608	15184.1
217.682	15322.58
217.755	15461.94
217.829	15584.46
217.902	15728.92
217.976	15849.56
218.049	15969.82
218.123	16075.23
218.196	16214.19
218.27	16329.19
218.343	16436.47
218.417	16558.31
218.49	16671.24
218.563	16813.95
218.637	16931.54
218.71	17071.64
218.784	17194.44
218.857	17317.77
218.931	17427.17
219.004	17537.15
219.077	17655.12
219.151	17770.64
219.224	17877.53
219.298	17979.12
219.371	18081.96
219.444	18158.44
219.518	18259.88
219.591	18358.39
219.665	18498.48
219.738	18583.72
219.811	18674.13
219.885	18772.78
219.958	18863.42
220.031	18946.65
220.105	19029.48
220.178	19125.48
220.251	19197.43
220.325	19283.25
220.398	19357.61
220.471	19441.46
220.544	19524.59
220.618	19584.49
220.691	19661.4
220.764	19726.41
220.838	19808.48
220.911	19880
220.984	19969.73
221.057	20047.32
221.131	20109.19
221.204	20130.88
221.277	20213.87
221.35	20306.44
221.424	20356.03
221.497	20419.6
221.57	20470.88
221.643	20529.04
221.716	20585.19
221.79	20626.15
221.863	20664.33
221.936	20708.33
222.009	20755.36
222.082	20802.06
222.155	20831.12
222.229	20876.67
222.302	20917.87
222.375	20948.33
222.448	20995.18
222.521	21026.07
222.594	21041.88
222.667	21069.59
222.74	21110.08
222.814	21125.12
222.887	21141.31
222.96	21182.28
223.033	21215.15
223.106	21253.71
223.179	21284.22
223.252	21296.41
223.325	21330.15
223.398	21354.39
223.471	21386.06
223.544	21408.28
223.617	21438.02
223.69	21470.94
223.763	21488.39
223.837	21512.39
223.91	21536.68
223.983	21528.49
224.056	21537.5
224.129	21560.49
224.202	21587.92
224.275	21601.99
224.348	21604.26
224.42	21607.63
224.493	21598.95
224.566	21593.99
224.639	21612.55
224.712	21604.01
224.785	21611.1
224.858	21614.76
224.931	21610.38
225.004	21607.29
225.077	21608.3
225.15	21577.94
225.223	21574.47
225.296	21599.73
225.369	21583.24
225.442	21574.42
225.514	21583.82
225.587	21581.56
225.66	21581.99
225.733	21575
225.806	21568.97
225.879	21569.84
225.952	21554.08
226.025	21572.06
226.097	21586.18
226.17	21563.43
226.243	21544.35
226.316	21542.13
226.389	21532.15
226.461	21528.01
226.534	21526.27
226.607	21527.09
226.68	21544.44
226.753	21542.85
226.825	21506.22
226.898	21518.75
226.971	21505.35
227.044	21506.99
227.117	21501.69
227.189	21504.39
227.262	21505.83
227.335	21503.23
227.407	21482.41
227.48	21481.06
227.553	21460.28
227.626	21438.83
227.698	21426.06
227.771	21426.35
227.844	21406.64
227.916	21393.38
227.989	21367.16
228.062	21349.48
228.134	21350.97
228.207	21338.77
228.28	21320.85
228.352	21310.72
228.425	21292.94
228.498	21286.34
228.57	21249.22
228.643	21240.26
228.716	21212.35
228.788	21189.75
228.861	21165.5
228.934	21170.9
229.006	21149.55
229.079	21129.89
229.151	21108.1
229.224	21083.14
229.296	21068.19
229.369	21076.82
229.442	21072.92
229.514	21059.47
229.587	21049.3
229.659	21017.01
229.732	20997.64
229.804	20991.08
229.877	20994.17
229.949	20991.76
230.022	21004.14
230.094	20991.32
230.167	20976.48
230.239	20949.01
230.312	20936.77
230.384	20941.83
230.457	20922.45
230.529	20915.08
230.602	20900.28
230.674	20884.04
230.747	20883.17
230.819	20880.67
230.892	20836.42
230.964	20829.15
231.037	20817.34
231.109	20798.54
231.181	20782.01
231.254	20751.94
231.326	20721.63
231.399	20692.52
231.471	20662.78
231.544	20611.16
231.616	20608.13
231.688	20591.59
231.761	20570.73
231.833	20541.14
231.905	20497.33
231.978	20472.12
232.05	20443.35
232.122	20426.44
232.195	20406.87
232.267	20396.27
232.339	20359.69
232.412	20348.12
232.484	20315.35
232.556	20283.21
232.629	20282.68
232.701	20270.39
232.773	20239.02
232.846	20207.93
232.918	20189.38
232.99	20164.56
233.062	20146.15
233.135	20123.69
233.207	20081.29
233.279	20066.83
233.351	20042.06
233.424	20018.11
233.496	19989.82
233.568	19988.9
233.64	19946.98
233.713	19922.79
233.785	19887.94
233.857	19862.84
233.929	19824.96
234.001	19813.1
234.074	19809.15
234.146	19766.6
234.218	19733.35
234.29	19718.75
234.362	19688.43
234.434	19637.88
234.507	19598.41
234.579	19558.71
234.651	19519.43
234.723	19494.03
234.795	19477.79
234.867	19464.45
234.939	19446.37
235.012	19420.21
235.084	19389.37
235.156	19377.8
235.228	19341.61
235.3	19309.42
235.372	19285.42
235.444	19272.17
235.516	19222.05
235.588	19189.28
235.66	19157.67
235.732	19119.45
235.804	19155.02
235.876	19141.96
235.948	19140.18
236.02	19112.71
236.092	19080.66
236.164	19047.27
236.236	19017.63
236.308	18970.26
236.38	18935.08
236.452	18889.06
236.524	18863.95
236.596	18851.52
236.668	18833.21
236.74	18808
236.812	18783.48
236.884	18762.22
236.956	18725.6
237.028	18693.84
237.1	18652.74
237.172	18634.81
237.244	18615.92
237.316	18529.66
237.388	18492.89
237.46	18445.86
237.532	18438.34
237.604	18403.3
237.675	18393.95
237.747	18379.79
237.819	18345.81
237.891	18314.63
237.963	18283.79
238.035	18243.7
238.107	18169.05
238.178	18139.22
238.25	18108.33
238.322	18101.68
238.394	18056.52
238.466	18022.94
238.538	17991.13
238.609	17971.23
238.681	17929.69
238.753	17900.14
238.825	17875.66
238.897	17847.18
238.968	17839.95
239.04	17790.41
239.112	17797.45
239.184	17751.09
239.255	17720.25
239.327	17701.84
239.399	17670.17
239.471	17652.63
239.542	17631.57
239.614	17626.46
239.686	17568.97
239.758	17543.86
239.829	17495.91
239.901	17475.96
239.973	17449.98
240.044	17428.06
240.116	17393.93
240.188	17357.12
240.259	17328.97
240.331	17288.63
240.403	17261.4
240.474	17205.84
240.546	17166.56
240.618	17106.41
240.689	17070.22
240.761	17032.29
240.833	17011.57
240.904	16976.19
240.976	16945.25
241.048	16913.39
241.119	16884.77
241.191	16867.95
241.262	16854.55
241.334	16821.29
241.405	16786.11
241.477	16753.97
241.549	16720.81
241.62	16691.12
241.692	16673.19
241.763	16647.26
241.835	16620.08
241.906	16588.75
241.978	16553.13
242.049	16536.7
242.121	16520.84
242.192	16511.35
242.264	16473.42
242.335	16423.82
242.407	16403.05
242.478	16370.61
242.55	16347.33
242.621	16312.92
242.693	16271.28
242.764	16237.15
242.836	16203.61
242.907	16183.36
242.979	16148.76
243.05	16124.03
243.122	16099.79
243.193	16055.88
243.264	16002.04
243.336	15970.04
243.407	15955.63
243.479	15939.91
243.55	15912.78
243.622	15880.92
243.693	15846.65
243.764	15829.54
243.836	15796.81
243.907	15772.71
243.978	15739.02
244.05	15711.16
244.121	15664.11
244.192	15647.77
244.264	15597.55
244.335	15562.89
244.407	15507.36
244.478	15484.71
244.549	15449.14
244.62	15406.77
244.692	15374.81
244.763	15364.78
244.834	15330.32
244.906	15290.31
244.977	15264.62
245.048	15249.05
245.119	15214.2
245.191	15177.86
245.262	15130.81
245.333	15111.87
245.405	15074.27
245.476	15046.26
245.547	15015.17
245.618	14993.34
245.689	14971.98
245.761	14948.75
245.832	14923.35
245.903	14910.52
245.974	14886.76
246.045	14861.6
246.117	14849.88
246.188	14816.14
246.259	14773.19
246.33	14744.85
246.401	14710.86
246.473	14665.84
246.544	14634.75
246.615	14614.12
246.686	14582.49
246.757	14565.91
246.828	14531.93
246.899	14513.75
246.97	14472.2
247.042	14441.83
247.113	14419.22
247.184	14405.92
247.255	14378.88
247.326	14355.78
247.397	14329.03
247.468	14295.82
247.539	14269.4
247.61	14226.35
247.681	14214.35
247.752	14201.24
247.823	14166.67
247.894	14145.56
247.965	14113.07
248.037	14080.1
248.108	14043.94
248.179	14020.85
248.25	13996.22
248.321	13974.96
248.392	13947
248.463	13944.44
248.534	13912.24
248.605	13904.48
248.675	13875.03
248.746	13853.62
248.817	13835.02
248.888	13813.95
248.959	13777.36
249.03	13753.4
249.101	13731.32
249.172	13697.43
249.243	13642.96
249.314	13638.33
249.385	13607.53
249.456	13593.94
249.527	13565.98
249.598	13543.17
249.669	13514.54
249.739	13494.53
249.81	13482.96
249.881	13436.59
249.952	13416.05
250.023	13393.93
250.094	13347.07
250.165	13312.22
250.235	13283.24
250.306	13262.03
250.377	13226.12
250.448	13202.4
250.519	13162.1
250.59	13157.96
250.66	13128.98
250.731	13134.62
250.802	13114.28
250.873	13096.59
250.944	13075.18
251.014	13044.91
251.085	13047.9
251.156	13033.05
251.227	13018.88
251.297	13002.1
251.368	12991.5
251.439	12978
251.51	12972.46
251.58	12944.35
251.651	12913.31
251.722	12905.16
251.792	12858.64
251.863	12833.34
251.934	12832.23
252.005	12840.42
252.075	12808.32
252.146	12808.61
252.217	12797.37
252.287	12775.01
252.358	12754.23
252.429	12750.13
252.499	12724.87
252.57	12706.56
252.641	12696.1
252.711	12672.91
252.782	12641.19
252.852	12645.67
252.923	12621.14
252.994	12596.31
253.064	12587.54
253.135	12560.74
253.205	12539.91
253.276	12544.49
253.347	12547.14
253.417	12521.83
253.488	12490.21
253.558	12474.4
253.629	12443.74
253.699	12424.65
253.77	12413.9
253.841	12389.85
253.911	12376.6
253.982	12366.33
254.052	12351.63
254.123	12337.21
254.193	12320.82
254.264	12335.09
254.334	12302.41
254.405	12270.74
254.475	12241.14
254.546	12222.34
254.616	12221.72
254.687	12205.09
254.757	12188.07
254.827	12167.97
254.898	12151.2
254.968	12139.63
255.039	12112.54
255.109	12106.23
255.18	12077.26
255.25	12036.24
255.321	12035.32
255.391	11995.46
255.461	11997.92
255.532	11956.61
255.602	11932.02
255.673	11892.26
255.743	11862.52
255.813	11820.63
255.884	11810.71
255.954	11804.39
256.024	11801.4
256.095	11783.52
256.165	11744.91
256.235	11735.23
256.306	11706.35
256.376	11704.33
256.446	11690.69
256.517	11675.12
256.587	11674.4
256.657	11657.14
256.728	11636.66
256.798	11616.13
256.868	11598.58
256.938	11570.73
257.009	11561.28
257.079	11546.24
257.149	11562.63
257.219	11527.15
257.29	11511.69
257.36	11475.35
257.43	11466.48
257.5	11431.63
257.571	11408.5
257.641	11400.06
257.711	11363.53
257.781	11353.94
257.852	11341.51
257.922	11301.6
257.992	11291.05
258.062	11267.57
258.132	11261.5
258.202	11252.54
258.273	11230.71
258.343	11230.27
258.413	11200.06
258.483	11184.83
258.553	11162.71
258.623	11135.33
258.693	11117.5
258.764	11123.38
258.834	11130.27
258.904	11111.76
258.974	11083.24
259.044	11064.06
259.114	11056.25
259.184	11050.13
259.254	11029.02
259.324	10989.22
259.394	10987.58
259.464	10990.08
259.535	10965.84
259.605	10939.53
259.675	10911.78
259.745	10906.86
259.815	10884.69
259.885	10866.77
259.955	10883.11
260.025	10857.52
260.095	10839.26
260.165	10833.91
260.235	10833.09
260.305	10807.31
260.375	10774.74
260.445	10789.14
260.515	10792.13
260.585	10783.89
260.655	10765.63
260.725	10760.95
260.795	10754.79
260.865	10758.45
260.934	10727.66
261.004	10720.57
261.074	10708.91
261.144	10715.61
261.214	10707.56
261.284	10688.1
261.354	10685.06
261.424	10651.76
261.494	10651.86
261.564	10634.51
261.634	10623.33
261.703	10588.21
261.773	10583.05
261.843	10580.69
261.913	10555.35
261.983	10518.87
262.053	10510.15
262.123	10490.25
