Data from 20250704_urea_1.5M_MAYP1162681_11-45-28-596.txt Node
Date: Fri Jul 04 11:45:28 BST 2025
User: adleo
Spectrometer: MAYP116268
Trigger mode: 0
Integration Time (sec): 1.000000E0
Scans to average: 1
Electric dark correction enabled: true
Nonlinearity correction enabled: true
Boxcar width: 10
XAxis mode: Wavelengths
Number of Pixels in Spectrum: 2068
>>>>>Begin Spectral Data<<<<<
179.565	1262.35
179.642	1322.76
179.718	1369.72
179.795	1411.33
179.871	1445.39
179.948	1466.9
180.024	1484.23
180.101	1506.57
180.177	1518.95
180.254	1542.56
180.33	1566.77
180.407	1625.13
180.483	1725
180.56	1819.78
180.636	1906.72
180.712	1894.11
180.789	1907.43
180.865	1920.45
180.942	1930.95
181.018	1943.17
181.095	1959.3
181.171	1963.06
181.248	1963.96
181.324	1978.08
181.4	1984.03
181.477	1996.2
181.553	2006.52
181.63	2029.54
181.706	2046.99
181.782	2057.26
181.859	2057.97
181.935	2062.92
182.011	2060.02
182.088	2077.76
182.164	2097.12
182.24	2111.39
182.317	2119.47
182.393	2115.48
182.469	2131.08
182.546	2144.21
182.622	2148.16
182.698	2139.17
182.775	2151.92
182.851	2166.19
182.927	2159.19
183.003	2154.11
183.08	2147.59
183.156	2158.86
183.232	2155.58
183.308	2143.88
183.385	2151.87
183.461	2168.62
183.537	2168.28
183.613	2180.56
183.69	2170.99
183.766	2161.57
183.842	2168.8
183.918	2174.08
183.995	2189.11
184.071	2190.45
184.147	2182.07
184.223	2169.66
184.299	2184.36
184.375	2172.42
184.452	2179.75
184.528	2230.39
184.604	2243.37
184.68	2256.79
184.756	2263.5
184.832	2270.35
184.908	2276.01
184.985	2275.72
185.061	2259.31
185.137	2270.59
185.213	2259.69
185.289	2262.21
185.365	2249.61
185.441	2248.9
185.517	2263.13
185.593	2260.51
185.669	2257.27
185.745	2268.41
185.822	2287.01
185.898	2276.16
185.974	2285.2
186.05	2274.25
186.126	2239.08
186.202	2232.56
186.278	2228.9
186.354	2219.14
186.43	2224.9
186.506	2221.05
186.582	2221.95
186.658	2231.13
186.734	2210.82
186.81	2210.49
186.886	2211.34
186.962	2230.37
187.038	2227.66
187.114	2220.9
187.19	2226.61
187.266	2218.95
187.341	2218.95
187.417	2208.15
187.493	2212.77
187.569	2216.72
187.645	2213.53
187.721	2201.49
187.797	2208.39
187.873	2211.86
187.949	2208.87
188.025	2201.53
188.101	2206.72
188.176	2213.38
188.252	2206.05
188.328	2212.47
188.404	2214.19
188.48	2209.67
188.556	2200.96
188.632	2198.96
188.707	2197.06
188.783	2195.44
188.859	2189.88
188.935	2177.79
189.011	2191.35
189.086	2183.4
189.162	2174.7
189.238	2170.08
189.314	2167.66
189.39	2161.33
189.465	2154.62
189.541	2168.9
189.617	2152.58
189.693	2148.2
189.768	2151.58
189.844	2176.57
189.92	2168.68
189.996	2179.33
190.071	2190.8
190.147	2188.85
190.223	2197.56
190.298	2191.32
190.374	2179.19
190.45	2190.51
190.526	2201.27
190.601	2191.56
190.677	2191.75
190.753	2220.74
190.828	2223.02
190.904	2240.25
190.98	2255.57
191.055	2265.33
191.131	2254.62
191.207	2278.89
191.282	2285.12
191.358	2273.56
191.433	2259.27
191.509	2275.97
191.585	2272.21
191.66	2274.26
191.736	2282.16
191.811	2276.97
191.887	2297.49
191.963	2318.43
192.038	2322.85
192.114	2325.18
192.189	2330.94
192.265	2327.23
192.34	2302.71
192.416	2303.23
192.491	2296.85
192.567	2299.52
192.642	2303
192.718	2302.23
192.793	2290.1
192.869	2288.05
192.944	2291.1
193.02	2298.33
193.095	2297.24
193.171	2300.9
193.246	2299.85
193.322	2297.57
193.397	2295.43
193.473	2276.62
193.548	2259.49
193.624	2266.63
193.699	2260.78
193.775	2273.72
193.85	2275.63
193.925	2285.29
194.001	2286.52
194.076	2281.86
194.152	2271.48
194.227	2263.11
194.302	2257.16
194.378	2258.4
194.453	2257.49
194.529	2270.63
194.604	2256.16
194.679	2251.97
194.755	2233.09
194.83	2246.33
194.905	2245.95
194.981	2255.04
195.056	2249.18
195.131	2257.23
195.207	2257.42
195.282	2250.99
195.357	2234.57
195.433	2251.75
195.508	2241.28
195.583	2248.23
195.659	2261.13
195.734	2269.03
195.809	2267.74
195.884	2276.45
195.96	2276.97
196.035	2292.49
196.11	2288.68
196.185	2300.19
196.261	2303
196.336	2336.93
196.411	2321.55
196.486	2326.41
196.561	2321.08
196.637	2331.4
196.712	2346.3
196.787	2347.88
196.862	2367.39
196.937	2374.86
197.013	2379.81
197.088	2389.47
197.163	2413.71
197.238	2430.05
197.313	2430.96
197.388	2446.15
197.464	2476.39
197.539	2489.05
197.614	2479.96
197.689	2493.43
197.764	2510.05
197.839	2533.72
197.914	2527.05
197.989	2548.91
198.065	2562.43
198.14	2615.33
198.215	2638.43
198.29	2651.44
198.365	2665.15
198.44	2671.3
198.515	2704.12
198.59	2719.89
198.665	2749.05
198.74	2755.53
198.815	2756.82
198.89	2777.35
198.965	2806.86
199.04	2802.81
199.115	2818.38
199.19	2865.36
199.265	2868.37
199.34	2879.76
199.415	2913.19
199.49	2934.15
199.565	2946.26
199.64	2971.28
199.715	2965.03
199.79	2975.85
199.865	2983
199.94	2980.62
200.015	3010.94
200.09	3013.8
200.165	3020.86
200.24	3026.01
200.315	3067.82
200.39	3085.89
200.464	3090.94
200.539	3092.04
200.614	3111.21
200.689	3136.77
200.764	3142.59
200.839	3158.18
200.914	3163.47
200.989	3151.35
201.063	3165.85
201.138	3148.55
201.213	3149.17
201.288	3131.38
201.363	3137.06
201.438	3133.81
201.512	3153.02
201.587	3136.95
201.662	3140
201.737	3153.74
201.812	3164.57
201.886	3128.15
201.961	3135.93
202.036	3126.01
202.111	3123.3
202.186	3094.03
202.26	3074.33
202.335	3048.62
202.41	3043.71
202.485	3028.51
202.559	3007.63
202.634	2983.45
202.709	2989.31
202.784	2968.24
202.858	2968.48
202.933	2948.17
203.008	2941.78
203.082	2920.1
203.157	2919.43
203.232	2878.07
203.306	2854.42
203.381	2820.14
203.456	2798.6
203.53	2775.04
203.605	2756.65
203.68	2734.58
203.754	2726.49
203.829	2712.43
203.904	2692.94
203.978	2681.79
204.053	2685.8
204.127	2674.17
204.202	2670.55
204.277	2653.69
204.351	2646.36
204.426	2635.97
204.5	2626.82
204.575	2594.82
204.65	2605.59
204.724	2598.11
204.799	2604.82
204.873	2599.2
204.948	2597.48
205.022	2584.63
205.097	2576.62
205.171	2592.81
205.246	2599.2
205.32	2597.63
205.395	2598.72
205.469	2591.49
205.544	2596.25
205.618	2576.44
205.693	2586.35
205.767	2572.06
205.842	2593.16
205.916	2587.11
205.991	2576.21
206.065	2584.69
206.14	2598.3
206.214	2590.72
206.289	2583.29
206.363	2597.53
206.438	2599.63
206.512	2607.3
206.586	2628.35
206.661	2636.78
206.735	2613.78
206.81	2613.83
206.884	2627.78
206.958	2615.69
207.033	2634.54
207.107	2641.17
207.181	2670.56
207.256	2665.94
207.33	2684.33
207.405	2700.59
207.479	2721.21
207.553	2733.41
207.628	2712.45
207.702	2723.74
207.776	2720.22
207.851	2723.27
207.925	2737.61
207.999	2737.57
208.073	2734.18
208.148	2737.09
208.222	2724.27
208.296	2756.99
208.371	2776.4
208.445	2790.51
208.519	2818.76
208.593	2828.1
208.668	2825.38
208.742	2835.3
208.816	2837.16
208.89	2854.7
208.965	2850.12
209.039	2857.75
209.113	2870.57
209.187	2894.81
209.261	2893.43
209.336	2916.17
209.41	2937.66
209.484	2939.14
209.558	2958.31
209.632	2971.36
209.707	2984.47
209.781	3008.98
209.855	3023.57
209.929	3044.05
210.003	3050.15
210.077	3049.82
210.151	3102.56
210.226	3141.01
210.3	3173.1
210.374	3198.84
210.448	3206.57
210.522	3219.11
210.596	3235.76
210.67	3254.56
210.744	3308.48
210.818	3344.96
210.892	3368.3
210.966	3369.3
211.041	3393.68
211.115	3399.55
211.189	3433.86
211.263	3458.72
211.337	3473.04
211.411	3498.96
211.485	3502.4
211.559	3524.49
211.633	3541.33
211.707	3526.28
211.781	3552.18
211.855	3529.16
211.929	3542.67
212.003	3539.57
212.077	3574.43
212.151	3606.63
212.225	3640.92
212.299	3654.97
212.373	3673.45
212.447	3702.94
212.52	3763.37
212.594	3796.96
212.668	3844.87
212.742	3868.71
212.816	3903.41
212.89	3940.58
212.964	3980.51
213.038	4028.42
213.112	4093.64
213.186	4161.18
213.26	4190.05
213.333	4192.73
213.407	4254.39
213.481	4316.77
213.555	4395.45
213.629	4445.65
213.703	4499.39
213.777	4569.52
213.85	4626.35
213.924	4738.03
213.998	4810.2
214.072	4884.84
214.146	4958.84
214.219	5043.92
214.293	5130.14
214.367	5222.19
214.441	5324.49
214.515	5412.37
214.588	5479.81
214.662	5545.35
214.736	5621.52
214.81	5728.97
214.883	5847.9
214.957	5943.37
215.031	6036.02
215.105	6122.15
215.178	6224.7
215.252	6331.54
215.326	6418.87
215.4	6511.22
215.473	6575.06
215.547	6671.84
215.621	6774.9
215.694	6899.74
215.768	7000.49
215.842	7108.51
215.915	7220.13
215.989	7324.15
216.063	7434.11
216.136	7567.37
216.21	7693.66
216.284	7838.08
216.357	7972.06
216.431	8094.33
216.504	8225.98
216.578	8387.69
216.652	8527.86
216.725	8656.25
216.799	8790.88
216.873	8921.59
216.946	9062.81
217.02	9187.8
217.093	9320.39
217.167	9429.3
217.24	9537.37
217.314	9660.4
217.387	9781.17
217.461	9898.65
217.535	10036.7
217.608	10151.96
217.682	10274.47
217.755	10408.49
217.829	10516.71
217.902	10642.22
217.976	10762.53
218.049	10884.82
218.123	10984.53
218.196	11114.49
218.27	11230.34
218.343	11334.01
218.417	11468.62
218.49	11589.63
218.563	11734.75
218.637	11862.14
218.71	12008.28
218.784	12140.01
218.857	12278.78
218.931	12408.44
219.004	12525.14
219.077	12648.16
219.151	12778.88
219.224	12897.22
219.298	13016.19
219.371	13145.77
219.444	13252.69
219.518	13369.01
219.591	13479.69
219.665	13626.62
219.738	13743.47
219.811	13851.84
219.885	13972.93
219.958	14082.64
220.031	14182.48
220.105	14289.44
220.178	14388.99
220.251	14478.22
220.325	14588.17
220.398	14679.9
220.471	14781.32
220.544	14901.21
220.618	14980.26
220.691	15070.35
220.764	15166.37
220.838	15253.67
220.911	15336.57
220.984	15436.64
221.057	15532.76
221.131	15626.32
221.204	15674.52
221.277	15772.12
221.35	15883.6
221.424	15956.53
221.497	16035.43
221.57	16125.42
221.643	16208.42
221.716	16300.57
221.79	16370.31
221.863	16435.14
221.936	16511.53
222.009	16587.01
222.082	16656.41
222.155	16729.57
222.229	16814.54
222.302	16886.06
222.375	16952.57
222.448	17029.97
222.521	17099.95
222.594	17160.72
222.667	17219.09
222.74	17290.94
222.814	17348.97
222.887	17394.85
222.96	17475.76
223.033	17543.43
223.106	17602.51
223.179	17651.28
223.252	17699.47
223.325	17765.64
223.398	17822.84
223.471	17872.1
223.544	17920.91
223.617	17969.25
223.69	18019.85
223.763	18051.95
223.837	18106.88
223.91	18161.63
223.983	18183.56
224.056	18211.75
224.129	18261.38
224.202	18308.95
224.275	18334.78
224.348	18356.22
224.42	18378.2
224.493	18387.74
224.566	18409.57
224.639	18447.11
224.712	18485.32
224.785	18519.78
224.858	18544.98
224.931	18568.84
225.004	18590.33
225.077	18621.17
225.15	18621.75
225.223	18643.24
225.296	18693.5
225.369	18694.18
225.442	18702.18
225.514	18724.44
225.587	18749.21
225.66	18775.52
225.733	18793.64
225.806	18823.62
225.879	18837.74
225.952	18846.84
226.025	18876.29
226.097	18907.47
226.17	18911.03
226.243	18899.23
226.316	18907.23
226.389	18923.27
226.461	18937.1
226.534	18952.19
226.607	18953.01
226.68	18985.78
226.753	19004.09
226.825	18992.28
226.898	19019.6
226.971	19038.21
227.044	19062.2
227.117	19074.3
227.189	19075.84
227.262	19096.03
227.335	19110.39
227.407	19112.95
227.48	19126.54
227.553	19143.89
227.626	19137.24
227.698	19150.92
227.771	19169.96
227.844	19159.6
227.916	19163.69
227.989	19149.33
228.062	19145.62
228.134	19172.41
228.207	19174.97
228.28	19166.05
228.352	19158.68
228.425	19162.73
228.498	19164.7
228.57	19155.69
228.643	19166.82
228.716	19159.6
228.788	19148.56
228.861	19143.74
228.934	19155.21
229.006	19150.1
229.079	19142.25
229.151	19136.46
229.224	19116.95
229.296	19114.63
229.369	19148.18
229.442	19160.85
229.514	19155.5
229.587	19167.74
229.659	19144.37
229.732	19134.78
229.804	19144.9
229.877	19173.91
229.949	19176.08
230.022	19192.37
230.094	19187.26
230.167	19181.28
230.239	19174.87
230.312	19172.41
230.384	19194.73
230.457	19191.11
230.529	19193.71
230.602	19187.11
230.674	19191.79
230.747	19195.55
230.819	19203.59
230.892	19160.03
230.964	19148.75
231.037	19149.43
231.109	19142.87
231.181	19141.43
231.254	19126.1
231.326	19116.85
231.399	19101.09
231.471	19087.6
231.544	19060.28
231.616	19065
231.688	19058.98
231.761	19036.57
231.833	19017.2
231.905	18972.43
231.978	18970.55
232.05	18967.32
232.122	18965.34
232.195	18944.38
232.267	18951.71
232.339	18932.48
232.412	18940.57
232.484	18916.09
232.556	18903.27
232.629	18907.03
232.701	18903.18
232.773	18902.79
232.846	18884.24
232.918	18865.64
232.99	18841.88
233.062	18840.05
233.135	18822.08
233.207	18790.66
233.279	18789.6
233.351	18780.92
233.424	18759.28
233.496	18727.62
233.568	18729.79
233.64	18690.85
233.713	18668.11
233.785	18640.21
233.857	18618.52
233.929	18579.34
234.001	18589.94
234.074	18589.85
234.146	18554.14
234.218	18529.61
234.29	18500.94
234.362	18476.99
234.434	18440.22
234.507	18418.92
234.579	18381.09
234.651	18364.03
234.723	18356.9
234.795	18349.48
234.867	18337.14
234.939	18344.56
235.012	18334.59
235.084	18319.45
235.156	18316.71
235.228	18299.45
235.3	18287.02
235.372	18275.07
235.444	18272.23
235.516	18224.04
235.588	18208.18
235.66	18194.3
235.732	18177.63
235.804	18216.52
235.876	18210.88
235.948	18227.41
236.02	18206.25
236.092	18183.22
236.164	18155.12
236.236	18129.87
236.308	18105
236.38	18083.56
236.452	18047.95
236.524	18030.12
236.596	18018.07
236.668	18004
236.74	17984.48
236.812	17962.36
236.884	17948.38
236.956	17930.36
237.028	17907.81
237.1	17876.63
237.172	17864.92
237.244	17857.16
237.316	17799.04
237.388	17768.05
237.46	17719.86
237.532	17715.62
237.604	17689.45
237.675	17695.52
237.747	17688.92
237.819	17657.64
237.891	17635.76
237.963	17605.89
238.035	17580.05
238.107	17517.5
238.178	17499.48
238.25	17475.81
238.322	17474.32
238.394	17431.38
238.466	17403.52
238.538	17383.91
238.609	17361.74
238.681	17315.52
238.753	17280.87
238.825	17263.91
238.897	17248.92
238.968	17255.28
239.04	17227.28
239.112	17233.89
239.184	17189.16
239.255	17160.92
239.327	17142.51
239.399	17114.61
239.471	17104.77
239.542	17081.16
239.614	17072.19
239.686	17025.74
239.758	17013.74
239.829	16976.24
239.901	16967.23
239.973	16947.52
240.044	16926.74
240.116	16899.13
240.188	16875.99
240.259	16843.46
240.331	16800.57
240.403	16770.69
240.474	16719.89
240.546	16681.91
240.618	16621.76
240.689	16584.56
240.761	16554.53
240.833	16541.71
240.904	16519.35
240.976	16493.51
241.048	16475.49
241.119	16466.09
241.191	16454.67
241.262	16441.7
241.334	16406.86
241.405	16383.63
241.477	16351.29
241.549	16324.2
241.62	16302.85
241.692	16281.88
241.763	16266.41
241.835	16246.6
241.906	16222.36
241.978	16184.09
242.049	16175.36
242.121	16170.93
242.192	16165.53
242.264	16128.95
242.335	16093.67
242.407	16063.49
242.478	16030.48
242.55	16002.96
242.621	15967.24
242.693	15940.68
242.764	15905.98
242.836	15879.62
242.907	15850.89
242.979	15832.09
243.05	15814.64
243.122	15792.86
243.193	15767.99
243.264	15723.69
243.336	15687.06
243.407	15673.61
243.479	15671.44
243.55	15640.35
243.622	15616.78
243.693	15584.49
243.764	15572.68
243.836	15526.65
243.907	15504.33
243.978	15476.23
244.05	15449.76
244.121	15399.3
244.192	15373.17
244.264	15334.47
244.335	15297.98
244.407	15253.15
244.478	15227.89
244.549	15196.85
244.62	15155.54
244.692	15128.16
244.763	15120.45
244.834	15094.61
244.906	15044.38
244.977	15014.11
245.048	15005.24
245.119	14967.89
245.191	14936.7
245.262	14888.11
245.333	14882.47
245.405	14861.64
245.476	14836.39
245.547	14819.8
245.618	14816.77
245.689	14790.83
245.761	14764.8
245.832	14745.52
245.903	14735.01
245.974	14717.76
246.045	14687.05
246.117	14679.38
246.188	14640.92
246.259	14595.27
246.33	14569.96
246.401	14543.35
246.473	14505.99
246.544	14471.67
246.615	14459.52
246.686	14427.85
246.757	14414.6
246.828	14374.73
246.899	14350.96
246.97	14314.62
247.042	14275.33
247.113	14246.79
247.184	14237.83
247.255	14210.35
247.326	14184.7
247.397	14154.96
247.468	14126.04
247.539	14098.22
247.61	14057.39
247.681	14042.11
247.752	14032.23
247.823	13997.04
247.894	13987.2
247.965	13957.27
248.037	13927.62
248.108	13888.62
248.179	13869
248.25	13845.28
248.321	13830.77
248.392	13798.72
248.463	13794.57
248.534	13763.77
248.605	13751.23
248.675	13726.55
248.746	13711.9
248.817	13698.59
248.888	13674.68
248.959	13629.9
249.03	13617.94
249.101	13598.13
249.172	13577.11
249.243	13531.22
249.314	13522.59
249.385	13491.54
249.456	13471.35
249.527	13439.72
249.598	13416.53
249.669	13385.39
249.739	13369.87
249.81	13355.75
249.881	13319.06
249.952	13293.85
250.023	13278.52
250.094	13229.78
250.165	13191.22
250.235	13158.53
250.306	13134.38
250.377	13099.87
250.448	13081.98
250.519	13039.37
250.59	13028.96
250.66	13004.51
250.731	12999.45
250.802	12976.55
250.873	12969.42
250.944	12939.92
251.014	12915.14
251.085	12922.61
251.156	12911.14
251.227	12903.62
251.297	12886.99
251.368	12882.46
251.439	12875.23
251.51	12863.95
251.58	12839.75
251.651	12815.4
251.722	12811.88
251.792	12771.1
251.863	12754.09
251.934	12753.07
252.005	12758.86
252.075	12734.95
252.146	12718.61
252.217	12706.89
252.287	12693.54
252.358	12662.98
252.429	12670.02
252.499	12641.82
252.57	12624.85
252.641	12614.48
252.711	12584.93
252.782	12549.79
252.852	12545.17
252.923	12520.44
252.994	12505.11
253.064	12501.2
253.135	12468.09
253.205	12438.44
253.276	12443.31
253.347	12444.9
253.417	12416.46
253.488	12392.45
253.558	12376.79
253.629	12355.77
253.699	12342.61
253.77	12326.75
253.841	12311.04
253.911	12295.08
253.982	12281.97
254.052	12262.74
254.123	12240.61
254.193	12213.67
254.264	12228.8
254.334	12194.87
254.405	12164.93
254.475	12134.71
254.546	12111.67
254.616	12113.7
254.687	12096.25
254.757	12083.52
254.827	12060.34
254.898	12042.74
254.968	12023.65
255.039	11993.05
255.109	11983.99
255.18	11956.13
255.25	11920.26
255.321	11901.47
255.391	11862.47
255.461	11861.8
255.532	11814.66
255.602	11791.81
255.673	11756.67
255.743	11733.73
255.813	11694.11
255.884	11683.85
255.954	11674.06
256.024	11678.11
256.095	11654.16
256.165	11625.33
256.235	11607.21
256.306	11577.62
256.376	11570.19
256.446	11560.07
256.517	11548.65
256.587	11542
256.657	11521.9
256.728	11510.19
256.798	11498.29
256.868	11484.02
256.938	11461.37
257.009	11452.74
257.079	11443.39
257.149	11457.9
257.219	11418.13
257.29	11411.58
257.36	11375.82
257.43	11369.55
257.5	11321.31
257.571	11301.7
257.641	11292.59
257.711	11267.09
257.781	11260.59
257.852	11251.77
257.922	11215.38
257.992	11195.28
258.062	11176.05
258.132	11169.98
258.202	11149.16
258.273	11134.66
258.343	11134.22
258.413	11110.66
258.483	11094.71
258.553	11068.88
258.623	11039.33
258.693	11027.53
258.764	11024.73
258.834	11026.32
258.904	10999.09
258.974	10968.83
259.044	10956.31
259.114	10946.76
259.184	10923.1
259.254	10904.17
259.324	10864.26
259.394	10849.71
259.464	10852.65
259.535	10829.57
259.605	10811.59
259.675	10791.21
259.745	10778.01
259.815	10747.22
259.885	10718.35
259.955	10729.39
260.025	10704.38
260.095	10690.07
260.165	10676.1
260.235	10676.53
260.305	10653.16
260.375	10624.35
260.445	10648.44
260.515	10648.54
260.585	10642.22
260.655	10629.65
260.725	10619.24
260.795	10610.81
260.865	10621.99
260.934	10597.03
261.004	10593.27
261.074	10574.57
261.144	10578.33
261.214	10572.55
261.284	10560.84
261.354	10567.97
261.424	10544.02
261.494	10553.27
261.564	10540.94
261.634	10541.18
261.703	10505.14
261.773	10500.32
261.843	10502.68
261.913	10471.9
261.983	10438.65
262.053	10427.42
262.123	10409.89
262.192	10382.48
262.262	10375.78
