Data from 20250704_urea_1.5M_MAYP1162681_11-45-18-596.txt Node
Date: Fri Jul 04 11:45:18 BST 2025
User: adleo
Spectrometer: MAYP116268
Trigger mode: 0
Integration Time (sec): 1.000000E0
Scans to average: 1
Electric dark correction enabled: true
Nonlinearity correction enabled: true
Boxcar width: 10
XAxis mode: Wavelengths
Number of Pixels in Spectrum: 2068
>>>>>Begin Spectral Data<<<<<
179.565	1254.54
179.642	1314.26
179.718	1360.27
179.795	1402.62
179.871	1436.47
179.948	1452.55
180.024	1475.89
180.101	1498.81
180.177	1512.01
180.254	1535.42
180.33	1561.49
180.407	1618.28
180.483	1718.43
180.56	1814.22
180.636	1899.54
180.712	1889.69
180.789	1902.82
180.865	1912.65
180.942	1921.07
181.018	1930.48
181.095	1945.42
181.171	1950.98
181.248	1951.36
181.324	1967.24
181.4	1972.33
181.477	1983.75
181.553	2001.91
181.63	2022.93
181.706	2040.48
181.782	2050.98
181.859	2051.13
181.935	2053.55
182.011	2053.46
182.088	2072.29
182.164	2090.99
182.24	2107.07
182.317	2117.34
182.393	2115.05
182.469	2132.32
182.546	2146.21
182.622	2153.06
182.698	2145.02
182.775	2157.53
182.851	2172.42
182.927	2165.52
183.003	2163
183.08	2159.72
183.156	2167.28
183.232	2160.38
183.308	2149.06
183.385	2159.76
183.461	2179.7
183.537	2180.51
183.613	2190.78
183.69	2178.98
183.766	2165.71
183.842	2175.7
183.918	2181.69
183.995	2194.58
184.071	2198.96
184.147	2193.59
184.223	2179.84
184.299	2196.74
184.375	2184.32
184.452	2194.65
184.528	2247
184.604	2259.04
184.68	2269.98
184.756	2275.88
184.832	2280.02
184.908	2286.2
184.985	2282.4
185.061	2264.32
185.137	2273.26
185.213	2263.75
185.289	2266.65
185.365	2258.85
185.441	2256.32
185.517	2268.89
185.593	2265.56
185.669	2259.28
185.745	2270.08
185.822	2288.58
185.898	2279.49
185.974	2290.77
186.05	2280.25
186.126	2243.84
186.202	2236.03
186.278	2232.13
186.354	2223.04
186.43	2233.85
186.506	2229.28
186.582	2230.28
186.658	2237.94
186.734	2218.86
186.81	2220.72
186.886	2223
186.962	2239.08
187.038	2238.61
187.114	2231.65
187.19	2236.65
187.266	2229.61
187.341	2230.75
187.417	2221.14
187.493	2221.52
187.569	2223.28
187.645	2216.1
187.721	2201.63
187.797	2209.77
187.873	2214.96
187.949	2211.01
188.025	2203.68
188.101	2207.91
188.176	2212.86
188.252	2208.77
188.328	2217.99
188.404	2219.47
188.48	2214.95
188.556	2208.1
188.632	2203.24
188.707	2203.67
188.783	2202.43
188.859	2198.2
188.935	2187.97
189.011	2198.1
189.086	2193.16
189.162	2182.45
189.238	2176.65
189.314	2177.03
189.39	2169.46
189.465	2161.75
189.541	2179.98
189.617	2169.42
189.693	2164.57
189.768	2169.85
189.844	2195.7
189.92	2186.28
189.996	2193.61
190.071	2202.93
190.147	2201.84
190.223	2211.74
190.298	2204.08
190.374	2191.56
190.45	2203.88
190.526	2212.02
190.601	2205.17
190.677	2205.98
190.753	2233.73
190.828	2240.34
190.904	2252.81
190.98	2269.27
191.055	2280.7
191.131	2268.99
191.207	2287.02
191.282	2297.87
191.358	2286.31
191.433	2269.98
191.509	2281.82
191.585	2276.82
191.66	2280.58
191.736	2291.15
191.811	2280.39
191.887	2298.48
191.963	2323.04
192.038	2328.7
192.114	2327.65
192.189	2333.98
192.265	2329.75
192.34	2307.42
192.416	2306.56
192.491	2304.47
192.567	2307.37
192.642	2308.09
192.718	2308.61
192.793	2292.48
192.869	2288.53
192.944	2291.38
193.02	2298.67
193.095	2304.71
193.171	2313.56
193.246	2312.94
193.322	2307.28
193.397	2311.94
193.473	2293.04
193.548	2276.43
193.624	2282.43
193.699	2283.38
193.775	2296.9
193.85	2298.52
193.925	2309.32
194.001	2307.04
194.076	2299.23
194.152	2285.95
194.227	2278.34
194.302	2269.49
194.378	2276.77
194.453	2273.68
194.529	2286.15
194.604	2272.58
194.679	2265.59
194.755	2246.51
194.83	2257.13
194.905	2253.75
194.981	2262.74
195.056	2258.46
195.131	2262.84
195.207	2263.22
195.282	2253.13
195.357	2235.71
195.433	2250.32
195.508	2239.52
195.583	2246.99
195.659	2263.26
195.734	2273.78
195.809	2275.5
195.884	2283.44
195.96	2284.16
196.035	2300.38
196.11	2295.15
196.185	2305.24
196.261	2308.47
196.336	2337.93
196.411	2327.07
196.486	2334.55
196.561	2328.12
196.637	2336.92
196.712	2351.59
196.787	2352.4
196.862	2368.01
196.937	2377.19
197.013	2381.76
197.088	2390.9
197.163	2415.56
197.238	2431.72
197.313	2431.33
197.388	2443.24
197.464	2474.86
197.539	2483
197.614	2475.43
197.689	2489.86
197.764	2508.67
197.839	2531.81
197.914	2527.24
197.989	2546.05
198.065	2562.33
198.14	2612.33
198.215	2637.38
198.29	2650.91
198.365	2664.15
198.44	2674.11
198.515	2703.26
198.59	2723.08
198.665	2750.57
198.74	2759.72
198.815	2756.34
198.89	2778.25
198.965	2809.76
199.04	2806.61
199.115	2825.48
199.19	2868.55
199.265	2872.98
199.34	2884.52
199.415	2916.47
199.49	2937.05
199.565	2947.54
199.64	2967.37
199.715	2964.17
199.79	2973.13
199.865	2980.33
199.94	2978.09
200.015	3012.56
200.09	3019.72
200.165	3025.2
200.24	3034.55
200.315	3077.5
200.39	3101.25
200.464	3109.26
200.539	3110.83
200.614	3127.71
200.689	3154.9
200.764	3162.39
200.839	3178.36
200.914	3181.88
200.989	3171.72
201.063	3186.22
201.138	3170.06
201.213	3173.88
201.288	3156.04
201.363	3163.67
201.438	3165.11
201.512	3183.84
201.587	3165
201.662	3168.05
201.737	3180.31
201.812	3187.85
201.886	3150.23
201.961	3153.48
202.036	3142.27
202.111	3136.22
202.186	3105.48
202.26	3085.82
202.335	3065.31
202.41	3059.16
202.485	3042.24
202.559	3022.17
202.634	2999.14
202.709	3010.72
202.784	2992.17
202.858	2990.5
202.933	2969.48
203.008	2961.18
203.082	2938.83
203.157	2936.92
203.232	2895.18
203.306	2874.05
203.381	2840.82
203.456	2817.47
203.53	2799.25
203.605	2779.24
203.68	2760.55
203.754	2753.41
203.829	2735.3
203.904	2714.24
203.978	2703.52
204.053	2707.81
204.127	2696.19
204.202	2691.71
204.277	2671.7
204.351	2662.55
204.426	2653.55
204.5	2645.31
204.575	2608.64
204.65	2616.83
204.724	2608.88
204.799	2613.45
204.873	2607.58
204.948	2605.63
205.022	2594.73
205.097	2584.15
205.171	2597.24
205.246	2602.58
205.32	2600.44
205.395	2601.39
205.469	2592.77
205.544	2596.78
205.618	2577.77
205.693	2588.39
205.767	2577.34
205.842	2598.54
205.916	2592.69
205.991	2584.73
206.065	2589.97
206.14	2608.68
206.214	2606.58
206.289	2600.39
206.363	2615.15
206.438	2617.34
206.512	2623.58
206.586	2645.35
206.661	2652.5
206.735	2629.6
206.81	2626.21
206.884	2643.21
206.958	2631.26
207.033	2646.5
207.107	2655.46
207.181	2689.34
207.256	2684.43
207.33	2702.44
207.405	2716.88
207.479	2734.84
207.553	2741.89
207.628	2725.32
207.702	2735.9
207.776	2728.09
207.851	2730.56
207.925	2743.29
207.999	2744.29
208.073	2743.53
208.148	2742.76
208.222	2728.95
208.296	2762.24
208.371	2786.03
208.445	2799.33
208.519	2828.1
208.593	2841.92
208.668	2836.44
208.742	2837.3
208.816	2840.68
208.89	2854.12
208.965	2848.26
209.039	2858.7
209.113	2875.67
209.187	2896.91
209.261	2895.09
209.336	2920.98
209.41	2942.43
209.484	2943.95
209.558	2964.74
209.632	2977.09
209.707	2991.1
209.781	3016.7
209.855	3032.15
209.929	3047.71
210.003	3053.96
210.077	3053.34
210.151	3102.12
210.226	3140.86
210.3	3173.99
210.374	3197.82
210.448	3206.27
210.522	3222.63
210.596	3236.04
210.67	3250.11
210.744	3304.94
210.818	3340.13
210.892	3359.93
210.966	3358.93
211.041	3382.93
211.115	3387.13
211.189	3419.05
211.263	3445.92
211.337	3463.24
211.411	3490.98
211.485	3495.66
211.559	3519.23
211.633	3535.69
211.707	3518.69
211.781	3541.43
211.855	3522.95
211.929	3536.74
212.003	3534.64
212.077	3563.63
212.151	3598.31
212.225	3631.88
212.299	3645.46
212.373	3661.31
212.447	3687.59
212.52	3753.32
212.594	3792.13
212.668	3837.08
212.742	3861.21
212.816	3898.73
212.89	3933.46
212.964	3976.7
213.038	4025.66
213.112	4086.81
213.186	4152.68
213.26	4183.93
213.333	4188.76
213.407	4249.32
213.481	4316.21
213.555	4398.48
213.629	4458.26
213.703	4507.02
213.777	4579.25
213.85	4629.32
213.924	4744.49
213.998	4826.72
214.072	4902.38
214.146	4972.17
214.219	5055.28
214.293	5138.85
214.367	5226.65
214.441	5326.36
214.515	5402.34
214.588	5479.71
214.662	5541.17
214.736	5624.63
214.81	5742.54
214.883	5865.35
214.957	5959.96
215.031	6050.51
215.105	6134.06
215.178	6222.75
215.252	6333.76
215.326	6423.3
215.4	6520.73
215.473	6587.93
215.547	6684.34
215.621	6786.21
215.694	6910.32
215.768	7009.92
215.842	7118.59
215.915	7227.75
215.989	7330.38
216.063	7446.76
216.136	7567.48
216.21	7700.5
216.284	7839.78
216.357	7962.37
216.431	8084.21
216.504	8220.73
216.578	8371.27
216.652	8516.5
216.725	8650.57
216.799	8793
216.873	8925.69
216.946	9065.89
217.02	9189.59
217.093	9319.64
217.167	9424.89
217.24	9537.58
217.314	9663.4
217.387	9787.93
217.461	9914.7
217.535	10060.74
217.608	10182.66
217.682	10309.21
217.755	10449.84
217.829	10560.08
217.902	10688.91
217.976	10807.78
218.049	10917.88
218.123	11030.5
218.196	11161.33
218.27	11284.42
218.343	11384.37
218.417	11510.45
218.49	11634.65
218.563	11770.85
218.637	11893.57
218.71	12048.48
218.784	12178.28
218.857	12308.76
218.931	12438.03
219.004	12551.26
219.077	12667.15
219.151	12789
219.224	12906.14
219.298	13012.48
219.371	13142.39
219.444	13246.86
219.518	13371.85
219.591	13493.28
219.665	13628.16
219.738	13737.73
219.811	13838.63
219.885	13958.56
219.958	14071.41
220.031	14182.33
220.105	14290.99
220.178	14396.12
220.251	14482.55
220.325	14593.04
220.398	14695.86
220.471	14798.15
220.544	14909.06
220.618	14997.66
220.691	15097.35
220.764	15195.39
220.838	15289.48
220.911	15373.69
220.984	15477.13
221.057	15567.17
221.131	15651.77
221.204	15708.45
221.277	15803.64
221.35	15912.43
221.424	15991.38
221.497	16064.26
221.57	16136.41
221.643	16219.22
221.716	16307.37
221.79	16372.87
221.863	16443.19
221.936	16514.62
222.009	16588.21
222.082	16659.88
222.155	16722.15
222.229	16808.47
222.302	16875.75
222.375	16941.25
222.448	17019.22
222.521	17081.88
222.594	17141.2
222.667	17200.29
222.74	17273.74
222.814	17329.69
222.887	17380.77
222.96	17450.75
223.033	17526.46
223.106	17590.85
223.179	17653.4
223.252	17698.75
223.325	17762.56
223.398	17810.02
223.471	17862.02
223.544	17907.03
223.617	17947.95
223.69	17994.02
223.763	18024.28
223.837	18074.93
223.91	18135.51
223.983	18157.34
224.056	18179.51
224.129	18224.08
224.202	18271.74
224.275	18303.45
224.348	18323.21
224.42	18344.37
224.493	18360.61
224.566	18377.09
224.639	18408.75
224.712	18430.58
224.785	18457.57
224.858	18479.49
224.931	18497.81
225.004	18515.49
225.077	18544.98
225.15	18552.12
225.223	18584.88
225.296	18632.5
225.369	18640.69
225.442	18640.4
225.514	18657.7
225.587	18690.81
225.66	18714.47
225.733	18737.02
225.806	18752.3
225.879	18770.27
225.952	18782.75
226.025	18809.98
226.097	18842.22
226.17	18855.95
226.243	18841.54
226.316	18861.83
226.389	18881.97
226.461	18908.24
226.534	18921.64
226.607	18930.6
226.68	18967.17
226.753	18980.33
226.825	18963.03
226.898	18989.29
226.971	19000.57
227.044	19021.44
227.117	19040.57
227.189	19050.59
227.262	19065.92
227.335	19090.64
227.407	19097.86
227.48	19119.5
227.553	19127.31
227.626	19127.69
227.698	19130.54
227.771	19149.57
227.844	19139.26
227.916	19144.9
227.989	19128.42
228.062	19131.98
228.134	19154.78
228.207	19154.25
228.28	19150.97
228.352	19156.13
228.425	19146.2
228.498	19161.62
228.57	19156.08
228.643	19166.44
228.716	19163.93
228.788	19157.33
228.861	19152.37
228.934	19169.38
229.006	19163.11
229.079	19158.49
229.151	19147.84
229.224	19135.79
229.296	19138.59
229.369	19164.03
229.442	19179.06
229.514	19172.9
229.587	19185.62
229.659	19161.91
229.732	19154.39
229.804	19165.14
229.877	19182.78
229.949	19201.57
230.022	19215.26
230.094	19207.59
230.167	19197.28
230.239	19181.91
230.312	19177.47
230.384	19189.43
230.457	19181.62
230.529	19182.44
230.602	19182.1
230.674	19185.76
230.747	19201.09
230.819	19210.24
230.892	19172.85
230.964	19152.9
231.037	19154.73
231.109	19142.59
231.181	19147.64
231.254	19137.04
231.326	19122.68
231.399	19107.94
231.471	19083.41
231.544	19042.16
231.616	19051.17
231.688	19043.7
231.761	19025.15
231.833	19005.24
231.905	18970.11
231.978	18962.84
232.05	18947.03
232.122	18937.49
232.195	18924.33
232.267	18920.19
232.339	18901.2
232.412	18912.38
232.484	18899.66
232.556	18880.63
232.629	18897.78
232.701	18889.59
232.773	18880.29
232.846	18863.33
232.918	18843.62
232.99	18834.32
233.062	18841.59
233.135	18824.82
233.207	18796.1
233.279	18786.46
233.351	18786.17
233.424	18770.56
233.496	18746.47
233.568	18748.44
233.64	18723.96
233.713	18700.06
233.785	18676.69
233.857	18659.77
233.929	18633.03
234.001	18632.98
234.074	18633.94
234.146	18581.37
234.218	18564.31
234.29	18547.54
234.362	18522.24
234.434	18492.65
234.507	18462.19
234.579	18431.83
234.651	18402.24
234.723	18397.67
234.795	18396.17
234.867	18383.79
234.939	18378.68
235.012	18359.98
235.084	18348.99
235.156	18333.67
235.228	18311.65
235.3	18288.37
235.372	18275.36
235.444	18258.83
235.516	18211.94
235.588	18196.76
235.66	18189.97
235.732	18156.57
235.804	18191.36
235.876	18191.46
235.948	18188.81
236.02	18175.94
236.092	18142.59
236.164	18131.99
236.236	18103.37
236.308	18076.48
236.38	18057.2
236.452	18026.45
236.524	18012.19
236.596	18002.12
236.668	17988.05
236.74	17970.84
236.812	17956.67
236.884	17941.3
236.956	17919.37
237.028	17891.61
237.1	17857.59
237.172	17847.62
237.244	17846.41
237.316	17790.36
237.388	17749.93
237.46	17724.73
237.532	17716.2
237.604	17698.37
237.675	17699.76
237.747	17689.16
237.819	17653.98
237.891	17614.41
237.963	17586.22
238.035	17555.57
238.107	17488.87
238.178	17485.45
238.25	17457.21
238.322	17456.3
238.394	17412.3
238.466	17391.38
238.538	17381.4
238.609	17358.17
238.681	17316.29
238.753	17286.46
238.825	17259.43
238.897	17241.16
238.968	17233.5
239.04	17199.76
239.112	17203.33
239.184	17151.28
239.255	17122.61
239.327	17114.41
239.399	17102.94
239.471	17088.82
239.542	17073.06
239.614	17068.92
239.686	17012.34
239.758	17008.34
239.829	16962.36
239.901	16953.54
239.973	16924.14
240.044	16904.91
240.116	16884.82
240.188	16853.39
240.259	16827.22
240.331	16794.59
240.403	16777.92
240.474	16726.88
240.546	16685.33
240.618	16638.05
240.689	16612.17
240.761	16586.58
240.833	16576.27
240.904	16543.45
240.976	16517.23
241.048	16491.44
241.119	16475.44
241.191	16459.44
241.262	16444.84
241.334	16413.65
241.405	16384.16
241.477	16347.43
241.549	16321.64
241.62	16302.46
241.692	16289.54
241.763	16284.97
241.835	16258.7
241.906	16232.62
241.978	16199.12
242.049	16193.63
242.121	16176.42
242.192	16159.26
242.264	16119.4
242.335	16066.53
242.407	16050.67
242.478	16010.72
242.55	15983.68
242.621	15944.59
242.693	15907.33
242.764	15870.41
242.836	15838.26
242.907	15812.67
242.979	15801.44
243.05	15770.97
243.122	15748.03
243.193	15717.9
243.264	15659.97
243.336	15632.35
243.407	15612.59
243.479	15608.73
243.55	15583.19
243.622	15559.47
243.693	15536.72
243.764	15529.25
243.836	15498.45
243.907	15467.17
243.978	15445.96
244.05	15423.4
244.121	15382.33
244.192	15371.44
244.264	15324.44
244.335	15304.29
244.407	15269.1
244.478	15246.4
244.549	15220.9
244.62	15182.29
244.692	15153.47
244.763	15135.63
244.834	15102.27
244.906	15071.14
244.977	15044.48
245.048	15035.03
245.119	14995.75
245.191	14951.26
245.262	14894.33
245.333	14882.32
245.405	14856.25
245.476	14837.3
245.547	14814.16
245.618	14798.21
245.689	14770.49
245.761	14754.68
245.832	14731.64
245.903	14714.28
245.974	14690.86
246.045	14661.02
246.117	14649.59
246.188	14602.69
246.259	14569.38
246.33	14544.03
246.401	14510.43
246.473	14468.78
246.544	14433.69
246.615	14418.36
246.686	14392.61
246.757	14387.79
246.828	14351.11
246.899	14343.11
246.97	14302.28
247.042	14268.29
247.113	14252.58
247.184	14241.78
247.255	14207.12
247.326	14180.32
247.397	14145.85
247.468	14122.18
247.539	14097.35
247.61	14051.51
247.681	14049.58
247.752	14029.14
247.823	13994.63
247.894	13968.31
247.965	13933.07
248.037	13901.35
248.108	13860.61
248.179	13840.17
248.25	13808.98
248.321	13794.18
248.392	13751.71
248.463	13748.1
248.534	13720.67
248.605	13701.92
248.675	13674.44
248.746	13659.5
248.817	13642.24
248.888	13630.38
248.959	13589.6
249.03	13572.87
249.101	13556.48
249.172	13528.13
249.243	13486.53
249.314	13485.28
249.385	13473.13
249.456	13460.79
249.527	13436.35
249.598	13420.54
249.669	13394.31
249.739	13378.93
249.81	13358.98
249.881	13319.93
249.952	13295.2
250.023	13270.04
250.094	13227.95
250.165	13195.22
250.235	13166.78
250.306	13149.81
250.377	13115
250.448	13095.34
250.519	13052.38
250.59	13046.6
250.66	13015.55
250.731	13009
250.802	12980.12
250.873	12956.16
250.944	12942.86
251.014	12911.96
251.085	12916.97
251.156	12902.03
251.227	12887.9
251.297	12874.12
251.368	12872
251.439	12860.57
251.51	12852.71
251.58	12822.06
251.651	12800.31
251.722	12794.29
251.792	12752.64
251.863	12726.51
251.934	12724.49
252.005	12735.43
252.075	12709.69
252.146	12704.48
252.217	12689.88
252.287	12675.56
252.358	12657.39
252.429	12646.64
252.499	12621.43
252.57	12596.74
252.641	12590.48
252.711	12574.96
252.782	12545.55
252.852	12543.24
252.923	12524.63
252.994	12509.3
253.064	12509.25
253.135	12477.39
253.205	12448.8
253.276	12446.92
253.347	12448.27
253.417	12417.28
253.488	12388.16
253.558	12362.42
253.629	12332.25
253.699	12313.79
253.77	12304.34
253.841	12276.33
253.911	12263.9
253.982	12254.69
254.052	12246.78
254.123	12225.29
254.193	12203.3
254.264	12220.9
254.334	12188.75
254.405	12152.55
254.475	12112.3
254.546	12083.04
254.616	12083.38
254.687	12070.46
254.757	12054.07
254.827	12029.25
254.898	12014.93
254.968	11995.46
255.039	11972.76
255.109	11975.7
255.18	11954.73
255.25	11915.06
255.321	11909.9
255.391	11873.32
255.461	11870.76
255.532	11816.54
255.602	11798.7
255.673	11759.9
255.743	11729.83
255.813	11688.47
255.884	11681.72
255.954	11683.89
256.024	11688.13
256.095	11666.3
256.165	11636.13
256.235	11625.14
256.306	11600.51
256.376	11591.83
256.446	11584.75
256.517	11569.57
256.587	11555.11
256.657	11540.89
256.728	11522.53
256.798	11497.61
256.868	11476.98
256.938	11448.59
257.009	11445.27
257.079	11432.83
257.149	11444.4
257.219	11401.75
257.29	11389.94
257.36	11352.69
257.43	11342.23
257.5	11297.6
257.571	11273.12
257.641	11265.12
257.711	11233.74
257.781	11225.36
257.852	11215.04
257.922	11180.87
257.992	11165.93
258.062	11146.42
258.132	11138.13
258.202	11118.66
258.273	11103.57
258.343	11107.19
258.413	11081.89
258.483	11072.25
258.553	11036.44
258.623	11008.4
258.693	10995.19
258.764	10996.88
258.834	10999.53
258.904	10982.47
258.974	10962.52
259.044	10946.76
259.114	10933.46
259.184	10918.09
259.254	10898.29
259.324	10854.96
259.394	10843.4
259.464	10839.98
259.535	10822.63
259.605	10803.93
259.675	10782.83
259.745	10775.5
259.815	10748.9
259.885	10724.19
259.955	10737.97
260.025	10714.79
260.095	10693.69
260.165	10695.13
260.235	10692.77
260.305	10664.25
260.375	10638.08
260.445	10646.13
260.515	10648.78
260.585	10643.29
260.655	10628.59
260.725	10625.03
260.795	10624.4
260.865	10627.48
260.934	10611.34
261.004	10603.97
261.074	10582.05
261.144	10582.91
261.214	10578
261.284	10564.51
261.354	10569.23
261.424	10539.78
261.494	10549.95
261.564	10540.79
261.634	10530.05
261.703	10498.92
261.773	10491.26
261.843	10482.59
261.913	10469.34
261.983	10429.26
262.053	10418.8
262.123	10401.26
262.192	10375.2
262.262	10365.18
