Data from 20250704_urea_0.5M_MAYP1162681_11-05-11-768.txt Node
Date: Fri Jul 04 11:05:11 BST 2025
User: adleo
Spectrometer: MAYP116268
Trigger mode: 0
Integration Time (sec): 1.000000E0
Scans to average: 1
Electric dark correction enabled: true
Nonlinearity correction enabled: true
Boxcar width: 10
XAxis mode: Wavelengths
Number of Pixels in Spectrum: 2068
>>>>>Begin Spectral Data<<<<<
179.565	1234.38
179.642	1290.64
179.718	1334.63
179.795	1373.56
179.871	1408.09
179.948	1427.38
180.024	1450.52
180.101	1474.18
180.177	1492.42
180.254	1516.96
180.33	1539.65
180.407	1596.25
180.483	1692.88
180.56	1786.43
180.636	1870.04
180.712	1859.67
180.789	1870.51
180.865	1882.82
180.942	1890.9
181.018	1901.4
181.095	1912.82
181.171	1917.57
181.248	1918.52
181.324	1936.88
181.4	1945.15
181.477	1955.71
181.553	1967.74
181.63	1986.57
181.706	2002.64
181.782	2007.63
181.859	2006.02
181.935	2011.68
182.011	2008.25
182.088	2027.13
182.164	2045.31
182.24	2061.14
182.317	2070.98
182.393	2069.65
182.469	2085.01
182.546	2100.09
182.622	2106.08
182.698	2104.09
182.775	2115.93
182.851	2133.34
182.927	2124.44
183.003	2119.54
183.08	2115.12
183.156	2125.35
183.232	2120.45
183.308	2105.8
183.385	2114.93
183.461	2133.1
183.537	2133.43
183.613	2146.18
183.69	2137.48
183.766	2129.01
183.842	2136.66
183.918	2141.95
183.995	2154.88
184.071	2155.5
184.147	2148.13
184.223	2135.24
184.299	2145.57
184.375	2135.48
184.452	2142.77
184.528	2191.68
184.604	2202.38
184.68	2214.65
184.756	2221.79
184.832	2227.21
184.908	2234.96
184.985	2234.11
185.061	2218.03
185.137	2229.26
185.213	2218.03
185.289	2220.46
185.365	2210.71
185.441	2209.75
185.517	2221.56
185.593	2217.23
185.669	2217.99
185.745	2228.89
185.822	2244.96
185.898	2238.01
185.974	2246
186.05	2237.44
186.126	2203.18
186.202	2196.71
186.278	2192.38
186.354	2184.15
186.43	2192.71
186.506	2192.05
186.582	2193.95
186.658	2199.66
186.734	2177.06
186.81	2178.35
186.886	2180.54
186.962	2194
187.038	2191
187.114	2182.96
187.19	2190.71
187.266	2180.15
187.341	2178.91
187.417	2172.59
187.493	2171.26
187.569	2176.82
187.645	2169.73
187.721	2157.79
187.797	2168.16
187.873	2172.78
187.949	2167.45
188.025	2159.64
188.101	2162.83
188.176	2165.54
188.252	2162.31
188.328	2172.34
188.404	2173.15
188.48	2165.49
188.556	2159.64
188.632	2160.78
188.707	2161.97
188.783	2159.5
188.859	2157.74
188.935	2149.5
189.011	2159.97
189.086	2155.74
189.162	2147.74
189.238	2145.89
189.314	2143.8
189.39	2136.9
189.465	2130.38
189.541	2146.56
189.617	2131.57
189.693	2128.96
189.768	2131.53
189.844	2154.56
189.92	2144.62
189.996	2155.33
190.071	2167.7
190.147	2164.46
190.223	2172.22
190.298	2165.41
190.374	2154
190.45	2162.18
190.526	2171.98
190.601	2161.56
190.677	2162.56
190.753	2192.17
190.828	2194.31
190.904	2208.73
190.98	2221.77
191.055	2231.57
191.131	2222.24
191.207	2242.03
191.282	2250.12
191.358	2243.6
191.433	2231.13
191.509	2244.97
191.585	2240.25
191.66	2241.02
191.736	2251.86
191.811	2242.78
191.887	2256.01
191.963	2278.52
192.038	2282.94
192.114	2280.47
192.189	2287.03
192.265	2284.41
192.34	2259.89
192.416	2259.28
192.491	2253.14
192.567	2257.8
192.642	2256.94
192.718	2257.75
192.793	2247.19
192.869	2240.62
192.944	2243.48
193.02	2251
193.095	2252.28
193.171	2257.76
193.246	2258.23
193.322	2255.57
193.397	2253.62
193.473	2242.15
193.548	2224.68
193.624	2231.39
193.699	2230.2
193.775	2247.81
193.85	2245.77
193.925	2254.48
194.001	2253.91
194.076	2248.44
194.152	2237.82
194.227	2231.59
194.302	2219.74
194.378	2223.74
194.453	2220.41
194.529	2229.4
194.604	2214.46
194.679	2209.85
194.755	2190.96
194.83	2203.72
194.905	2200.58
194.981	2214.86
195.056	2209.29
195.131	2213.48
195.207	2211.57
195.282	2202.06
195.357	2180.59
195.433	2199.24
195.508	2189.25
195.583	2195.29
195.659	2211.14
195.734	2218.61
195.809	2217.38
195.884	2229.22
195.96	2231.26
196.035	2247.96
196.11	2245.73
196.185	2256.77
196.261	2263.81
196.336	2294.74
196.411	2280.74
196.486	2284.98
196.561	2278.07
196.637	2285.26
196.712	2303.73
196.787	2311.06
196.862	2328.95
196.937	2339.71
197.013	2341.99
197.088	2350.41
197.163	2376.32
197.238	2395.37
197.313	2394.85
197.388	2411.08
197.464	2438.56
197.539	2447.79
197.614	2442.08
197.689	2455.84
197.764	2472.55
197.839	2491.93
197.914	2486.98
197.989	2512.03
198.065	2525.26
198.14	2570.58
198.215	2596.43
198.29	2605.87
198.365	2614.06
198.44	2624.15
198.515	2652.07
198.59	2670.84
198.665	2696.41
198.74	2703.37
198.815	2701.56
198.89	2723.47
198.965	2755.69
199.04	2753.6
199.115	2770.55
199.19	2812.43
199.265	2813.86
199.34	2825.77
199.415	2860.58
199.49	2882.69
199.565	2888.74
199.64	2912.38
199.715	2914.48
199.79	2922.25
199.865	2931.87
199.94	2932.11
200.015	2965.39
200.09	2971.97
200.165	2979.26
200.24	2989.56
200.315	3030.22
200.39	3047.62
200.464	3055.82
200.539	3055.59
200.614	3075.08
200.689	3100.98
200.764	3108.37
200.839	3126.82
200.914	3133.87
200.989	3119.27
201.063	3133.82
201.138	3119.71
201.213	3119.71
201.288	3099.26
201.363	3109.32
201.438	3108.32
201.512	3123.81
201.587	3102.82
201.662	3105.54
201.737	3121.85
201.812	3128.48
201.886	3093.4
201.961	3101.09
202.036	3086.79
202.111	3080.78
202.186	3049.13
202.26	3029
202.335	3006.12
202.41	2998.25
202.485	2978.42
202.559	2961.12
202.634	2931.71
202.709	2937.47
202.784	2920.6
202.858	2917.36
202.933	2895.05
203.008	2888.33
203.082	2870.79
203.157	2869.88
203.232	2828.62
203.306	2804.26
203.381	2771.37
203.456	2748.78
203.53	2727.65
203.605	2708.5
203.68	2688.15
203.754	2681.16
203.829	2666.24
203.904	2646.52
203.978	2637.37
204.053	2645.38
204.127	2632.95
204.202	2634.33
204.277	2618.71
204.351	2613.13
204.426	2609.46
204.5	2600.94
204.575	2564.7
204.65	2575.28
204.724	2568.94
204.799	2575.18
204.873	2569.37
204.948	2568.7
205.022	2556.46
205.097	2544.65
205.171	2557.6
205.246	2564.17
205.32	2562.17
205.395	2563.08
205.469	2553.89
205.544	2559.23
205.618	2537.94
205.693	2550.23
205.767	2535.8
205.842	2557.04
205.916	2549.61
205.991	2541.71
206.065	2547.9
206.14	2564.03
206.214	2558.98
206.289	2553.98
206.363	2569.36
206.438	2573.89
206.512	2582.75
206.586	2601.7
206.661	2613.61
206.735	2594
206.81	2598.29
206.884	2616.14
206.958	2604.33
207.033	2626.57
207.107	2638.87
207.181	2675.99
207.256	2676.56
207.33	2704.09
207.405	2722.02
207.479	2751.32
207.553	2761.61
207.628	2756.14
207.702	2777.38
207.776	2783.72
207.851	2800.88
207.925	2829.34
207.999	2836.35
208.073	2847.79
208.148	2869.86
208.222	2877.35
208.296	2930.24
208.371	2967.93
208.445	3003.88
208.519	3058.8
208.593	3099.53
208.668	3117.7
208.742	3149.59
208.816	3180.49
208.89	3227.79
208.965	3262.6
209.039	3309.48
209.113	3371.72
209.187	3436.64
209.261	3483.5
209.336	3549.49
209.41	3621.71
209.484	3675.94
209.558	3763.41
209.632	3842.57
209.707	3923.24
209.781	4023.2
209.855	4117.98
209.929	4212.12
210.003	4299.54
210.077	4386.56
210.151	4522.36
210.226	4657.35
210.3	4783.29
210.374	4910.12
210.448	5020.09
210.522	5141.21
210.596	5263.25
210.67	5388.61
210.744	5555.15
210.818	5711.4
210.892	5862.28
210.966	5990
211.041	6144.33
211.115	6276.96
211.189	6439.42
211.263	6595.87
211.337	6742.14
211.411	6905.33
211.485	7050.48
211.559	7219.44
211.633	7377.01
211.707	7507.94
211.781	7681.18
211.855	7813.19
211.929	7977.53
212.003	8125.72
212.077	8311.87
212.151	8502.71
212.225	8689.6
212.299	8861.71
212.373	9027.91
212.447	9205.66
212.52	9419.52
212.594	9609.84
212.668	9813
212.742	9994.04
212.816	10174.13
212.89	10353.51
212.964	10537.31
213.038	10739.43
213.112	10946.04
213.186	11162.04
213.26	11341.2
213.333	11488.86
213.407	11686.48
213.481	11881.47
213.555	12102.62
213.629	12287.86
213.703	12463.84
213.777	12657.8
213.85	12835.14
213.924	13063.62
213.998	13255.85
214.072	13438.3
214.146	13610.01
214.219	13797.04
214.293	13970.39
214.367	14167.64
214.441	14369.03
214.515	14550.42
214.588	14706.41
214.662	14850.25
214.736	14997.13
214.81	15173.94
214.883	15354.7
214.957	15516.56
215.031	15676.06
215.105	15811.84
215.178	15964.01
215.252	16120.75
215.326	16252.38
215.4	16384.64
215.473	16491.73
215.547	16622.01
215.621	16762.06
215.694	16919.42
215.768	17046.36
215.842	17195.91
215.915	17324.97
215.989	17438.85
216.063	17562.46
216.136	17691.52
216.21	17833.74
216.284	17981.59
216.357	18115.37
216.431	18239.76
216.504	18377.73
216.578	18526.83
216.652	18659.45
216.725	18775.64
216.799	18903.3
216.873	19032.78
216.946	19159.81
217.02	19274.22
217.093	19382.74
217.167	19457.97
217.24	19544.81
217.314	19642.06
217.387	19723.55
217.461	19809.52
217.535	19922.19
217.608	20007.15
217.682	20113.32
217.755	20201.8
217.829	20285.84
217.902	20365.55
217.976	20454.33
218.049	20529.75
218.123	20593.41
218.196	20675.97
218.27	20742.57
218.343	20808.46
218.417	20888.32
218.49	20968.57
218.563	21061.25
218.637	21144.68
218.71	21251.87
218.784	21347.55
218.857	21425.05
218.931	21508.24
219.004	21585.5
219.077	21658.05
219.151	21724.27
219.224	21784.33
219.298	21855.05
219.371	21922.39
219.444	21976.37
219.518	22033.68
219.591	22095.24
219.665	22179.65
219.738	22245.31
219.811	22300.12
219.885	22353.82
219.958	22395.52
220.031	22430.71
220.105	22474.34
220.178	22513.19
220.251	22547.38
220.325	22575.97
220.398	22624.85
220.471	22663.52
220.544	22715.11
220.618	22739.69
220.691	22784.63
220.764	22811.58
220.838	22845.42
220.911	22875.08
220.984	22927.05
221.057	22961.72
221.131	22997.54
221.204	22989.92
221.277	23033.08
221.35	23088.39
221.424	23100.29
221.497	23129.18
221.57	23153.04
221.643	23177.88
221.716	23210.33
221.79	23218.48
221.863	23238.78
221.936	23251.26
222.009	23270.31
222.082	23286.03
222.155	23299.53
222.229	23323.74
222.302	23345.15
222.375	23354.46
222.448	23360.24
222.521	23361.16
222.594	23368.83
222.667	23362.03
222.74	23381.65
222.814	23382.81
222.887	23372.73
222.96	23399.49
223.033	23419.36
223.106	23436.53
223.179	23448.73
223.252	23456.3
223.325	23472.21
223.398	23472.99
223.471	23477.28
223.544	23473.66
223.617	23461.36
223.69	23461.27
223.763	23449.74
223.837	23446.94
223.91	23446.37
223.983	23440.39
224.056	23430.31
224.129	23436.58
224.202	23444.53
224.275	23441.45
224.348	23423.89
224.42	23410.39
224.493	23381.99
224.566	23363.76
224.639	23353.92
224.712	23340.61
224.785	23327.59
224.858	23307.68
224.931	23286.9
225.004	23260.09
225.077	23253.24
225.15	23214.23
225.223	23198.22
225.296	23203.09
225.369	23167.51
225.442	23145.62
225.514	23125.03
225.587	23106.81
225.66	23076.57
225.733	23058.92
225.806	23035.97
225.879	23019.96
225.952	22996.82
226.025	22997.11
226.097	22992.34
226.17	22973.05
226.243	22928.45
226.316	22896.14
226.389	22884.43
226.461	22886.02
226.534	22881.68
226.607	22858.25
226.68	22871.07
226.753	22856.56
226.825	22821.12
226.898	22817.02
226.971	22790.79
227.044	22777.39
227.117	22770.5
227.189	22753.57
227.262	22734.72
227.335	22720.69
227.407	22691.09
227.48	22669.11
227.553	22640.95
227.626	22604.26
227.698	22580.15
227.771	22563.96
227.844	22537.34
227.916	22503.98
227.989	22455.58
228.062	22416.05
228.134	22409.44
228.207	22385.58
228.28	22352.8
228.352	22317.27
228.425	22294.13
228.498	22286.75
228.57	22252.24
228.643	22230.59
228.716	22209.72
228.788	22177.52
228.861	22140.98
228.934	22121.12
229.006	22097.01
229.079	22064.28
229.151	22037.91
229.224	21990.63
229.296	21962.14
229.369	21966.91
229.442	21952.93
229.514	21920.06
229.587	21914.56
229.659	21861.2
229.732	21833.15
229.804	21812.47
229.877	21808.18
229.949	21795.07
230.022	21781.76
230.094	21762.67
230.167	21731.82
230.239	21696.49
230.312	21666.61
230.384	21660
230.457	21638.12
230.529	21618.6
230.602	21603.61
230.674	21573.29
230.747	21563.85
230.819	21551.65
230.892	21486.72
230.964	21463.25
231.037	21444.74
231.109	21405.41
231.181	21389.41
231.254	21340.11
231.326	21307.81
231.399	21283.81
231.471	21246.7
231.544	21194.45
231.616	21174.78
231.688	21163.94
231.761	21139.17
231.833	21118.83
231.905	21069.81
231.978	21041.23
232.05	21009.9
232.122	20973.71
232.195	20939.83
232.267	20927.44
232.339	20901.22
232.412	20896.45
232.484	20861.41
232.556	20827.77
232.629	20818.76
232.701	20800.83
232.773	20783.29
232.846	20753.65
232.918	20719
232.99	20689.65
233.062	20668.68
233.135	20635.14
233.207	20590.08
233.279	20561.26
233.351	20525.26
233.424	20489.64
233.496	20440.73
233.568	20434.22
233.64	20398.27
233.713	20375.14
233.785	20324.05
233.857	20285.16
233.929	20239.04
234.001	20229.21
234.074	20216.3
234.146	20161.31
234.218	20126.61
234.29	20093.45
234.362	20060.97
234.434	20005.41
234.507	19967.92
234.579	19920.4
234.651	19888.5
234.723	19861.85
234.795	19828.02
234.867	19797.32
234.939	19787.39
235.012	19762.58
235.084	19723.68
235.156	19703.54
235.228	19662.82
235.3	19632.94
235.372	19605.62
235.444	19581.72
235.516	19522.15
235.588	19479.41
235.66	19449.24
235.732	19407.22
235.804	19430.74
235.876	19402.11
235.948	19397.39
236.02	19356.62
236.092	19325.15
236.164	19293.35
236.236	19253.35
236.308	19211.47
236.38	19177.11
236.452	19125.36
236.524	19094.28
236.596	19077.22
236.668	19047.77
236.74	19015.87
236.812	18990.38
236.884	18964.84
236.956	18931.3
237.028	18882.14
237.1	18845.95
237.172	18837.66
237.244	18823.35
237.316	18748.85
237.388	18705.96
237.46	18657.63
237.532	18642.21
237.604	18596.71
237.675	18569.44
237.747	18540.86
237.819	18508.29
237.891	18478.36
237.963	18441.59
238.035	18399.76
238.107	18313.79
238.178	18282.71
238.25	18237.02
238.322	18229.55
238.394	18168.06
238.466	18130.23
238.538	18116.5
238.609	18086.28
238.681	18024.11
238.753	17983.73
238.825	17952.99
238.897	17924.55
238.968	17912.51
239.04	17866.53
239.112	17861.95
239.184	17819.5
239.255	17776.46
239.327	17751.4
239.399	17711.11
239.471	17687.02
239.542	17654.97
239.614	17654.97
239.686	17596.56
239.758	17578.63
239.829	17529.57
239.901	17511.65
239.973	17480.51
240.044	17444.9
240.116	17414.15
240.188	17383.89
240.259	17345.09
240.331	17304.03
240.403	17280.56
240.474	17230.34
240.546	17189.38
240.618	17134.68
240.689	17090.77
240.761	17059.35
240.833	17037.9
240.904	17005.86
240.976	16974.29
241.048	16949.56
241.119	16907.59
241.191	16873.99
241.262	16859.44
241.334	16820.4
241.405	16785.36
241.477	16746.13
241.549	16709.07
241.62	16681.02
241.692	16658.08
241.763	16635.28
241.835	16596.05
241.906	16558.51
241.978	16503.9
242.049	16488.38
242.121	16476.19
242.192	16466.55
242.264	16424.66
242.335	16370.3
242.407	16349.24
242.478	16309.09
242.55	16276.84
242.621	16247.06
242.693	16219.54
242.764	16180.06
242.836	16140.4
242.907	16110.37
242.979	16079.47
243.05	16054.65
243.122	16025.88
243.193	15984.57
243.264	15939.21
243.336	15911.79
243.407	15890
243.479	15880.36
243.55	15845.42
243.622	15809.65
243.693	15764.3
243.764	15742.08
243.836	15693.97
243.907	15650.93
243.978	15614.44
244.05	15588.9
244.121	15529.66
244.192	15511.97
244.264	15464.73
244.335	15436.72
244.407	15398.69
244.478	15376.38
244.549	15337.57
244.62	15285.95
244.692	15257.12
244.763	15227.34
244.834	15189.98
244.906	15146.84
244.977	15121.48
245.048	15105.29
245.119	15067.21
245.191	15038.86
245.262	14989.46
245.333	14990.85
245.405	14969.74
245.476	14947.09
245.547	14922.02
245.618	14909.82
245.689	14876.03
245.761	14848.32
245.832	14810.57
245.903	14784.59
245.974	14753.84
246.045	14724.43
246.117	14715.9
246.188	14667.65
246.259	14626.38
246.33	14594.47
246.401	14567.48
246.473	14521.92
246.544	14488.42
246.615	14467.31
246.686	14432.84
246.757	14422.81
246.828	14379.24
246.899	14364.2
246.97	14322.88
247.042	14285.19
247.113	14263.01
247.184	14255.54
247.255	14219.87
247.326	14195.62
247.397	14168.43
247.468	14141.53
247.539	14119.94
247.61	14072.26
247.681	14063.87
247.752	14046.62
247.823	14017.55
247.894	13987.9
247.965	13952.57
248.037	13920.22
248.108	13876.21
248.179	13848.78
248.25	13821.88
248.321	13801.2
248.392	13751.93
248.463	13741.09
248.534	13714.96
248.605	13698.9
248.675	13669.45
248.746	13654.89
248.817	13633.25
248.888	13614.88
248.959	13577.67
249.03	13557.76
249.101	13534.42
249.172	13501.31
249.243	13451.61
249.314	13437.67
249.385	13419.26
249.456	13402.15
249.527	13369.12
249.598	13354.08
249.669	13327.33
249.739	13305.93
249.81	13292.23
249.881	13262.35
249.952	13238.68
250.023	13213.03
250.094	13172.49
250.165	13140.72
250.235	13119.22
250.306	13103.55
250.377	13066.77
250.448	13047.25
250.519	13002.8
250.59	12998.8
250.66	12971.71
250.731	12975.66
250.802	12954.4
250.873	12935.51
250.944	12912.95
251.014	12889.62
251.085	12895.4
251.156	12881.23
251.227	12870.04
251.297	12851.82
251.368	12845.17
251.439	12842.42
251.51	12838.66
251.58	12805.35
251.651	12772.62
251.722	12758.83
251.792	12722.2
251.863	12695.83
251.934	12690.29
252.005	12696.84
252.075	12672.02
252.146	12663.53
252.217	12654.52
252.287	12639.62
252.358	12613.54
252.429	12613.93
252.499	12589.35
252.57	12566.06
252.641	12551.84
252.711	12528.41
252.782	12496.21
252.852	12492.98
252.923	12468.79
252.994	12439.14
253.064	12439.33
253.135	12415.91
253.205	12388.62
253.276	12374.88
253.347	12370.98
253.417	12339.94
253.488	12311.06
253.558	12287.92
253.629	12266.47
253.699	12248.74
253.77	12235.87
253.841	12214.51
253.911	12197.83
253.982	12178.55
254.052	12172
254.123	12161.3
254.193	12140.57
254.264	12160.04
254.334	12125.14
254.405	12092.9
254.475	12065.08
254.546	12042.33
254.616	12032.36
254.687	12011.58
254.757	11998.52
254.827	11976.54
254.898	11962.8
254.968	11948.1
255.039	11921.45
255.109	11913.25
255.18	11879.27
255.25	11843.41
255.321	11831.94
255.391	11794.63
255.461	11803.74
255.532	11752.84
255.602	11728.31
255.673	11687.24
255.743	11656.15
255.813	11612.97
255.884	11603.09
255.954	11598.17
256.024	11603.81
256.095	11589.11
256.165	11561.21
256.235	11553.25
256.306	11528.72
256.376	11522.22
256.446	11502.02
256.517	11487.61
256.587	11477.3
256.657	11467.51
256.728	11449.58
256.798	11431.9
256.868	11414.55
256.938	11381.34
257.009	11371.8
257.079	11359.36
257.149	11370.93
257.219	11331.5
257.29	11328.61
257.36	11284.32
257.43	11272.95
257.5	11221.14
257.571	11197.09
257.641	11182.97
257.711	11154.01
257.781	11151.26
257.852	11133.81
257.922	11098.15
257.992	11080.66
258.062	11060.9
258.132	11050.83
258.202	11036.57
258.273	11022.3
258.343	11023.51
258.413	10998.64
258.483	10983.17
258.553	10957.53
258.623	10934.64
258.693	10919.8
258.764	10915.66
258.834	10926.83
258.904	10913.73
258.974	10897.1
259.044	10874.6
259.114	10867.13
259.184	10848.58
259.254	10828.24
259.324	10789.21
259.394	10783.09
259.464	10793.26
259.535	10774.71
259.605	10752.16
259.675	10725.03
259.745	10714.91
259.815	10685.08
259.885	10667.11
259.955	10680.12
260.025	10655.5
260.095	10636.23
260.165	10627.94
260.235	10626.25
260.305	10601.1
260.375	10560.68
260.445	10563.52
260.515	10573.93
260.585	10568.96
260.655	10556.58
260.725	10552.72
260.795	10553.88
260.865	10561.69
260.934	10533.21
261.004	10518.27
261.074	10507.96
261.144	10507.43
261.214	10500.06
261.284	10481.37
261.354	10474
261.424	10444.89
261.494	10448.41
261.564	10430.34
261.634	10426.53
261.703	10388.66
261.773	10382.06
261.843	10385.48
261.913	10372.38
261.983	10336.73
262.053	10332.2
