Data from 20250704_urea_0.1M_MAYP1162681_11-18-37-695.txt Node
Date: Fri Jul 04 11:18:37 BST 2025
User: adleo
Spectrometer: MAYP116268
Trigger mode: 0
Integration Time (sec): 1.000000E0
Scans to average: 1
Electric dark correction enabled: true
Nonlinearity correction enabled: true
Boxcar width: 10
XAxis mode: Wavelengths
Number of Pixels in Spectrum: 2068
>>>>>Begin Spectral Data<<<<<
179.565	1241.25
179.642	1301.79
179.718	1347.03
179.795	1384.8
179.871	1418.6
179.948	1436.7
180.024	1457.72
180.101	1477.68
180.177	1492.49
180.254	1519
180.33	1540.94
180.407	1594.82
180.483	1694.55
180.56	1787.53
180.636	1873.32
180.712	1863.43
180.789	1870.75
180.865	1886.19
180.942	1897.6
181.018	1906.25
181.095	1918.57
181.171	1922.61
181.248	1922.28
181.324	1939.16
181.4	1947.15
181.477	1959.23
181.553	1973.82
181.63	1995.18
181.706	2015.24
181.782	2026.08
181.859	2022.66
181.935	2030.6
182.011	2028.94
182.088	2044.11
182.164	2062.57
182.24	2075.93
182.317	2084.87
182.393	2086.25
182.469	2098.52
182.546	2112.55
182.622	2116.4
182.698	2112.17
182.775	2123.63
182.851	2138
182.927	2127.01
183.003	2124.35
183.08	2119.21
183.156	2126.92
183.232	2121.97
183.308	2110.79
183.385	2115.12
183.461	2131.81
183.537	2130.53
183.613	2144.28
183.69	2135.86
183.766	2126.1
183.842	2135.95
183.918	2140.9
183.995	2155.02
184.071	2158.97
184.147	2151.36
184.223	2141.23
184.299	2155.7
184.375	2146.71
184.452	2153.99
184.528	2207.38
184.604	2218.56
184.68	2227.55
184.756	2236.26
184.832	2243.3
184.908	2248.72
184.985	2249.53
185.061	2233.55
185.137	2246.77
185.213	2235.69
185.289	2236.26
185.365	2231.08
185.441	2228.22
185.517	2240.69
185.593	2234.22
185.669	2231.55
185.745	2245.59
185.822	2262.76
185.898	2252.01
185.974	2258
186.05	2248.96
186.126	2211.51
186.202	2204.37
186.278	2203.37
186.354	2193.57
186.43	2201.47
186.506	2196.86
186.582	2196.48
186.658	2203.32
186.734	2179.16
186.81	2180.82
186.886	2183.77
186.962	2196.76
187.038	2195.95
187.114	2186.53
187.19	2195.19
187.266	2186.2
187.341	2183.67
187.417	2177.58
187.493	2178.73
187.569	2182.96
187.645	2176.01
187.721	2167.78
187.797	2173.25
187.873	2174.68
187.949	2168.21
188.025	2159.26
188.101	2163.35
188.176	2169.49
188.252	2167.97
188.328	2178.33
188.404	2180.33
188.48	2176.34
188.556	2168.34
188.632	2166.82
188.707	2170.29
188.783	2168.39
188.859	2162.4
188.935	2149.93
189.011	2155.45
189.086	2148.55
189.162	2139.8
189.238	2137.47
189.314	2132.43
189.39	2126.81
189.465	2121.72
189.541	2140.57
189.617	2126.01
189.693	2122.54
189.768	2124.73
189.844	2148.24
189.92	2138.02
189.996	2146.44
190.071	2158.09
190.147	2155.91
190.223	2165.9
190.298	2159.43
190.374	2146.82
190.45	2159.9
190.526	2169.51
190.601	2164.75
190.677	2168.41
190.753	2197.55
190.828	2201.92
190.904	2219
190.98	2234.95
191.055	2246.98
191.131	2235.8
191.207	2254.88
191.282	2265.96
191.358	2257.35
191.433	2241.74
191.509	2256.91
191.585	2253.72
191.66	2253.1
191.736	2262.38
191.811	2252.77
191.887	2267.76
191.963	2290.41
192.038	2296.74
192.114	2297.36
192.189	2302.54
192.265	2295.27
192.34	2273.08
192.416	2270.08
192.491	2266.56
192.567	2267.47
192.642	2268.23
192.718	2268.8
192.793	2260.38
192.869	2253.71
192.944	2259.8
193.02	2268.61
193.095	2273.08
193.171	2278.94
193.246	2282.41
193.322	2279.13
193.397	2276.18
193.473	2264.23
193.548	2245.76
193.624	2249.48
193.699	2249.29
193.775	2263.71
193.85	2267.8
193.925	2275.75
194.001	2279.22
194.076	2272.08
194.152	2265.04
194.227	2254.95
194.302	2245.72
194.378	2246.86
194.453	2242.68
194.529	2250.72
194.604	2235.68
194.679	2230.26
194.755	2209.28
194.83	2218.09
194.905	2216.47
194.981	2227.55
195.056	2217.56
195.131	2223.56
195.207	2222.04
195.282	2213.66
195.357	2196.15
195.433	2208.99
195.508	2199.33
195.583	2205.09
195.659	2218.84
195.734	2224.56
195.809	2228.41
195.884	2238.97
195.96	2239.25
196.035	2256.19
196.11	2251.15
196.185	2264.23
196.261	2265.14
196.336	2301.74
196.411	2288.36
196.486	2291.55
196.561	2285.65
196.637	2296.54
196.712	2312.39
196.787	2318.87
196.862	2331.29
196.937	2343.42
197.013	2349.66
197.088	2361.03
197.163	2385.46
197.238	2399.04
197.313	2399.61
197.388	2409.65
197.464	2441.42
197.539	2452.7
197.614	2444.04
197.689	2458.03
197.764	2473.13
197.839	2493.84
197.914	2485.12
197.989	2507.55
198.065	2523.4
198.14	2574.67
198.215	2602.01
198.29	2616.21
198.365	2625.93
198.44	2639.4
198.515	2663.41
198.59	2682.85
198.665	2707.05
198.74	2713.72
198.815	2717.87
198.89	2741.4
198.965	2777.15
199.04	2771.76
199.115	2789.34
199.19	2832.88
199.265	2839.26
199.34	2851.65
199.415	2886.75
199.49	2903.66
199.565	2916.1
199.64	2938.4
199.715	2935.02
199.79	2942.6
199.865	2945.93
199.94	2946.93
200.015	2978.16
200.09	2985.98
200.165	2991.61
200.24	3001.67
200.315	3043.28
200.39	3059.63
200.464	3065.31
200.539	3062.73
200.614	3079.56
200.689	3106.22
200.764	3116.67
200.839	3133.59
200.914	3138.55
200.989	3129.48
201.063	3150.56
201.138	3132.16
201.213	3135.84
201.288	3118.1
201.363	3124.44
201.438	3128.64
201.512	3143.98
201.587	3128.15
201.662	3136.31
201.737	3149.52
201.812	3156.77
201.886	3123.79
201.961	3134.09
202.036	3123.27
202.111	3123.42
202.186	3096.06
202.26	3079.17
202.335	3056.18
202.41	3051.18
202.485	3034.64
202.559	3017
202.634	2990.3
202.709	3001.68
202.784	2986.81
202.858	2992.24
202.933	2974.7
203.008	2975.51
203.082	2960.16
203.157	2965.83
203.232	2928.42
203.306	2919.36
203.381	2897.47
203.456	2887.36
203.53	2878.15
203.605	2874.29
203.68	2865.13
203.754	2875.85
203.829	2878.19
203.904	2882.53
203.978	2895.79
204.053	2927.26
204.127	2934.03
204.202	2963.97
204.277	2978.32
204.351	3002.98
204.426	3030.6
204.5	3059.74
204.575	3060.6
204.65	3113.51
204.724	3149.12
204.799	3202.39
204.873	3246.21
204.948	3296.32
205.022	3338.74
205.097	3390.04
205.171	3464.27
205.246	3535.91
205.32	3603.7
205.395	3674.88
205.469	3736.81
205.544	3819.03
205.618	3882.98
205.693	3983.29
205.767	4061.03
205.842	4174.05
205.916	4264.86
205.991	4348.91
206.065	4459.29
206.14	4583.74
206.214	4691.87
206.289	4800.14
206.363	4929.57
206.438	5047.66
206.512	5181.68
206.586	5323.06
206.661	5458.42
206.735	5570.62
206.81	5712.03
206.884	5868.85
206.958	6000.04
207.033	6163.8
207.107	6317.34
207.181	6499.98
207.256	6652.05
207.33	6823.88
207.405	6995.4
207.479	7173.07
207.553	7344.59
207.628	7493.46
207.702	7675.94
207.776	7838.27
207.851	8014.33
207.925	8202.9
207.999	8380.9
208.073	8551.13
208.148	8734.18
208.222	8906.31
208.296	9120.47
208.371	9316.34
208.445	9511.4
208.519	9721.09
208.593	9921.53
208.668	10111.16
208.742	10306.43
208.816	10495.93
208.89	10703.49
208.965	10889.05
209.039	11090.52
209.113	11307.45
209.187	11523.22
209.261	11703.75
209.336	11918.79
209.41	12123.57
209.484	12316.85
209.558	12535.63
209.632	12745.88
209.707	12956.57
209.781	13170.34
209.855	13383.07
209.929	13594.25
210.003	13788.51
210.077	13983.45
210.151	14218.63
210.226	14444.84
210.3	14653.9
210.374	14865.13
210.448	15047.86
210.522	15247.95
210.596	15433.77
210.67	15617.75
210.744	15844.14
210.818	16063.89
210.892	16262.18
210.966	16436.61
211.041	16632.87
211.115	16803.43
211.189	16998.68
211.263	17176.42
211.337	17344.62
211.411	17527.18
211.485	17689.68
211.559	17859.04
211.633	18022.65
211.707	18151.37
211.781	18308.33
211.855	18429.77
211.929	18582.34
212.003	18727.21
212.077	18888.31
212.151	19061.07
212.225	19229.45
212.299	19365.88
212.373	19497.49
212.447	19634.31
212.52	19809.68
212.594	19945.72
212.668	20085.19
212.742	20207.45
212.816	20354.3
212.89	20485.14
212.964	20611.51
213.038	20746.22
213.112	20892.98
213.186	21043.69
213.26	21152.17
213.333	21228.85
213.407	21370.65
213.481	21487.77
213.555	21616.08
213.629	21723.86
213.703	21820.31
213.777	21926.79
213.85	22025.95
213.924	22169.42
213.998	22287.87
214.072	22390.03
214.146	22491.75
214.219	22603.74
214.293	22707.68
214.367	22804.06
214.441	22916.98
214.515	23007.68
214.588	23081.84
214.662	23142.39
214.736	23202.09
214.81	23302.38
214.883	23419.69
214.957	23483.44
215.031	23556.63
215.105	23618.59
215.178	23686.4
215.252	23766.41
215.326	23824.33
215.4	23884.13
215.473	23916.35
215.547	23967.04
215.621	24031.58
215.694	24101.29
215.768	24147.3
215.842	24203.83
215.915	24255.54
215.989	24301.71
216.063	24352.65
216.136	24415.85
216.21	24467.7
216.284	24545.61
216.357	24606.69
216.431	24648.61
216.504	24716.44
216.578	24806.23
216.652	24878.98
216.725	24938.04
216.799	24995.37
216.873	25046.75
216.946	25104.55
217.02	25158.3
217.093	25209.41
217.167	25226.49
217.24	25263.89
217.314	25303.17
217.387	25345.24
217.461	25384.19
217.535	25433.41
217.608	25468.84
217.682	25503.44
217.755	25574.72
217.829	25604.5
217.902	25639.54
217.976	25672.79
218.049	25703.49
218.123	25725.26
218.196	25766.09
218.27	25801.14
218.343	25823.54
218.417	25864.08
218.49	25893.58
218.563	25934.7
218.637	25973.08
218.71	26039.31
218.784	26079.72
218.857	26130.89
218.931	26168.21
219.004	26208.76
219.077	26247.58
219.151	26276.4
219.224	26322.65
219.298	26344.47
219.371	26394.06
219.444	26404.06
219.518	26434.9
219.591	26456.97
219.665	26502.26
219.738	26522.25
219.811	26529.45
219.885	26570.11
219.958	26602.89
220.031	26620.32
220.105	26658.67
220.178	26673.68
220.251	26681.27
220.325	26713.82
220.398	26737.82
220.471	26753.12
220.544	26775.34
220.618	26787.75
220.691	26808.13
220.764	26821.12
220.838	26848.5
220.911	26853.38
220.984	26900.32
221.057	26921.66
221.131	26949.14
221.204	26919.34
221.277	26945.57
221.35	26989.08
221.424	26983.77
221.497	26991.69
221.57	27004.29
221.643	26999.22
221.716	27025.59
221.79	27031.39
221.863	27029.94
221.936	27017.48
222.009	27018.45
222.082	27021.25
222.155	27025.4
222.229	27038.3
222.302	27030.81
222.375	27014.77
222.448	27022.36
222.521	27023.23
222.594	27021.15
222.667	27003.43
222.74	27033.9
222.814	27034.05
222.887	27035.35
222.96	27050.18
223.033	27056.89
223.106	27055.97
223.179	27055.15
223.252	27043.12
223.325	27039.36
223.398	27024.92
223.471	27030.81
223.544	27031.05
223.617	27020.81
223.69	27003.57
223.763	26997.58
223.837	27005.89
223.91	27013.47
223.983	26990.19
224.056	26966.14
224.129	26953.39
224.202	26954.45
224.275	26932.91
224.348	26902.1
224.42	26855.74
224.493	26818.6
224.566	26785.42
224.639	26783.49
224.712	26759.73
224.785	26729.89
224.858	26704.34
224.931	26687.73
225.004	26660.78
225.077	26641.13
225.15	26606.46
225.223	26598.45
225.296	26588.98
225.369	26543.2
225.442	26505.06
225.514	26488.11
225.587	26472.17
225.66	26466.33
225.733	26450.97
225.806	26428.28
225.879	26412.73
225.952	26393.91
226.025	26390.28
226.097	26387.24
226.17	26349.15
226.243	26308.26
226.316	26282.82
226.389	26256.65
226.461	26240.14
226.534	26214.84
226.607	26186.6
226.68	26172.84
226.753	26139.19
226.825	26093.76
226.898	26079.52
226.971	26055.34
227.044	26024.54
227.117	25990.99
227.189	25954.83
227.262	25931.46
227.335	25901.25
227.407	25858.19
227.48	25828.8
227.553	25791.24
227.626	25754.55
227.698	25732.69
227.771	25709.43
227.844	25674.05
227.916	25649.96
227.989	25608.26
228.062	25574.62
228.134	25566.27
228.207	25529.93
228.28	25491.47
228.352	25456.96
228.425	25425.16
228.498	25399.34
228.57	25354.55
228.643	25334.38
228.716	25303.69
228.788	25257.65
228.861	25219.19
228.934	25206.79
229.006	25179.57
229.079	25147.1
229.151	25106.95
229.224	25054.69
229.296	25032.88
229.369	25025.69
229.442	25009.48
229.514	24958.05
229.587	24933.59
229.659	24876.7
229.732	24846.5
229.804	24823.24
229.877	24807.51
229.949	24782.28
230.022	24773.16
230.094	24749.33
230.167	24714.15
230.239	24676.28
230.312	24648.93
230.384	24639.57
230.457	24603.24
230.529	24577.72
230.602	24550.12
230.674	24525.23
230.747	24511.77
230.819	24492.52
230.892	24436.08
230.964	24409.5
231.037	24389.48
231.109	24354.61
231.181	24327.69
231.254	24296.48
231.326	24261.37
231.399	24222.39
231.471	24179.99
231.544	24118.97
231.616	24081.5
231.688	24050.58
231.761	23995.02
231.833	23950.74
231.905	23889.01
231.978	23852.21
232.05	23815.5
232.122	23780.63
232.195	23734.38
232.267	23711.18
232.339	23660.45
232.412	23643.23
232.484	23588.2
232.556	23547.74
232.629	23543.01
232.701	23514.99
232.773	23470.34
232.846	23433.84
232.918	23397.19
232.99	23370.95
233.062	23340.09
233.135	23314.05
233.207	23264.82
233.279	23247.89
233.351	23223.25
233.424	23186.08
233.496	23141.96
233.568	23114.38
233.64	23059.36
233.713	23020.21
233.785	22973.54
233.857	22944.03
233.929	22885.79
234.001	22872.67
234.074	22857.58
234.146	22791.28
234.218	22747.21
234.29	22704.64
234.362	22654.75
234.434	22604.99
234.507	22541.98
234.579	22492.47
234.651	22455.64
234.723	22430.13
234.795	22388.53
234.867	22340.66
234.939	22325.47
235.012	22289.27
235.084	22258.99
235.156	22230.65
235.228	22185.24
235.3	22149.23
235.372	22107.72
235.444	22070.12
235.516	21997.18
235.588	21947.24
235.66	21908.39
235.732	21865.54
235.804	21888.1
235.876	21858.21
235.948	21835.94
236.02	21796.9
236.092	21751.16
236.164	21700.45
236.236	21647.91
236.308	21596.29
236.38	21550.7
236.452	21489.43
236.524	21439.16
236.596	21404.07
236.668	21372.55
236.74	21327.68
236.812	21284.92
236.884	21244.63
236.956	21216
237.028	21166.94
237.1	21113.05
237.172	21085.39
237.244	21067.07
237.316	20982.63
237.388	20932.36
237.46	20874.67
237.532	20850.43
237.604	20811.1
237.675	20778.66
237.747	20746.66
237.819	20701.7
237.891	20666.9
237.963	20618.04
238.035	20579.24
238.107	20495.24
238.178	20454.66
238.25	20411.14
238.322	20386.42
238.394	20327.19
238.466	20271.14
238.538	20232.01
238.609	20196.3
238.681	20133.94
238.753	20068.25
238.825	20032.4
238.897	19989.56
238.968	19963.72
239.04	19909.89
239.112	19887.58
239.184	19833.42
239.255	19780.36
239.327	19742.05
239.399	19701.28
239.471	19672.03
239.542	19634.29
239.614	19615.55
239.686	19551.5
239.758	19522.64
239.829	19464.32
239.901	19433.72
239.973	19396.52
240.044	19367.08
240.116	19324.19
240.188	19280.1
240.259	19238.03
240.331	19188.68
240.403	19151.52
240.474	19093.89
240.546	19038.95
240.618	18975.15
240.689	18936.55
240.761	18894.29
240.833	18876.02
240.904	18827.79
240.976	18779.93
241.048	18740.75
241.119	18697.43
241.191	18665.43
241.262	18647.22
241.334	18607.22
241.405	18566.07
241.477	18513.3
241.549	18472.34
241.62	18429.06
241.692	18390.89
241.763	18359.86
241.835	18316.54
241.906	18278.85
241.978	18229.75
242.049	18205.51
242.121	18175
242.192	18145.75
242.264	18089.32
242.335	18030.19
242.407	18004.74
242.478	17956.02
242.55	17911.3
242.621	17862.05
242.693	17821.86
242.764	17764.99
242.836	17711.93
242.907	17685.28
242.979	17655.11
243.05	17619.89
243.122	17585.19
243.193	17550.49
243.264	17487.98
243.336	17436.18
243.407	17403.36
243.479	17384.51
243.55	17357.43
243.622	17323.98
243.693	17279.36
243.764	17259.89
243.836	17206.73
243.907	17162.87
243.978	17125.23
244.05	17098.72
244.121	17045.85
244.192	17010.14
244.264	16954.77
244.335	16928.69
244.407	16867.63
244.478	16834.04
244.549	16789.17
244.62	16738.9
244.692	16693.02
244.763	16672.73
244.834	16635.52
244.906	16593.98
244.977	16559.08
245.048	16522.26
245.119	16474.84
245.191	16427.41
245.262	16371.02
245.333	16354.87
245.405	16313.14
245.476	16286.1
245.547	16246.72
245.618	16225.99
245.689	16194.23
245.761	16171.63
245.832	16128.39
245.903	16102.03
245.974	16059.57
246.045	16022.74
246.117	16004.52
246.188	15957.38
246.259	15906.68
246.33	15875.93
246.401	15841.22
246.473	15785.89
246.544	15743.91
246.615	15721.4
246.686	15683.18
246.757	15665.92
246.828	15616.32
246.899	15600.51
246.97	15542.14
247.042	15497.17
247.113	15472.34
247.184	15451.38
247.255	15406.45
247.326	15366.98
247.397	15329.24
247.468	15300.46
247.539	15264.5
247.61	15222.61
247.681	15208.1
247.752	15192.44
247.823	15150.31
247.894	15119.46
247.965	15077.76
248.037	15055.35
248.108	15006.81
248.179	14977.5
248.25	14941.11
248.321	14921.1
248.392	14876.71
248.463	14878.11
248.534	14848.22
248.605	14817.56
248.675	14788.59
248.746	14764.15
248.817	14743.81
248.888	14717.11
248.959	14677.38
249.03	14650.34
249.101	14618.96
249.172	14575.67
249.243	14526.17
249.314	14519.08
249.385	14485.87
249.456	14465.28
249.527	14425.47
249.598	14402.57
249.669	14370.46
249.739	14350.75
249.81	14322.59
249.881	14267.25
249.952	14227.97
250.023	14200.78
250.094	14152.96
250.165	14104.03
250.235	14073.08
250.306	14045.7
250.377	14001.79
250.448	13978.5
250.519	13928.61
250.59	13914.73
250.66	13889.75
250.731	13876.06
250.802	13839.28
250.873	13809.92
250.944	13784.62
251.014	13745.42
251.085	13740.17
251.156	13718.72
251.227	13693.65
251.297	13680.25
251.368	13679.57
251.439	13671.91
251.51	13657.78
251.58	13624.38
251.651	13593.62
251.722	13580.85
251.792	13543.44
251.863	13515.91
251.934	13509.89
252.005	13515.91
252.075	13485.4
252.146	13471.66
252.217	13457.82
252.287	13447.22
252.358	13419.16
252.429	13417.81
252.499	13388.65
252.57	13359.24
252.641	13338.46
252.711	13320.82
252.782	13277.92
252.852	13265.91
252.923	13240.32
252.994	13215.73
253.064	13209.66
253.135	13172.01
253.205	13137.3
253.276	13128.86
253.347	13131.08
253.417	13086.49
253.488	13051.78
253.558	13028.55
253.629	12993.69
253.699	12965.73
253.77	12944.23
253.841	12927.84
253.911	12898.68
253.982	12881.42
254.052	12865.9
254.123	12848.93
254.193	12820.92
254.264	12836.4
254.334	12804.73
254.405	12765.39
254.475	12733.38
254.546	12705.09
254.616	12710.29
254.687	12691.59
254.757	12668.98
254.827	12642.71
254.898	12634.71
254.968	12616.77
255.039	12587.51
255.109	12581.83
255.18	12554.93
255.25	12510.72
255.321	12488.16
255.391	12451.77
255.461	12459.63
255.532	12411.18
255.602	12390.31
255.673	12356.18
255.743	12328.17
255.813	12285.56
255.884	12278.77
255.954	12261.17
256.024	12254.18
256.095	12227.57
256.165	12197.26
256.235	12184.82
256.306	12148.14
256.376	12130.35
256.446	12116.81
256.517	12100.8
256.587	12090.54
256.657	12077.67
256.728	12060.7
256.798	12038.57
256.868	12019.87
256.938	11976.1
257.009	11966.66
257.079	11951.09
257.149	11951.23
257.219	11904.43
257.29	11891.03
257.36	11850.78
257.43	11844.13
257.5	11805.77
257.571	11782.97
257.641	11777.95
257.711	11742.72
257.781	11741.18
257.852	11727.87
257.922	11696.11
257.992	11676.54
258.062	11648.83
258.132	11636.05
258.202	11620.2
258.273	11605.98
258.343	11603.33
258.413	11582.17
258.483	11558.79
258.553	11525.73
258.623	11499.32
258.693	11485.15
258.764	11479.75
258.834	11478.45
258.904	11456.95
258.974	11432.13
259.044	11413
259.114	11394.06
259.184	11376.95
259.254	11355.26
259.324	11314.44
259.394	11296.9
259.464	11297.09
259.535	11279.12
259.605	11251.5
259.675	11216.71
259.745	11205.38
259.815	11169.23
259.885	11145.52
259.955	11158.68
260.025	11134.83
260.095	11118.35
260.165	11115.84
260.235	11117.09
260.305	11084.08
260.375	11055.84
260.445	11061.67
260.515	11056.71
260.585	11049.24
260.655	11030.98
260.725	11021
260.795	11011.22
260.865	11016.57
260.934	10990.5
261.004	10980.66
261.074	10969.82
261.144	10971.36
261.214	10962.98
261.284	10952.52
261.354	10947.32
261.424	10919.75
261.494	10922.3
261.564	10902.45
261.634	10884.62
261.703	10848
261.773	10842.94
