Data from 20250704_urea_0.1M_MAYP1162681_11-18-29-699.txt Node
Date: Fri Jul 04 11:18:29 BST 2025
User: adleo
Spectrometer: MAYP116268
Trigger mode: 0
Integration Time (sec): 1.000000E0
Scans to average: 1
Electric dark correction enabled: true
Nonlinearity correction enabled: true
Boxcar width: 10
XAxis mode: Wavelengths
Number of Pixels in Spectrum: 2068
>>>>>Begin Spectral Data<<<<<
179.565	1244.13
179.642	1301.79
179.718	1345.98
179.795	1385.35
179.871	1425.39
179.948	1445.71
180.024	1467.1
180.101	1492.21
180.177	1507.01
180.254	1531.06
180.33	1551.49
180.407	1608.75
180.483	1706.95
180.56	1801.5
180.636	1889.24
180.712	1878.69
180.789	1887.86
180.865	1898.22
180.942	1907.82
181.018	1917.85
181.095	1931.88
181.171	1938.3
181.248	1938.78
181.324	1954.38
181.4	1960.89
181.477	1967.36
181.553	1981.9
181.63	2002.73
181.706	2016.05
181.782	2024.75
181.859	2023.23
181.935	2029.84
182.011	2025.99
182.088	2042.59
182.164	2060.71
182.24	2073.31
182.317	2081.59
182.393	2080.64
182.469	2096
182.546	2107.65
182.622	2113.69
182.698	2107.65
182.775	2116.35
182.851	2129.77
182.927	2122.06
183.003	2118.68
183.08	2113.07
183.156	2119.92
183.232	2113.88
183.308	2102.85
183.385	2109.55
183.461	2128.39
183.537	2128.72
183.613	2140.33
183.69	2131.91
183.766	2123.2
183.842	2131.57
183.918	2139.14
183.995	2153.17
184.071	2155.98
184.147	2150.41
184.223	2138.1
184.299	2152.13
184.375	2144.81
184.452	2155.14
184.528	2204.86
184.604	2214.23
184.68	2226.93
184.756	2232.64
184.832	2241.34
184.908	2246.39
184.985	2248.67
185.061	2231.07
185.137	2241.3
185.213	2230.93
185.289	2233.97
185.365	2226.41
185.441	2224.98
185.517	2235.12
185.593	2228.03
185.669	2226.98
185.745	2240.97
185.822	2257.38
185.898	2248.48
185.974	2256.8
186.05	2249
186.126	2216.64
186.202	2210.55
186.278	2207.89
186.354	2199.99
186.43	2207.08
186.506	2206.18
186.582	2206.27
186.658	2212.79
186.734	2192.81
186.81	2194.05
186.886	2196.14
186.962	2207.18
187.038	2203.85
187.114	2195.19
187.19	2205.7
187.266	2194.33
187.341	2193.86
187.417	2187.15
187.493	2187.53
187.569	2190.24
187.645	2185.39
187.721	2173.02
187.797	2178.91
187.873	2182.67
187.949	2177.63
188.025	2168.21
188.101	2171.3
188.176	2173.39
188.252	2171.49
188.328	2179.67
188.404	2181.33
188.48	2176.48
188.556	2171.48
188.632	2169.06
188.707	2172.25
188.783	2166.96
188.859	2160.69
188.935	2150.36
189.011	2158.88
189.086	2152.46
189.162	2143.65
189.238	2136.66
189.314	2134.66
189.39	2130.81
189.465	2123.91
189.541	2138.66
189.617	2124.77
189.693	2120.25
189.768	2122.44
189.844	2145.81
189.92	2138.39
189.996	2147.24
190.071	2159.33
190.147	2157.81
190.223	2169.18
190.298	2161.66
190.374	2151.43
190.45	2164.27
190.526	2172.26
190.601	2167.65
190.677	2170.17
190.753	2195.64
190.828	2199.73
190.904	2215.62
190.98	2234.61
191.055	2244.08
191.131	2235.7
191.207	2255.73
191.282	2264.86
191.358	2257.11
191.433	2242.26
191.509	2255.95
191.585	2252.86
191.66	2252.91
191.736	2257.62
191.811	2246.01
191.887	2263.91
191.963	2286.46
192.038	2292.17
192.114	2290.32
192.189	2292.93
192.265	2287.51
192.34	2268.37
192.416	2266.61
192.491	2260.33
192.567	2260.81
192.642	2263.33
192.718	2265.23
192.793	2252.96
192.869	2251.34
192.944	2255.43
193.02	2262.52
193.095	2268.09
193.171	2271.75
193.246	2270.09
193.322	2270.99
193.397	2276.56
193.473	2262.8
193.548	2245.19
193.624	2251.57
193.699	2253.8
193.775	2272.08
193.85	2274.75
193.925	2283.88
194.001	2284.98
194.076	2276.6
194.152	2267.27
194.227	2257.8
194.302	2246.25
194.378	2250.76
194.453	2243.58
194.529	2258.34
194.604	2242.87
194.679	2233.97
194.755	2217.04
194.83	2229.18
194.905	2225.13
194.981	2231.13
195.056	2221.76
195.131	2226.94
195.207	2225.28
195.282	2216.33
195.357	2195.06
195.433	2210
195.508	2199
195.583	2207.09
195.659	2223.75
195.734	2229.89
195.809	2231.93
195.884	2241.26
195.96	2243.54
196.035	2262.19
196.11	2254.05
196.185	2265.99
196.261	2272.04
196.336	2304.02
196.411	2289.55
196.486	2297.25
196.561	2290.97
196.637	2298.96
196.712	2316.58
196.787	2320.39
196.862	2332.05
196.937	2343.71
197.013	2348.89
197.088	2359.7
197.163	2381.89
197.238	2401.18
197.313	2401.09
197.388	2414.18
197.464	2445.46
197.539	2452.22
197.614	2443.65
197.689	2459.7
197.764	2479.61
197.839	2498.7
197.914	2490.94
197.989	2515.55
198.065	2529.03
198.14	2580.82
198.215	2608.02
198.29	2619.78
198.365	2632.69
198.44	2644.17
198.515	2671.89
198.59	2688.19
198.665	2711.96
198.74	2719.82
198.815	2717.44
198.89	2739.92
198.965	2771.19
199.04	2768.33
199.115	2789.05
199.19	2831.26
199.265	2834.78
199.34	2845.08
199.415	2880.12
199.49	2900.51
199.565	2911.52
199.64	2931.4
199.715	2929.54
199.79	2937.45
199.865	2944.36
199.94	2945.84
200.015	2978.06
200.09	2982.21
200.165	2988.65
200.24	2999.47
200.315	3040.94
200.39	3057.1
200.464	3066.21
200.539	3065.3
200.614	3080.7
200.689	3104.64
200.764	3114.18
200.839	3129.1
200.914	3133.54
200.989	3122.18
201.063	3140.63
201.138	3122.43
201.213	3127.82
201.288	3109.08
201.363	3116.9
201.438	3116.47
201.512	3132.87
201.587	3114.94
201.662	3121.66
201.737	3135.64
201.812	3144.13
201.886	3108.9
201.961	3122.55
202.036	3109.25
202.111	3112.16
202.186	3086.24
202.26	3069.83
202.335	3050.65
202.41	3048.84
202.485	3034.45
202.559	3017.38
202.634	2992.25
202.709	3006.21
202.784	2990.57
202.858	2998.01
202.933	2985.28
203.008	2987.76
203.082	2974.12
203.157	2985.9
203.232	2953.97
203.306	2943.19
203.381	2920.68
203.456	2911.72
203.53	2901.84
203.605	2897.12
203.68	2887.58
203.754	2897.06
203.829	2900.35
203.904	2899.16
203.978	2906.93
204.053	2934.31
204.127	2948.37
204.202	2974.93
204.277	2986.51
204.351	3010.93
204.426	3033.59
204.5	3061.21
204.575	3066.93
204.65	3116.94
204.724	3154.95
204.799	3208.07
204.873	3252.75
204.948	3305.11
205.022	3346.47
205.097	3393.81
205.171	3468.75
205.246	3538.35
205.32	3604.45
205.395	3673.86
205.469	3742.72
205.544	3826.22
205.618	3892.08
205.693	3986.34
205.767	4063.4
205.842	4176.88
205.916	4267.5
205.991	4352.17
206.065	4460.17
206.14	4580.95
206.214	4689.27
206.289	4790.13
206.363	4915.69
206.438	5043.04
206.512	5171.01
206.586	5317.38
206.661	5453.93
206.735	5563.82
206.81	5702.25
206.884	5858.91
206.958	5991.58
207.033	6150.7
207.107	6312.84
207.181	6493.94
207.256	6646.64
207.33	6824.56
207.405	6996.37
207.479	7184.48
207.553	7362.11
207.628	7509.88
207.702	7690.58
207.776	7854.7
207.851	8036.63
207.925	8229
207.999	8407.99
208.073	8588.32
208.148	8770.37
208.222	8942.73
208.296	9167.05
208.371	9365.57
208.445	9568.09
208.519	9784.09
208.593	9983.47
208.668	10164.78
208.742	10357.87
208.816	10551.47
208.89	10755.08
208.965	10943.05
209.039	11134.46
209.113	11347.49
209.187	11565.34
209.261	11750.34
209.336	11961.72
209.41	12166.99
209.484	12356.13
209.558	12566.57
209.632	12769.88
209.707	12981.78
209.781	13194.11
209.855	13398.01
209.929	13614.78
210.003	13811.16
210.077	13999.74
210.151	14237.28
210.226	14460.66
210.3	14678.24
210.374	14879.64
210.448	15067.1
210.522	15256
210.596	15442.15
210.67	15622.33
210.744	15849.59
210.818	16060.71
210.892	16255.29
210.966	16426.58
211.041	16622.31
211.115	16785.75
211.189	16988.12
211.263	17163.51
211.337	17336.53
211.411	17511.42
211.485	17669.01
211.559	17839.08
211.633	18008.15
211.707	18138.36
211.781	18301.39
211.855	18422.3
211.929	18574.63
212.003	18710.72
212.077	18881.37
212.151	19054.86
212.225	19220.35
212.299	19358.99
212.373	19492.58
212.447	19629.29
212.52	19803.51
212.594	19953.48
212.668	20106.11
212.742	20215.84
212.816	20339.17
212.89	20468.95
212.964	20599.89
213.038	20737.45
213.112	20876.3
213.186	21016.84
213.26	21126.1
213.333	21205.67
213.407	21327.95
213.481	21452.54
213.555	21583.68
213.629	21694.98
213.703	21795
213.777	21910.99
213.85	22006.87
213.924	22158.05
213.998	22283.87
214.072	22391.39
214.146	22485.44
214.219	22593.73
214.293	22697.57
214.367	22816.56
214.441	22936.95
214.515	23032.27
214.588	23102.33
214.662	23163.76
214.736	23230.73
214.81	23320.99
214.883	23421.09
214.957	23506.24
215.031	23585.86
215.105	23650.9
215.178	23715.82
215.252	23796.89
215.326	23851.87
215.4	23909.93
215.473	23933.13
215.547	23985.08
215.621	24046.68
215.694	24125.99
215.768	24168.82
215.842	24225.69
215.915	24277.26
215.989	24309.38
216.063	24356.42
216.136	24411.94
216.21	24475.13
216.284	24567.86
216.357	24642.25
216.431	24699.18
216.504	24766.91
216.578	24849.42
216.652	24924.68
216.725	24978.14
216.799	25041.5
216.873	25092.41
216.946	25157.5
217.02	25212.45
217.093	25257.33
217.167	25266.93
217.24	25292.56
217.314	25342.21
217.387	25386.94
217.461	25427.77
217.535	25490.94
217.608	25537.27
217.682	25583.41
217.755	25640.22
217.829	25654.26
217.902	25691.38
217.976	25726.08
218.049	25749.68
218.123	25762.23
218.196	25799.21
218.27	25834.2
218.343	25845.64
218.417	25893.05
218.49	25914.29
218.563	25952.37
218.637	25989.83
218.71	26062
218.784	26110.57
218.857	26147.69
218.931	26180.85
219.004	26217.54
219.077	26251.78
219.151	26273.5
219.224	26304.93
219.298	26325.4
219.371	26373.88
219.444	26378.37
219.518	26408.83
219.591	26436.93
219.665	26488.21
219.738	26515.88
219.811	26532.01
219.885	26565.37
219.958	26592.99
220.031	26614.96
220.105	26650.5
220.178	26671.36
220.251	26685.13
220.325	26700.58
220.398	26720.24
220.471	26750.03
220.544	26768.38
220.618	26772.63
220.691	26802.09
220.764	26815.41
220.838	26846.66
220.911	26850.57
220.984	26905.34
221.057	26935.81
221.131	26955.56
221.204	26939.09
221.277	26964.4
221.35	26998.64
221.424	27010.04
221.497	27025.83
221.57	27041.09
221.643	27050.95
221.716	27071.86
221.79	27070.36
221.863	27079.45
221.936	27088.28
222.009	27098.81
222.082	27106.93
222.155	27111.08
222.229	27124.65
222.302	27138.95
222.375	27137.5
222.448	27141.75
222.521	27119.68
222.594	27100.12
222.667	27090.36
222.74	27105.67
222.814	27093.5
222.887	27081.37
222.96	27083.64
223.033	27077.46
223.106	27075.34
223.179	27069.44
223.252	27056.79
223.325	27050.7
223.398	27027.18
223.471	27012.36
223.544	26986.86
223.617	26984.39
223.69	26978.79
223.763	26955.8
223.837	26956.86
223.91	26947.59
223.983	26913.88
224.056	26899.73
224.129	26894.86
224.202	26886.55
224.275	26865.44
224.348	26834.64
224.42	26816.67
224.493	26778.23
224.566	26751.09
224.639	26728.2
224.712	26713.61
224.785	26701.59
224.858	26677.59
224.931	26665.13
225.004	26639.44
225.077	26628.29
225.15	26571.41
225.223	26539.01
225.296	26544.42
225.369	26491.11
225.442	26441.62
225.514	26426.22
225.587	26406.57
225.66	26394.21
225.733	26379.09
225.806	26346.79
225.879	26334.19
225.952	26294.99
226.025	26296.78
226.097	26289.2
226.17	26273.89
226.243	26221.41
226.316	26188.87
226.389	26160.82
226.461	26133.98
226.534	26118.82
226.607	26093.62
226.68	26103.52
226.753	26088.46
226.825	26031.58
226.898	26020.86
226.971	26009.28
227.044	25986.35
227.117	25961.59
227.189	25940.83
227.262	25917.56
227.335	25904.29
227.407	25857.95
227.48	25848.2
227.553	25808.43
227.626	25777
227.698	25735.49
227.771	25716.38
227.844	25671.2
227.916	25651.12
227.989	25605.23
228.062	25567.44
228.134	25555.47
228.207	25521.97
228.28	25486.55
228.352	25461.94
228.425	25429.74
228.498	25411.45
228.57	25380.81
228.643	25360.2
228.716	25312.47
228.788	25281.15
228.861	25239.41
228.934	25238.3
229.006	25196.08
229.079	25166.59
229.151	25125.62
229.224	25086.97
229.296	25059.76
229.369	25060.34
229.442	25040.17
229.514	25010.35
229.587	24987.92
229.659	24932
229.732	24896.48
229.804	24865.89
229.877	24851.37
229.949	24830.14
230.022	24812.09
230.094	24776.01
230.167	24750.15
230.239	24711.12
230.312	24671.84
230.384	24664.8
230.457	24624.71
230.529	24598.08
230.602	24574.92
230.674	24548.77
230.747	24526.06
230.819	24509.12
230.892	24440.23
230.964	24406.32
231.037	24383.99
231.109	24350.95
231.181	24334.59
231.254	24297.26
231.326	24262.34
231.399	24216.17
231.471	24177.05
231.544	24122.93
231.616	24091.72
231.688	24050.38
231.761	24009.44
231.833	23970.76
231.905	23913.99
231.978	23881.28
232.05	23841.5
232.122	23796.16
232.195	23745.23
232.267	23726.32
232.339	23675.25
232.412	23655.09
232.484	23609.42
232.556	23563.51
232.629	23547.79
232.701	23515.86
232.773	23476.9
232.846	23442.32
232.918	23413.1
232.99	23379.97
233.062	23358.22
233.135	23322.01
233.207	23269.83
233.279	23261.44
233.351	23221.18
233.424	23183.33
233.496	23135.16
233.568	23121.56
233.64	23068.52
233.713	23037.86
233.785	22992.73
233.857	22956.57
233.929	22908.16
234.001	22891.14
234.074	22873.2
234.146	22812.21
234.218	22764.24
234.29	22715.54
234.362	22664.3
234.434	22604.32
234.507	22548.73
234.579	22479.98
234.651	22437.32
234.723	22402.95
234.795	22349
234.867	22312.99
234.939	22281.17
235.012	22249.5
235.084	22201.14
235.156	22169.38
235.228	22125.22
235.3	22077.01
235.372	22032.71
235.444	22009.43
235.516	21945.12
235.588	21900.58
235.66	21862.11
235.732	21819.74
235.804	21842.3
235.876	21812.32
235.948	21793.09
236.02	21754.87
236.092	21718.38
236.164	21681.02
236.236	21629.64
236.308	21575.71
236.38	21537.92
236.452	21477.67
236.524	21427.69
236.596	21408.75
236.668	21371.58
236.74	21324.93
236.812	21289.84
236.884	21248.3
236.956	21197.98
237.028	21142.5
237.1	21092.14
237.172	21068.62
237.244	21033.19
237.316	20951.15
237.388	20900.16
237.46	20839.44
237.532	20798.71
237.604	20740.01
237.675	20711.77
237.747	20684.16
237.819	20638.76
237.891	20589.55
237.963	20548.44
238.035	20505.31
238.107	20417.26
238.178	20390.56
238.25	20343.57
238.322	20336.25
238.394	20290.42
238.466	20238.66
238.538	20210.13
238.609	20166.76
238.681	20096.2
238.753	20052.73
238.825	20013.31
238.897	19972.21
238.968	19951.19
239.04	19910.86
239.112	19900.5
239.184	19839.63
239.255	19790.09
239.327	19753.37
239.399	19720.75
239.471	19687.69
239.542	19651.21
239.614	19625.14
239.686	19557.82
239.758	19529.62
239.829	19470.59
239.901	19439.8
239.973	19409
240.044	19371.99
240.116	19336.86
240.188	19294.99
240.259	19249.3
240.331	19194.85
240.403	19159.52
240.474	19097.07
240.546	19048.16
240.618	18990.86
240.689	18943.54
240.761	18908.41
240.833	18881.23
240.904	18831.3
240.976	18792.65
241.048	18741.48
241.119	18713.62
241.191	18681.1
241.262	18651.51
241.334	18591.27
241.405	18541.34
241.477	18492.05
241.549	18451.61
241.62	18410.8
241.692	18377.55
241.763	18352.15
241.835	18308.3
241.906	18270.9
241.978	18219.53
242.049	18190.33
242.121	18159.19
242.192	18138.91
242.264	18081.17
242.335	18022.77
242.407	17993.95
242.478	17945.85
242.55	17914.43
242.621	17857.47
242.693	17819.25
242.764	17777.14
242.836	17740.32
242.907	17715.69
242.979	17675.55
243.05	17632.95
243.122	17599.89
243.193	17564.51
243.264	17491.45
243.336	17457.24
243.407	17419.98
243.479	17400.32
243.55	17369.67
243.622	17337
243.693	17294.34
243.764	17281.96
243.836	17245.19
243.907	17200.85
243.978	17158.34
244.05	17125.18
244.121	17070.63
244.192	17033.57
244.264	16974.91
244.335	16933.66
244.407	16875.97
244.478	16843.73
244.549	16804.98
244.62	16747.34
244.692	16701.89
244.763	16675.09
244.834	16627.86
244.906	16588.82
244.977	16557.78
245.048	16530.74
245.119	16478.02
245.191	16433.58
245.262	16366.15
245.333	16338.2
245.405	16303.98
245.476	16271.49
245.547	16238.43
245.618	16218.86
245.689	16187.24
245.761	16157.46
245.832	16122.85
245.903	16099.86
245.974	16065.98
246.045	16031.13
246.117	16016.57
246.188	15971.8
246.259	15931.5
246.33	15900.99
246.401	15865.76
246.473	15809.7
246.544	15764.2
246.615	15740.2
246.686	15698.41
246.757	15678.65
246.828	15635.22
246.899	15616.71
246.97	15574
247.042	15527.05
247.113	15497.6
247.184	15478.9
247.255	15436.63
247.326	15412.67
247.397	15373.29
247.468	15343.21
247.539	15308.99
247.61	15253.17
247.681	15233.99
247.752	15208.1
247.823	15164.53
247.894	15133.53
247.965	15091.02
248.037	15047.73
248.108	14992.25
248.179	14958.65
248.25	14925.87
248.321	14895.31
248.392	14841.47
248.463	14837.28
248.534	14804.4
248.605	14773.55
248.675	14735.04
248.746	14708.14
248.817	14677.67
248.888	14650.29
248.959	14598.43
249.03	14576.4
249.101	14550.99
249.172	14518.84
249.243	14468.99
249.314	14452.8
249.385	14411.2
249.456	14388.88
249.527	14355.57
249.598	14338.12
249.669	14313.63
249.739	14286.78
249.81	14267.5
249.881	14226.13
249.952	14189.31
250.023	14160
250.094	14116.03
250.165	14069.8
250.235	14044.21
250.306	14006.85
250.377	13965.97
250.448	13943.22
250.519	13883.25
250.59	13873.36
250.66	13832.92
250.731	13827.52
250.802	13805.92
250.873	13794.64
250.944	13772.32
251.014	13742.87
251.085	13740.6
251.156	13715.83
251.227	13697.12
251.297	13683.82
251.368	13669.93
251.439	13654.8
251.51	13647.18
251.58	13622.3
251.651	13597.29
251.722	13585.81
251.792	13549.85
251.863	13528.69
251.934	13522.81
252.005	13533.51
252.075	13506.66
252.146	13496.63
252.217	13475.95
252.287	13450.83
252.358	13415.5
252.429	13409.14
252.499	13376.21
252.57	13357.41
252.641	13345.65
252.711	13324.48
252.782	13277.43
252.852	13275.22
252.923	13242.92
252.994	13218.14
253.064	13204.16
253.135	13170.8
253.205	13143.52
253.276	13141.16
253.347	13128
253.417	13096.42
253.488	13062.72
253.558	13037.42
253.629	13010.85
253.699	12993.4
253.77	12980.1
253.841	12958.5
253.911	12937.34
253.982	12919.99
254.052	12896.75
254.123	12873.61
254.193	12848.54
254.264	12867.68
254.334	12831.43
254.405	12800.05
254.475	12758.98
254.546	12733.09
254.616	12733.29
254.687	12712.03
254.757	12685.71
254.827	12659.44
254.898	12642.42
254.968	12621.4
255.039	12588.33
255.109	12580.23
255.18	12547.31
255.25	12499.01
255.321	12483.97
255.391	12447.58
255.461	12451.29
255.532	12400.77
255.602	12375.41
255.673	12329.48
255.743	12288.07
255.813	12250.09
255.884	12238.13
255.954	12231.29
256.024	12231.53
256.095	12197.59
256.165	12156.38
256.235	12147.22
256.306	12124.95
256.376	12114.11
256.446	12097.96
256.517	12083.21
256.587	12069.95
256.657	12054.72
256.728	12043.01
256.798	12019.2
256.868	11996.98
256.938	11963.72
257.009	11956.25
257.079	11936.29
257.149	11946.89
257.219	11915.03
257.29	11893.59
257.36	11851.56
257.43	11838.45
257.5	11790.63
257.571	11769.91
257.641	11756.6
257.711	11720.89
257.781	11710.04
257.852	11694.18
257.922	11659.63
257.992	11641.99
258.062	11618.56
258.132	11607.09
258.202	11583.76
258.273	11571.52
258.343	11568.15
258.413	11546.02
258.483	11529.1
258.553	11503.99
258.623	11479.8
258.693	11466.3
258.764	11465
258.834	11465.68
258.904	11445.72
258.974	11423.99
259.044	11409.72
259.114	11399.02
259.184	11383.75
259.254	11358.83
259.324	11315.07
259.394	11304.42
259.464	11300.22
259.535	11275.36
259.605	11246.49
259.675	11223.16
259.745	11208.56
259.815	11174.05
259.885	11146.39
259.955	11158.06
260.025	11131.02
260.095	11113.58
260.165	11096.32
260.235	11095.65
260.305	11071.17
260.375	11041.58
260.445	11043.55
260.515	11040.18
260.585	11032.28
260.655	11013.63
260.725	11004.71
260.795	10998.06
260.865	11002.16
260.934	10974.45
261.004	10967.22
261.074	10955.56
261.144	10949.2
261.214	10941.92
261.284	10922.07
261.354	10920.48
261.424	10893.63
261.494	10896.48
261.564	10880.67
261.634	10873.59
261.703	10832.15
261.773	10817.16
261.843	10809.21
261.913	10792.92
