Data from 20250704_urea_0.5M_MAYP1162681_11-04-53-779.txt Node
Date: Fri Jul 04 11:04:53 BST 2025
User: adleo
Spectrometer: MAYP116268
Trigger mode: 0
Integration Time (sec): 1.000000E0
Scans to average: 1
Electric dark correction enabled: true
Nonlinearity correction enabled: true
Boxcar width: 10
XAxis mode: Wavelengths
Number of Pixels in Spectrum: 2068
>>>>>Begin Spectral Data<<<<<
179.565	1241.98
179.642	1297.55
179.718	1344.8
179.795	1383.3
179.871	1414.94
179.948	1436.7
180.024	1460.48
180.101	1485
180.177	1499.79
180.254	1523.49
180.33	1546.87
180.407	1600.67
180.483	1700.3
180.56	1794.42
180.636	1882.63
180.712	1871.17
180.789	1880.87
180.865	1891.47
180.942	1895.98
181.018	1907.49
181.095	1919.28
181.171	1924.41
181.248	1928.79
181.324	1941.63
181.4	1951.43
181.477	1964.6
181.553	1973.91
181.63	1993.08
181.706	2007.92
181.782	2015
181.859	2012.39
181.935	2017.33
182.011	2014.91
182.088	2030.22
182.164	2047.68
182.24	2057.57
182.317	2067.42
182.393	2067.46
182.469	2082.59
182.546	2098.42
182.622	2104.51
182.698	2103.04
182.775	2114.83
182.851	2128.82
182.927	2122.92
183.003	2116.64
183.08	2111.08
183.156	2122.45
183.232	2117.59
183.308	2103.56
183.385	2112.22
183.461	2135.63
183.537	2135.82
183.613	2150.66
183.69	2141.9
183.766	2131.53
183.842	2142.61
183.918	2147.42
183.995	2160.36
184.071	2164.21
184.147	2160.02
184.223	2146.47
184.299	2159.94
184.375	2148
184.452	2155.09
184.528	2206.87
184.604	2219.95
184.68	2231.08
184.756	2237.55
184.832	2243.59
184.908	2251.25
184.985	2252.06
185.061	2231.6
185.137	2239.4
185.213	2226.7
185.289	2226.94
185.365	2219.71
185.441	2217.04
185.517	2231.51
185.593	2228.75
185.669	2226.47
185.745	2234.65
185.822	2252.01
185.898	2239.92
185.974	2249.72
186.05	2236.21
186.126	2199.71
186.202	2190.67
186.278	2186.96
186.354	2180.15
186.43	2186.48
186.506	2186.58
186.582	2182.77
186.658	2189.24
186.734	2169.22
186.81	2173.59
186.886	2177.73
186.962	2189.81
187.038	2186.39
187.114	2177.39
187.19	2182.05
187.266	2172.73
187.341	2173.11
187.417	2168.88
187.493	2170.59
187.569	2175.92
187.645	2172.49
187.721	2158.6
187.797	2167.07
187.873	2171.82
187.949	2163.69
188.025	2157.07
188.101	2159.74
188.176	2168.68
188.252	2165.92
188.328	2174.2
188.404	2173.39
188.48	2167.01
188.556	2162.16
188.632	2161.59
188.707	2163.92
188.783	2161.07
188.859	2155.46
188.935	2144.94
189.011	2150.65
189.086	2143.32
189.162	2133.95
189.238	2131.15
189.314	2132.53
189.39	2126.15
189.465	2116.45
189.541	2133.48
189.617	2119.83
189.693	2112.93
189.768	2115.31
189.844	2139.25
189.92	2132.83
189.996	2141.25
190.071	2154.95
190.147	2152.81
190.223	2162.66
190.298	2151.91
190.374	2141.96
190.45	2152.71
190.526	2162.32
190.601	2156.57
190.677	2159.09
190.753	2185.65
190.828	2188.17
190.904	2200.97
190.98	2218.29
191.055	2231.71
191.131	2223
191.207	2242.08
191.282	2251.54
191.358	2241.17
191.433	2224.37
191.509	2237.4
191.585	2234.5
191.66	2236.64
191.736	2246.25
191.811	2236.26
191.887	2254.25
191.963	2274.47
192.038	2281.18
192.114	2282.13
192.189	2288.41
192.265	2285.61
192.34	2264.8
192.416	2265.99
192.491	2262.56
192.567	2265.33
192.642	2269.85
192.718	2268.75
192.793	2256.76
192.869	2251.1
192.944	2254.1
193.02	2263.28
193.095	2267.38
193.171	2273.09
193.246	2269.99
193.322	2263.95
193.397	2265.19
193.473	2251
193.548	2235.91
193.624	2241.39
193.699	2238.87
193.775	2251.05
193.85	2252.86
193.925	2262
194.001	2262.71
194.076	2256.43
194.152	2242.82
194.227	2231.25
194.302	2223.4
194.378	2228.64
194.453	2227.92
194.529	2241.86
194.604	2227.07
194.679	2217.6
194.755	2200.38
194.83	2213.19
194.905	2212.8
194.981	2221.7
195.056	2215.28
195.131	2219.23
195.207	2215.56
195.282	2207.95
195.357	2189.01
195.433	2203.43
195.508	2191.05
195.583	2195.52
195.659	2209.37
195.734	2216.99
195.809	2219.37
195.884	2230.36
195.96	2229.12
196.035	2245.77
196.11	2240.82
196.185	2253.34
196.261	2260.62
196.336	2289.88
196.411	2274.08
196.486	2280.55
196.561	2274.36
196.637	2282.64
196.712	2298.87
196.787	2302.78
196.862	2316.05
196.937	2327.33
197.013	2334.66
197.088	2345.99
197.163	2370.79
197.238	2389.85
197.313	2387.33
197.388	2401.27
197.464	2431.9
197.539	2443.7
197.614	2435.32
197.689	2448.46
197.764	2461.94
197.839	2482.36
197.914	2479.22
197.989	2502.84
198.065	2517.69
198.14	2569.54
198.215	2595.25
198.29	2609.93
198.365	2624.4
198.44	2636.5
198.515	2662.46
198.59	2678.28
198.665	2702.38
198.74	2711.2
198.815	2710.96
198.89	2736.63
198.965	2764.75
199.04	2758.27
199.115	2775.42
199.19	2820.34
199.265	2822.34
199.34	2834.49
199.415	2869.64
199.49	2889.36
199.565	2900.18
199.64	2920.1
199.715	2916.9
199.79	2924.05
199.865	2929.34
199.94	2932.54
200.015	2966.1
200.09	2973.68
200.165	2978.78
200.24	2985.93
200.315	3026.93
200.39	3041.28
200.464	3048.48
200.539	3051.24
200.614	3068.6
200.689	3091.53
200.764	3100.69
200.839	3119.99
200.914	3126.72
200.989	3116.84
201.063	3133.29
201.138	3116.9
201.213	3120.67
201.288	3101.83
201.363	3108.79
201.438	3109.6
201.512	3120.38
201.587	3100.54
201.662	3104.54
201.737	3118.42
201.812	3126.38
201.886	3089.11
201.961	3099.89
202.036	3086.41
202.111	3084.64
202.186	3055.86
202.26	3038.78
202.335	3012.17
202.41	3006.26
202.485	2990.91
202.559	2969.7
202.634	2940.9
202.709	2948.57
202.784	2928.55
202.858	2927.17
202.933	2908.1
203.008	2901.19
203.082	2880.18
203.157	2877.98
203.232	2837.86
203.306	2815.98
203.381	2784.9
203.456	2763.6
203.53	2740.28
203.605	2719.9
203.68	2692.35
203.754	2683.26
203.829	2667.91
203.904	2649.15
203.978	2637.28
204.053	2642.43
204.127	2629.14
204.202	2627.95
204.277	2609.99
204.351	2601.8
204.426	2593.98
204.5	2586.08
204.575	2550.94
204.65	2565.61
204.724	2557.27
204.799	2562.41
204.873	2556.46
204.948	2557.74
205.022	2546.13
205.097	2535.41
205.171	2550.55
205.246	2562.41
205.32	2564.03
205.395	2566.22
205.469	2558.6
205.544	2563.37
205.618	2539.17
205.693	2552.41
205.767	2540.8
205.842	2561.71
205.916	2559.28
205.991	2550.04
206.065	2557.14
206.14	2575.36
206.214	2565.45
206.289	2563.21
206.363	2577.45
206.438	2581.98
206.512	2590.51
206.586	2611.55
206.661	2619.8
206.735	2599.99
206.81	2598.75
206.884	2618.8
206.958	2606.52
207.033	2624.85
207.107	2636.53
207.181	2679.98
207.256	2678.12
207.33	2703.66
207.405	2722.97
207.479	2747.41
207.553	2763.75
207.628	2755.23
207.702	2772.19
207.776	2778.33
207.851	2792.91
207.925	2819.9
207.999	2834.01
208.073	2846.5
208.148	2867.38
208.222	2877.53
208.296	2930.76
208.371	2973.17
208.445	3009.52
208.519	3063.92
208.593	3105.74
208.668	3130.45
208.742	3162.73
208.816	3199.02
208.89	3244.45
208.965	3282.03
209.039	3330.34
209.113	3393.97
209.187	3460.8
209.261	3511.44
209.336	3587.36
209.41	3659.81
209.484	3717.92
209.558	3801.25
209.632	3878.16
209.707	3957.11
209.781	4051.66
209.855	4142.52
209.929	4238
210.003	4320.37
210.077	4406.66
210.151	4544.38
210.226	4674.27
210.3	4795.13
210.374	4917.04
210.448	5031.07
210.522	5148.51
210.596	5276.69
210.67	5399.14
210.744	5569.77
210.818	5722.2
210.892	5871.13
210.966	5997.45
211.041	6146.41
211.115	6282.27
211.189	6450.02
211.263	6614.16
211.337	6765.46
211.411	6931.24
211.485	7079.24
211.559	7253.3
211.633	7418.33
211.707	7552.88
211.781	7727.61
211.855	7863.94
211.929	8033.96
212.003	8181.83
212.077	8373.37
212.151	8558.73
212.225	8748.38
212.299	8914.37
212.373	9094.06
212.447	9275.1
212.52	9497.82
212.594	9697.38
212.668	9898.39
212.742	10076.17
212.816	10263.16
212.89	10454.25
212.964	10644.47
213.038	10843.46
213.112	11052.2
213.186	11267.68
213.26	11444.43
213.333	11588.14
213.407	11791.7
213.481	11985
213.555	12200.42
213.629	12377.31
213.703	12550.84
213.777	12747.93
213.85	12925.85
213.924	13148.16
213.998	13345.94
214.072	13525.89
214.146	13704.92
214.219	13893.11
214.293	14077.35
214.367	14262.79
214.441	14454.3
214.515	14624.46
214.588	14772.93
214.662	14908.53
214.736	15053.43
214.81	15241.51
214.883	15436.93
214.957	15592.52
215.031	15757.71
215.105	15897.59
215.178	16048.6
215.252	16207.7
215.326	16336.3
215.4	16470.67
215.473	16580.41
215.547	16714.88
215.621	16854.88
215.694	17002.65
215.768	17117.64
215.842	17246.61
215.915	17375.24
215.989	17500.2
216.063	17625.89
216.136	17772.34
216.21	17913.4
216.284	18062.12
216.357	18189.01
216.431	18302.65
216.504	18441.68
216.578	18584.13
216.652	18732.12
216.725	18852.89
216.799	18980.64
216.873	19102.13
216.946	19222.94
217.02	19334.17
217.093	19434.93
217.167	19520.28
217.24	19609
217.314	19712.8
217.387	19806.82
217.461	19901.18
217.535	20005.03
217.608	20084.55
217.682	20175.29
217.755	20269.94
217.829	20343.14
217.902	20424.45
217.976	20510.18
218.049	20590.71
218.123	20655.49
218.196	20727.68
218.27	20810.96
218.343	20878.53
218.417	20961.91
218.49	21036.18
218.563	21110.74
218.637	21183.14
218.71	21270.18
218.784	21346.43
218.857	21427.74
218.931	21510.21
219.004	21580.92
219.077	21650.14
219.151	21732.8
219.224	21799.9
219.298	21865.02
219.371	21942.29
219.444	21989.34
219.518	22049.54
219.591	22099.77
219.665	22181.53
219.738	22235.81
219.811	22271.67
219.885	22328.03
219.958	22379.9
220.031	22424.68
220.105	22479.35
220.178	22529.2
220.251	22571.48
220.325	22619.55
220.398	22665.5
220.471	22708.16
220.544	22747.41
220.618	22777.69
220.691	22810.13
220.764	22831.44
220.838	22871.27
220.911	22897.06
220.984	22953.28
221.057	22991.03
221.131	23027.2
221.204	23026.52
221.277	23076.76
221.35	23134.67
221.424	23153.62
221.497	23180.43
221.57	23204.88
221.643	23245.19
221.716	23275.47
221.79	23285.55
221.863	23309.95
221.936	23327.46
222.009	23333.29
222.082	23354.75
222.155	23363.09
222.229	23405.04
222.302	23440.97
222.375	23447.82
222.448	23469.81
222.521	23471.2
222.594	23476.75
222.667	23474.68
222.74	23498.79
222.814	23492.66
222.887	23485.82
222.96	23497.58
223.033	23515.33
223.106	23532.93
223.179	23531.72
223.252	23527.82
223.325	23534.76
223.398	23529.22
223.471	23523.33
223.544	23521.6
223.617	23522.37
223.69	23527.09
223.763	23497.68
223.837	23484.75
223.91	23490.11
223.983	23464.35
224.056	23441.31
224.129	23429.68
224.202	23438.36
224.275	23418.98
224.348	23396.51
224.42	23369.31
224.493	23351.08
224.566	23325.09
224.639	23312.79
224.712	23291.72
224.785	23285.45
224.858	23270.79
224.931	23248.66
225.004	23231.4
225.077	23221.13
225.15	23170.35
225.223	23147.93
225.296	23164.52
225.369	23133.9
225.442	23104.63
225.514	23093.11
225.587	23096.53
225.66	23089.54
225.733	23066.15
225.806	23059.31
225.879	23047.69
225.952	23039.15
226.025	23036.45
226.097	23030.52
226.17	23006.8
226.243	22963.89
226.316	22933.95
226.389	22920.73
226.461	22902.85
226.534	22884.24
226.607	22868.71
226.68	22879.08
226.753	22857.29
226.825	22814.61
226.898	22811.72
226.971	22792.72
227.044	22779.37
227.117	22750.44
227.189	22739.59
227.262	22732.17
227.335	22713.46
227.407	22681.5
227.48	22660.48
227.553	22624.61
227.626	22596.88
227.698	22567.96
227.771	22559.13
227.844	22533.63
227.916	22508.37
227.989	22474.53
228.062	22455.63
228.134	22456.55
228.207	22429.5
228.28	22408.34
228.352	22380.23
228.425	22356.7
228.498	22337.18
228.57	22296.74
228.643	22282.08
228.716	22241.34
228.788	22197.91
228.861	22155.25
228.934	22153.65
229.006	22129.65
229.079	22106.51
229.151	22076.96
229.224	22044.47
229.296	22018.68
229.369	22018.54
229.442	21999.3
229.514	21971.06
229.587	21951.34
229.659	21901.02
229.732	21884.24
229.804	21863.71
229.877	21857.97
229.949	21830.4
230.022	21822.11
230.094	21800.08
230.167	21776.51
230.239	21750
230.312	21730.91
230.384	21730.04
230.457	21694.9
230.529	21668.3
230.602	21640.53
230.674	21611.42
230.747	21596
230.819	21585.83
230.892	21523.5
230.964	21503.45
231.037	21485.62
231.109	21453.13
231.181	21432.79
231.254	21387.24
231.326	21357.22
231.399	21323.72
231.471	21291.42
231.544	21243.27
231.616	21225.15
231.688	21194.35
231.761	21153.29
231.833	21118.83
231.905	21064.46
231.978	21045.91
232.05	21023.74
232.122	21001.37
232.195	20972.02
232.267	20964.41
232.339	20921.51
232.412	20909.13
232.484	20874.66
232.556	20837.89
232.629	20822.86
232.701	20800.2
232.773	20772.93
232.846	20741.36
232.918	20712.88
232.99	20678.8
233.062	20649.69
233.135	20613.64
233.207	20572.44
233.279	20556.15
233.351	20529.6
233.424	20487.86
233.496	20439.38
233.568	20420.05
233.64	20379.38
233.713	20342.22
233.785	20303.96
233.857	20276.63
233.929	20230.03
234.001	20212.54
234.074	20194.37
234.146	20143.96
234.218	20104.06
234.29	20071.82
234.362	20029.5
234.434	19972.93
234.507	19934.91
234.579	19890.23
234.651	19857.08
234.723	19833.17
234.795	19810.57
234.867	19776.45
234.939	19768.94
235.012	19745.9
235.084	19710.63
235.156	19684.8
235.228	19650.58
235.3	19601.81
235.372	19572.51
235.444	19560.71
235.516	19496.61
235.588	19462.78
235.66	19435.27
235.732	19396.18
235.804	19418.69
235.876	19389.58
235.948	19376.09
236.02	19337.44
236.092	19300.38
236.164	19266.84
236.236	19229.69
236.308	19187.14
236.38	19153.74
236.452	19105.41
236.524	19073.7
236.596	19054.9
236.668	19024.45
236.74	18993.32
236.812	18968.5
236.884	18938.19
236.956	18896.41
237.028	18857.18
237.1	18812.94
237.172	18804.7
237.244	18789.33
237.316	18716.8
237.388	18682.93
237.46	18639.6
237.532	18629.34
237.604	18596.14
237.675	18576.81
237.747	18548.14
237.819	18506.79
237.891	18472.53
237.963	18438.07
238.035	18393.93
238.107	18323.62
238.178	18302.27
238.25	18267.91
238.322	18254.85
238.394	18210.61
238.466	18169.17
238.538	18150.42
238.609	18121.7
238.681	18050.52
238.753	17996.65
238.825	17960.5
238.897	17930.91
238.968	17911.78
239.04	17862.1
239.112	17851.3
239.184	17803.16
239.255	17766.2
239.327	17725.52
239.399	17692.03
239.471	17664.46
239.542	17633.47
239.614	17610.44
239.686	17543.4
239.758	17511.02
239.829	17460.66
239.901	17433.72
239.973	17406.1
240.044	17371.84
240.116	17344.03
240.188	17313.91
240.259	17289.91
240.331	17252.51
240.403	17220.32
240.474	17170.63
240.546	17127.55
240.618	17071.3
240.689	17038.05
240.761	17009.23
240.833	17005.76
240.904	16968.12
240.976	16923.68
241.048	16884.93
241.119	16865.46
241.191	16845.66
241.262	16829.7
241.334	16794.09
241.405	16760.5
241.477	16718.28
241.549	16674.18
241.62	16637.79
241.692	16616.73
241.763	16584.29
241.835	16551.18
241.906	16522.6
241.978	16475.32
242.049	16460.62
242.121	16439.46
242.192	16418.69
242.264	16371.07
242.335	16314.49
242.407	16298.19
242.478	16274.58
242.55	16253.27
242.621	16208.31
242.693	16174.71
242.764	16132.54
242.836	16101.74
242.907	16068
242.979	16041.3
243.05	16026.65
243.122	15996.14
243.193	15954.2
243.264	15899.64
243.336	15861.9
243.407	15835.49
243.479	15829.27
243.55	15792.35
243.622	15765.7
243.693	15729.4
243.764	15709.64
243.836	15664.91
243.907	15620.08
243.978	15573.76
244.05	15541.61
244.121	15489.89
244.192	15465.36
244.264	15409.92
244.335	15374.25
244.407	15326.92
244.478	15297.71
244.549	15252.35
244.62	15209.6
244.692	15175.86
244.763	15160.19
244.834	15119.75
244.906	15079.11
244.977	15053.23
245.048	15045.18
245.119	15007.34
245.191	14970.8
245.262	14922.16
245.333	14902.01
245.405	14875.45
245.476	14857.91
245.547	14831.4
245.618	14818.09
245.689	14790.95
245.761	14779.63
245.832	14749.06
245.903	14727.9
245.974	14706.31
246.045	14683.02
246.117	14674.4
246.188	14639.54
246.259	14599
246.33	14578.8
246.401	14550.12
246.473	14495.65
246.544	14445.42
246.615	14427.3
246.686	14404.88
246.757	14393.36
246.828	14365.84
246.899	14352.82
246.97	14305.19
247.042	14268.12
247.113	14246.58
247.184	14232.4
247.255	14200.49
247.326	14178.27
247.397	14149.44
247.468	14118.01
247.539	14086.05
247.61	14045.61
247.681	14027.72
247.752	14018.95
247.823	13978.69
247.894	13957.29
247.965	13918.2
248.037	13896.55
248.108	13854.85
248.179	13818.31
248.25	13785.15
248.321	13761.52
248.392	13718.96
248.463	13723.3
248.534	13689.65
248.605	13672.39
248.675	13641.54
248.746	13615.75
248.817	13590.39
248.888	13575.06
248.959	13534.23
249.03	13516.2
249.101	13481.16
249.172	13450.45
249.243	13399.98
249.314	13397.47
249.385	13372.02
249.456	13362.23
249.527	13339.19
249.598	13323.57
249.669	13297.68
249.739	13276.76
249.81	13256.8
249.881	13221.08
249.952	13189.94
250.023	13170.37
250.094	13122.89
250.165	13088.47
250.235	13065.28
250.306	13043.44
250.377	13013.55
250.448	13002.22
250.519	12960.14
250.59	12966.94
250.66	12936.52
250.731	12933.97
250.802	12899.02
250.873	12879.59
250.944	12865.22
251.014	12837.26
251.085	12835.67
251.156	12814.99
251.227	12806.41
251.297	12801.64
251.368	12783.18
251.439	12778.07
251.51	12770.98
251.58	12745.72
251.651	12718.53
251.722	12704.84
251.792	12666.09
251.863	12629.93
251.934	12618.27
252.005	12625.89
252.075	12599.47
252.146	12589.2
252.217	12571.85
252.287	12568.04
252.358	12542.49
252.429	12536.9
252.499	12503.98
252.57	12481.03
252.641	12476.64
252.711	12451.48
252.782	12411.81
252.852	12418.61
252.923	12389.35
252.994	12367.07
253.064	12359.56
253.135	12329.24
253.205	12307.5
253.276	12313.14
253.347	12321.43
253.417	12290.19
253.488	12265.9
253.558	12239.82
253.629	12225.5
253.699	12210.85
253.77	12194.65
253.841	12171.95
253.911	12150.79
253.982	12143.17
254.052	12128.32
254.123	12107.55
254.193	12090.92
254.264	12110.97
254.334	12074.96
254.405	12047.25
254.475	12019.53
254.546	12005.99
254.616	12005.17
254.687	11989.07
254.757	11965.69
254.827	11940.39
254.898	11924.14
254.968	11911.18
255.039	11884.28
255.109	11873.2
255.18	11847.8
255.25	11805.96
255.321	11807.26
255.391	11772.27
255.461	11776.85
255.532	11735.88
255.602	11709.22
255.673	11670.81
255.743	11647.57
255.813	11611.62
255.884	11605.02
255.954	11595.86
256.024	11592.73
256.095	11575.14
256.165	11542.46
256.235	11532.58
256.306	11509.73
256.376	11507.27
256.446	11487.22
256.517	11475.95
256.587	11471.61
256.657	11453.87
256.728	11448.09
256.798	11417.97
256.868	11401.53
256.938	11368.13
257.009	11358.4
257.079	11349.34
257.149	11363.99
257.219	11318.73
257.29	11311.26
257.36	11269.29
257.43	11264.47
257.5	11219.79
257.571	11199.02
257.641	11185.96
257.711	11152.95
257.781	11140.23
257.852	11124.8
257.922	11090.01
257.992	11067.22
258.062	11041.24
258.132	11034.83
258.202	11010.73
258.273	10993.92
258.343	10992.71
258.413	10969.87
258.483	10952.09
258.553	10920.86
258.623	10892.77
258.693	10880.09
258.764	10876.77
258.834	10882.16
258.904	10864.96
258.974	10841.98
259.044	10824.82
259.114	10820.73
259.184	10812.15
259.254	10795.91
259.324	10757.21
259.394	10751.34
259.464	10759
259.535	10745.55
259.605	10719.77
259.675	10692.84
259.745	10680.6
259.815	10652.27
259.885	10629.72
259.955	10643.12
260.025	10626.11
260.095	10606.06
260.165	10593.2
260.235	10598.31
260.305	10577.49
260.375	10544.49
260.445	10554.31
260.515	10551.66
260.585	10548
260.655	10537.07
260.725	10529.16
260.795	10522.18
260.865	10523.67
260.934	10499.48
261.004	10485.41
261.074	10479.53
261.144	10485.17
261.214	10484.79
261.284	10469.8
261.354	10462.58
261.424	10435.11
261.494	10442.77
261.564	10432.51
261.634	10434.58
261.703	10395.12
261.773	10378.98
261.843	10376.62
261.913	10360.34
261.983	10330.08
262.053	10319.38
262.123	10292.5
262.192	10260.37
