Data from 20250704_urea_0.5M_MAYP1162681_11-05-13-768.txt Node
Date: Fri Jul 04 11:05:13 BST 2025
User: adleo
Spectrometer: MAYP116268
Trigger mode: 0
Integration Time (sec): 1.000000E0
Scans to average: 1
Electric dark correction enabled: true
Nonlinearity correction enabled: true
Boxcar width: 10
XAxis mode: Wavelengths
Number of Pixels in Spectrum: 2068
>>>>>Begin Spectral Data<<<<<
179.565	1237.84
179.642	1294.06
179.718	1339.25
179.795	1379.34
179.871	1412.82
179.948	1429.45
180.024	1451.35
180.101	1474.58
180.177	1488.64
180.254	1514.63
180.33	1536.28
180.407	1591.64
180.483	1687.04
180.56	1780.97
180.636	1867.38
180.712	1851.88
180.789	1862.24
180.865	1875.02
180.942	1883.01
181.018	1893.52
181.095	1906.55
181.171	1914.58
181.248	1916.77
181.324	1932.32
181.4	1937.98
181.477	1949.25
181.553	1965.84
181.63	1988.23
181.706	2003.69
181.782	2013.1
181.859	2011.1
181.935	2018.95
182.011	2014.86
182.088	2032.89
182.164	2051.16
182.24	2067.37
182.317	2081.78
182.393	2078.26
182.469	2092.91
182.546	2109.27
182.622	2116.36
182.698	2110.79
182.775	2119.88
182.851	2133.72
182.927	2124.49
183.003	2122.35
183.08	2115.07
183.156	2121.64
183.232	2116.17
183.308	2105.18
183.385	2113.41
183.461	2129.68
183.537	2128.68
183.613	2143.71
183.69	2136.1
183.766	2124.77
183.842	2129.77
183.918	2132.67
183.995	2150.27
184.071	2153.98
184.147	2149.03
184.223	2134.01
184.299	2148.71
184.375	2139.53
184.452	2143.95
184.528	2194.1
184.604	2205.56
184.68	2220.12
184.756	2227.54
184.832	2232.06
184.908	2237.06
184.985	2236.1
185.061	2220.41
185.137	2229.83
185.213	2218.5
185.289	2219.31
185.365	2213.56
185.441	2213.89
185.517	2227.12
185.593	2221.27
185.669	2217.46
185.745	2226.89
185.822	2245.34
185.898	2236.72
185.974	2246.33
186.05	2239.91
186.126	2205.51
186.202	2201.04
186.278	2194.9
186.354	2188.14
186.43	2197.61
186.506	2200.66
186.582	2199.66
186.658	2207.89
186.734	2188.91
186.81	2188.81
186.886	2192.52
186.962	2205.46
187.038	2201.42
187.114	2196.28
187.19	2200.89
187.266	2192.09
187.341	2192.24
187.417	2183.67
187.493	2183.53
187.569	2186.77
187.645	2182.91
187.721	2173.82
187.797	2179.11
187.873	2183.43
187.949	2175.49
188.025	2165.4
188.101	2162.93
188.176	2167.21
188.252	2159.74
188.328	2166.02
188.404	2169.44
188.48	2164.21
188.556	2155.98
188.632	2154.65
188.707	2151.89
188.783	2151.65
188.859	2145.32
188.935	2131.53
189.011	2141.52
189.086	2135.05
189.162	2126.39
189.238	2122.68
189.314	2117.73
189.39	2111.59
189.465	2106.6
189.541	2124.15
189.617	2109.6
189.693	2105.94
189.768	2112.93
189.844	2141.63
189.92	2134.17
189.996	2142.54
190.071	2154.15
190.147	2154.53
190.223	2161.14
190.298	2151.53
190.374	2139.35
190.45	2153.9
190.526	2166.18
190.601	2160.04
190.677	2162.56
190.753	2191.6
190.828	2195.17
190.904	2212.16
190.98	2226.57
191.055	2235.85
191.131	2225.05
191.207	2246.93
191.282	2256.5
191.358	2244.08
191.433	2226.7
191.509	2239.68
191.585	2232.78
191.66	2233.74
191.736	2238.49
191.811	2234.02
191.887	2254.01
191.963	2277.04
192.038	2281.85
192.114	2280.04
192.189	2283.99
192.265	2277.38
192.34	2253.24
192.416	2251.62
192.491	2249.2
192.567	2251.96
192.642	2254.91
192.718	2258.05
192.793	2244.91
192.869	2240.73
192.944	2244.15
193.02	2249.72
193.095	2256.05
193.171	2264.23
193.246	2264.42
193.322	2261.71
193.397	2261.38
193.473	2247.29
193.548	2229.49
193.624	2231.44
193.699	2231.72
193.775	2248.2
193.85	2251
193.925	2258.95
194.001	2258.71
194.076	2251.1
194.152	2240.1
194.227	2231.39
194.302	2221.97
194.378	2228.11
194.453	2225.35
194.529	2239.3
194.604	2225.54
194.679	2216.89
194.755	2199.14
194.83	2212.24
194.905	2212.85
194.981	2220.75
195.056	2211.71
195.131	2220.04
195.207	2220.95
195.282	2210.19
195.357	2190.73
195.433	2206.9
195.508	2196.29
195.583	2204.23
195.659	2215.99
195.734	2225.03
195.809	2224.18
195.884	2232.22
195.96	2231.45
196.035	2248.87
196.11	2243.11
196.185	2259.43
196.261	2266
196.336	2294.45
196.411	2281.64
196.486	2287.64
196.561	2281.03
196.637	2291.44
196.712	2307.3
196.787	2311.54
196.862	2328.14
196.937	2339.71
197.013	2341.94
197.088	2351.37
197.163	2375.08
197.238	2395.42
197.313	2393.42
197.388	2409.03
197.464	2438.17
197.539	2450.03
197.614	2443.32
197.689	2460.03
197.764	2475.55
197.839	2493.41
197.914	2489.26
197.989	2507.98
198.065	2522.02
198.14	2576.54
198.215	2603.49
198.29	2614.12
198.365	2625.98
198.44	2635.64
198.515	2661.65
198.59	2681.23
198.665	2709.48
198.74	2715.53
198.815	2717.1
198.89	2740.87
198.965	2772.85
199.04	2769.8
199.115	2785.57
199.19	2828.55
199.265	2823.69
199.34	2830.74
199.415	2868.17
199.49	2892.95
199.565	2904.1
199.64	2926.4
199.715	2922.16
199.79	2930.21
199.865	2936.89
199.94	2935.17
200.015	2968.02
200.09	2973.31
200.165	2980.65
200.24	2987.18
200.315	3032.09
200.39	3045.68
200.464	3053.93
200.539	3053.12
200.614	3069.7
200.689	3092.26
200.764	3097.6
200.839	3121
200.914	3129.01
200.989	3119.42
201.063	3131.82
201.138	3112.43
201.213	3113.71
201.288	3093.35
201.363	3094.16
201.438	3095.36
201.512	3111.32
201.587	3094.82
201.662	3099.21
201.737	3113.94
201.812	3123.29
201.886	3084.44
201.961	3096.04
202.036	3084.55
202.111	3080.64
202.186	3052.76
202.26	3035.83
202.335	3015.27
202.41	3009.32
202.485	2991.3
202.559	2967.46
202.634	2939.96
202.709	2955.25
202.784	2937.94
202.858	2936.23
202.933	2922.02
203.008	2912.2
203.082	2895.14
203.157	2892.24
203.232	2851.55
203.306	2827.56
203.381	2795.29
203.456	2773.75
203.53	2746.61
203.605	2722.99
203.68	2701.16
203.754	2692.59
203.829	2678.39
203.904	2656.77
203.978	2646.33
204.053	2650.19
204.127	2639.23
204.202	2638.42
204.277	2615.23
204.351	2606.23
204.426	2598.84
204.5	2587.31
204.575	2553.22
204.65	2561.04
204.724	2556.41
204.799	2564.27
204.873	2562.46
204.948	2561.65
205.022	2548.08
205.097	2540.26
205.171	2557.74
205.246	2567.65
205.32	2568.89
205.395	2565.65
205.469	2554.8
205.544	2559.56
205.618	2541.8
205.693	2552.52
205.767	2538.66
205.842	2563.52
205.916	2557.81
205.991	2550.95
206.065	2559.33
206.14	2576.09
206.214	2575.51
206.289	2565.75
206.363	2577.46
206.438	2578.65
206.512	2583.37
206.586	2605.13
206.661	2615.61
206.735	2594
206.81	2593.14
206.884	2611
206.958	2603.9
207.033	2627.61
207.107	2634.24
207.181	2671.12
207.256	2669.88
207.33	2695.98
207.405	2712.77
207.479	2739.31
207.553	2749.26
207.628	2738.64
207.702	2760.03
207.776	2763.75
207.851	2779.09
207.925	2806.84
207.999	2820.43
208.073	2835.15
208.148	2852.93
208.222	2860.47
208.296	2912.45
208.371	2953.72
208.445	2985.91
208.519	3042.41
208.593	3079.89
208.668	3108.32
208.742	3140.64
208.816	3174.31
208.89	3222.89
208.965	3260.57
209.039	3307.68
209.113	3372.3
209.187	3440.55
209.261	3484.03
209.336	3553.93
209.41	3629.25
209.484	3687.74
209.558	3770.92
209.632	3848.5
209.707	3927.68
209.781	4019.78
209.855	4110.45
209.929	4203.05
210.003	4291.81
210.077	4371.32
210.151	4508.97
210.226	4633.01
210.3	4760.04
210.374	4885.29
210.448	4994.3
210.522	5113.03
210.596	5234.43
210.67	5360.66
210.744	5525.75
210.818	5685.17
210.892	5833.9
210.966	5956.47
211.041	6107.5
211.115	6240.57
211.189	6409.37
211.263	6576.05
211.337	6731.18
211.411	6893.35
211.485	7039.37
211.559	7209
211.633	7373.53
211.707	7507.68
211.781	7687.16
211.855	7820.71
211.929	7983.7
212.003	8138.73
212.077	8327.77
212.151	8522.59
212.225	8707.57
212.299	8875.91
212.373	9051.79
212.447	9230.51
212.52	9451.2
212.594	9635.01
212.668	9834.27
212.742	10008.38
212.816	10189.45
212.89	10373.41
212.964	10568
213.038	10770.46
213.112	10976.88
213.186	11191.15
213.26	11355.65
213.333	11501.05
213.407	11686.57
213.481	11885.02
213.555	12096.3
213.629	12278.31
213.703	12452.7
213.777	12643
213.85	12819.13
213.924	13041.63
213.998	13230.01
214.072	13416.8
214.146	13603.74
214.219	13784.36
214.293	13974.67
214.367	14164.21
214.441	14359.15
214.515	14535.62
214.588	14687.66
214.662	14833.04
214.736	14986.04
214.81	15176.68
214.883	15358.55
214.957	15529.91
215.031	15687.53
215.105	15831.03
215.178	15982.56
215.252	16144.85
215.326	16285.93
215.4	16430.14
215.473	16535.54
215.547	16675.65
215.621	16806.74
215.694	16958.94
215.768	17098.31
215.842	17221.64
215.915	17356.63
215.989	17471.28
216.063	17588.83
216.136	17725.26
216.21	17859.04
216.284	18000.34
216.357	18131.18
216.431	18256.91
216.504	18395.51
216.578	18549.24
216.652	18679.89
216.725	18797.86
216.799	18923.15
216.873	19042.57
216.946	19158.08
217.02	19261.11
217.093	19372
217.167	19459.99
217.24	19552.61
217.314	19642.44
217.387	19739.64
217.461	19820.75
217.535	19938.33
217.608	20020.45
217.682	20119.24
217.755	20225.94
217.829	20307.29
217.902	20389.75
217.976	20473.6
218.049	20546.38
218.123	20617.08
218.196	20704.5
218.27	20779.98
218.343	20840.22
218.417	20921.09
218.49	20998.3
218.563	21082.55
218.637	21150.41
218.71	21240.68
218.784	21317.22
218.857	21402.05
218.931	21484.38
219.004	21555.32
219.077	21617.55
219.151	21706.43
219.224	21768.81
219.298	21823.86
219.371	21901.9
219.444	21957.28
219.518	22015.75
219.591	22086.37
219.665	22155.26
219.738	22214.55
219.811	22259.82
219.885	22323.89
219.958	22380.1
220.031	22423.67
220.105	22483.55
220.178	22536.48
220.251	22572.06
220.325	22611.5
220.398	22654.74
220.471	22696.54
220.544	22749.29
220.618	22776.67
220.691	22803.19
220.764	22836.41
220.838	22877.73
220.911	22906.22
220.984	22964.13
221.057	23009.74
221.131	23032.98
221.204	23034.81
221.277	23074.93
221.35	23129.85
221.424	23147.35
221.497	23174.26
221.57	23198.51
221.643	23221.47
221.716	23254.83
221.79	23268.67
221.863	23285.07
221.936	23298.13
222.009	23316.41
222.082	23336.76
222.155	23358.31
222.229	23385.99
222.302	23407.45
222.375	23416.37
222.448	23428.33
222.521	23426.69
222.594	23432.09
222.667	23431.37
222.74	23451.62
222.814	23452.2
222.887	23458.76
222.96	23474.48
223.033	23478.44
223.106	23490.54
223.179	23515.66
223.252	23511.81
223.325	23515.23
223.398	23514.41
223.471	23507.23
223.544	23505.59
223.617	23496.28
223.69	23500.28
223.763	23491.26
223.837	23491.46
223.91	23492.42
223.983	23470.72
224.056	23461.03
224.129	23458.23
224.202	23468.21
224.275	23457.75
224.348	23442.08
224.42	23409.14
224.493	23381.17
224.566	23366.95
224.639	23367.43
224.712	23338.69
224.785	23327.3
224.858	23321.04
224.931	23314.77
225.004	23303.44
225.077	23281.26
225.15	23253.34
225.223	23228.36
225.296	23231.45
225.369	23197.93
225.442	23173.68
225.514	23155.69
225.587	23140.55
225.66	23114.37
225.733	23097.88
225.806	23079.65
225.879	23065.77
225.952	23044.07
226.025	23038.28
226.097	23030.76
226.17	23012.29
226.243	22970.64
226.316	22942.24
226.389	22918.8
226.461	22895.66
226.534	22888.38
226.607	22869.96
226.68	22867.89
226.753	22851.98
226.825	22807.67
226.898	22793.44
226.971	22768.47
227.044	22762.06
227.117	22747.55
227.189	22736.31
227.262	22714.18
227.335	22698.99
227.407	22664.67
227.48	22648.04
227.553	22619.98
227.626	22589.6
227.698	22548.29
227.771	22529.58
227.844	22497.04
227.916	22478.24
227.989	22448.4
228.062	22410.07
228.134	22408.91
228.207	22382.16
228.28	22352.17
228.352	22337.32
228.425	22316.06
228.498	22298.42
228.57	22264.39
228.643	22249.06
228.716	22217
228.788	22186.19
228.861	22157.36
228.934	22148.74
229.006	22117.5
229.079	22090.84
229.151	22057.82
229.224	22019.98
229.296	21993.04
229.369	21990.39
229.442	21980.94
229.514	21945.32
229.587	21934.86
229.659	21890.36
229.732	21869.68
229.804	21858.16
229.877	21853.54
229.949	21843.8
230.022	21838.35
230.094	21805.62
230.167	21780.89
230.239	21751.11
230.312	21727.97
230.384	21720.06
230.457	21685.99
230.529	21669.69
230.602	21652.49
230.674	21629.54
230.747	21630.99
230.819	21629.64
230.892	21572.38
230.964	21546.59
231.037	21528.56
231.109	21496.56
231.181	21476.41
231.254	21423.93
231.326	21390.38
231.399	21345.21
231.471	21298.08
231.544	21246.74
231.616	21233.01
231.688	21195.17
231.761	21157.34
231.833	21126.54
231.905	21078.2
231.978	21054.48
232.05	21017.57
232.122	20990.43
232.195	20955.54
232.267	20921.13
232.339	20875.58
232.412	20863.87
232.484	20828.73
232.556	20791.96
232.629	20781.6
232.701	20758.9
232.773	20744.97
232.846	20701.98
232.918	20670.61
232.99	20648.39
233.062	20632.01
233.135	20602.17
233.207	20561.88
233.279	20547.62
233.351	20519.28
233.424	20474.99
233.496	20435.19
233.568	20429.55
233.64	20384.34
233.713	20363.62
233.785	20338.9
233.857	20309.16
233.929	20270.32
234.001	20252.68
234.074	20236.68
234.146	20190.85
234.218	20156.54
234.29	20123.67
234.362	20089.7
234.434	20041.7
234.507	19998.28
234.579	19940.21
234.651	19902.47
234.723	19880.74
234.795	19852.69
234.867	19826.23
234.939	19821.03
235.012	19793.75
235.084	19760.45
235.156	19730.67
235.228	19679.3
235.3	19635.21
235.372	19612.03
235.444	19588.27
235.516	19526.83
235.588	19497.72
235.66	19457.53
235.732	19411.17
235.804	19432.81
235.876	19413.05
235.948	19404.18
236.02	19370.35
236.092	19342.26
236.164	19313.97
236.236	19275.13
236.308	19236.63
236.38	19199.96
236.452	19154.18
236.524	19112.78
236.596	19099.53
236.668	19078.23
236.74	19053.27
236.812	19025.51
236.884	18996.26
236.956	18967.2
237.028	18928.31
237.1	18879.73
237.172	18865.13
237.244	18851.45
237.316	18771.07
237.388	18721.96
237.46	18660.9
237.532	18638.06
237.604	18597.77
237.675	18579.99
237.747	18558.93
237.819	18516.43
237.891	18473.88
237.963	18422.84
238.035	18388.29
238.107	18303.91
238.178	18272.2
238.25	18235.19
238.322	18230.52
238.394	18174.66
238.466	18134.42
238.538	18107.77
238.609	18073.94
238.681	18016.65
238.753	17970.43
238.825	17948.36
238.897	17920.75
238.968	17922.53
239.04	17878
239.112	17877.81
239.184	17826.44
239.255	17788.65
239.327	17751.16
239.399	17716.61
239.471	17702.97
239.542	17678.44
239.614	17663.84
239.686	17615.64
239.758	17594.49
239.829	17541.43
239.901	17527.84
239.973	17497.43
240.044	17468.03
240.116	17441.81
240.188	17407.21
240.259	17368.03
240.331	17321.14
240.403	17290.78
240.474	17232.22
240.546	17192.37
240.618	17127.45
240.689	17088.27
240.761	17053.76
240.833	17046.63
240.904	17012.65
240.976	16967.83
241.048	16927.39
241.119	16903.44
241.191	16871.73
241.262	16851.83
241.334	16819
241.405	16774.67
241.477	16732.35
241.549	16699.48
241.62	16670.18
241.692	16646.8
241.763	16626.08
241.835	16592.77
241.906	16566.07
241.978	16519.56
242.049	16504.48
242.121	16491.03
242.192	16472.04
242.264	16415.84
242.335	16359.16
242.407	16343.45
242.478	16309.71
242.55	16284.94
242.621	16242.24
242.693	16206.96
242.764	16163.19
242.836	16120.83
242.907	16096.15
242.979	16064.34
243.05	16034.55
243.122	16009.34
243.193	15980.95
243.264	15934.39
243.336	15895.84
243.407	15869.76
243.479	15853.61
243.55	15823.49
243.622	15794.66
243.693	15757.89
243.764	15747.81
243.836	15702.84
243.907	15666.45
243.978	15637.63
244.05	15609.43
244.121	15561.57
244.192	15548.17
244.264	15507.1
244.335	15480.64
244.407	15432.34
244.478	15406.74
244.549	15370.3
244.62	15318.78
244.692	15277.51
244.763	15256.98
244.834	15230.52
244.906	15190.32
244.977	15170.31
245.048	15157.39
245.119	15112.76
245.191	15074
245.262	15023.39
245.333	15014.38
245.405	14978.18
245.476	14953.54
245.547	14931.03
245.618	14907.94
245.689	14869.53
245.761	14844.99
245.832	14809.42
245.903	14791.05
245.974	14770.27
246.045	14740.48
246.117	14738.7
246.188	14699.27
246.259	14655.55
246.33	14619.15
246.401	14582.81
246.473	14542.75
246.544	14498.4
246.615	14479.6
246.686	14455.69
246.757	14441.18
246.828	14398.81
246.899	14386.85
246.97	14337.97
247.042	14295.6
247.113	14280.99
247.184	14272.8
247.255	14235.97
247.326	14211.67
247.397	14175.91
247.468	14144.57
247.539	14119.26
247.61	14067.01
247.681	14050.18
247.752	14035
247.823	14001.25
247.894	13981.15
247.965	13942.49
248.037	13905.08
248.108	13862.71
248.179	13831.38
248.25	13800.72
248.321	13783.36
248.392	13741.33
248.463	13740.8
248.534	13713.17
248.605	13695.1
248.675	13662.46
248.746	13642.94
248.817	13616.09
248.888	13594.34
248.959	13553.13
249.03	13528.54
249.101	13509.36
249.172	13479.61
249.243	13427.6
249.314	13415.55
249.385	13388.74
249.456	13370.38
249.527	13355.96
249.598	13338.18
249.669	13313.59
249.739	13301.73
249.81	13285.92
249.881	13249.14
249.952	13228.55
250.023	13210.14
250.094	13167.77
250.165	13136.29
250.235	13114.64
250.306	13096.71
250.377	13069.71
250.448	13051.25
250.519	13017.84
250.59	13011.96
250.66	12988.05
250.731	12985.64
250.802	12964.87
250.873	12953.97
250.944	12930.21
251.014	12896.8
251.085	12904.37
251.156	12887.45
251.227	12871.3
251.297	12858.86
251.368	12846.09
251.439	12828.73
251.51	12815.62
251.58	12781.78
251.651	12755.7
251.722	12747.12
251.792	12706.82
251.863	12680.5
251.934	12673.8
252.005	12674.04
252.075	12645.75
252.146	12638.56
252.217	12635.19
252.287	12621.06
252.358	12592.58
252.429	12591.47
252.499	12566.11
252.57	12542.44
252.641	12532.66
252.711	12509.61
252.782	12471.77
252.852	12476.5
252.923	12456.78
252.994	12431.72
253.064	12428.49
253.135	12398.12
253.205	12367.51
253.276	12374.74
253.347	12375.8
253.417	12350.73
253.488	12325.04
253.558	12303.93
253.629	12287.83
253.699	12266.43
253.77	12253.89
253.841	12230.66
253.911	12214.27
253.982	12198.46
254.052	12186.89
254.123	12166.4
254.193	12140.81
254.264	12161.92
254.334	12129.43
254.405	12094.97
254.475	12069.66
254.546	12049.13
254.616	12043.44
254.687	12025.13
254.757	12006.76
254.827	11987.05
254.898	11962.9
254.968	11940.82
255.039	11911.71
255.109	11891.32
255.18	11857.97
255.25	11816.47
255.321	11807.45
255.391	11774.63
255.461	11783.5
255.532	11731.39
255.602	11709.13
255.673	11673.51
255.743	11646.03
255.813	11605.11
255.884	11595.67
255.954	11584.48
256.024	11587.86
256.095	11574.32
256.165	11547.86
256.235	11533.06
256.306	11503.61
256.376	11502.36
256.446	11497.59
256.517	11484.48
256.587	11477.68
256.657	11468.57
256.728	11449.68
256.798	11432.43
256.868	11412.86
256.938	11381.92
257.009	11379.6
257.079	11362.49
257.149	11370.35
257.219	11327.55
257.29	11314.93
257.36	11278.93
257.43	11264.71
257.5	11223.5
257.571	11196.56
257.641	11182.44
257.711	11150.39
257.781	11145.28
257.852	11130.25
257.922	11091.6
257.992	11078.97
258.062	11059.98
258.132	11048.51
258.202	11035.94
258.273	11022.54
258.343	11027.65
258.413	10997.29
258.483	10983.89
258.553	10958.69
258.623	10936.23
258.693	10918.88
258.764	10920.42
258.834	10926.4
258.904	10911.22
258.974	10883.42
259.044	10864.91
259.114	10861.35
259.184	10848.92
259.254	10822.85
259.324	10796.97
259.394	10791
259.464	10795.86
259.535	10775.77
259.605	10752.83
259.675	10735.63
259.745	10721.13
259.815	10690.43
259.885	10671.35
259.955	10675.11
260.025	10650.68
260.095	10635.99
260.165	10632.27
260.235	10632.95
260.305	10604.18
260.375	10583.75
260.445	10597.97
260.515	10606.35
260.585	10592.91
260.655	10578.12
260.725	10580.38
260.795	10564
260.865	10565.2
260.934	10532.2
261.004	10517.5
261.074	10507.05
261.144	10507.72
261.214	10507.87
261.284	10485.12
261.354	10487.82
261.424	10462.81
261.494	10473.12
261.564	10456.65
261.634	10443.73
261.703	10406.92
261.773	10399.99
261.843	10390.69
261.913	10371.27
261.983	10328.1
262.053	10325.65
