Data from 20250704_urea_1.5M_MAYP1162681_11-45-23-597.txt Node
Date: Fri Jul 04 11:45:23 BST 2025
User: adleo
Spectrometer: MAYP116268
Trigger mode: 0
Integration Time (sec): 1.000000E0
Scans to average: 1
Electric dark correction enabled: true
Nonlinearity correction enabled: true
Boxcar width: 10
XAxis mode: Wavelengths
Number of Pixels in Spectrum: 2068
>>>>>Begin Spectral Data<<<<<
179.565	1265.43
179.642	1324.92
179.718	1373.73
179.795	1418.27
179.871	1453.82
179.948	1470.94
180.024	1493.51
180.101	1516.62
180.177	1529.36
180.254	1553.06
180.33	1576.45
180.407	1631.81
180.483	1731.2
180.56	1825.09
180.636	1914.68
180.712	1902.6
180.789	1911.44
180.865	1925.56
180.942	1934.07
181.018	1946.33
181.095	1961.03
181.171	1965.02
181.248	1964.88
181.324	1978.34
181.4	1983.57
181.477	1993.42
181.553	2006.06
181.63	2026.13
181.706	2040.97
181.782	2052.9
181.859	2052.67
181.935	2058.18
182.011	2057.57
182.088	2074.59
182.164	2098.29
182.24	2111.23
182.317	2118.5
182.393	2115.41
182.469	2129.63
182.546	2144
182.622	2149.85
182.698	2145.71
182.775	2156.22
182.851	2171.02
182.927	2163.55
183.003	2159.93
183.08	2155.32
183.156	2164.93
183.232	2160.93
183.308	2153.46
183.385	2160.69
183.461	2179.39
183.537	2178.82
183.613	2194.09
183.69	2183.34
183.766	2170.96
183.842	2178.58
183.918	2185.71
183.995	2202.03
184.071	2203.93
184.147	2196.46
184.223	2182.01
184.299	2192.28
184.375	2182.87
184.452	2193.01
184.528	2247.21
184.604	2257.2
184.68	2267.34
184.756	2278.24
184.832	2285.33
184.908	2288.13
184.985	2287.37
185.061	2270.91
185.137	2279.95
185.213	2264.73
185.289	2268.86
185.365	2260.02
185.441	2258.73
185.517	2272.96
185.593	2269.54
185.669	2267.35
185.745	2278.2
185.822	2297.27
185.898	2291.03
185.974	2300.83
186.05	2290.31
186.126	2251.05
186.202	2247.81
186.278	2245.24
186.354	2234.58
186.43	2238.2
186.506	2237.58
186.582	2237.72
186.658	2246.09
186.734	2226.12
186.81	2231.25
186.886	2233.58
186.962	2246.76
187.038	2243.19
187.114	2234.96
187.19	2239.29
187.266	2230.34
187.341	2232.11
187.417	2224.73
187.493	2223.35
187.569	2226.54
187.645	2219.83
187.721	2207.93
187.797	2212.41
187.873	2215.4
187.949	2207.79
188.025	2203.27
188.101	2205.41
188.176	2210.12
188.252	2203.94
188.328	2214.45
188.404	2214.64
188.48	2207.88
188.556	2201.7
188.632	2202.03
188.707	2203.41
188.783	2201.98
188.859	2196.89
188.935	2186.57
189.011	2196.23
189.086	2190.76
189.162	2180.53
189.238	2177.82
189.314	2175.29
189.39	2168.21
189.465	2161.35
189.541	2179.39
189.617	2164.35
189.693	2158.46
189.768	2161.07
189.844	2186.87
189.92	2179.02
189.996	2186.59
190.071	2201.24
190.147	2199.15
190.223	2207.91
190.298	2197.34
190.374	2185.26
190.45	2195.29
190.526	2202.62
190.601	2195.01
190.677	2197.01
190.753	2226.28
190.828	2230.23
190.904	2245.65
190.98	2259.07
191.055	2272.49
191.131	2265.97
191.207	2285.81
191.282	2296.99
191.358	2288.66
191.433	2273.28
191.509	2284.03
191.585	2282.18
191.66	2282.18
191.736	2290.93
191.811	2280.7
191.887	2300.22
191.963	2320.54
192.038	2329.1
192.114	2329.77
192.189	2332.91
192.265	2328.72
192.34	2306.82
192.416	2305.3
192.491	2302.25
192.567	2305.2
192.642	2305.92
192.718	2303.87
192.793	2290.83
192.869	2286.22
192.944	2288.36
193.02	2292.16
193.095	2298.35
193.171	2302.3
193.246	2300.21
193.322	2296.49
193.397	2300.3
193.473	2283.45
193.548	2266.51
193.624	2272.17
193.699	2271.31
193.775	2288.31
193.85	2290.16
193.925	2296.64
194.001	2297.35
194.076	2289.31
194.152	2280.69
194.227	2271.08
194.302	2262.37
194.378	2267.7
194.453	2267.13
194.529	2281.22
194.604	2268.13
194.679	2259.19
194.755	2240.68
194.83	2255.44
194.905	2252.3
194.981	2259.15
195.056	2255.25
195.131	2261.77
195.207	2258.49
195.282	2248.83
195.357	2226.41
195.433	2242.83
195.508	2232.26
195.583	2237.78
195.659	2252.73
195.734	2261.86
195.809	2262.29
195.884	2269.71
195.96	2270.52
196.035	2284.71
196.11	2277.33
196.185	2289.79
196.261	2294.27
196.336	2327.44
196.411	2311.39
196.486	2319.01
196.561	2313.96
196.637	2321.72
196.712	2339.86
196.787	2344.29
196.862	2359.56
196.937	2370.84
197.013	2373.32
197.088	2384.55
197.163	2410.83
197.238	2427.79
197.313	2425.46
197.388	2441.5
197.464	2471.5
197.539	2480.45
197.614	2474.17
197.689	2487.22
197.764	2509.36
197.839	2531.17
197.914	2526.26
197.989	2550.27
198.065	2564.5
198.14	2615.64
198.215	2641.03
198.29	2651.32
198.365	2667.61
198.44	2682.85
198.515	2714.39
198.59	2730.54
198.665	2755.22
198.74	2760.89
198.815	2762.79
198.89	2784.04
198.965	2809.25
199.04	2803.82
199.115	2822.3
199.19	2865.47
199.265	2868.33
199.34	2872.48
199.415	2902.61
199.49	2922.25
199.565	2932.45
199.64	2958.38
199.715	2952.6
199.79	2961.33
199.865	2974.49
199.94	2970.58
200.015	2997.43
200.09	3001.81
200.165	3010.2
200.24	3021.12
200.315	3062.59
200.39	3079.05
200.464	3089.2
200.539	3096.98
200.614	3119.38
200.689	3142.99
200.764	3150.2
200.839	3170.4
200.914	3177.17
200.989	3172.93
201.063	3189.29
201.138	3172.13
201.213	3167.93
201.288	3149.34
201.363	3155.58
201.438	3152.44
201.512	3167.98
201.587	3154.48
201.662	3158.44
201.737	3172.6
201.812	3180.9
201.886	3144.68
201.961	3154.27
202.036	3142.4
202.111	3136.01
202.186	3106.07
202.26	3089.43
202.335	3066.05
202.41	3061.76
202.485	3045.22
202.559	3022.24
202.634	2992.73
202.709	3000.21
202.784	2983.38
202.858	2987.38
202.933	2968.65
203.008	2959.78
203.082	2938.24
203.157	2933.52
203.232	2890.4
203.306	2867.98
203.381	2833.66
203.456	2812.45
203.53	2789.12
203.605	2766.59
203.68	2743.43
203.754	2734.81
203.829	2714.99
203.904	2693.36
203.978	2677.39
204.053	2680.25
204.127	2667.49
204.202	2669.11
204.277	2650.96
204.351	2640.53
204.426	2630.9
204.5	2620.52
204.575	2586.51
204.65	2600.9
204.724	2596.8
204.799	2604.85
204.873	2602.28
204.948	2602.75
205.022	2588.85
205.097	2578.79
205.171	2592.22
205.246	2601.32
205.32	2597.85
205.395	2601.52
205.469	2591.95
205.544	2597.71
205.618	2580.19
205.693	2590.9
205.767	2572.28
205.842	2596.44
205.916	2590.58
205.991	2580.1
206.065	2585.1
206.14	2599.95
206.214	2591.09
206.289	2582.99
206.363	2596.99
206.438	2597.23
206.512	2601.99
206.586	2624.61
206.661	2633.19
206.735	2609.58
206.81	2610.68
206.884	2628.25
206.958	2614.87
207.033	2631.43
207.107	2639.34
207.181	2675.18
207.256	2668.27
207.33	2691.66
207.405	2703.58
207.479	2724.63
207.553	2734.97
207.628	2719.07
207.702	2730.64
207.776	2727.78
207.851	2729.93
207.925	2744.89
207.999	2741.27
208.073	2738.99
208.148	2740.03
208.222	2729.69
208.296	2766.17
208.371	2781.52
208.445	2793.82
208.519	2824.07
208.593	2838.65
208.668	2835.27
208.742	2834.89
208.816	2837.98
208.89	2850.71
208.965	2846.85
209.039	2856.67
209.113	2872.97
209.187	2896.69
209.261	2894.02
209.336	2914.47
209.41	2936.06
209.484	2935.11
209.558	2957.04
209.632	2971.15
209.707	2986.07
209.781	3011.67
209.855	3026.07
209.929	3045.21
210.003	3054.17
210.077	3055.17
210.151	3106.39
210.226	3144.37
210.3	3175.58
210.374	3205.09
210.448	3213.11
210.522	3227.66
210.596	3243.16
210.67	3256.38
210.744	3308.73
210.818	3345.02
210.892	3368.54
210.966	3369.35
211.041	3393.83
211.115	3399.51
211.189	3430.14
211.263	3455.96
211.337	3468.51
211.411	3494.19
211.485	3497.82
211.559	3517.24
211.633	3532.22
211.707	3517.17
211.781	3542.98
211.855	3525.12
211.929	3533.33
212.003	3531.8
212.077	3565.91
212.151	3597.76
212.225	3627.56
212.299	3641.66
212.373	3656.99
212.447	3684.42
212.52	3749.78
212.594	3788.92
212.668	3837.21
212.742	3862.39
212.816	3898.24
212.89	3932.5
212.964	3974.48
213.038	4025.26
213.112	4094.93
213.186	4163.04
213.26	4194.2
213.333	4204.87
213.407	4268.88
213.481	4330.92
213.555	4412.71
213.629	4464.01
213.703	4516.22
213.777	4588.12
213.85	4642.02
213.924	4755.22
213.998	4836.11
214.072	4908.66
214.146	4971.64
214.219	5057.59
214.293	5142.21
214.367	5230.58
214.441	5337.2
214.515	5422.48
214.588	5497.4
214.662	5556.33
214.736	5629.15
214.81	5734.92
214.883	5844.03
214.957	5940.14
215.031	6038.15
215.105	6117.57
215.178	6208.26
215.252	6316.59
215.326	6408.91
215.4	6508.75
215.473	6575.56
215.547	6667.11
215.621	6770.72
215.694	6903.18
215.768	6992.59
215.842	7106.42
215.915	7214.71
215.989	7312.11
216.063	7428.6
216.136	7550.66
216.21	7679.12
216.284	7825.35
216.357	7959.29
216.431	8087.76
216.504	8220.87
216.578	8374.83
216.652	8517.59
216.725	8656.7
216.799	8792.87
216.873	8925.52
216.946	9066.64
217.02	9197.91
217.093	9332.37
217.167	9440.18
217.24	9553.31
217.314	9686.3
217.387	9808.43
217.461	9926.23
217.535	10065.05
217.608	10174.83
217.682	10304.99
217.755	10443.93
217.829	10560.91
217.902	10682.81
217.976	10802.98
218.049	10922.43
218.123	11030.33
218.196	11169.36
218.27	11291.47
218.343	11404.01
218.417	11524.06
218.49	11634.14
218.563	11763.84
218.637	11890.55
218.71	12031.29
218.784	12157.1
218.857	12289.41
218.931	12415.84
219.004	12544.78
219.077	12667.41
219.151	12800.55
219.224	12916.43
219.298	13033.23
219.371	13158.18
219.444	13263.75
219.518	13381.47
219.591	13494.03
219.665	13634.64
219.738	13737.71
219.811	13835.28
219.885	13955.12
219.958	14075.53
220.031	14189.2
220.105	14303.45
220.178	14402.08
220.251	14502.87
220.325	14612.29
220.398	14707.6
220.471	14802.61
220.544	14907.93
220.618	15005.06
220.691	15104.21
220.764	15197.15
220.838	15294.61
220.911	15386.24
220.984	15499.52
221.057	15597.17
221.131	15695.31
221.204	15749.39
221.277	15850.56
221.35	15960.36
221.424	16042.44
221.497	16116.19
221.57	16198.95
221.643	16282.57
221.716	16376.8
221.79	16439.45
221.863	16509.24
221.936	16584.28
222.009	16658.32
222.082	16729.6
222.155	16787.48
222.229	16869.07
222.302	16947.58
222.375	17001.61
222.448	17072.99
222.521	17131.4
222.594	17188.8
222.667	17228.41
222.74	17302.68
222.814	17360.56
222.887	17412.12
222.96	17476.61
223.033	17540.99
223.106	17603.06
223.179	17665.18
223.252	17718
223.325	17776.07
223.398	17826.24
223.471	17876.7
223.544	17932.12
223.617	17983.2
223.69	18041.08
223.763	18072.79
223.837	18119.2
223.91	18170.23
223.983	18183.29
224.056	18217.17
224.129	18255.87
224.202	18314.56
224.275	18337.89
224.348	18357.45
224.42	18380.49
224.493	18393.06
224.566	18430.36
224.639	18461.88
224.712	18480.87
224.785	18509.83
224.858	18535.56
224.931	18568.43
225.004	18586.79
225.077	18612.67
225.15	18605.73
225.223	18621.58
225.296	18669.92
225.369	18668.61
225.442	18676.37
225.514	18706.25
225.587	18729.77
225.66	18749.77
225.733	18769.09
225.806	18795.45
225.879	18813.57
225.952	18825.81
226.025	18859.45
226.097	18884.7
226.17	18904.46
226.243	18896.89
226.316	18901.85
226.389	18924.31
226.461	18938
226.534	18956.36
226.607	18966.19
226.68	18998.86
226.753	19020.4
226.825	18999.63
226.898	19027.48
226.971	19042.37
227.044	19058.86
227.117	19069.7
227.189	19094.08
227.262	19110.95
227.335	19116.06
227.407	19126.9
227.48	19143.14
227.553	19144.25
227.626	19133.93
227.698	19129.84
227.771	19139.43
227.844	19128.15
227.916	19132.97
227.989	19114.03
228.062	19116.3
228.134	19134.51
228.207	19142.37
228.28	19132.34
228.352	19133.69
228.425	19127.33
228.498	19140.25
228.57	19132.15
228.643	19139.96
228.716	19136.54
228.788	19129.94
228.861	19124.1
228.934	19131.33
229.006	19128.87
229.079	19127
229.151	19120.44
229.224	19106.71
229.296	19110.13
229.369	19138.66
229.442	19145.36
229.514	19136.3
229.587	19144.97
229.659	19126.85
229.732	19137.4
229.804	19133.84
229.877	19161.07
229.949	19174.66
230.022	19190.75
230.094	19183.86
230.167	19185.26
230.239	19166.9
230.312	19157.98
230.384	19184.53
230.457	19183.91
230.529	19176.92
230.602	19176.97
230.674	19182.22
230.747	19190.75
230.819	19197.69
230.892	19159.28
230.964	19148.25
231.037	19151.28
231.109	19141.89
231.181	19140.01
231.254	19112.97
231.326	19110.76
231.399	19087.96
231.471	19067.19
231.544	19027.82
231.616	19032.83
231.688	19022.95
231.761	19004.79
231.833	18991.68
231.905	18955.54
231.978	18945.56
232.05	18934.24
232.122	18919.11
232.195	18894.09
232.267	18890.48
232.339	18876.84
232.412	18881.18
232.484	18865.86
232.556	18847.5
232.629	18853.09
232.701	18852.65
232.773	18846.1
232.846	18821.09
232.918	18815.02
232.99	18815.45
233.062	18809.09
233.135	18797.33
233.207	18769.72
233.279	18767.64
233.351	18763.93
233.424	18743.94
233.496	18706.3
233.568	18711.5
233.64	18686.2
233.713	18680.66
233.785	18659.65
233.857	18647.99
233.929	18616.28
234.001	18619.08
234.074	18631.27
234.146	18595.22
234.218	18572.86
234.29	18546.98
234.362	18532.67
234.434	18498.36
234.507	18459.66
234.579	18428.58
234.651	18401.26
234.723	18394.36
234.795	18384.87
234.867	18357.07
234.939	18361.64
235.012	18357.16
235.084	18339.52
235.156	18326.22
235.228	18297.5
235.3	18271.87
235.372	18248.54
235.444	18247
235.516	18206.23
235.588	18180.83
235.66	18166.91
235.732	18140.11
235.804	18185.51
235.876	18184.88
235.948	18183.82
236.02	18167.29
236.092	18145.65
236.164	18131.29
236.236	18107.92
236.308	18081.03
236.38	18067.97
236.452	18027.87
236.524	18013.32
236.596	18010.38
236.668	18007.2
236.74	17987.35
236.812	17971.68
236.884	17957.61
236.956	17931.4
237.028	17897.28
237.1	17862.53
237.172	17854.24
237.244	17848.94
237.316	17779.35
237.388	17746.34
237.46	17711.69
237.532	17702.2
237.604	17681.04
237.675	17672.17
237.747	17648.99
237.819	17615.64
237.891	17588.8
237.963	17562.73
238.035	17540.17
238.107	17479.79
238.178	17468.37
238.25	17447.74
238.322	17447.69
238.394	17410.01
238.466	17386.3
238.538	17370.3
238.609	17359.55
238.681	17310.44
238.753	17273.62
238.825	17254.44
238.897	17227.4
238.968	17228.56
239.04	17208.08
239.112	17214.34
239.184	17171.74
239.255	17148.94
239.327	17134.87
239.399	17116.03
239.471	17109.28
239.542	17082.77
239.614	17063.69
239.686	17005.23
239.758	16989.71
239.829	16954.67
239.901	16949.66
239.973	16926.82
240.044	16911.39
240.116	16887.97
240.188	16871.59
240.259	16851.3
240.331	16819.68
240.403	16806.86
240.474	16757.51
240.546	16716.88
240.618	16665.26
240.689	16641.5
240.761	16616.92
240.833	16608.15
240.904	16580.2
240.976	16555.91
241.048	16532.43
241.119	16524.05
241.191	16504.77
241.262	16494.36
241.334	16464.77
241.405	16429.2
241.477	16398.74
241.549	16374.25
241.62	16348.95
241.692	16328.75
241.763	16319.31
241.835	16290.29
241.906	16261.71
241.978	16227.78
242.049	16213.61
242.121	16190.18
242.192	16175.15
242.264	16125.89
242.335	16077.21
242.407	16057.01
242.478	16013.29
242.55	15991.12
242.621	15953.43
242.693	15928.08
242.764	15892.85
242.836	15864.84
242.907	15842.91
242.979	15831.3
243.05	15800.98
243.122	15781.02
243.193	15743.19
243.264	15678.65
243.336	15656.67
243.407	15647.75
243.479	15643.12
243.55	15614.15
243.622	15602.2
243.693	15581.96
243.764	15574.87
243.836	15540.21
243.907	15511.15
243.978	15486.18
244.05	15466.61
244.121	15426.12
244.192	15401.2
244.264	15361.48
244.335	15332.8
244.407	15292.89
244.478	15266.62
244.549	15242.66
244.62	15197.74
244.692	15172.19
244.763	15165.64
244.834	15128.76
244.906	15087.5
244.977	15056.22
245.048	15050.96
245.119	15007.92
245.191	14965.26
245.262	14923.85
245.333	14913.68
245.405	14886.59
245.476	14866.87
245.547	14833.28
245.618	14819.2
245.689	14799.29
245.761	14776.3
245.832	14747.43
245.903	14734.51
245.974	14704.23
246.045	14670.83
246.117	14657.91
246.188	14623.39
246.259	14583.48
246.33	14560.01
246.401	14522.16
246.473	14482.2
246.544	14444.27
246.615	14429.13
246.686	14398.42
246.757	14385.02
246.828	14351.62
246.899	14344.38
246.97	14299.41
247.042	14263.45
247.113	14237.75
247.184	14228.69
247.255	14191.72
247.326	14165.11
247.397	14131.41
247.468	14103.64
247.539	14082.92
247.61	14043.39
247.681	14026.47
247.752	14010.94
247.823	13968.76
247.894	13948.08
247.965	13920.27
248.037	13889.66
248.108	13857.99
248.179	13835.86
248.25	13808.53
248.321	13785
248.392	13742.19
248.463	13751.31
248.534	13725.51
248.605	13710.52
248.675	13689.02
248.746	13675.09
248.817	13659.09
248.888	13634.07
248.959	13588.85
249.03	13573.13
249.101	13546.19
249.172	13518.71
249.243	13483.13
249.314	13480
249.385	13458.84
249.456	13436.85
249.527	13407.93
249.598	13391.88
249.669	13362.33
249.739	13341.69
249.81	13326.94
249.881	13291.56
249.952	13259.26
250.023	13237.81
250.094	13203.2
250.165	13163.23
250.235	13135.51
250.306	13110.25
250.377	13081.81
250.448	13073.67
250.519	13028.59
250.59	13024.79
250.66	12999.86
250.731	12992.63
250.802	12969.01
250.873	12946.45
250.944	12928.85
251.014	12901.67
251.085	12899.3
251.156	12888.27
251.227	12886.34
251.297	12873.08
251.368	12860.6
251.439	12851.44
251.51	12844.01
251.58	12814.99
251.651	12790.31
251.722	12789.83
251.792	12752.71
251.863	12726.25
251.934	12721.28
252.005	12734.01
252.075	12720.27
252.146	12714.82
252.217	12709.38
252.287	12695.35
252.358	12672.31
252.429	12665.65
252.499	12644.49
252.57	12621.69
252.641	12606.99
252.711	12584.72
252.782	12550.25
252.852	12554.64
252.923	12536.13
252.994	12509.81
253.064	12495.06
253.135	12463.19
253.205	12427.09
253.276	12432.2
253.347	12432.15
253.417	12403.71
253.488	12373.1
253.558	12339.79
253.629	12319.4
253.699	12296.75
253.77	12286.09
253.841	12264.02
253.911	12246.04
253.982	12229.07
254.052	12219.38
254.123	12207.33
254.193	12189.06
254.264	12211.14
254.334	12179.47
254.405	12140.42
254.475	12122.2
254.546	12101.77
254.616	12093.24
254.687	12085.33
254.757	12064.55
254.827	12043.35
254.898	12025.66
254.968	12003.53
255.039	11981.17
255.109	11968.44
255.18	11941.11
255.25	11903.56
255.321	11895.76
255.391	11864.52
255.461	11865.68
255.532	11819.89
255.602	11797.72
255.673	11754.67
255.743	11719.82
255.813	11670.42
255.884	11664.16
255.954	11655.09
256.024	11666.71
256.095	11660.83
256.165	11628.06
256.235	11615.57
256.306	11594.9
256.376	11593.5
256.446	11588.82
256.517	11577.74
256.587	11572.58
256.657	11559.57
256.728	11549.11
256.798	11535.95
256.868	11513.64
256.938	11490.4
257.009	11481.15
257.079	11468.04
257.149	11479.51
257.219	11445.49
257.29	11438.84
257.36	11404.96
257.43	11390.64
257.5	11347.17
257.571	11315.79
257.641	11306.54
257.711	11278.44
257.781	11271.07
257.852	11252.08
257.922	11217.72
257.992	11195.07
258.062	11171.6
258.132	11161.33
258.202	11137.81
258.273	11122.58
258.343	11129.57
258.413	11102.63
258.483	11085.19
258.553	11057.67
258.623	11035.5
258.693	11031.55
258.764	11035.36
258.834	11035.69
258.904	11020.42
258.974	10988.33
259.044	10969.15
259.114	10956.23
259.184	10941.39
259.254	10916.48
259.324	10878.46
259.394	10867.71
259.464	10878.02
259.535	10860.19
259.605	10834.41
259.675	10809.6
259.745	10794.61
259.815	10760.78
259.885	10740.74
259.955	10754.42
260.025	10731.97
260.095	10710.19
260.165	10690.15
260.235	10690.87
260.305	10659.31
260.375	10630.35
260.445	10641.24
260.515	10641.77
260.585	10645.24
260.655	10629.29
260.725	10622.54
260.795	10623.99
260.865	10624.57
260.934	10593.53
261.004	10584.19
261.074	10573.25
261.144	10581.58
261.214	10577.87
261.284	10564.96
261.354	10559.81
261.424	10530.27
261.494	10542.26
261.564	10528.53
261.634	10520.53
261.703	10482.61
261.773	10481.55
261.843	10474.66
261.913	10464.45
261.983	10443.35
262.053	10430.39
262.123	10410.68
262.192	10383.37
262.262	10377.49
