Data from 20250704_urea_0.5M_MAYP1162681_11-04-59-767.txt Node
Date: Fri Jul 04 11:04:59 BST 2025
User: adleo
Spectrometer: MAYP116268
Trigger mode: 0
Integration Time (sec): 1.000000E0
Scans to average: 1
Electric dark correction enabled: true
Nonlinearity correction enabled: true
Boxcar width: 10
XAxis mode: Wavelengths
Number of Pixels in Spectrum: 2068
>>>>>Begin Spectral Data<<<<<
179.565	1228.73
179.642	1283.16
179.718	1332.36
179.795	1374.25
179.871	1411.48
179.948	1432.4
180.024	1452.79
180.101	1476.63
180.177	1491.7
180.254	1518.15
180.33	1540.51
180.407	1597.53
180.483	1695.4
180.56	1788.86
180.636	1875.27
180.712	1863.76
180.789	1876.27
180.865	1891.66
180.942	1899.08
181.018	1907.54
181.095	1920.47
181.171	1924.8
181.248	1926.94
181.324	1940.21
181.4	1948.53
181.477	1958.18
181.553	1970.78
181.63	1992.85
181.706	2008.21
181.782	2015.62
181.859	2010.82
181.935	2016.05
182.011	2010.63
182.088	2029.23
182.164	2046.16
182.24	2059
182.317	2071.13
182.393	2068.94
182.469	2082.16
182.546	2098.43
182.622	2105.75
182.698	2099.47
182.775	2109.98
182.851	2126.49
182.927	2117.78
183.003	2110.46
183.08	2102.47
183.156	2110.89
183.232	2106.04
183.308	2096.76
183.385	2105.08
183.461	2124.35
183.537	2125.82
183.613	2141.47
183.69	2131.34
183.766	2124.11
183.842	2134.67
183.918	2141.33
183.995	2152.74
184.071	2155.46
184.147	2150.7
184.223	2138.53
184.299	2154.08
184.375	2143.14
184.452	2148.67
184.528	2204.73
184.604	2217.81
184.68	2230.84
184.756	2237.83
184.832	2244.45
184.908	2248.44
184.985	2247.73
185.061	2231.17
185.137	2240.5
185.213	2226.7
185.289	2227.23
185.365	2214.43
185.441	2209.53
185.517	2219.53
185.593	2216.63
185.669	2214.44
185.745	2223.86
185.822	2240.46
185.898	2231.65
185.974	2242.59
186.05	2236.78
186.126	2198.28
186.202	2188.81
186.278	2184.77
186.354	2176.4
186.43	2183.73
186.506	2180.21
186.582	2182.01
186.658	2188.96
186.734	2169.31
186.81	2173.12
186.886	2175.78
186.962	2193.33
187.038	2192.24
187.114	2187.05
187.19	2192.9
187.266	2183.86
187.341	2184.82
187.417	2178.44
187.493	2180.25
187.569	2181.72
187.645	2177.01
187.721	2162.45
187.797	2170.35
187.873	2177.15
187.949	2172.35
188.025	2164.35
188.101	2169.2
188.176	2171.39
188.252	2167.64
188.328	2175.2
188.404	2173.48
188.48	2169.3
188.556	2163.4
188.632	2159.12
188.707	2158.21
188.783	2154.6
188.859	2151.27
188.935	2138.37
189.011	2147.89
189.086	2139.99
189.162	2134.33
189.238	2127.67
189.314	2129.81
189.39	2124.82
189.465	2117.92
189.541	2134.43
189.617	2119.73
189.693	2112.41
189.768	2117.5
189.844	2144.72
189.92	2136.88
189.996	2145.91
190.071	2155.71
190.147	2153.34
190.223	2167.42
190.298	2156.95
190.374	2148.96
190.45	2157.28
190.526	2168.75
190.601	2161.18
190.677	2162.18
190.753	2191.13
190.828	2197.41
190.904	2210.97
190.98	2226.43
191.055	2235.43
191.131	2224.62
191.207	2248.08
191.282	2256.31
191.358	2245.75
191.433	2230.37
191.509	2243.02
191.585	2242.4
191.66	2242.92
191.736	2249.58
191.811	2238.59
191.887	2259.25
191.963	2281.66
192.038	2287.23
192.114	2288.85
192.189	2293.18
192.265	2292.37
192.34	2267.52
192.416	2262.9
192.491	2260.09
192.567	2263.47
192.642	2263.62
192.718	2263.85
192.793	2248.43
192.869	2247.25
192.944	2250.24
193.02	2257.1
193.095	2261
193.171	2265.66
193.246	2270.94
193.322	2267.61
193.397	2267.71
193.473	2251.24
193.548	2232.58
193.624	2239.67
193.699	2236.53
193.775	2253.86
193.85	2253.24
193.925	2263.09
194.001	2266.9
194.076	2257.9
194.152	2250.43
194.227	2243.39
194.302	2231.45
194.378	2235.64
194.453	2235.35
194.529	2248.82
194.604	2232.83
194.679	2228.5
194.755	2209.42
194.83	2218.33
194.905	2219.23
194.981	2229.03
195.056	2222.75
195.131	2229.37
195.207	2225.94
195.282	2215.52
195.357	2195.58
195.433	2213.33
195.508	2200.14
195.583	2204.14
195.659	2218.42
195.734	2221.51
195.809	2224.61
195.884	2238.02
195.96	2236.73
196.035	2252.91
196.11	2250.1
196.185	2262.57
196.261	2264.57
196.336	2297.98
196.411	2286.03
196.486	2288.55
196.561	2282.84
196.637	2290.64
196.712	2305.06
196.787	2309.97
196.862	2326.81
196.937	2336.42
197.013	2338.9
197.088	2348.37
197.163	2373.37
197.238	2390.85
197.313	2391.99
197.388	2405.13
197.464	2437.18
197.539	2451.6
197.614	2441.85
197.689	2455.27
197.764	2470.8
197.839	2492.65
197.914	2483.6
197.989	2503.51
198.065	2519.74
198.14	2570.58
198.215	2597.87
198.29	2609.26
198.365	2621.07
198.44	2632.21
198.515	2661.79
198.59	2677.51
198.665	2704.85
198.74	2708.09
198.815	2708.33
198.89	2731.58
198.965	2760.46
199.04	2755.55
199.115	2772.56
199.19	2818.3
199.265	2819.25
199.34	2828.64
199.415	2862.01
199.49	2885.74
199.565	2896.56
199.64	2919.43
199.715	2917.95
199.79	2925.06
199.865	2932.21
199.94	2933.73
200.015	2962.14
200.09	2964.81
200.165	2972.39
200.24	2982.55
200.315	3025.15
200.39	3042.99
200.464	3046.8
200.539	3049.95
200.614	3063.96
200.689	3086.9
200.764	3094.35
200.839	3116.13
200.914	3121.85
200.989	3112.5
201.063	3126.52
201.138	3105.51
201.213	3103.93
201.288	3082.76
201.363	3089.24
201.438	3091.15
201.512	3105.02
201.587	3089.95
201.662	3096.49
201.737	3110.89
201.812	3119.47
201.886	3087.07
201.961	3098.67
202.036	3088.61
202.111	3083.03
202.186	3053.06
202.26	3033.88
202.335	3008.85
202.41	2997.59
202.485	2982.77
202.559	2960.94
202.634	2933.48
202.709	2946.63
202.784	2929.9
202.858	2931.61
202.933	2911.88
203.008	2901.63
203.082	2882
203.157	2883.48
203.232	2841.55
203.306	2817.18
203.381	2782.81
203.456	2761.27
203.53	2735.32
203.605	2714.8
203.68	2693.78
203.754	2690.26
203.829	2673.44
203.904	2654.76
203.978	2645.33
204.053	2649.95
204.127	2638.04
204.202	2637.57
204.277	2620.7
204.351	2615.08
204.426	2605.55
204.5	2597.5
204.575	2564.99
204.65	2576.23
204.724	2566.13
204.799	2572.98
204.873	2568.41
204.948	2567.93
205.022	2556.08
205.097	2550.21
205.171	2565.69
205.246	2571.45
205.32	2568.22
205.395	2568.98
205.469	2558.98
205.544	2562.6
205.618	2543.98
205.693	2556.65
205.767	2543.84
205.842	2562.09
205.916	2555.42
205.991	2549.75
206.065	2554.61
206.14	2573.17
206.214	2565.16
206.289	2557.07
206.363	2571.02
206.438	2576.55
206.512	2583.5
206.586	2602.88
206.661	2609.27
206.735	2586.42
206.81	2590.14
206.884	2608.95
206.958	2600.52
207.033	2620.51
207.107	2635.48
207.181	2670.69
207.256	2668.79
207.33	2694.51
207.405	2716.49
207.479	2742.03
207.553	2755.04
207.628	2747.66
207.702	2768.05
207.776	2776.62
207.851	2790.54
207.925	2818.91
207.999	2828.68
208.073	2842.79
208.148	2862.71
208.222	2865.91
208.296	2920.65
208.371	2956.86
208.445	2992.01
208.519	3046.5
208.593	3087.37
208.668	3109.51
208.742	3144.84
208.816	3179.98
208.89	3233.06
208.965	3265.72
209.039	3314.7
209.113	3375.08
209.187	3442.43
209.261	3486.48
209.336	3558.24
209.41	3638.63
209.484	3697.54
209.558	3776.6
209.632	3852.75
209.707	3935.86
209.781	4034.32
209.855	4126.56
209.929	4224.33
210.003	4311.38
210.077	4397.34
210.151	4532.9
210.226	4662.3
210.3	4787.86
210.374	4908.28
210.448	5012.36
210.522	5134.87
210.596	5260.85
210.67	5386.36
210.744	5556.55
210.818	5712.07
210.892	5861
210.966	5984.59
211.041	6136.6
211.115	6275.54
211.189	6448.86
211.263	6607.35
211.337	6758.6
211.411	6924.81
211.485	7074.64
211.559	7248.22
211.633	7409.78
211.707	7542.49
211.781	7721.13
211.855	7854.82
211.929	8021.99
212.003	8179.33
212.077	8360.47
212.151	8548.86
212.225	8737.35
212.299	8908.84
212.373	9083.56
212.447	9270.9
212.52	9489.05
212.594	9677.83
212.668	9884.75
212.742	10059.36
212.816	10246.25
212.89	10436.86
212.964	10625.19
213.038	10819.08
213.112	11025.21
213.186	11234.28
213.26	11415.07
213.333	11559.32
213.407	11760.99
213.481	11959.54
213.555	12170.58
213.629	12356.25
213.703	12531.56
213.777	12727.83
213.85	12904.93
213.924	13130.57
213.998	13317.65
214.072	13499.28
214.146	13674.07
214.219	13855.9
214.293	14031.12
214.367	14218.15
214.441	14411.12
214.515	14581.61
214.588	14738.71
214.662	14872.19
214.736	15031.02
214.81	15206.91
214.883	15387.38
214.957	15543.89
215.031	15703.73
215.105	15839.66
215.178	16000.01
215.252	16156.32
215.326	16295.37
215.4	16427.68
215.473	16537.81
215.547	16671.31
215.621	16813.92
215.694	16961.54
215.768	17084.14
215.842	17213.16
215.915	17336.73
215.989	17443.91
216.063	17568.06
216.136	17706.56
216.21	17847.48
216.284	17984.68
216.357	18105.83
216.431	18239.81
216.504	18373.49
216.578	18513.39
216.652	18647.36
216.725	18764.99
216.799	18898.67
216.873	19008.98
216.946	19138.03
217.02	19239.96
217.093	19348.58
217.167	19422.4
217.24	19513.44
217.314	19614.78
217.387	19712.94
217.461	19820.55
217.535	19939.11
217.608	20032.36
217.682	20125.56
217.755	20228.35
217.829	20312.74
217.902	20413.32
217.976	20486.04
218.049	20558.86
218.123	20622.67
218.196	20718.28
218.27	20786.91
218.343	20841.86
218.417	20920.99
218.49	20980.8
218.563	21068.67
218.637	21141.54
218.71	21245.89
218.784	21325.8
218.857	21413.28
218.931	21481.96
219.004	21543.66
219.077	21610.71
219.151	21678.67
219.224	21732.66
219.298	21787.12
219.371	21857.07
219.444	21893.31
219.518	21961.33
219.591	22023.75
219.665	22109.99
219.738	22159.5
219.811	22205.58
219.885	22266.42
219.958	22318
220.031	22378.45
220.105	22438.62
220.178	22484.13
220.251	22512.52
220.325	22567.53
220.398	22605.19
220.471	22655.47
220.544	22693.89
220.618	22720.94
220.691	22761.97
220.764	22807.77
220.838	22857.24
220.911	22886.99
220.984	22947.3
221.057	22980.09
221.131	23005.35
221.204	23009.06
221.277	23051.69
221.35	23108.59
221.424	23127.01
221.497	23155.41
221.57	23174.5
221.643	23191.91
221.716	23222.28
221.79	23242.44
221.863	23248.71
221.936	23258.74
222.009	23272
222.082	23290.22
222.155	23302.71
222.229	23327.45
222.302	23336.32
222.375	23341.39
222.448	23356.72
222.521	23366.56
222.594	23368.68
222.667	23367.52
222.74	23373.41
222.814	23361.54
222.887	23352.04
222.96	23370.66
223.033	23384.3
223.106	23392.98
223.179	23392.07
223.252	23392.02
223.325	23403.64
223.398	23418.78
223.471	23423.65
223.544	23424.91
223.617	23414.3
223.69	23415.55
223.763	23393.47
223.837	23407.31
223.91	23411.5
223.983	23389.71
224.056	23371.58
224.129	23378.91
224.202	23391.68
224.275	23380.26
224.348	23376.16
224.42	23359.91
224.493	23329.67
224.566	23311.59
224.639	23302.96
224.712	23293.07
224.785	23273.54
224.858	23248.27
224.931	23215.97
225.004	23195.52
225.077	23181.73
225.15	23158.25
225.223	23149.91
225.296	23168.38
225.369	23116.4
225.442	23086.12
225.514	23075.56
225.587	23062.97
225.66	23049.42
225.733	23029.89
225.806	23024.11
225.879	23004.39
225.952	22980.14
226.025	22982.06
226.097	22979.89
226.17	22958.49
226.243	22917.94
226.316	22905.16
226.389	22895.28
226.461	22886.6
226.534	22871.12
226.607	22848.56
226.68	22856.56
226.753	22825.66
226.825	22779.85
226.898	22779.03
226.971	22757.62
227.044	22738.39
227.117	22714.14
227.189	22691.09
227.262	22674.65
227.335	22652.57
227.407	22621.04
227.48	22604.7
227.553	22581.65
227.626	22543.85
227.698	22522.54
227.771	22508.95
227.844	22472.26
227.916	22444.44
227.989	22406.31
228.062	22380.37
228.134	22383.89
228.207	22353.76
228.28	22324.02
228.352	22300.3
228.425	22282.32
228.498	22263.04
228.57	22228.76
228.643	22218.4
228.716	22184.51
228.788	22167.01
228.861	22131.53
228.934	22121.4
229.006	22095.09
229.079	22059.75
229.151	22027.12
229.224	21985.18
229.296	21966.48
229.369	21959.49
229.442	21940.45
229.514	21911.77
229.587	21904.63
229.659	21856.48
229.732	21830.59
229.804	21819.46
229.877	21813.48
229.949	21798.82
230.022	21792.56
230.094	21773.23
230.167	21751.01
230.239	21715.92
230.312	21676.73
230.384	21682.46
230.457	21658.94
230.529	21634.6
230.602	21608.72
230.674	21589.05
230.747	21576.43
230.819	21559.56
230.892	21511.74
230.964	21490.05
231.037	21464.8
231.109	21421.22
231.181	21400.74
231.254	21362.13
231.326	21330.23
231.399	21289.4
231.471	21238.6
231.544	21188.38
231.616	21162.49
231.688	21126.68
231.761	21099.6
231.833	21055.6
231.905	21000.22
231.978	20973.51
232.05	20937.85
232.122	20912.69
232.195	20882.52
232.267	20861.07
232.339	20828.16
232.412	20810.18
232.484	20773.7
232.556	20738.85
232.629	20737.07
232.701	20710.47
232.773	20688.83
232.846	20644.39
232.918	20614.56
232.99	20587.67
233.062	20567.91
233.135	20546.46
233.207	20508.44
233.279	20484.2
233.351	20474.99
233.424	20444.73
233.496	20401.11
233.568	20394.27
233.64	20345.55
233.713	20315.14
233.785	20296.05
233.857	20263.81
233.929	20218.46
234.001	20203.77
234.074	20192.39
234.146	20132.15
234.218	20098.95
234.29	20055.82
234.362	20023.67
234.434	19983.72
234.507	19946.62
234.579	19902.23
234.651	19867.34
234.723	19837.56
234.795	19802.72
234.867	19769.03
234.939	19744.7
235.012	19713.57
235.084	19680.94
235.156	19667.11
235.228	19624.9
235.3	19572.66
235.372	19533.19
235.444	19510.97
235.516	19456.42
235.588	19419.6
235.66	19396.33
235.732	19355.99
235.804	19383.46
235.876	19371.08
235.948	19355.32
236.02	19322.74
236.092	19285.64
236.164	19241.78
236.236	19208.77
236.308	19166.9
236.38	19126.9
236.452	19085.99
236.524	19058.9
236.596	19047.63
236.668	19017.12
236.74	18981.95
236.812	18944.5
236.884	18912.7
236.956	18879.11
237.028	18838.48
237.1	18788.7
237.172	18760.46
237.244	18749.67
237.316	18676.85
237.388	18624.91
237.46	18572.33
237.532	18554.74
237.604	18510.45
237.675	18501.35
237.747	18472.1
237.819	18440.92
237.891	18410.75
237.963	18362.46
238.035	18323.14
238.107	18237.65
238.178	18216.4
238.25	18171.92
238.322	18165.94
238.394	18125.36
238.466	18093.37
238.538	18067.68
238.609	18044.36
238.681	17992.12
238.753	17938.67
238.825	17907.45
238.897	17881.71
238.968	17866.68
239.04	17819.74
239.112	17814.24
239.184	17758.24
239.255	17722.78
239.327	17694.92
239.399	17657.19
239.471	17645.19
239.542	17613.62
239.614	17602.05
239.686	17533.62
239.758	17527.31
239.829	17478.97
239.901	17461.09
239.973	17426.3
240.044	17398.44
240.116	17373.67
240.188	17345.53
240.259	17314.92
240.331	17269.72
240.403	17248.17
240.474	17199.84
240.546	17162.49
240.618	17104.17
240.689	17072.75
240.761	17031.78
240.833	17011.78
240.904	16974.72
240.976	16937.42
241.048	16904.16
241.119	16876.79
241.191	16852.64
241.262	16831.01
241.334	16796.69
241.405	16756.78
241.477	16715.19
241.549	16674.42
241.62	16634.32
241.692	16603.52
241.763	16579.81
241.835	16545.73
241.906	16506.6
241.978	16459.85
242.049	16444.14
242.121	16424.81
242.192	16401.14
242.264	16360.75
242.335	16309.76
242.407	16286.05
242.478	16244.12
242.55	16211.68
242.621	16176.35
242.693	16141.31
242.764	16095.33
242.836	16060.24
242.907	16038.55
242.979	16018.12
243.05	15991.94
243.122	15963.8
243.193	15922.68
243.264	15879.54
243.336	15841.66
243.407	15816.64
243.479	15800.21
243.55	15766.52
243.622	15739.72
243.693	15707.37
243.764	15700
243.836	15653.63
243.907	15615.84
243.978	15580.94
244.05	15554.48
244.121	15500.54
244.192	15490.18
244.264	15446.46
244.335	15414.6
244.407	15359.31
244.478	15328.99
244.549	15285.76
244.62	15240.98
244.692	15219.53
244.763	15194.27
244.834	15167.23
244.906	15123.41
244.977	15097.43
245.048	15076.66
245.119	15035.25
245.191	14992.49
245.262	14937.3
245.333	14929.11
245.405	14908.09
245.476	14887.84
245.547	14863.45
245.618	14839.83
245.689	14801.99
245.761	14778.18
245.832	14741.88
245.903	14723.61
245.974	14692.76
246.045	14663.74
246.117	14653.19
246.188	14611.05
246.259	14563.33
246.33	14532.14
246.401	14501.15
246.473	14457.33
246.544	14423.73
246.615	14409.17
246.686	14374.75
246.757	14363.62
246.828	14326.4
246.899	14311.32
246.97	14269.18
247.042	14224.98
247.113	14213.89
247.184	14202.95
247.255	14170.6
247.326	14147.95
247.397	14119.26
247.468	14094.34
247.539	14075.59
247.61	14032.73
247.681	14014.85
247.752	14009.79
247.823	13972.72
247.894	13957.97
247.965	13921.91
248.037	13885.56
248.108	13839.47
248.179	13815.61
248.25	13790.45
248.321	13776.61
248.392	13734.91
248.463	13725.47
248.534	13704.83
248.605	13681.5
248.675	13650.55
248.746	13628.57
248.817	13615.22
248.888	13601.43
248.959	13564.12
249.03	13549.42
249.101	13529.94
249.172	13501.11
249.243	13448.42
249.314	13443.84
249.385	13414.25
249.456	13399.06
249.527	13375.39
249.598	13362.13
249.669	13345.26
249.739	13320.1
249.81	13294.4
249.881	13254.34
249.952	13231.49
250.023	13203.82
250.094	13168.25
250.165	13141.88
250.235	13120.86
250.306	13098.69
250.377	13056.75
250.448	13035.87
250.519	12983.86
250.59	12973.64
250.66	12946.6
250.731	12941.29
250.802	12913.77
250.873	12898
250.944	12879.88
251.014	12856.59
251.085	12856.21
251.156	12843.15
251.227	12832.15
251.297	12822.08
251.368	12815.48
251.439	12804.58
251.51	12796.58
251.58	12761.34
251.651	12727.55
251.722	12712.12
251.792	12668.79
251.863	12647.14
251.934	12640.15
252.005	12649.89
252.075	12634.37
252.146	12630.7
252.217	12623.33
252.287	12610.12
252.358	12585.34
252.429	12583.8
252.499	12552.57
252.57	12527.31
252.641	12499.68
252.711	12477.61
252.782	12435.72
252.852	12438.66
252.923	12413.4
252.994	12397.2
253.064	12395.23
253.135	12366.98
253.205	12342.3
253.276	12340.42
253.347	12339.55
253.417	12307.98
253.488	12283.59
253.558	12252.69
253.629	12232.78
253.699	12217.79
253.77	12199.86
253.841	12178.36
253.911	12159.7
253.982	12142.74
254.052	12138.54
254.123	12129.96
254.193	12108.95
254.264	12133.43
254.334	12098.63
254.405	12074.39
254.475	12039.15
254.546	12004.45
254.616	11999.44
254.687	11979.43
254.757	11967.09
254.827	11943.23
254.898	11932.29
254.968	11911.04
255.039	11887.22
255.109	11866.79
255.18	11834.74
255.25	11792.75
255.321	11779.45
255.391	11739.54
255.461	11751.11
255.532	11700.74
255.602	11674.28
255.673	11638.23
255.743	11607.28
255.813	11566.84
255.884	11553.93
255.954	11542.79
256.024	11551.81
256.095	11537.59
256.165	11512
256.235	11498.26
256.306	11477.73
256.376	11465.68
256.446	11460.09
256.517	11453.68
256.587	11448.81
256.657	11431.89
256.728	11421.77
256.798	11406.69
256.868	11389.43
256.938	11355.99
257.009	11353.38
257.079	11344.56
257.149	11352.08
257.219	11312.61
257.29	11308.22
257.36	11271.55
257.43	11270.64
257.5	11231.12
257.571	11205.86
257.641	11199.36
257.711	11170.06
257.781	11152.9
257.852	11146.44
257.922	11103.45
257.992	11078.59
258.062	11053.04
258.132	11049.29
258.202	11034.49
258.273	11023.79
258.343	11025
258.413	11002.83
258.483	10982.45
258.553	10961.92
258.623	10933.53
258.693	10922.74
258.764	10918.5
258.834	10920.81
258.904	10898.88
258.974	10878.07
259.044	10860.67
259.114	10846.36
259.184	10827.37
259.254	10816.63
259.324	10781.79
259.394	10780.39
259.464	10783.48
259.535	10763.91
259.605	10741.6
259.675	10720.54
259.745	10703.29
259.815	10676.31
259.885	10650.77
259.955	10659.01
260.025	10624.23
260.095	10606.16
260.165	10595.37
260.235	10593.44
260.305	10563.81
260.375	10535.04
260.445	10542.27
260.515	10549.06
260.585	10544.58
260.655	10525.45
260.725	10517.31
260.795	10504.25
260.865	10501.22
260.934	10476.98
261.004	10474.33
261.074	10455.83
261.144	10456.84
261.214	10449.57
261.284	10432.75
261.354	10434.2
261.424	10406.92
261.494	10416.42
261.564	10399.36
261.634	10388.86
261.703	10351.76
261.773	10347.95
261.843	10343.71
261.913	10321.02
261.983	10281.04
262.053	10269.42
