Data from 20250704_urea_0.5M_MAYP1162681_11-05-01-767.txt Node
Date: Fri Jul 04 11:05:01 BST 2025
User: adleo
Spectrometer: MAYP116268
Trigger mode: 0
Integration Time (sec): 1.000000E0
Scans to average: 1
Electric dark correction enabled: true
Nonlinearity correction enabled: true
Boxcar width: 10
XAxis mode: Wavelengths
Number of Pixels in Spectrum: 2068
>>>>>Begin Spectral Data<<<<<
179.565	1237.11
179.642	1294.81
179.718	1339.48
179.795	1377.84
179.871	1411.15
179.948	1431.63
180.024	1453.28
180.101	1477.79
180.177	1491.95
180.254	1515.32
180.33	1539.85
180.407	1597.16
180.483	1694.22
180.56	1784.58
180.636	1873.41
180.712	1862.48
180.789	1873.98
180.865	1887.38
180.942	1893.04
181.018	1904.02
181.095	1916.81
181.171	1920.43
181.248	1921.9
181.324	1937.93
181.4	1949.34
181.477	1959.8
181.553	1971.64
181.63	1992.94
181.706	2007.68
181.782	2016.81
181.859	2015.15
181.935	2020.19
182.011	2012.96
182.088	2031.13
182.164	2053.87
182.24	2064.38
182.317	2073.22
182.393	2070.94
182.469	2085.63
182.546	2103.14
182.622	2108.99
182.698	2103.75
182.775	2113.6
182.851	2128.54
182.927	2122.26
183.003	2116.17
183.08	2114.79
183.156	2123.59
183.232	2119.21
183.308	2109.51
183.385	2119.35
183.461	2139.28
183.537	2140.05
183.613	2157.79
183.69	2149.89
183.766	2137.38
183.842	2144.89
183.918	2153.22
183.995	2168.15
184.071	2171.06
184.147	2161.11
184.223	2148.28
184.299	2161.12
184.375	2149.85
184.452	2158.08
184.528	2209
184.604	2218.94
184.68	2226.65
184.756	2235.02
184.832	2241.49
184.908	2245.63
184.985	2242.25
185.061	2224.51
185.137	2232.88
185.213	2219.94
185.289	2220.47
185.365	2215.52
185.441	2215.47
185.517	2228.28
185.593	2223.23
185.669	2223.23
185.745	2237.6
185.822	2254.72
185.898	2248.2
185.974	2257.38
186.05	2248.15
186.126	2211.89
186.202	2207.27
186.278	2204.47
186.354	2194.62
186.43	2198.47
186.506	2197
186.582	2198.42
186.658	2204.99
186.734	2183.91
186.81	2185.96
186.886	2189.53
186.962	2203.32
187.038	2199.61
187.114	2189.38
187.19	2195.09
187.266	2182.91
187.341	2181.91
187.417	2178.77
187.493	2177.53
187.569	2181.34
187.645	2176.11
187.721	2163.55
187.797	2168.21
187.873	2173.11
187.949	2166.97
188.025	2161.69
188.101	2164.12
188.176	2169.35
188.252	2165.35
188.328	2176
188.404	2175.43
188.48	2168.68
188.556	2160.07
188.632	2159.02
188.707	2160.88
188.783	2159.54
188.859	2153.46
188.935	2141.52
189.011	2148.13
189.086	2144.23
189.162	2135.1
189.238	2132.29
189.314	2132.48
189.39	2127.44
189.465	2119.78
189.541	2136.86
189.617	2120.64
189.693	2117.59
189.768	2119.5
189.844	2145.72
189.92	2135.21
189.996	2145.01
190.071	2157.67
190.147	2156.24
190.223	2166.18
190.298	2158.71
190.374	2144.39
190.45	2158.33
190.526	2168.41
190.601	2157.85
190.677	2158.33
190.753	2186.79
190.828	2189.74
190.904	2201.21
190.98	2216.82
191.055	2229.66
191.131	2220.77
191.207	2243.36
191.282	2253.45
191.358	2244.27
191.433	2228.37
191.509	2242.97
191.585	2238.02
191.66	2240.35
191.736	2250.48
191.811	2240.11
191.887	2257.39
191.963	2283.75
192.038	2292.65
192.114	2291.7
192.189	2298.03
192.265	2293.51
192.34	2272.42
192.416	2272.47
192.491	2269.09
192.567	2268.52
192.642	2269.04
192.718	2269.85
192.793	2256.33
192.869	2251.19
192.944	2253.43
193.02	2262.57
193.095	2266.14
193.171	2272.42
193.246	2268.23
193.322	2262.09
193.397	2264.99
193.473	2249.81
193.548	2230.67
193.624	2233.29
193.699	2233.25
193.775	2252.91
193.85	2255.38
193.925	2260.61
194.001	2256.52
194.076	2248.34
194.152	2240.3
194.227	2232.11
194.302	2220.93
194.378	2225.4
194.453	2223.12
194.529	2238.54
194.604	2222.98
194.679	2215.37
194.755	2194.3
194.83	2208.01
194.905	2206.67
194.981	2216.38
195.056	2209.29
195.131	2218.86
195.207	2217.48
195.282	2207.15
195.357	2184.64
195.433	2197.67
195.508	2188.11
195.583	2197.1
195.659	2214.28
195.734	2222.04
195.809	2222.71
195.884	2231.93
195.96	2234.07
196.035	2248.87
196.11	2242.88
196.185	2253.15
196.261	2258.67
196.336	2291.55
196.411	2279.46
196.486	2286.93
196.561	2278.27
196.637	2285.78
196.712	2297.88
196.787	2302.97
196.862	2319.81
196.937	2332.28
197.013	2341.9
197.088	2356.41
197.163	2378.32
197.238	2394.56
197.313	2397.13
197.388	2411.98
197.464	2443.41
197.539	2453.17
197.614	2445.12
197.689	2455.88
197.764	2474.98
197.839	2496.31
197.914	2491.64
197.989	2511.74
198.065	2523.69
198.14	2575.43
198.215	2601.91
198.29	2615.06
198.365	2624.87
198.44	2636.92
198.515	2664.84
198.59	2678.75
198.665	2701.47
198.74	2709.67
198.815	2708.09
198.89	2727.01
198.965	2754.55
199.04	2750.41
199.115	2767.65
199.19	2809.86
199.265	2812.62
199.34	2821.72
199.415	2853.38
199.49	2876.82
199.565	2889.17
199.64	2914.24
199.715	2913.28
199.79	2923.29
199.865	2928.63
199.94	2930.35
200.015	2958.57
200.09	2962.81
200.165	2970.82
200.24	2977.35
200.315	3017.29
200.39	3035.65
200.464	3042.37
200.539	3046.09
200.614	3064.35
200.689	3086.28
200.764	3094.15
200.839	3114.69
200.914	3119.89
200.989	3109.73
201.063	3121.65
201.138	3101.11
201.213	3098.15
201.288	3077.6
201.363	3082.32
201.438	3081.66
201.512	3095.91
201.587	3078.55
201.662	3082.22
201.737	3095.57
201.812	3106.02
201.886	3072.28
201.961	3083.21
202.036	3073.48
202.111	3070.53
202.186	3038.17
202.26	3020.67
202.335	2999.02
202.41	2990.44
202.485	2971.14
202.559	2950.83
202.634	2925.8
202.709	2940
202.784	2924.75
202.858	2924.94
202.933	2906.63
203.008	2902.2
203.082	2880.56
203.157	2884.09
203.232	2841.6
203.306	2817.9
203.381	2784.15
203.456	2762.56
203.53	2736.95
203.605	2717.28
203.68	2695.45
203.754	2692.69
203.829	2681.3
203.904	2661.24
203.978	2654.05
204.053	2663.48
204.127	2650.86
204.202	2648.38
204.277	2627.47
204.351	2622.28
204.426	2613.56
204.5	2604.56
204.575	2569.32
204.65	2581.42
204.724	2570.51
204.799	2578.36
204.873	2574.88
204.948	2575.98
205.022	2562.84
205.097	2557.07
205.171	2567.6
205.246	2573.36
205.32	2572.08
205.395	2569.93
205.469	2561.94
205.544	2564.37
205.618	2543.31
205.693	2557.51
205.767	2546.56
205.842	2568.32
205.916	2560.18
205.991	2550.89
206.065	2554.99
206.14	2573.65
206.214	2569.83
206.289	2561.83
206.363	2576.5
206.438	2580.31
206.512	2588.55
206.586	2615.13
206.661	2622.37
206.735	2605.57
206.81	2609.71
206.884	2624.86
206.958	2613.9
207.033	2633.38
207.107	2646.82
207.181	2685.46
207.256	2681.65
207.33	2706.8
207.405	2727.84
207.479	2750.99
207.553	2766.61
207.628	2759.18
207.702	2775.86
207.776	2777.67
207.851	2795.78
207.925	2824.43
207.999	2836.54
208.073	2847.84
208.148	2861.38
208.222	2869.34
208.296	2920.95
208.371	2957.59
208.445	2992.97
208.519	3047.46
208.593	3086.28
208.668	3109.52
208.742	3140.26
208.816	3175.64
208.89	3223.8
208.965	3256.37
209.039	3306.68
209.113	3370.3
209.187	3441.76
209.261	3489.44
209.336	3565.01
209.41	3636.94
209.484	3695.15
209.558	3779.53
209.632	3857.77
209.707	3940.98
209.781	4033.65
209.855	4128.63
209.929	4227.61
210.003	4317
210.077	4405.65
210.151	4545.12
210.226	4674.15
210.3	4799.26
210.374	4927.97
210.448	5037.17
210.522	5157.76
210.596	5284.69
210.67	5407
210.744	5576.15
210.818	5733.13
210.892	5882.3
210.966	6012.31
211.041	6164.22
211.115	6299.35
211.189	6468.31
211.263	6627.6
211.337	6785.86
211.411	6947.66
211.485	7093.75
211.559	7262.91
211.633	7425.78
211.707	7557.72
211.781	7730.09
211.855	7869.03
211.929	8032.22
212.003	8187.54
212.077	8375.81
212.151	8561.45
212.225	8747.68
212.299	8905.68
212.373	9075.2
212.447	9256
212.52	9470.2
212.594	9659.41
212.668	9852.99
212.742	10025.03
212.816	10204.36
212.89	10390.06
212.964	10578.15
213.038	10779.32
213.112	10983.81
213.186	11193.94
213.26	11371.6
213.333	11517.53
213.407	11714.24
213.481	11908.17
213.555	12114.82
213.629	12297.35
213.703	12479.41
213.777	12678.14
213.85	12859.67
213.924	13094.56
213.998	13291.38
214.072	13478.41
214.146	13652.19
214.219	13841.1
214.293	14023.99
214.367	14214.49
214.441	14411.21
214.515	14587.83
214.588	14736.3
214.662	14884.04
214.736	15036.17
214.81	15215
214.883	15405.89
214.957	15566.88
215.031	15729.42
215.105	15870.94
215.178	16021.56
215.252	16173.24
215.326	16303.38
215.4	16448.84
215.473	16552.6
215.547	16681.62
215.621	16823.46
215.694	16971.13
215.768	17093.3
215.842	17228.83
215.915	17355.58
215.989	17456.2
216.063	17581.89
216.136	17720.92
216.21	17857.16
216.284	18006.8
216.357	18141.16
216.431	18259.13
216.504	18390.64
216.578	18538.16
216.652	18678.49
216.725	18799.69
216.799	18926.19
216.873	19047.24
216.946	19164.73
217.02	19277.06
217.093	19386.5
217.167	19465.15
217.24	19553.14
217.314	19658.83
217.387	19745.95
217.461	19845.37
217.535	19971.15
217.608	20059.73
217.682	20151.53
217.755	20251.53
217.829	20320.93
217.902	20405.07
217.976	20483.72
218.049	20558.13
218.123	20628.06
218.196	20713.27
218.27	20784.46
218.343	20849.33
218.417	20929.24
218.49	20997.58
218.563	21080.09
218.637	21158.6
218.71	21248.64
218.784	21338.77
218.857	21415.55
218.931	21492.95
219.004	21569.74
219.077	21632.64
219.151	21698.63
219.224	21761.67
219.298	21815.47
219.371	21900.02
219.444	21945.04
219.518	22017.05
219.591	22086.47
219.665	22161.91
219.738	22213.06
219.811	22263.96
219.885	22327.21
219.958	22387.38
220.031	22440.45
220.105	22491.22
220.178	22534.89
220.251	22571.34
220.325	22617.29
220.398	22667.09
220.471	22719.11
220.544	22755.41
220.618	22784.29
220.691	22824.36
220.764	22860.13
220.838	22891.85
220.911	22911.72
220.984	22969.19
221.057	23003.33
221.131	23023.29
221.204	23018.51
221.277	23069.38
221.35	23119
221.424	23138.19
221.497	23158.15
221.57	23177.54
221.643	23194.56
221.716	23227.59
221.79	23250.69
221.863	23267.76
221.936	23277.69
222.009	23291.77
222.082	23311.83
222.155	23321.47
222.229	23358.75
222.302	23385.51
222.375	23403.64
222.448	23419.7
222.521	23422.31
222.594	23427.8
222.667	23436
222.74	23458.66
222.814	23456.16
222.887	23453.79
222.96	23465.7
223.033	23474.34
223.106	23489.19
223.179	23506.89
223.252	23504.91
223.325	23510.31
223.398	23507.08
223.471	23503.9
223.544	23503.8
223.617	23504.23
223.69	23513.2
223.763	23483.45
223.837	23484.65
223.91	23492.85
223.983	23470.67
224.056	23454.9
224.129	23458.62
224.202	23461.65
224.275	23446.08
224.348	23429.68
224.42	23412.13
224.493	23384.35
224.566	23368.49
224.639	23355.52
224.712	23331.45
224.785	23307.05
224.858	23287.43
224.931	23267.27
225.004	23250.4
225.077	23232.31
225.15	23192.87
225.223	23167.94
225.296	23184.82
225.369	23142.24
225.442	23109.6
225.514	23100.92
225.587	23091.85
225.66	23079.36
225.733	23059.64
225.806	23053.47
225.879	23028.11
225.952	23001.06
226.025	23000.43
226.097	23004.1
226.17	22985.29
226.243	22946.39
226.316	22929.56
226.389	22907.43
226.461	22891.66
226.534	22882.84
226.607	22868.13
226.68	22871.51
226.753	22857.48
226.825	22807.43
226.898	22797.21
226.971	22772.47
227.044	22744.46
227.117	22728.65
227.189	22695.91
227.262	22686.08
227.335	22657.73
227.407	22626.15
227.48	22602.38
227.553	22588.16
227.626	22550.75
227.698	22521.48
227.771	22498.87
227.844	22458.76
227.916	22442.57
227.989	22402.99
228.062	22374.93
228.134	22364.71
228.207	22338.96
228.28	22305.85
228.352	22278.66
228.425	22255.66
228.498	22248.86
228.57	22217.58
228.643	22196.8
228.716	22171.93
228.788	22127.82
228.861	22097.06
228.934	22092.63
229.006	22079.76
229.079	22039.07
229.151	21998.77
229.224	21964.35
229.296	21958.86
229.369	21970.04
229.442	21949.12
229.514	21925.41
229.587	21903.62
229.659	21852.38
229.732	21827.07
229.804	21814.92
229.877	21814.83
229.949	21798.49
230.022	21777.66
230.094	21756.99
230.167	21730.96
230.239	21701.46
230.312	21682.37
230.384	21680.06
230.457	21656.29
230.529	21622.21
230.602	21605.15
230.674	21589.63
230.747	21577.49
230.819	21555.46
230.892	21495.93
230.964	21467.01
231.037	21445.61
231.109	21420.11
231.181	21407.53
231.254	21369.84
231.326	21333.98
231.399	21293.16
231.471	21260.58
231.544	21215.61
231.616	21198.16
231.688	21181.24
231.761	21149.87
231.833	21117.43
231.905	21055.5
231.978	21020.02
232.05	20996.22
232.122	20967.06
232.195	20932.55
232.267	20909.12
232.339	20868.59
232.412	20865.56
232.484	20838.13
232.556	20805.31
232.629	20795.43
232.701	20770.52
232.773	20748.06
232.846	20721.02
232.918	20692.2
232.99	20662.8
233.062	20646.61
233.135	20621.26
233.207	20560.92
233.279	20530.32
233.351	20508.34
233.424	20488.58
233.496	20454.08
233.568	20442.94
233.64	20394.7
233.713	20362.75
233.785	20335.62
233.857	20309.16
233.929	20250.71
234.001	20230.75
234.074	20221.98
234.146	20161.55
234.218	20131
234.29	20093.45
234.362	20056.68
234.434	20016.64
234.507	19969.99
234.579	19918.38
234.651	19874.81
234.723	19860.5
234.795	19834.23
234.867	19798.14
234.939	19781.08
235.012	19746.24
235.084	19714.53
235.156	19700.7
235.228	19661.95
235.3	19621.52
235.372	19597.19
235.444	19571.6
235.516	19520.66
235.588	19478.88
235.66	19455.94
235.732	19418.98
235.804	19443.31
235.876	19408.33
235.948	19385.05
236.02	19353.25
236.092	19320.82
236.164	19288.53
236.236	19244.48
236.308	19208.58
236.38	19171.38
236.452	19115.91
236.524	19083.96
236.596	19058.04
236.668	19016.79
236.74	18987.34
236.812	18952.21
236.884	18919.35
236.956	18888.26
237.028	18836.65
237.1	18789.52
237.172	18773.24
237.244	18747.12
237.316	18669
237.388	18632.33
237.46	18584.04
237.532	18563.51
237.604	18519.42
237.675	18505.01
237.747	18481.59
237.819	18437.59
237.891	18411.33
237.963	18380.34
238.035	18344.49
238.107	18269.84
238.178	18254.03
238.25	18215.34
238.322	18204.93
238.394	18142.52
238.466	18103.87
238.538	18090.18
238.609	18068.16
238.681	18010.96
238.753	17968.45
238.825	17940.46
238.897	17911.4
238.968	17899.2
239.04	17857.76
239.112	17853.52
239.184	17794.29
239.255	17752.12
239.327	17723.59
239.399	17690.49
239.471	17660.46
239.542	17628.9
239.614	17613.76
239.686	17545.28
239.758	17519.26
239.829	17470.01
239.901	17463.5
239.973	17435.26
240.044	17408.47
240.116	17372.66
240.188	17336.18
240.259	17300.56
240.331	17254.54
240.403	17225.86
240.474	17178.1
240.546	17135.88
240.618	17083.45
240.689	17057.18
240.761	17023.64
240.833	17016.27
240.904	16971.3
240.976	16929.66
241.048	16899.01
241.119	16875.59
241.191	16852.55
241.262	16842.28
241.334	16805.99
241.405	16764.25
241.477	16725.31
241.549	16676.59
241.62	16647.38
241.692	16624.44
241.763	16599.47
241.835	16562.51
241.906	16534.26
241.978	16483.08
242.049	16462.21
242.121	16436.71
242.192	16421.68
242.264	16379.12
242.335	16312.32
242.407	16285.95
242.478	16255.59
242.55	16225.75
242.621	16174.52
242.693	16138.27
242.764	16093.45
242.836	16061.83
242.907	16039.23
242.979	16018.41
243.05	15994.02
243.122	15965.39
243.193	15927.6
243.264	15874.39
243.336	15840.6
243.407	15804.69
243.479	15798.38
243.55	15769.84
243.622	15741.45
243.693	15701.11
243.764	15682.55
243.836	15642.93
243.907	15612.27
243.978	15583.06
244.05	15552.5
244.121	15519.2
244.192	15499.39
244.264	15445.35
244.335	15412.48
244.407	15353.43
244.478	15316.03
244.549	15278.91
244.62	15227.38
244.692	15194.08
244.763	15172.29
244.834	15138.98
244.906	15107.79
244.977	15082.49
245.048	15067.3
245.119	15019.63
245.191	14970.99
245.262	14925.35
245.333	14920.14
245.405	14895.07
245.476	14867.79
245.547	14844.46
245.618	14816.65
245.689	14788.93
245.761	14766.56
245.832	14738.51
245.903	14730.6
245.974	14706.79
246.045	14677.48
246.117	14671.21
246.188	14629.37
246.259	14593.46
246.33	14564.63
246.401	14529.68
246.473	14477.91
246.544	14437.28
246.615	14430.82
246.686	14406.18
246.757	14393.99
246.828	14352.92
246.899	14336.29
246.97	14291.5
247.042	14254.34
247.113	14245.08
247.184	14234.23
247.255	14202.76
247.326	14175.47
247.397	14138.55
247.468	14114.11
247.539	14095.35
247.61	14056.5
247.681	14034.23
247.752	14028.25
247.823	13996.53
247.894	13976.57
247.965	13945.72
248.037	13909.13
248.108	13868.83
248.179	13840.1
248.25	13809.78
248.321	13792.14
248.392	13751.02
248.463	13743.93
248.534	13720.21
248.605	13687.09
248.675	13654.17
248.746	13637.1
248.817	13615.03
248.888	13592.32
248.959	13547.39
249.03	13520.35
249.101	13489.54
249.172	13469.25
249.243	13416.66
249.314	13403.93
249.385	13382.33
249.456	13356.49
249.527	13332.92
249.598	13313.83
249.669	13289.97
249.739	13271.36
249.81	13248.99
249.881	13214.14
249.952	13203.34
250.023	13181.02
250.094	13143.08
250.165	13108.18
250.235	13083.26
250.306	13057.37
250.377	13025.85
250.448	13009.55
250.519	12970.17
250.59	12964.82
250.66	12936.47
250.731	12927.65
250.802	12905.52
250.873	12883.59
250.944	12871.88
251.014	12847.82
251.085	12844.49
251.156	12831.77
251.227	12820.25
251.297	12815.47
251.368	12799.76
251.439	12775.9
251.51	12762.83
251.58	12736.37
251.651	12713.18
251.722	12700.7
251.792	12664.93
251.863	12637.12
251.934	12637.12
252.005	12642.61
252.075	12617.98
252.146	12612.72
252.217	12605.73
252.287	12585.78
252.358	12559.89
252.429	12560.52
252.499	12532.18
252.57	12515.98
252.641	12500.5
252.711	12479.05
252.782	12433.6
252.852	12436.63
252.923	12409.11
252.994	12383.8
253.064	12383.37
253.135	12352.04
253.205	12330.2
253.276	12331.84
253.347	12342.73
253.417	12307.74
253.488	12280.07
253.558	12254.81
253.629	12233.21
253.699	12211.33
253.77	12206.51
253.841	12185.88
253.911	12156.52
253.982	12143.9
254.052	12132.28
254.123	12118.93
254.193	12093.96
254.264	12123.17
254.334	12091.93
254.405	12070.68
254.475	12046.72
254.546	12016.35
254.616	12017.12
254.687	12003.24
254.757	11989.12
254.827	11962.32
254.898	11944.63
254.968	11924.82
255.039	11899.61
255.109	11887.42
255.18	11864.38
255.25	11815.5
255.321	11801.91
255.391	11776.08
255.461	11781.86
255.532	11734.29
255.602	11706.81
255.673	11670.18
255.743	11633.79
255.813	11592.82
255.884	11584.58
255.954	11568.87
256.024	11575.86
256.095	11550.46
256.165	11515.76
256.235	11491.03
256.306	11468.91
256.376	11464.18
256.446	11461.68
256.517	11454.4
256.587	11444.38
256.657	11426.16
256.728	11420.95
256.798	11402.64
256.868	11383.27
256.938	11352.85
257.009	11344.23
257.079	11340.66
257.149	11349.53
257.219	11309.81
257.29	11300.08
257.36	11259.41
257.43	11258.01
257.5	11211.89
257.571	11195.65
257.641	11188.56
257.711	11164.47
257.781	11148.37
257.852	11131.26
257.922	11095.02
257.992	11079.26
258.062	11065.04
258.132	11060.66
258.202	11042.64
258.273	11027.94
258.343	11028.56
258.413	10999.6
258.483	10979.22
258.553	10944.09
258.623	10922.5
258.693	10910.26
258.764	10903.8
258.834	10906.79
258.904	10886.21
258.974	10866.65
259.044	10848.39
259.114	10835.9
259.184	10824.92
259.254	10808.25
259.324	10777.16
259.394	10762.52
259.464	10759.96
259.535	10727.58
259.605	10699.63
259.675	10667.59
259.745	10658.68
259.815	10621.33
259.885	10602.64
259.955	10616.37
260.025	10591.9
260.095	10575.32
260.165	10568.05
260.235	10573.88
260.305	10552.68
260.375	10525.12
260.445	10535.91
260.515	10538.03
260.585	10529.98
260.655	10516.01
260.725	10513.89
260.795	10505.41
260.865	10512.49
260.934	10486.23
261.004	10484.4
261.074	10472.84
261.144	10481.08
261.214	10475.58
261.284	10472.89
261.354	10469.47
261.424	10436.46
261.494	10443.15
261.564	10425.62
261.634	10415.4
261.703	10379.89
261.773	10372.72
261.843	10369.01
261.913	10348.19
261.983	10319.48
