Data from 20250704_urea_0.5M_MAYP1162681_11-04-58-768.txt Node
Date: Fri Jul 04 11:04:58 BST 2025
User: adleo
Spectrometer: MAYP116268
Trigger mode: 0
Integration Time (sec): 1.000000E0
Scans to average: 1
Electric dark correction enabled: true
Nonlinearity correction enabled: true
Boxcar width: 10
XAxis mode: Wavelengths
Number of Pixels in Spectrum: 2068
>>>>>Begin Spectral Data<<<<<
179.565	1236.34
179.642	1289.31
179.718	1333.83
179.795	1375.13
179.871	1409.12
179.948	1426.64
180.024	1449.31
180.101	1471.14
180.177	1486.4
180.254	1510.38
180.33	1532.88
180.407	1588.14
180.483	1687.11
180.56	1779.57
180.636	1867.07
180.712	1853.66
180.789	1862.93
180.865	1874.81
180.942	1882.03
181.018	1891.82
181.095	1905
181.171	1908.85
181.248	1914.03
181.324	1930.77
181.4	1937.05
181.477	1947.75
181.553	1961.01
181.63	1979.93
181.706	1998.34
181.782	2005.47
181.859	2006.04
181.935	2010.89
182.011	2007.56
182.088	2021.64
182.164	2038.77
182.24	2053.22
182.317	2066.91
182.393	2066.82
182.469	2082.47
182.546	2097.11
182.622	2102.06
182.698	2097.35
182.775	2106.86
182.851	2121.9
182.927	2113.62
183.003	2110.19
183.08	2105.44
183.156	2115.76
183.232	2112.38
183.308	2099.97
183.385	2108.19
183.461	2123.84
183.537	2123.94
183.613	2136.16
183.69	2127.51
183.766	2120.84
183.842	2128.08
183.918	2132.22
183.995	2143.87
184.071	2148.2
184.147	2141.92
184.223	2129.94
184.299	2144.83
184.375	2135.32
184.452	2140.98
184.528	2191.32
184.604	2200.69
184.68	2211.92
184.756	2219.63
184.832	2225.34
184.908	2230.95
184.985	2230.43
185.061	2215.77
185.137	2229
185.213	2217.78
185.289	2219.68
185.365	2211.97
185.441	2209.4
185.517	2220.73
185.593	2220.25
185.669	2216.35
185.745	2228.1
185.822	2244.56
185.898	2232
185.974	2243.51
186.05	2236.22
186.126	2202.06
186.202	2195.02
186.278	2191.31
186.354	2181.6
186.43	2188.69
186.506	2185.98
186.582	2187.08
186.658	2193.5
186.734	2171.71
186.81	2174.61
186.886	2177.99
186.962	2189.45
187.038	2186.36
187.114	2180.17
187.19	2186.79
187.266	2178.56
187.341	2182.32
187.417	2177.13
187.493	2178.28
187.569	2178.47
187.645	2171.76
187.721	2162.62
187.797	2170.33
187.873	2175.94
187.949	2171.37
188.025	2165.71
188.101	2170.56
188.176	2172.99
188.252	2168.85
188.328	2177.55
188.404	2181.02
188.48	2176.03
188.556	2169.61
188.632	2169.42
188.707	2172.18
188.783	2169.37
188.859	2161
188.935	2147.68
189.011	2154.67
189.086	2150.06
189.162	2143.3
189.238	2142.16
189.314	2134.17
189.39	2129.79
189.465	2119.42
189.541	2135.17
189.617	2117.76
189.693	2113.38
189.768	2119.09
189.844	2143.65
189.92	2133.9
189.996	2142.71
190.071	2152.08
190.147	2147.75
190.223	2153.6
190.298	2143.18
190.374	2129
190.45	2142.41
190.526	2150.98
190.601	2142.99
190.677	2146.46
190.753	2174.64
190.828	2176.06
190.904	2195.81
190.98	2211.18
191.055	2223.93
191.131	2215.89
191.207	2238.06
191.282	2246.15
191.358	2235.77
191.433	2218.78
191.509	2234.57
191.585	2226.39
191.66	2227.62
191.736	2240.8
191.811	2234.05
191.887	2250.47
191.963	2276.54
192.038	2282.11
192.114	2283.68
192.189	2290.39
192.265	2284.82
192.34	2263.16
192.416	2262.4
192.491	2257.69
192.567	2259.64
192.642	2263.02
192.718	2262.83
192.793	2250.03
192.869	2245.37
192.944	2250.74
193.02	2257.93
193.095	2259.64
193.171	2267.3
193.246	2269.97
193.322	2264.02
193.397	2264.44
193.473	2249.59
193.548	2230.98
193.624	2237.89
193.699	2237.74
193.775	2255.31
193.85	2256.78
193.925	2264.68
194.001	2264.26
194.076	2255.55
194.152	2246.12
194.227	2238.22
194.302	2227.9
194.378	2233.42
194.453	2230.37
194.529	2240.13
194.604	2225.9
194.679	2219.24
194.755	2202.17
194.83	2212.64
194.905	2211.83
194.981	2223.01
195.056	2214.98
195.131	2220.35
195.207	2218.07
195.282	2207.03
195.357	2186.89
195.433	2205.17
195.508	2192.13
195.583	2196.74
195.659	2211.07
195.734	2217.97
195.809	2216.02
195.884	2225.63
195.96	2227.48
196.035	2245.99
196.11	2242.28
196.185	2256.89
196.261	2263.4
196.336	2296.29
196.411	2281.96
196.486	2289.1
196.561	2282.24
196.637	2294.38
196.712	2309.23
196.787	2313.66
196.862	2325.74
196.937	2334.69
197.013	2337.78
197.088	2352.25
197.163	2378.87
197.238	2395.92
197.313	2394.2
197.388	2407.44
197.464	2441.3
197.539	2449.63
197.614	2442.63
197.689	2458.44
197.764	2475.06
197.839	2493.29
197.914	2485.43
197.989	2509.34
198.065	2520.43
198.14	2569.75
198.215	2594.03
198.29	2606.47
198.365	2618.04
198.44	2630.47
198.515	2661.62
198.59	2675.77
198.665	2700.4
198.74	2706.6
198.815	2706.02
198.89	2731.13
198.965	2762.24
199.04	2752.43
199.115	2768.43
199.19	2813.17
199.265	2815.99
199.34	2826.57
199.415	2862.04
199.49	2884.91
199.565	2895.35
199.64	2919.22
199.715	2916.55
199.79	2929.99
199.865	2937.43
199.94	2938.48
200.015	2969.46
200.09	2970.46
200.165	2980.57
200.24	2988.72
200.315	3029.43
200.39	3046.97
200.464	3049.83
200.539	3057.18
200.614	3075.39
200.689	3099.94
200.764	3104.48
200.839	3121.35
200.914	3126.45
200.989	3114.76
201.063	3130.79
201.138	3115.49
201.213	3117.97
201.288	3101.85
201.363	3105
201.438	3107.62
201.512	3123.54
201.587	3106.61
201.662	3112.57
201.737	3121.06
201.812	3129.84
201.886	3095.86
201.961	3107.12
202.036	3098.92
202.111	3092.29
202.186	3062.13
202.26	3044.48
202.335	3022.02
202.41	3013.3
202.485	2995.09
202.559	2975.07
202.634	2947.03
202.709	2953.42
202.784	2934.45
202.858	2930.2
202.933	2909.18
203.008	2897.88
203.082	2875.44
203.157	2877.15
203.232	2835.99
203.306	2814.97
203.381	2780.31
203.456	2758.29
203.53	2735.3
203.605	2716.35
203.68	2691.18
203.754	2688.8
203.829	2673.22
203.904	2653.69
203.978	2642.59
204.053	2647.11
204.127	2636.11
204.202	2631.82
204.277	2614.39
204.351	2605.77
204.426	2597.57
204.5	2586.43
204.575	2552.86
204.65	2564.3
204.724	2552.91
204.799	2558.95
204.873	2553.9
204.948	2554.28
205.022	2543.33
205.097	2531.9
205.171	2545.8
205.246	2551.76
205.32	2550.38
205.395	2551.23
205.469	2539.86
205.544	2544.43
205.618	2527.43
205.693	2537
205.767	2527.33
205.842	2547.48
205.916	2544.53
205.991	2537.01
206.065	2545.58
206.14	2565.95
206.214	2562.76
206.289	2559.14
206.363	2573.61
206.438	2580.66
206.512	2588.48
206.586	2611.34
206.661	2621.49
206.735	2599.35
206.81	2603.64
206.884	2623.02
206.958	2612.83
207.033	2635.11
207.107	2650.65
207.181	2686.58
207.256	2684.58
207.33	2711.73
207.405	2733.34
207.479	2759.07
207.553	2773.97
207.628	2766.4
207.702	2785.46
207.776	2789.65
207.851	2805.19
207.925	2835.13
207.999	2844.67
208.073	2855.3
208.148	2872.89
208.222	2877.56
208.296	2930.31
208.371	2971.2
208.445	3001.58
208.519	3054.21
208.593	3092.12
208.668	3112.11
208.742	3146.15
208.816	3187.01
208.89	3234.32
208.965	3270.13
209.039	3317.16
209.113	3380.02
209.187	3447.08
209.261	3489.75
209.336	3561.37
209.41	3634.87
209.484	3687.14
209.558	3769.65
209.632	3844.93
209.707	3920.53
209.781	4018.74
209.855	4110.18
209.929	4204.08
210.003	4292.99
210.077	4378.94
210.151	4519.04
210.226	4652.18
210.3	4780.86
210.374	4901.58
210.448	5011.84
210.522	5133.41
210.596	5257.32
210.67	5383.4
210.744	5553.84
210.818	5711.47
210.892	5861.12
210.966	5990.04
211.041	6142.54
211.115	6275.88
211.189	6445.96
211.263	6614.23
211.337	6766.83
211.411	6933.08
211.485	7079.01
211.559	7251.2
211.633	7415.59
211.707	7552.31
211.781	7728.53
211.855	7862.14
211.929	8028.94
212.003	8185.81
212.077	8367
212.151	8556.3
212.225	8744.8
212.299	8916.67
212.373	9092.89
212.447	9273.97
212.52	9490.2
212.594	9687.15
212.668	9888
212.742	10074.02
212.816	10254.84
212.89	10435.14
212.964	10625.4
213.038	10825.98
213.112	11042.29
213.186	11255.35
213.26	11425.07
213.333	11566.56
213.407	11762.55
213.481	11956.24
213.555	12160.58
213.629	12346.44
213.703	12529.17
213.777	12731.57
213.85	12908.86
213.924	13129.05
213.998	13328.32
214.072	13508.61
214.146	13685.42
214.219	13872.94
214.293	14046.28
214.367	14232.98
214.441	14438.76
214.515	14612.49
214.588	14768.47
214.662	14900.12
214.736	15055.38
214.81	15242.17
214.883	15430.83
214.957	15594.81
215.031	15755.08
215.105	15898.39
215.178	16049.49
215.252	16200.69
215.326	16324.8
215.4	16460.77
215.473	16571.09
215.547	16697.36
215.621	16835.97
215.694	16980.5
215.768	17109.67
215.842	17251.16
215.915	17382.06
215.989	17495.94
216.063	17619.16
216.136	17758.06
216.21	17893.67
216.284	18044.08
216.357	18173.52
216.431	18299.87
216.504	18429.99
216.578	18583.09
216.652	18716.39
216.725	18838.55
216.799	18974.88
216.873	19094.16
216.946	19220.41
217.02	19327.35
217.093	19436.21
217.167	19523.87
217.24	19623.38
217.314	19725.64
217.387	19815.57
217.461	19910.07
217.535	20015.42
217.608	20103.75
217.682	20191.75
217.755	20293.87
217.829	20366.88
217.902	20457.92
217.976	20536.13
218.049	20614.74
218.123	20673.49
218.196	20760.86
218.27	20832.14
218.343	20881.26
218.417	20957.45
218.49	21028.88
218.563	21124.98
218.637	21205.72
218.71	21290.83
218.784	21365.3
218.857	21442.95
218.931	21514.81
219.004	21589.14
219.077	21656.52
219.151	21725.59
219.224	21785.89
219.298	21841.81
219.371	21910.88
219.444	21948.14
219.518	22011.1
219.591	22072.41
219.665	22153.69
219.738	22202.52
219.811	22234.05
219.885	22301.92
219.958	22360.21
220.031	22396.89
220.105	22435.84
220.178	22477.02
220.251	22526.29
220.325	22574.89
220.398	22620.11
220.471	22668.61
220.544	22704.14
220.618	22741.12
220.691	22782.68
220.764	22824.33
220.838	22865.08
220.911	22890.29
220.984	22941.74
221.057	22982.33
221.131	23009.72
221.204	23014.49
221.277	23059.62
221.35	23128.23
221.424	23142.51
221.497	23162.71
221.57	23197.23
221.643	23238.85
221.716	23275.54
221.79	23288.37
221.863	23305.25
221.936	23316.58
222.009	23326.8
222.082	23349.18
222.155	23351.2
222.229	23371.89
222.302	23389.25
222.375	23400.63
222.448	23414.37
222.521	23428.93
222.594	23427.78
222.667	23424.74
222.74	23436.55
222.814	23440.31
222.887	23438.05
222.96	23455.99
223.033	23477.64
223.106	23483.19
223.179	23484.68
223.252	23483.91
223.325	23482.37
223.398	23480.68
223.471	23489.84
223.544	23495.67
223.617	23505.8
223.69	23514.14
223.763	23507.92
223.837	23505.03
223.91	23508.45
223.983	23484.1
224.056	23459.27
224.129	23457.44
224.202	23468.38
224.275	23460.81
224.348	23436.65
224.42	23418.47
224.493	23395.57
224.566	23377.19
224.639	23367.45
224.712	23346.48
224.785	23317.25
224.858	23303.66
224.931	23286.05
225.004	23258.04
225.077	23240.73
225.15	23189.76
225.223	23167.97
225.296	23165.94
225.369	23131.18
225.442	23105.57
225.514	23099.64
225.587	23092.55
225.66	23075.29
225.733	23059.67
225.806	23039.95
225.879	23027.36
225.952	23000.46
226.025	22997.23
226.097	22988.07
226.17	22977.07
226.243	22942.98
226.316	22925.53
226.389	22905.23
226.461	22892.4
226.534	22872.3
226.607	22848.48
226.68	22855.91
226.753	22838.79
226.825	22801.13
226.898	22800.75
226.971	22778.38
227.044	22761.89
227.117	22738.84
227.189	22729.49
227.262	22708.66
227.335	22685.28
227.407	22650.71
227.48	22637.12
227.553	22612.63
227.626	22586.11
227.698	22557.08
227.771	22537.03
227.844	22506.51
227.916	22483.85
227.989	22442.3
228.062	22418.53
228.134	22422.24
228.207	22385.56
228.28	22353.26
228.352	22315.95
228.425	22292.42
228.498	22277.09
228.57	22246.05
228.643	22227.82
228.716	22187.67
228.788	22157.78
228.861	22134.69
228.934	22141.29
229.006	22118.15
229.079	22082.82
229.151	22044.93
229.224	21998.89
229.296	21980.77
229.369	21988.29
229.442	21985.06
229.514	21949.44
229.587	21942.06
229.659	21883.69
229.732	21873.47
229.804	21858.28
229.877	21873.37
229.949	21852.45
230.022	21842.71
230.094	21818.08
230.167	21797.07
230.239	21768.39
230.312	21739.03
230.384	21734.31
230.457	21698.59
230.529	21669.38
230.602	21650.39
230.674	21627.69
230.747	21619.4
230.819	21596.99
230.892	21538.47
230.964	21503.81
231.037	21488.78
231.109	21448.87
231.181	21440.82
231.254	21393.25
231.326	21365.97
231.399	21319.98
231.471	21289.42
231.544	21241.61
231.616	21218.52
231.688	21193.6
231.761	21155.43
231.833	21117.36
231.905	21064.39
231.978	21032.24
232.05	21004.34
232.122	20971.42
232.195	20942.07
232.267	20916.33
232.339	20886.83
232.412	20862.26
232.484	20830.16
232.556	20789.92
232.629	20776.37
232.701	20751.46
232.773	20735.07
232.846	20694.15
232.918	20667.45
232.99	20644.75
233.062	20626.44
233.135	20604.27
233.207	20557.43
233.279	20545.28
233.351	20532.56
233.424	20501.47
233.496	20469.23
233.568	20453.67
233.64	20412.37
233.713	20365.72
233.785	20333.09
233.857	20304.85
233.929	20265.81
234.001	20247.21
234.074	20243.31
234.146	20199.65
234.218	20162.59
234.29	20117.91
234.362	20081.77
234.434	20029.1
234.507	19968.23
234.579	19910.93
234.651	19868.96
234.723	19849.58
234.795	19814.21
234.867	19775.76
234.939	19755.85
235.012	19717.83
235.084	19692.87
235.156	19670.8
235.228	19646.27
235.3	19611.57
235.372	19570.99
235.444	19551.04
235.516	19495.77
235.588	19456.45
235.66	19417.94
235.732	19373.9
235.804	19394.18
235.876	19375.82
235.948	19367.58
236.02	19341.51
236.092	19310.43
236.164	19270.34
236.236	19232.94
236.308	19195.98
236.38	19161.62
236.452	19108.03
236.524	19079.41
236.596	19045.19
236.668	19018.93
236.74	18980.76
236.812	18955.42
236.884	18928.33
236.956	18887.76
237.028	18853.4
237.1	18813.06
237.172	18800.78
237.244	18784.2
237.316	18711.96
237.388	18669.46
237.46	18622.09
237.532	18593.03
237.604	18541.71
237.675	18533.32
237.747	18508.84
237.819	18465.08
237.891	18429.57
237.963	18400.75
238.035	18364.22
238.107	18304.03
238.178	18269.86
238.25	18243.74
238.322	18228.23
238.394	18179.8
238.466	18148.28
238.538	18113.73
238.609	18082.6
238.681	18032.72
238.753	17982.89
238.825	17953.59
238.897	17925.35
238.968	17913.4
239.04	17883.47
239.112	17886.65
239.184	17838.89
239.255	17800.34
239.327	17776.1
239.399	17746.7
239.471	17718.08
239.542	17682.27
239.614	17662.85
239.686	17614.85
239.758	17587.91
239.829	17531.67
239.901	17505.94
239.973	17471.38
240.044	17446.71
240.116	17414.32
240.188	17370.03
240.259	17344.05
240.331	17300.87
240.403	17271.43
240.474	17207.96
240.546	17158.94
240.618	17105.16
240.689	17055.37
240.761	17019.9
240.833	16999.18
240.904	16962.99
240.976	16923.85
241.048	16896.77
241.119	16871.95
241.191	16842.79
241.262	16823.66
241.334	16785.24
241.405	16747.36
241.477	16701.34
241.549	16655.79
241.62	16620.85
241.692	16598.24
241.763	16576.41
241.835	16542.63
241.906	16508.79
241.978	16469.56
242.049	16457.22
242.121	16438.81
242.192	16431.97
242.264	16382.13
242.335	16336.05
242.407	16304.68
242.478	16272.29
242.55	16241.2
242.621	16196.91
242.693	16163.84
242.764	16122.25
242.836	16085.18
242.907	16060.89
242.979	16041.03
243.05	16025.71
243.122	16000.5
243.193	15964.59
243.264	15906.61
243.336	15869.25
243.407	15841.39
243.479	15832.96
243.55	15801.58
243.622	15772.42
243.693	15733.38
243.764	15726.68
243.836	15684.12
243.907	15647.53
243.978	15607.62
244.05	15582.99
244.121	15532.77
244.192	15510.21
244.264	15463.26
244.335	15440.51
244.407	15393.7
244.478	15365.22
244.549	15319.57
244.62	15274.21
244.692	15244.52
244.763	15221.82
244.834	15190.39
244.906	15154.62
244.977	15128.26
245.048	15110.76
245.119	15066.61
245.191	15028.86
245.262	14971.55
245.333	14952.07
245.405	14925.51
245.476	14910.72
245.547	14875.96
245.618	14860.92
245.689	14829.01
245.761	14803.41
245.832	14770.68
245.903	14756.85
245.974	14727.69
246.045	14697.51
246.117	14685.41
246.188	14643.91
246.259	14603.8
246.33	14569.19
246.401	14531.35
246.473	14485.31
246.544	14449.59
246.615	14430.46
246.686	14403.46
246.757	14385.58
246.828	14355.69
246.899	14342.48
246.97	14297.6
247.042	14270.51
247.113	14248.09
247.184	14242.36
247.255	14206.11
247.326	14184.7
247.397	14153.42
247.468	14131.15
247.539	14107.33
247.61	14066.84
247.681	14059.37
247.752	14048.71
247.823	14016.17
247.894	13997.71
247.965	13958.18
248.037	13920.34
248.108	13880.52
248.179	13850.78
248.25	13829.47
248.321	13803.3
248.392	13761.55
248.463	13761.89
248.534	13726.84
248.605	13708.96
248.675	13676.61
248.746	13657.09
248.817	13629.27
248.888	13601.46
248.959	13556.67
249.03	13539.85
249.101	13514.68
249.172	13473.08
249.243	13423.62
249.314	13425.21
249.385	13398.6
249.456	13386.07
249.527	13361.24
249.598	13346.92
249.669	13318.72
249.739	13293.27
249.81	13276.64
249.881	13238.03
249.952	13206.79
250.023	13184.66
250.094	13144.7
250.165	13105.22
250.235	13084.49
250.306	13069.45
250.377	13035.7
250.448	13017.14
250.519	12972.84
250.59	12965.76
250.66	12940.64
250.731	12938.18
250.802	12902.56
250.873	12882.75
250.944	12862.36
251.014	12832.56
251.085	12831.89
251.156	12816.08
251.227	12810.58
251.297	12803.35
251.368	12797.62
251.439	12784.7
251.51	12769.46
251.58	12731.48
251.651	12702.6
251.722	12695.71
251.792	12648.23
251.863	12623.21
251.934	12616.75
252.005	12627.5
252.075	12611.4
252.146	12603.64
252.217	12598.09
252.287	12587.49
252.358	12570.81
252.429	12571.2
252.499	12541.07
252.57	12516.05
252.641	12507.52
252.711	12478.4
252.782	12440.66
252.852	12450.49
252.923	12430.63
252.994	12418.77
253.064	12414.58
253.135	12384.55
253.205	12348.54
253.276	12351.15
253.347	12351.58
253.417	12324.06
253.488	12284.77
253.558	12251.41
253.629	12233.1
253.699	12212.32
253.77	12201.57
253.841	12182.1
253.911	12152.6
253.982	12143.15
254.052	12133.07
254.123	12110.47
254.193	12093.21
254.264	12108.54
254.334	12065.59
254.405	12033.05
254.475	11997.67
254.546	11978.97
254.616	11978.88
254.687	11963.16
254.757	11943.3
254.827	11922.1
254.898	11907.01
254.968	11897.56
255.039	11873.46
255.109	11854.09
255.18	11825.5
255.25	11784.34
255.321	11769.69
255.391	11738.41
255.461	11738.6
255.532	11694.01
255.602	11673.19
255.673	11633.29
255.743	11605.91
255.813	11563.78
255.884	11552.26
255.954	11546.34
256.024	11547.64
256.095	11533.9
256.165	11506.38
256.235	11494.77
256.306	11479.73
256.376	11480.6
256.446	11475.58
256.517	11464.31
256.587	11463.39
256.657	11445.75
256.728	11429.65
256.798	11407.92
256.868	11393.94
256.938	11367.05
257.009	11361.84
257.079	11351
257.149	11368.59
257.219	11328.39
257.29	11318.28
257.36	11283
257.43	11267.87
257.5	11228.64
257.571	11199.67
257.641	11196.25
257.711	11169.31
257.781	11148.2
257.852	11129.41
257.922	11089.94
257.992	11077.65
258.062	11055.14
258.132	11049.55
258.202	11036.64
258.273	11023
258.343	11022.18
258.413	11000.69
258.483	10980.64
258.553	10951
258.623	10916.69
258.693	10909.8
258.764	10909.8
258.834	10910.33
258.904	10893.8
258.974	10866.72
259.044	10850.43
259.114	10840.89
259.184	10830
259.254	10815.45
259.324	10779.31
259.394	10766.06
259.464	10760.32
259.535	10737.1
259.605	10708.47
259.675	10683.81
259.745	10670.99
259.815	10638.27
259.885	10613.55
259.955	10627.38
260.025	10598.62
260.095	10581.81
260.165	10570.96
260.235	10570.96
260.305	10548.03
260.375	10515.12
260.445	10521.87
260.515	10528.42
260.585	10521.29
260.655	10507.75
260.725	10504.91
260.795	10496.72
260.865	10508.76
260.934	10478.41
261.004	10471.71
261.074	10461.83
261.144	10464.29
261.214	10463.42
261.284	10448.73
261.354	10452.58
261.424	10420.15
261.494	10431.95
261.564	10420.92
261.634	10411.38
261.703	10376.07
261.773	10368.89
261.843	10371.83
261.913	10353.76
261.983	10316.38
262.053	10302.5
