Data from 20250704_urea_0.5M_MAYP1162681_11-04-54-768.txt Node
Date: Fri Jul 04 11:04:54 BST 2025
User: adleo
Spectrometer: MAYP116268
Trigger mode: 0
Integration Time (sec): 1.000000E0
Scans to average: 1
Electric dark correction enabled: true
Nonlinearity correction enabled: true
Boxcar width: 10
XAxis mode: Wavelengths
Number of Pixels in Spectrum: 2068
>>>>>Begin Spectral Data<<<<<
179.565	1245.29
179.642	1300.8
179.718	1349.06
179.795	1386.94
179.871	1423.03
179.948	1441.7
180.024	1462.45
180.101	1484.61
180.177	1498.93
180.254	1524.34
180.33	1544.48
180.407	1596.13
180.483	1695.33
180.56	1790.97
180.636	1876.15
180.712	1861.98
180.789	1875.1
180.865	1886.22
180.942	1895.44
181.018	1902.14
181.095	1913.41
181.171	1920.02
181.248	1923.25
181.324	1937.71
181.4	1947.22
181.477	1955.64
181.553	1969.85
181.63	1990.97
181.706	2006.66
181.782	2015.69
181.859	2010.37
181.935	2018.64
182.011	2017.79
182.088	2034.39
182.164	2050.71
182.24	2064.54
182.317	2074.91
182.393	2073
182.469	2089.46
182.546	2103.4
182.622	2109.1
182.698	2104.58
182.775	2115
182.851	2128.42
182.927	2119.85
183.003	2115.67
183.08	2111.39
183.156	2118.38
183.232	2112.62
183.308	2102.4
183.385	2112.34
183.461	2134.69
183.537	2135.79
183.613	2151.25
183.69	2141.35
183.766	2131.22
183.842	2141.3
183.918	2147.44
183.995	2162.66
184.071	2165.42
184.147	2160.24
184.223	2148.11
184.299	2160.58
184.375	2150.44
184.452	2157.77
184.528	2210.55
184.604	2221.06
184.68	2230.29
184.756	2240.71
184.832	2247.56
184.908	2253.22
184.985	2250.03
185.061	2233.05
185.137	2243.18
185.213	2233.72
185.289	2232.72
185.365	2223.63
185.441	2222.44
185.517	2234.11
185.593	2230.16
185.669	2224.97
185.745	2233.72
185.822	2249.65
185.898	2238.9
185.974	2245.18
186.05	2237.04
186.126	2198.44
186.202	2192.83
186.278	2191.93
186.354	2179.27
186.43	2186.31
186.506	2184.27
186.582	2183.65
186.658	2187.93
186.734	2165.76
186.81	2164.57
186.886	2169.81
186.962	2183.89
187.038	2178.7
187.114	2172.04
187.19	2174.61
187.266	2169.18
187.341	2171.51
187.417	2165.62
187.493	2166.09
187.569	2170.94
187.645	2164.57
187.721	2153.39
187.797	2157.15
187.873	2160.76
187.949	2156.29
188.025	2147.44
188.101	2149.96
188.176	2157.57
188.252	2153.2
188.328	2163.37
188.404	2164.7
188.48	2162.52
188.556	2158.66
188.632	2155.43
188.707	2154.9
188.783	2157.14
188.859	2150.58
188.935	2140.16
189.011	2150.48
189.086	2146.2
189.162	2137.59
189.238	2133.07
189.314	2131.74
189.39	2127.93
189.465	2119.13
189.541	2136.26
189.617	2122.85
189.693	2120.42
189.768	2124.51
189.844	2148.26
189.92	2141.32
189.996	2150.93
190.071	2159.97
190.147	2157.78
190.223	2169.67
190.298	2163.39
190.374	2149.12
190.45	2157.73
190.526	2167.1
190.601	2158.01
190.677	2158.01
190.753	2187.48
190.828	2192.43
190.904	2204.46
190.98	2219.17
191.055	2230.78
191.131	2220.97
191.207	2242.71
191.282	2249.42
191.358	2237.24
191.433	2224.29
191.509	2235.04
191.585	2230.81
191.66	2230.38
191.736	2238.33
191.811	2228.24
191.887	2242.9
191.963	2265.6
192.038	2272.97
192.114	2271.21
192.189	2277.58
192.265	2276.4
192.34	2251.69
192.416	2251.26
192.491	2250.36
192.567	2253.64
192.642	2258.31
192.718	2256.74
192.793	2244.51
192.869	2241.08
192.944	2244.08
193.02	2253.26
193.095	2257.21
193.171	2264.21
193.246	2265.54
193.322	2261.54
193.397	2264.49
193.473	2251.21
193.548	2235.36
193.624	2240.65
193.699	2240.65
193.775	2258.83
193.85	2259.55
193.925	2269.35
194.001	2267.92
194.076	2260.69
194.152	2248.12
194.227	2239.98
194.302	2232.52
194.378	2237.47
194.453	2236.85
194.529	2249.65
194.604	2235.04
194.679	2226.76
194.755	2205.83
194.83	2216.59
194.905	2215.07
194.981	2222.4
195.056	2216.02
195.131	2221.97
195.207	2220.97
195.282	2209.84
195.357	2185.85
195.433	2200.93
195.508	2192.41
195.583	2198.4
195.659	2210.16
195.734	2219.92
195.809	2218.3
195.884	2228.05
195.96	2226.95
196.035	2241.61
196.11	2239.71
196.185	2249.32
196.261	2254.46
196.336	2288.05
196.411	2276.05
196.486	2282.72
196.561	2277.2
196.637	2284.67
196.712	2301.76
196.787	2306.23
196.862	2321.22
196.937	2335.59
197.013	2342.64
197.088	2351.2
197.163	2377.25
197.238	2396.44
197.313	2395.06
197.388	2405.87
197.464	2436.3
197.539	2446.81
197.614	2439.48
197.689	2450.01
197.764	2468.82
197.839	2490.43
197.914	2485.86
197.989	2509.48
198.065	2522.86
198.14	2573.56
198.215	2602.89
198.29	2612.56
198.365	2626.09
198.44	2638.57
198.515	2667.44
198.59	2681.63
198.665	2709.69
198.74	2715.84
198.815	2715.79
198.89	2739.37
198.965	2769.34
199.04	2765.29
199.115	2782.01
199.19	2827.85
199.265	2829.66
199.34	2839.19
199.415	2871.99
199.49	2892.38
199.565	2902.44
199.64	2925.56
199.715	2921.12
199.79	2929.27
199.865	2935.95
199.94	2933.28
200.015	2965.7
200.09	2967.94
200.165	2976.76
200.24	2981.91
200.315	3022.13
200.39	3038.29
200.464	3043.92
200.539	3051.45
200.614	3069.81
200.689	3094.37
200.764	3099.23
200.839	3118.29
200.914	3121.87
200.989	3109.71
201.063	3123.34
201.138	3102.85
201.213	3102.52
201.288	3087.31
201.363	3091.46
201.438	3095.85
201.512	3110.91
201.587	3090.64
201.662	3092.74
201.737	3105.76
201.812	3115.34
201.886	3085.08
201.961	3093.77
202.036	3081.09
202.111	3073.7
202.186	3044.05
202.26	3023.98
202.335	2999.99
202.41	2992.22
202.485	2978.44
202.559	2963.14
202.634	2937.4
202.709	2947.31
202.784	2930.05
202.858	2925.95
202.933	2906.65
203.008	2896.02
203.082	2877.86
203.157	2878.95
203.232	2840.56
203.306	2820.05
203.381	2785.49
203.456	2759.23
203.53	2736.25
203.605	2717.06
203.68	2697.18
203.754	2690.7
203.829	2678.22
203.904	2659.45
203.978	2652.07
204.053	2654.26
204.127	2641.11
204.202	2635.82
204.277	2623.2
204.351	2617.68
204.426	2611.2
204.5	2604.05
204.575	2571.01
204.65	2581.39
204.724	2574.62
204.799	2580.62
204.873	2572.62
204.948	2575.33
205.022	2563.19
205.097	2557.19
205.171	2573.38
205.246	2581.95
205.32	2578.1
205.395	2576.1
205.469	2566.58
205.544	2568.44
205.618	2553.29
205.693	2564.1
205.767	2556.25
205.842	2576.69
205.916	2568.69
205.991	2558.16
206.065	2563.16
206.14	2581.34
206.214	2573.34
206.289	2567.34
206.363	2581.05
206.438	2585.29
206.512	2591.15
206.586	2615.44
206.661	2623.64
206.735	2602.4
206.81	2599.92
206.884	2619.02
206.958	2611.59
207.033	2631.4
207.107	2644.88
207.181	2678.43
207.256	2676.38
207.33	2699.44
207.405	2715.08
207.479	2744.96
207.553	2761.53
207.628	2754.2
207.702	2770.21
207.776	2780.45
207.851	2791.51
207.925	2819.64
207.999	2831.17
208.073	2843.99
208.148	2861.49
208.222	2869.5
208.296	2920.1
208.371	2959.79
208.445	2997.04
208.519	3051.58
208.593	3091.93
208.668	3116.97
208.742	3153.07
208.816	3190.79
208.89	3242.53
208.965	3280.4
209.039	3323.6
209.113	3381.39
209.187	3448.99
209.261	3499.86
209.336	3568
209.41	3646.42
209.484	3704.72
209.558	3794.17
209.632	3873.9
209.707	3959.41
209.781	4051.27
209.855	4147.77
209.929	4251.35
210.003	4341.37
210.077	4424.94
210.151	4567.59
210.226	4700.27
210.3	4828
210.374	4950.1
210.448	5061.28
210.522	5179.34
210.596	5306.18
210.67	5434.6
210.744	5612.64
210.818	5772.9
210.892	5925.71
210.966	6052.08
211.041	6203.89
211.115	6334.61
211.189	6498.86
211.263	6654.85
211.337	6812.01
211.411	6972.26
211.485	7117.64
211.559	7282.19
211.633	7446.44
211.707	7574.41
211.781	7747.13
211.855	7881.84
211.929	8045.32
212.003	8197.28
212.077	8390.08
212.151	8580.4
212.225	8776.5
212.299	8936.49
212.373	9106.32
212.447	9284.56
212.52	9500.64
212.594	9686.09
212.668	9882.8
212.742	10060.96
212.816	10244.67
212.89	10429.5
212.964	10622.61
213.038	10811.77
213.112	11025.03
213.186	11237.14
213.26	11416.2
213.333	11563.19
213.407	11764.1
213.481	11961.25
213.555	12169.11
213.629	12344.32
213.703	12523.48
213.777	12714.41
213.85	12882.16
213.924	13101.29
213.998	13290.63
214.072	13485.18
214.146	13669.61
214.219	13858.67
214.293	14039.2
214.367	14228.54
214.441	14423.24
214.515	14594.31
214.588	14754.3
214.662	14898.57
214.736	15054.46
214.81	15231.95
214.883	15412.66
214.957	15565.75
215.031	15726.36
215.105	15868.89
215.178	16018.35
215.252	16168.73
215.326	16306
215.4	16455.85
215.473	16565.64
215.547	16704.73
215.621	16841.56
215.694	16992.5
215.768	17113.76
215.842	17250.05
215.915	17383.74
215.989	17497.67
216.063	17627.02
216.136	17766.25
216.21	17897.23
216.284	18039.93
216.357	18176.36
216.431	18306.14
216.504	18441.56
216.578	18590.56
216.652	18725.98
216.725	18852.43
216.799	18984.04
216.873	19100.76
216.946	19219.69
217.02	19328.84
217.093	19439.87
217.167	19513.56
217.24	19604.4
217.314	19707.91
217.387	19800.77
217.461	19891.76
217.535	20000.91
217.608	20085.24
217.682	20183.7
217.755	20290.45
217.829	20361.48
217.902	20446.83
217.976	20532.62
218.049	20609.97
218.123	20672.62
218.196	20763.37
218.27	20835.13
218.343	20900.25
218.417	20983.48
218.49	21062.62
218.563	21150.05
218.637	21227.94
218.71	21324.62
218.784	21407.38
218.857	21483.39
218.931	21554.53
219.004	21624.18
219.077	21703.18
219.151	21768.49
219.224	21820.46
219.298	21884.28
219.371	21966.61
219.444	22008.98
219.518	22053.71
219.591	22109.39
219.665	22194.91
219.738	22244.9
219.811	22292.23
219.885	22358.47
219.958	22409.77
220.031	22453.98
220.105	22491.14
220.178	22534.82
220.251	22574.65
220.325	22625.56
220.398	22678.35
220.471	22730.42
220.544	22779.4
220.618	22799.89
220.691	22851.29
220.764	22885.95
220.838	22916.47
220.911	22936.77
220.984	22996.75
221.057	23046.32
221.131	23085.37
221.204	23078.91
221.277	23123.8
221.35	23177.37
221.424	23185.42
221.497	23201.62
221.57	23224.43
221.643	23272.94
221.716	23300.23
221.79	23304.19
221.863	23303.13
221.936	23314.46
222.009	23330.8
222.082	23344.31
222.155	23356.41
222.229	23382.88
222.302	23408.54
222.375	23416.01
222.448	23436.99
222.521	23451.12
222.594	23454.49
222.667	23450.4
222.74	23464.48
222.814	23464.33
222.887	23469.73
222.96	23479.38
223.033	23485.89
223.106	23489.07
223.179	23492.2
223.252	23485.79
223.325	23493.55
223.398	23513.13
223.471	23514.05
223.544	23504.98
223.617	23505.61
223.69	23509.42
223.763	23479.76
223.837	23470.6
223.91	23476
223.983	23451.94
224.056	23428.55
224.129	23430.19
224.202	23433.13
224.275	23430.58
224.348	23403.72
224.42	23368.13
224.493	23343.78
224.566	23331.91
224.639	23325.16
224.712	23298.01
224.785	23281.62
224.858	23264.74
224.931	23236.58
225.004	23219.17
225.077	23207.26
225.15	23163
225.223	23146.8
225.296	23165.31
225.369	23138.31
225.442	23109.14
225.514	23099.98
225.587	23086.81
225.66	23061.93
225.733	23053.25
225.806	23029.82
225.879	23018.54
225.952	23000.07
226.025	23002.34
226.097	23008.08
226.17	22989.27
226.243	22956.34
226.316	22940.57
226.389	22925.87
226.461	22911.55
226.534	22889.37
226.607	22858.47
226.68	22865.51
226.753	22840.53
226.825	22794.34
226.898	22795.3
226.971	22779.39
227.044	22760.88
227.117	22742.56
227.189	22725.97
227.262	22703.36
227.335	22686.58
227.407	22659.87
227.48	22637.31
227.553	22622.17
227.626	22582.59
227.698	22559.88
227.771	22538.62
227.844	22509.79
227.916	22486.65
227.989	22449.39
228.062	22419.11
228.134	22428.85
228.207	22397.61
228.28	22376.35
228.352	22345.5
228.425	22315.17
228.498	22296.23
228.57	22262.72
228.643	22244.26
228.716	22219.29
228.788	22192.48
228.861	22159.27
228.934	22151.9
229.006	22125.19
229.079	22085.66
229.151	22051
229.224	22008.24
229.296	21982.79
229.369	21981.49
229.442	21966.89
229.514	21938.35
229.587	21938.25
229.659	21893.18
229.732	21876.7
229.804	21859.54
229.877	21865.95
229.949	21845.75
230.022	21830.85
230.094	21809.94
230.167	21782.99
230.239	21743.75
230.312	21710.4
230.384	21716.86
230.457	21689.62
230.529	21677.04
230.602	21650.77
230.674	21637.86
230.747	21630.29
230.819	21614.72
230.892	21553.31
230.964	21528.11
231.037	21504.05
231.109	21467.47
231.181	21439.37
231.254	21400.91
231.326	21366.88
231.399	21323.64
231.471	21283.59
231.544	21235.34
231.616	21213.8
231.688	21188.79
231.761	21157.17
231.833	21124.78
231.905	21065.02
231.978	21035.76
232.05	21006.41
232.122	20981.49
232.195	20938.26
232.267	20914.98
232.339	20885.05
232.412	20878.4
232.484	20841.53
232.556	20794.59
232.629	20775.46
232.701	20760.47
232.773	20726.83
232.846	20681.33
232.918	20654.39
232.99	20633.14
233.062	20612.51
233.135	20588.85
233.207	20545.47
233.279	20527.59
233.351	20506.2
233.424	20465.28
233.496	20415.79
233.568	20393.52
233.64	20351.79
233.713	20328.13
233.785	20295.74
233.857	20260.99
233.929	20203.02
234.001	20183.31
234.074	20182.25
234.146	20138.59
234.218	20100.76
234.29	20070.35
234.362	20050.44
234.434	20009
234.507	19969.58
234.579	19925.72
234.651	19881.73
234.723	19847.41
234.795	19820.57
234.867	19775.61
234.939	19767.32
235.012	19742.79
235.084	19717.73
235.156	19691.04
235.228	19646.03
235.3	19607.09
235.372	19576.82
235.444	19571.48
235.516	19519.48
235.588	19475.87
235.66	19437.17
235.732	19394.67
235.804	19419.77
235.876	19392.98
235.948	19366.76
236.02	19328.98
236.092	19291.97
236.164	19258.29
236.236	19221.91
236.308	19183.69
236.38	19161.67
236.452	19113.58
236.524	19084.28
236.596	19064.08
236.668	19035.17
236.74	19009.73
236.812	18981.39
236.884	18960.81
236.956	18920.96
237.028	18874.84
237.1	18839.57
237.172	18823.23
237.244	18810.12
237.316	18733.41
237.388	18688.69
237.46	18639.68
237.532	18620.4
237.604	18572.64
237.675	18557.85
237.747	18535.2
237.819	18492.07
237.891	18452.02
237.963	18416.75
238.035	18378.82
238.107	18303.98
238.178	18281.09
238.25	18235.65
238.322	18227.46
238.394	18174.93
238.466	18135.75
238.538	18114.83
238.609	18089.63
238.681	18035.99
238.753	17979.13
238.825	17947.37
238.897	17916.29
238.968	17904.91
239.04	17861.4
239.112	17859.47
239.184	17812.77
239.255	17771.47
239.327	17743.76
239.399	17710.99
239.471	17687.62
239.542	17653.84
239.614	17636.29
239.686	17571.91
239.758	17550.42
239.829	17492.73
239.901	17480.39
239.973	17443.24
240.044	17420.73
240.116	17379.72
240.188	17346.56
240.259	17320.78
240.331	17273.55
240.403	17244.15
240.474	17198.7
240.546	17152.29
240.618	17099.09
240.689	17061.06
240.761	17029.25
240.833	17009.93
240.904	16970.75
240.976	16936.72
241.048	16902.94
241.119	16878.21
241.191	16859.61
241.262	16843.75
241.334	16796.33
241.405	16752.66
241.477	16712.95
241.549	16674.11
241.62	16648.9
241.692	16618.68
241.763	16593.04
241.835	16566.1
241.906	16528.41
241.978	16477.61
242.049	16455.82
242.121	16431.34
242.192	16410.9
242.264	16368.63
242.335	16314.03
242.407	16294.17
242.478	16250.5
242.55	16223.22
242.621	16183.17
242.693	16139.5
242.764	16100.22
242.836	16073.66
242.907	16043.73
242.979	16017.61
243.05	15991.2
243.122	15955.1
243.193	15920.34
243.264	15862.41
243.336	15821.87
243.407	15803.75
243.479	15790.06
243.55	15762.49
243.622	15732.46
243.693	15688.74
243.764	15679.1
243.836	15636.78
243.907	15601.69
243.978	15570.89
244.05	15539.22
244.121	15482.54
244.192	15466.68
244.264	15415.83
244.335	15390.43
244.407	15338.61
244.478	15313.35
244.549	15281.11
244.62	15239.41
244.692	15214.01
244.763	15200.61
244.834	15169.08
244.906	15120.06
244.977	15094.71
245.048	15080.25
245.119	15042.84
245.191	15009.15
245.262	14952.27
245.333	14940.89
245.405	14908.26
245.476	14881.21
245.547	14857.11
245.618	14843.66
245.689	14810.6
245.761	14792.18
245.832	14753.04
245.903	14737.71
245.974	14711.49
246.045	14670.13
246.117	14657.98
246.188	14617.3
246.259	14580.52
246.33	14553.62
246.401	14523.15
246.473	14474.32
246.544	14441.4
246.615	14425.15
246.686	14399.89
246.757	14382.3
246.828	14341.56
246.899	14328.65
246.97	14279.67
247.042	14235.03
247.113	14213.72
247.184	14212.81
247.255	14173.04
247.326	14151.25
247.397	14120.69
247.468	14097.88
247.539	14075.13
247.61	14034.49
247.681	14020.03
247.752	14014.34
247.823	13980.07
247.894	13966.91
247.965	13934.46
248.037	13897.01
248.108	13853.14
248.179	13824.27
248.25	13801.56
248.321	13784.88
248.392	13745.45
248.463	13746.89
248.534	13726.21
248.605	13706.69
248.675	13669.23
248.746	13654.96
248.817	13642
248.888	13626.76
248.959	13587.52
249.03	13567.37
249.101	13545.05
249.172	13506.73
249.243	13451
249.314	13449.7
249.385	13420.83
249.456	13402.27
249.527	13375.51
249.598	13359.36
249.669	13333.62
249.739	13308.84
249.81	13288.69
249.881	13250.85
249.952	13229.78
250.023	13202.5
250.094	13170.63
250.165	13134.38
250.235	13108.54
250.306	13080.34
250.377	13040.43
250.448	13019.17
250.519	12978.15
250.59	12974.43
250.66	12951.87
250.731	12947.68
250.802	12907.67
250.873	12888.63
250.944	12876.62
251.014	12853.92
251.085	12855.85
251.156	12835.5
251.227	12827.02
251.297	12814.78
251.368	12804.12
251.439	12792.02
251.51	12788.5
251.58	12749.41
251.651	12732.06
251.722	12715.86
251.792	12669.05
251.863	12646.59
251.934	12637.29
252.005	12647.84
252.075	12620.12
252.146	12616.56
252.217	12604.02
252.287	12595.54
252.358	12583.34
252.429	12572.55
252.499	12536.97
252.57	12514.99
252.641	12505.59
252.711	12486.07
252.782	12453.05
252.852	12455.79
252.923	12432.7
252.994	12409.95
253.064	12403.83
253.135	12373.94
253.205	12344.78
253.276	12341.79
253.347	12342.32
253.417	12311.23
253.488	12282.16
253.558	12260.04
253.629	12230.3
253.699	12211.45
253.77	12199.59
253.841	12165.71
253.911	12154.38
253.982	12143.49
254.052	12130.37
254.123	12113.55
254.193	12086.08
254.264	12110.52
254.334	12080.48
254.405	12044.14
254.475	12014.02
254.546	11994.06
254.616	11981.72
254.687	11969.48
254.757	11964.47
254.827	11939.16
254.898	11927.5
254.968	11907.78
255.039	11876.6
255.109	11858.28
255.18	11827.24
255.25	11788.97
255.321	11786.22
255.391	11749.64
255.461	11758.41
255.532	11715.27
255.602	11693
255.673	11656.57
255.743	11618.29
255.813	11576.56
255.884	11575.5
255.954	11566.05
256.024	11569.9
256.095	11555.98
256.165	11527.97
256.235	11514.57
256.306	11490.62
256.376	11487.15
256.446	11475.97
256.517	11476.98
256.587	11477.08
256.657	11466.86
256.728	11443.1
256.798	11416.4
256.868	11399.24
256.938	11371.29
257.009	11360.44
257.079	11351.96
257.149	11364.69
257.219	11323.58
257.29	11316.93
257.36	11277.6
257.43	11267.09
257.5	11219.77
257.571	11194.56
257.641	11189.26
257.711	11157.84
257.781	11147.57
257.852	11123.96
257.922	11083.29
257.992	11051.34
258.062	11029.99
258.132	11022.18
258.202	11013.46
258.273	11004.3
258.343	11006.95
258.413	10973.94
258.483	10958.66
258.553	10921.99
258.623	10892.36
258.693	10886.24
258.764	10882.86
258.834	10887.1
258.904	10877.56
258.974	10859.64
259.044	10848.65
259.114	10839.54
259.184	10825.04
259.254	10802.87
259.324	10771.12
259.394	10765.24
259.464	10769.91
259.535	10754.2
259.605	10729.1
259.675	10704.72
259.745	10691.18
259.815	10660.48
259.885	10647.43
259.955	10658.85
260.025	10636.35
260.095	10622.76
260.165	10611.68
260.235	10613.17
260.305	10577.9
260.375	10547.4
260.445	10559.16
260.515	10552.41
260.585	10543.98
260.655	10530.05
260.725	10531.26
260.795	10525.53
260.865	10530.59
260.934	10508.81
261.004	10499.22
261.074	10477.59
261.144	10478.4
261.214	10471.42
261.284	10455.9
261.354	10451.71
261.424	10423.04
261.494	10432.68
261.564	10420.68
261.634	10404.01
261.703	10366.04
261.773	10363.1
261.843	10358.14
261.913	10329.28
261.983	10299.75
262.053	10296.19
